,AF3,AF4,Fp1,Fp2,AF7,AF8
0,-0.0043400512076914,-0.102991133928299,0.125336989760399,0.5,0.0566671192646027,-0.0120487120002508
1,-0.0030200132168829,-0.0831721797585487,0.112633228302002,0.5,0.0582254678010941,0.0147199798375368
2,-0.0172744560986757,-0.0421651788055897,0.0847081243991852,0.5,0.0502643398940563,0.0510020405054092
3,-0.0434221886098385,0.0176335144788027,0.0399605445563793,0.5,0.0157743636518717,0.0807894989848137
4,-0.0700394883751869,0.0630018338561058,-0.0131472125649452,0.5,-0.0382297672331333,0.0818549394607544
5,-0.0793396309018135,0.0582151859998703,-0.0480402819812298,0.5,-0.0767126083374023,0.052448358386755
6,-0.0593694821000099,0.0168147552758455,-0.0373225882649422,0.5,-0.0720289349555969,0.0118195405229926
7,-0.0166050922125578,-0.0290868207812309,0.0179669409990311,0.5,-0.0265924409031868,-0.0180457420647144
8,0.0312424656003714,-0.0723228305578232,0.0849634408950806,0.5,0.031774464994669,-0.0316628329455853
9,0.0642261952161789,-0.115142934024334,0.125979542732239,0.5,0.0727240219712257,-0.0351519510149956
10,0.0698885172605515,-0.143744692206383,0.121841631829739,0.5,0.0858579203486443,-0.0284796990454197
11,0.0589694790542126,-0.133390799164772,0.082995168864727,0.5,0.0836822837591171,-0.0157416258007288
12,0.0397252142429352,-0.092763639986515,0.0296585150063038,0.5,0.0672995373606682,-0.0200673565268517
13,-0.001471288036555,-0.0607088878750801,-0.0277104768902063,0.5,0.0188660081475973,-0.0518086291849613
14,-0.0640114396810532,-0.0476748384535313,-0.0679362118244171,0.5,-0.0462861135601997,-0.0860443562269211
15,-0.119265899062157,-0.0336834900081158,-0.065828338265419,0.5,-0.0837795808911324,-0.0923376753926277
16,-0.136940658092499,-0.0108131868764758,-0.0244128312915564,0.5,-0.0753511264920235,-0.0544171780347824
17,-0.111574798822403,0.0138794668018818,0.0284146815538406,0.5,-0.0397616326808929,0.0228556822985411
18,-0.0702941492199898,0.0379038527607918,0.0660430490970612,0.5,-0.0054944800212979,0.0994928553700447
19,-0.0417793579399586,0.0550450533628464,0.0860144570469856,0.5,0.0184367746114731,0.131823226809502
20,-0.024904316291213,0.0523596107959747,0.10727072507143,0.5,0.0429478026926517,0.126984164118767
21,-0.0087334448471665,0.029815286397934,0.137753695249558,0.5,0.0713716074824333,0.116397187113762
22,0.0027101451996713,0.0025416503194719,0.163442581892014,0.5,0.0917659848928452,0.0976999402046204
23,0.0022730564232915,-0.0131886824965477,0.172999829053879,0.5,0.0997386947274208,0.0622997879981995
24,-0.0061307311989367,-0.0141619062051177,0.165699258446693,0.5,0.104179680347443,0.0282366722822189
25,-0.0113803241401911,-0.0109180817380548,0.140291884541512,0.5,0.107310101389885,0.0068987063132226
26,-0.0110066700726748,-0.0139708332717419,0.100705198943615,0.5,0.0960445925593376,-0.0052618570625782
27,-0.0152931483462453,-0.0281319860368967,0.0608979314565659,0.5,0.0608938224613667,-0.0097749941051006
28,-0.0254129748791456,-0.0490691810846329,0.0320829339325428,0.5,0.0174577347934246,-0.0125787062570453
29,-0.0349253602325916,-0.0627406984567642,0.0093167219310998,0.5,-0.0160280205309391,-0.024836041033268
30,-0.0497193187475204,-0.0580531284213066,-0.0190663393586874,0.5,-0.0476765483617783,-0.0473865643143654
31,-0.0724908709526062,-0.0337860956788063,-0.0475664287805557,0.5,-0.0846274271607399,-0.0621960461139679
32,-0.0935666933655739,0.0028384525794535,-0.0638422071933746,0.5,-0.113244965672493,-0.051666371524334
33,-0.107491202652454,0.0315387398004532,-0.0677429512143135,0.5,-0.120881713926792,-0.0204563289880753
34,-0.112474128603935,0.0266326405107975,-0.0606263130903244,0.5,-0.105441480875015,0.0128026995807886
35,-0.100925773382187,-0.0125911897048354,-0.037178598344326,0.5,-0.0655340477824211,0.0322855040431023
36,-0.069498248398304,-0.0560174286365509,0.0048464126884937,0.5,-0.0030725179240107,0.0318569131195545
37,-0.0299661904573441,-0.0734257102012634,0.0538914017379284,0.5,0.0632369220256805,0.0189596470445395
38,0.0081225698813796,-0.0530622787773609,0.0913607180118561,0.5,0.109850987792015,0.0123813655227423
39,0.0414442420005798,-0.0053889234550297,0.106241956353188,0.5,0.120940893888474,0.0226150769740343
40,0.0542179420590401,0.0363825708627701,0.0923479050397873,0.5,0.0826076120138168,0.0340057797729969
41,0.0366455428302288,0.0425520688295364,0.0526041835546494,0.5,0.0063931499607861,0.0305215828120708
42,0.0051748869009316,0.0193260237574577,0.0127594694495201,0.5,-0.056650310754776,0.0184309985488653
43,-0.0148413199931383,-0.0073551568202674,-0.0034476870205253,0.5,-0.0666139721870422,0.0045468634925782
44,-0.0121278045699,-0.0233420561999083,0.0021206494420766,0.5,-0.0339810363948345,-0.0059804543852806
45,-0.0003006119513884,-0.02031609416008,0.0196905881166458,0.5,0.0099749416112899,0.0011576297692954
46,8.31854631542228e-05,0.0094147259369492,0.0423812568187714,0.5,0.0451048240065575,0.0272382535040379
47,-0.0147944800555706,0.0566743053495884,0.0595583729445934,0.5,0.059840589761734,0.0521636642515659
48,-0.03559210896492,0.097315140068531,0.0605340749025345,0.5,0.0510920770466328,0.0656771212816238
49,-0.0529549270868301,0.11987093091011,0.0448475480079651,0.5,0.0250832810997963,0.07944056391716
50,-0.0591496266424656,0.130194127559662,0.0239472053945065,0.5,-0.0063764327205717,0.0984366983175278
51,-0.0518430396914482,0.125301972031593,0.0094373654574155,0.5,-0.0309034530073404,0.101302720606327
52,-0.0365649349987507,0.091639943420887,0.0039823050610721,0.5,-0.0407612025737762,0.0682247653603554
53,-0.0162706058472395,0.0322474427521229,0.0072218906134367,0.5,-0.0326884761452675,0.0170142948627472
54,0.0024271891452372,-0.0288027245551348,0.0164487287402153,-0.5,-0.0139792151749134,-0.0142084592953324
55,0.0101444469764829,-0.0653130561113358,0.0255788676440716,-0.5,0.007512024603784,0.0007474927115254
56,0.0084018632769584,-0.0650744512677193,0.028586458414793,-0.5,0.0311833620071411,0.0622460842132568
57,-0.0061670253053307,-0.0434457696974278,0.0162147451192141,-0.5,0.0435914844274521,0.123126044869423
58,-0.0408126786351204,-0.0260360985994339,-0.0140743302181363,-0.5,0.0309514664113522,0.118994124233723
59,-0.0804866552352905,-0.0183906741440296,-0.0450482629239559,-0.5,0.0065928609110415,0.0535607114434242
60,-0.0952069684863091,-0.0103279938921332,-0.0512951388955116,-0.5,-0.0037124326918274,-0.0062977126799523
61,-0.0692562237381935,0.0120646981522441,-0.0218933839350939,-0.5,0.0163029674440622,-0.0157581605017185
62,-0.0146599542349577,0.0536674633622169,0.0265649445354939,-0.5,0.0657477006316185,0.0131243374198675
63,0.0380434021353722,0.0970322340726852,0.0608172565698624,-0.5,0.118335455656052,0.0418838411569595
64,0.066712349653244,0.115949161350727,0.0597949139773846,-0.5,0.13244304060936,0.0542571917176247
65,0.0766803249716759,0.102840542793274,0.0341746397316456,-0.5,0.0946745276451111,0.0599130094051361
66,0.0790381953120232,0.078937754034996,0.0094066904857754,-0.5,0.0365649610757828,0.0587863735854626
67,0.0674015581607819,0.0669679641723633,0.0006336640217341,-0.5,-0.0060172262601554,0.0428650639951229
68,0.0398013330996037,0.0677297189831734,0.0120393102988601,-0.5,-0.0215117353945971,0.0227014068514109
69,0.0122477002441883,0.0789331942796707,0.0363075360655785,-0.5,-0.0161091759800911,0.0192834436893463
70,-0.004737555515021,0.0979506447911263,0.0586139112710953,-0.5,-0.0035464039538055,0.0373933352530003
71,-0.0143405320122838,0.108392737805843,0.072565108537674,-0.5,0.0053914659656584,0.0641691759228706
72,-0.0184251517057419,0.0976478233933449,0.0805134996771812,-0.5,0.0112883877009153,0.0877188742160797
73,-0.0152514455839992,0.0703363344073296,0.0776932388544083,-0.5,0.0185818951576948,0.103579543530941
74,-0.0113624967634678,0.0401161499321461,0.0525025241076946,-0.5,0.0224353186786175,0.116465821862221
75,-0.0184921585023403,0.0234057437628508,0.0082458071410656,-0.5,0.0147797800600529,0.137401282787323
76,-0.037262812256813,0.0272951945662498,-0.0386196635663509,-0.5,-0.0044035976752638,0.150616824626923
77,-0.0586634203791618,0.0430029816925526,-0.0812016427516937,-0.5,-0.0284689031541348,0.119432687759399
78,-0.0737214833498001,0.0537509396672249,-0.114655010402203,-0.5,-0.0456832349300385,0.048444002866745
79,-0.0726994499564171,0.046331811696291,-0.122284822165966,-0.5,-0.0476197898387909,-0.016485720872879
80,-0.0503667742013931,0.0281092617660761,-0.0922734886407852,-0.5,-0.0354858599603176,-0.0456840209662914
81,-0.0140530439093709,0.0201130118221045,-0.0362551361322403,-0.5,-0.0117341857403517,-0.0426168777048588
82,0.0220533702522516,0.0286923367530108,0.0166580155491829,-0.5,0.0177502557635307,-0.0236503854393959
83,0.044732503592968,0.0440872050821781,0.0472814925014973,-0.5,0.0415425188839436,0.001345177879557
84,0.0528854727745056,0.0582580156624317,0.0600636936724186,-0.5,0.0558292344212532,0.0284378733485937
85,0.0596737712621689,0.0683744698762894,0.0648931041359901,-0.5,0.0641448497772217,0.0492631010711193
86,0.062879391014576,0.0775698199868202,0.0616375878453255,-0.5,0.0593016631901264,0.0589705109596252
87,0.0415200591087341,0.0851606950163841,0.0410879477858543,-0.5,0.0256272573024035,0.0568454377353191
88,-0.0065842564217746,0.0812660753726959,0.0027575073763728,-0.5,-0.0341064147651196,0.0548623912036419
89,-0.0613056868314743,0.0743783712387085,-0.0363717824220657,-0.5,-0.0959549769759178,0.0754742100834847
90,-0.105880081653595,0.0937956124544144,-0.0654754042625427,-0.5,-0.139557167887688,0.108686573803425
91,-0.13217157125473,0.1420688778162,-0.0846736431121826,-0.5,-0.155465677380562,0.128214210271835
92,-0.134740233421326,0.17912831902504,-0.0888160318136215,-0.5,-0.137853652238846,0.131044328212738
93,-0.113639399409294,0.170286744832993,-0.0697799995541573,-0.5,-0.0880699008703232,0.11473473906517
94,-0.0792593434453011,0.114563599228859,-0.0289120711386204,-0.5,-0.022787569090724,0.0682515725493431
95,-0.0435360781848431,0.0384474098682404,0.0203494485467672,-0.5,0.0345649421215057,0.0008604435715824
96,-0.0079169664531946,-0.0191098842769861,0.0638783350586891,-0.5,0.0744229406118393,-0.0561061948537827
97,0.031391479074955,-0.0367874428629875,0.0946057066321373,0.5,0.101353913545609,-0.0783681422472
98,0.074602983891964,-0.0240737181156874,0.111115038394928,0.5,0.116172403097153,-0.0615075267851353
99,0.109272129833698,-0.005560880061239,0.110276654362679,0.5,0.107981383800507,-0.0243700463324785
100,0.117277383804321,0.0049516642466187,0.0919433385133743,0.5,0.0725356563925743,0.0041216849349439
101,0.0973668694496155,0.0120392395183444,0.0676353946328163,0.5,0.0262263529002666,0.0169375985860825
102,0.060084655880928,0.0234120413661003,0.0464827157557011,0.5,-0.0131776072084904,0.0263371970504522
103,0.0147698409855366,0.0427136979997158,0.0288621503859758,0.5,-0.0392645634710789,0.0452397763729095
104,-0.0289215259253979,0.0725856050848961,0.0107180895283818,0.5,-0.0507714226841927,0.0841459631919861
105,-0.0603275448083878,0.116049446165562,-0.0144516639411449,0.5,-0.0516296066343784,0.135318204760551
106,-0.0747667923569679,0.169795706868172,-0.043684434145689,0.5,-0.0525057502090931,0.158731400966644
107,-0.0806081369519234,0.210306495428085,-0.066668376326561,0.5,-0.0598919801414013,0.125222429633141
108,-0.0862457975745201,0.205985695123672,-0.0783068165183067,0.5,-0.0651335567235947,0.0619634911417961
109,-0.085566371679306,0.156154632568359,-0.0728560090065002,0.5,-0.0553814694285393,0.022210979834199
110,-0.0649806186556816,0.0952813923358917,-0.0449532605707645,0.5,-0.0315964557230473,0.027703957632184
111,-0.0189787298440933,0.055678702890873,-0.0013838740997016,0.5,-0.0032952795736491,0.0529880598187447
112,0.033359169960022,0.0335156545042992,0.0308210756629705,0.5,0.0156130259856582,0.0482819937169552
113,0.0572326630353928,-0.0028683852870017,0.0213357415050268,0.5,0.0127786323428154,-0.0143687389791012
114,0.0477754920721054,-0.0596676841378212,-0.0183660015463829,0.5,0.0041748457588255,-0.0981200560927391
115,0.030450914055109,-0.101991206407547,-0.0497619397938252,0.5,0.0107881557196379,-0.140693604946136
116,0.0151454387232661,-0.0947679728269577,-0.0578023195266724,-0.466743528842926,0.0215043406933546,-0.127824619412422
117,0.0002541193680372,-0.0397943556308746,-0.0459297075867653,-0.5,0.0231012832373381,-0.0867158323526382
118,-0.0040427017956972,0.0275303088128567,-0.0202501211315393,-0.5,0.0241196844726801,-0.0419261455535889
119,0.0114969545975327,0.0763582661747932,0.010321588255465,-0.5,0.0356304459273815,-0.0039153681136667
120,0.0368743129074574,0.0957520976662636,0.0367688722908497,-0.5,0.0553630068898201,0.0238445997238159
121,0.0523865111172199,0.0873169302940369,0.0502746775746346,-0.5,0.0716355741024017,0.0405838787555695
122,0.0508719012141228,0.0609027408063412,0.0487038753926754,0.109541967511177,0.07302475720644,0.0390006676316261
123,0.0378941781818867,0.0285085532814264,0.0426497086882591,0.5,0.058629535138607,0.0188888926059008
124,0.0237959083169699,0.0041419984772801,0.0396344438195229,0.5,0.0413542129099369,0.0093804206699132
125,0.0193477291613817,0.0076550040394067,0.0314903371036053,0.5,0.0310371685773134,0.033294316381216
126,0.0248500425368547,0.0451271645724773,0.0087713114917278,0.5,0.0214920174330473,0.064827099442482
127,0.0314761884510517,0.090672068297863,-0.0202950965613127,0.5,0.0059799435548484,0.0586579106748104
128,0.0304466299712658,0.114079751074314,-0.0356035903096199,0.5,-0.0094174286350607,0.0080848839133977
129,0.0209852457046509,0.103300675749779,-0.0281772036105394,0.5,-0.0143922213464975,-0.0557537563145161
130,0.0106958607211709,0.0660203918814659,-0.0098656322807073,0.5,-0.0076488507911562,-0.107319593429565
131,-0.0015891399234533,0.0296653471887112,0.0020471869502216,0.5,2.18560126086231e-05,-0.136099517345428
132,-0.0164240878075361,0.0141007956117392,0.0055926623754203,0.5,0.0013978000497445,-0.131618812680244
133,-0.0228319559246302,0.0077367662452161,0.0043799900449812,0.5,-0.0034850435331463,-0.102383658289909
134,-0.0206825640052557,-0.0087179215624928,-0.0042240992188453,0.5,-0.0137839941307902,-0.0800338387489319
135,-0.0147057548165321,-0.0310978405177593,-0.0144892819225788,0.5,-0.0209492184221745,-0.0665606334805489
136,0.0009301889222115,-0.0377094894647598,-0.0151833482086658,0.5,-0.0152619061991572,-0.0351678170263767
137,0.0243064668029547,-0.0195801015943289,-0.0092236138880252,0.5,0.0001392195263179,0.0093240533024072
138,0.0425744578242302,0.0073958970606327,-0.0094783073291182,0.5,0.0140648568049073,0.0375340767204762
139,0.0498778633773327,0.0263128578662872,-0.0201937593519688,0.5,0.0224631819874048,0.040989875793457
140,0.0519253835082054,0.0335514843463898,-0.0338565818965435,0.5,0.0311619509011507,0.0253642182797194
141,0.0626164004206657,0.031562689691782,-0.0368639826774597,0.5,0.0459095649421215,-0.0067635257728397
142,0.0853865221142769,0.0293680243194103,-0.0222461130470037,0.5,0.0602317564189434,-0.0558815747499466
143,0.0916440859436989,0.0320706143975258,-0.0115540102124214,0.5,0.0461700521409512,-0.123214274644852
144,0.0545255653560162,0.0321827493607998,-0.0317353717982769,0.5,-0.0145537285134196,-0.189349785447121
145,-0.0054094744846224,0.0312226470559835,-0.0637757554650307,0.5,-0.0901829451322556,-0.209581702947617
146,-0.0463490597903728,0.0355368368327618,-0.0587208643555641,0.5,-0.127183675765991,-0.159762069582939
147,-0.048135083168745,0.0378692336380482,-0.0007506258552894,0.5,-0.10197339206934,-0.0628250688314438
148,-0.0199806950986385,0.0352270938456059,0.0772770494222641,0.5,-0.0341026298701763,0.0408516861498356
149,0.0141798742115498,0.0314622521400452,0.134715095162392,0.5,0.039160780608654,0.11983972042799
150,0.0358674600720406,0.0245741065591574,0.154091760516167,0.5,0.0939178541302681,0.155113860964775
151,0.0441886745393276,0.0180231276899576,0.141527250409126,0.5,0.125776007771492,0.150774911046028
152,0.0555199459195137,0.0269417744129896,0.116188816726208,0.5,0.140266939997673,0.130921542644501
153,0.0744187757372856,0.0568800680339336,0.0877965018153191,0.5,0.133477613329887,0.108414649963379
154,0.0794623866677284,0.0945419669151306,0.0495735108852386,0.5,0.0939349159598351,0.0801253095269203
155,0.0573005899786949,0.123738944530487,-0.0009576922748237,0.5,0.0287078395485878,0.0385379642248154
156,0.0199589990079403,0.123921014368534,-0.0523892045021057,0.5,-0.0385906584560871,-0.0272494275122881
157,-0.0153334317728877,0.0779999792575836,-0.0851995870471001,0.5,-0.0872761607170105,-0.112803526222706
158,-0.0308755859732628,0.0073593319393694,-0.0761880651116371,0.5,-0.0982337445020676,-0.181949287652969
159,-0.0120591213926673,-0.0415073037147522,-0.022229827940464,0.5,-0.0622991509735584,-0.192379400134087
160,0.0278222765773535,-0.0451907739043236,0.0417501255869865,0.5,-0.0041243662126362,-0.139497667551041
161,0.0545315556228161,-0.0071870745159685,0.0795215666294098,0.5,0.037591602653265,-0.0595062263309956
162,0.0489851161837578,0.0479056052863598,0.0867165848612785,0.5,0.0456735715270042,0.0115046706050634
163,0.0215065386146307,0.084678053855896,0.0782299116253853,0.5,0.0271642077714205,0.0708938091993332
164,-0.0036847910378128,0.0975856110453606,0.0670138597488403,0.5,0.0066534047946333,0.12268104404211
165,-0.0097447903826832,0.10419274866581,0.0575837008655071,0.5,0.0095310555770993,0.1425811201334
166,0.0056409379467368,0.104361891746521,0.0554722733795643,0.5,0.0367072820663452,0.118573077023029
167,0.0309799816459417,0.0913406908512115,0.0683764666318893,0.5,0.0666891410946846,0.0854038670659065
168,0.0497061684727669,0.0744500458240509,0.0890534669160843,0.5,0.0790143981575966,0.0698436796665192
169,0.0553834959864616,0.0647660344839096,0.0957303643226624,0.5,0.0668265521526337,0.0566024295985699
170,0.0525082312524319,0.0643667578697205,0.0807852819561958,0.5,0.0386826060712337,0.0344996228814125
171,0.0467536225914955,0.0741564109921455,0.0586798191070557,0.5,0.0133576402440667,0.0119828972965479
172,0.0393413789570332,0.0874244049191475,0.0389517210423946,0.5,0.0057291402481496,-0.0065761674195528
173,0.0269965752959251,0.0859400182962418,0.0085869887843728,0.5,0.0132868094369769,-0.0241804793477058
174,0.0035893321037292,0.0643657594919205,-0.0473413914442062,0.5,0.0138614764437079,-0.0460167936980724
175,-0.0297241937369108,0.0416516587138176,-0.106448233127594,0.5,-0.0056778532452881,-0.0672096833586693
176,-0.0553154535591602,0.0294347424060106,-0.12641404569149,0.5,-0.0275795981287956,-0.0735064595937729
177,-0.0592638626694679,0.0163329131901264,-0.101116210222244,0.5,-0.0308043044060469,-0.0637799203395844
178,-0.0447004288434982,-0.0004600315296556,-0.0558661259710789,0.5,-0.0122259678319097,-0.0439072139561176
179,-0.0234802942723036,-0.0085147963836789,-0.0142007544636726,-0.5,0.014947796240449,-0.0154071478173137
180,-0.0096340551972389,0.0033048796467483,0.0149497212842107,-0.5,0.0315841808915138,0.0146408500149846
181,-0.0077816150151193,0.0438237488269806,0.0399784259498119,-0.5,0.0319217927753925,0.0445085056126118
182,-0.0114930309355259,0.104594998061657,0.0679444819688797,-0.5,0.0264750942587852,0.0847300887107849
183,-0.0111858062446117,0.160254269838333,0.0891382619738579,-0.5,0.0318305604159832,0.129090011119843
184,-0.0017823670059442,0.187801137566566,0.0869262665510178,-0.5,0.0457266680896282,0.144792452454567
185,0.0110190268605947,0.176252022385597,0.0629442259669304,-0.5,0.0462157689034939,0.121124394237995
186,0.0192431528121233,0.144765079021454,0.0441789291799068,-0.5,0.0302743669599295,0.0917315855622292
187,0.0211066752672195,0.123579509556293,0.0444954261183739,-0.5,0.0110423881560564,0.080975316464901
188,0.0191483777016401,0.112939961254597,0.0530946664512157,-0.5,-0.0024459734559059,0.0768746510148048
189,0.0189893413335085,0.096273735165596,0.0653092339634895,-0.5,0.0001139921805588,0.0674056932330132
190,0.0220408849418163,0.0668778643012047,0.0798014253377914,-0.5,0.0209800135344267,0.0563477836549282
191,0.0207190532237291,0.0284487046301365,0.0853340402245522,-0.5,0.0435584150254726,0.0381424799561501
192,0.0109997503459454,-0.0032213071826845,0.0759885981678963,-0.5,0.0517746955156326,0.0065272324718534
193,-0.0001538506476208,-0.0094196675345301,0.0588004402816296,-0.5,0.0474003478884697,-0.0169618111103773
194,-0.0034926852677017,0.0068584037944674,0.0408631190657616,0.5,0.0421252846717834,-0.0126760248094797
195,0.0016219959361478,0.0266339387744665,0.0231660902500153,0.5,0.0430089458823204,0.0032876210752874
196,0.0082337893545627,0.04343106970191,0.0080110458657145,0.5,0.04554558172822,0.0039385710842907
197,0.0124558415263891,0.0655659958720207,0.0009668443235568,0.5,0.0409847572445869,-0.0149527369067073
198,0.0120579302310944,0.0925102084875107,-0.0016690529882907,0.5,0.0208159908652306,-0.036460105329752
199,0.0004314852703828,0.105808287858963,-0.0153458304703236,0.5,-0.0210532285273075,-0.0450924336910248
200,-0.0171039048582315,0.0971629768610001,-0.0350272357463837,0.151402518153191,-0.0643248483538628,-0.0301424767822027
201,-0.0231333319097757,0.0821569934487343,-0.0285671576857567,-0.5,-0.0694508701562881,0.0100153833627701
202,-0.0193416997790337,0.076778769493103,0.0093539645895361,-0.5,-0.0312487594783306,0.0522068068385124
203,-0.0185897406190634,0.0897532179951668,0.0437078550457954,-0.5,0.0156695768237114,0.0761172845959663
204,-0.0199791770428419,0.117175616323948,0.0487590096890926,-0.5,0.04150515422225,0.0910596773028374
205,-0.0161896944046021,0.136711820960045,0.0346937924623489,-0.5,0.0433624759316444,0.114710442721844
206,-0.0088466359302401,0.12872788310051,0.0211076624691486,-0.5,0.0279175080358982,0.133422330021858
207,-0.0082859033718705,0.0949585735797882,0.0085417637601494,-0.5,-0.0021300809457898,0.107510097324848
208,-0.0107155153527856,0.054363988339901,-0.0020078048110008,-0.5,-0.0292723253369331,0.0393214859068394
209,-0.00064569467213,0.0239862725138664,0.0023390622809529,-0.5,-0.0268727503716946,-0.0190765876322985
210,0.0214791335165501,0.0151501083746552,0.0159670617431402,-0.5,0.0025200028903782,-0.0413987077772617
211,0.0439446493983269,0.0269004832953215,0.0208199992775917,-0.5,0.0309322848916054,-0.0469446741044521
212,0.0573373958468437,0.0348959863185883,0.0193754490464926,-0.5,0.0402142964303494,-0.049993559718132
213,0.0584946125745773,0.0255340524017811,0.0260410588234663,-0.5,0.0332886055111885,-0.0406813435256481
214,0.0550070032477379,0.0151984244585037,0.0465753301978111,-0.5,0.0293406713753939,-0.0078877490013837
215,0.0521122254431248,0.0185592453926802,0.0714668482542038,-0.5,0.0476542748510838,0.042976900935173
216,0.040628295391798,0.0299858674407005,0.0812959596514702,-0.5,0.0794515013694763,0.0911334380507469
217,0.0156911388039589,0.0436509475111961,0.0682334154844284,-0.5,0.0916499868035316,0.121052943170071
218,-0.0124974399805069,0.0633275285363197,0.0355929732322693,-0.5,0.0611764453351498,0.129107400774956
219,-0.0386677049100399,0.0814777538180351,-0.0142958015203476,-0.5,-0.0051043191924691,0.11113279312849
220,-0.0618280135095119,0.0856376737356186,-0.0619661323726177,-0.5,-0.0690663307905197,0.0716056227684021
221,-0.0683483928442001,0.0732868015766144,-0.074413888156414,-0.5,-0.0885681137442589,0.0249055866152048
222,-0.0496827512979507,0.0470679588615894,-0.042476374655962,-0.5,-0.0585575886070728,-0.0163032319396734
223,-0.016093397513032,0.0239589810371399,0.0113579481840134,-0.5,-0.0091855572536587,-0.0346789732575417
224,0.0175443980842829,0.0293611828237772,0.0535294264554977,-0.5,0.0301495157182217,-0.0231858901679516
225,0.0416278839111328,0.0658150464296341,0.0706069618463516,-0.5,0.0544804409146309,-0.0032309466041624
226,0.0577990263700485,0.105805613100529,0.0799215212464333,-0.5,0.0774936899542809,0.0059904879890382
227,0.0703930258750916,0.120603151619434,0.0919269174337387,-0.5,0.102187477052212,0.0118613159283996
228,0.072499081492424,0.109154187142849,0.0931211113929749,-0.5,0.112885102629662,0.0229913592338562
229,0.0567104332149029,0.0909754410386086,0.0767775848507881,-0.5,0.101763166487217,0.0308606643229723
230,0.0305093117058277,0.0759988725185394,0.0512320250272751,-0.5,0.0784465074539185,0.0242241360247135
231,0.0070566614158451,0.0601467192173004,0.0186985209584236,-0.5,0.051986500620842,0.0027927237097173
232,-0.0091775050386786,0.0405077300965786,-0.0212939083576202,-0.5,0.0261360108852386,-0.0168425459414721
233,-0.0193752441555262,0.0186352636665106,-0.0570755153894424,-0.5,0.0102029256522655,-0.0144787468016148
234,-0.0267174635082483,-0.0023779517505317,-0.0798383504152298,-0.5,0.0084031680598855,0.0051135071553289
235,-0.0341073833405972,-0.0154411811381578,-0.0928726121783257,-0.5,0.0089828688651323,0.0183679163455963
236,-0.0355520397424698,-0.0093532307073473,-0.093134842813015,-0.5,0.0060387612320482,0.012263678945601
237,-0.0239869523793459,0.0088692689314484,-0.076533243060112,-0.5,0.0058944467455148,-0.0117909805849195
238,-0.0071677025407552,0.018846495077014,-0.0526068732142448,-0.5,0.0109913758933544,-0.0446618497371674
239,0.0022789055947214,0.0160930082201958,-0.0293495859950781,-0.5,0.0209885444492102,-0.0737863481044769
240,0.0052750231698155,0.0037936242297291,-0.0035807236563414,-0.5,0.039859265089035,-0.0881618484854698
241,0.0131197609007359,-0.0097409896552562,0.0292672272771597,-0.5,0.0719692334532738,-0.0769504606723785
242,0.0307629369199276,-0.0066408705897629,0.0647430494427681,-0.5,0.112200513482094,-0.0384573489427567
243,0.0533329583704472,0.0173549856990576,0.0882987976074219,-0.5,0.149914890527725,0.0052552656270563
244,0.0736022368073463,0.0440288744866848,0.0847054421901703,-0.5,0.17420394718647,0.0255717430263758
245,0.0775619074702263,0.0481028668582439,0.0469211935997009,-0.5,0.167374238371849,0.0091380551457405
246,0.0472188144922256,0.0218622554093599,-0.0200893394649029,-0.5,0.120026901364326,-0.0455225929617882
247,-0.0067895795218646,-0.0177965983748436,-0.0957790538668633,-0.5,0.0546118877828121,-0.124331951141357
248,-0.0408726334571838,-0.057363249361515,-0.149166896939278,-0.5,0.0097776446491479,-0.198295429348946
249,-0.0334895960986614,-0.0856263339519501,-0.157012298703194,-0.5,0.0065206880681216,-0.237619951367378
250,-0.0098297195509076,-0.0829744189977646,-0.117076247930527,-0.5,0.0374263972043991,-0.218871489167213
251,-0.0034334750380367,-0.0502131432294846,-0.0532354265451431,-0.5,0.0719686225056648,-0.147158771753311
252,-0.0190142896026373,-0.0097101461142301,0.0002620994346216,-0.5,0.0832625031471252,-0.0680526793003082
253,-0.0349037349224091,0.0231981109827757,0.0333583876490593,-0.5,0.08070008456707,-0.0174367371946573
254,-0.0344607941806316,0.0437057055532932,0.0597111731767654,-0.5,0.0889102518558502,0.0061475289985537
255,-0.0193362608551979,0.0479331947863102,0.0830773934721947,-0.5,0.107871994376183,0.0053644319996237
256,0.0052889874204993,0.0314521342515945,0.0900038331747055,-0.5,0.124425232410431,-0.0197663512080908
257,0.0361998528242111,-0.0005242996267043,0.072527252137661,-0.5,0.134832829236984,-0.0524542778730392
258,0.0641000494360924,-0.0268737003207207,0.0403778590261936,-0.5,0.137805581092834,-0.0728150978684425
259,0.0748474672436714,-0.0267703905701637,0.0079859029501676,-0.5,0.127081573009491,-0.0781909599900246
260,0.061215341091156,-0.0064748697914183,-0.021267369389534,-0.5,0.100431852042675,-0.0787839591503143
261,0.0318415649235249,0.0075816316530108,-0.0451936610043049,-0.5,0.0711759328842163,-0.0736502930521965
262,0.006831097882241,0.006413078866899,-0.054745651781559,-0.5,0.057074286043644,-0.0553609058260918
263,-0.0002425419806968,-0.0036521684378385,-0.0495481938123703,-0.5,0.060188289731741,-0.0399904102087021
264,0.0071612177416682,-0.0227237958461046,-0.0379638746380806,-0.5,0.0708155333995819,-0.0500497482717037
265,0.0177368987351656,-0.0469700582325459,-0.0225622784346342,0.5,0.0833022072911263,-0.0807918682694435
266,0.0262863859534264,-0.0604127049446106,0.0007616776274517,0.5,0.100503288209438,-0.104328602552414
267,0.0335543788969517,-0.0531629100441933,0.0270237103104591,0.5,0.119434408843517,-0.100743666291237
268,0.0376128703355789,-0.036735761910677,0.0371943414211273,0.5,0.123273804783821,-0.0921365991234779
269,0.0318737924098969,-0.0333654433488846,0.0207877550274134,0.5,0.100387454032898,-0.109435573220253
270,0.0098946718499064,-0.0547947324812412,-0.014214145950973,0.5,0.0585692189633846,-0.136985421180725
271,-0.0206408891826868,-0.0842981263995171,-0.0497060418128967,0.5,0.0201607923954725,-0.143515780568123
272,-0.0386006161570549,-0.0869753807783127,-0.0664963200688362,0.5,0.0059923874214291,-0.125748947262764
273,-0.0329329371452332,-0.0537352561950684,-0.0568221174180508,0.5,0.0191446952521801,-0.094850592315197
274,-0.0134218791499734,-0.0058709136210382,-0.0240178853273392,0.5,0.0489647686481476,-0.0579392090439796
275,5.83007192744844e-07,0.0371525101363659,0.0186449289321899,0.5,0.0807357355952263,-0.0191458482295275
276,-0.0005410652956925,0.0609215907752514,0.0398986637592316,0.5,0.0933674722909927,0.007697339169681
277,-0.0037138573825359,0.058902632445097,0.0233791470527649,0.5,0.0788523405790329,0.0039653936401009
278,-0.0003743704291991,0.0386098548769951,-0.0002374284813413,0.5,0.0626656115055084,-0.022882541641593
279,0.0023020997177809,0.0049684718251228,-0.0031501362100243,0.5,0.0635523870587349,-0.049218412488699
280,-0.0059687444008886,-0.0342154651880264,0.0012000915594399,0.5,0.0638614520430565,-0.0683746039867401
281,-0.0243376642465591,-0.0555207841098309,-0.0058210995048284,0.5,0.0454147532582283,-0.0819547921419144
282,-0.0435606874525547,-0.0471608825027943,-0.0197915211319923,0.5,0.0153452521190047,-0.085740402340889
283,-0.0524640530347824,-0.03531264513731,-0.03184949234128,0.5,-0.0132686654105783,-0.0831787511706352
284,-0.0500558651983738,-0.0546022094786167,-0.0497161597013474,0.5,-0.0427036285400391,-0.0885057672858238
285,-0.048232663422823,-0.0955310314893723,-0.07453703135252,0.5,-0.0742503777146339,-0.104879662394524
286,-0.0479453504085541,-0.116184741258621,-0.0800118967890739,0.5,-0.0846032574772835,-0.117751508951187
287,-0.0358471162617207,-0.0952622592449188,-0.0460243560373783,0.5,-0.0475429855287075,-0.109829217195511
288,-0.0062676947563886,-0.041142649948597,0.0104230483993888,0.5,0.027776051312685,-0.0777752622961998
289,0.0230731666088104,0.0222989059984684,0.0504956059157848,0.5,0.0960288345813751,-0.0383443124592304
290,0.0232517831027508,0.0585038363933563,0.0495081879198551,0.5,0.117288455367088,-0.016879977658391
291,-0.0028418647125363,0.0468752235174179,0.0185254663228989,0.5,0.0976200327277184,-0.0185748841613531
292,-0.0271748919039965,0.0131808696314693,-0.0136289913207293,0.5,0.0682316794991493,-0.0234420448541641
293,-0.0406689308583736,-0.0059823803603649,-0.0283802431076765,0.5,0.0422315895557404,-0.0200329646468163
294,-0.0474390424787998,-0.0038706022314727,-0.0199836902320385,0.5,0.0262750033289194,-0.0072657759301364
295,-0.0466265305876732,0.0139713631942868,0.0062099951319396,0.5,0.0321222841739655,0.0208862144500017
296,-0.0360553972423077,0.0375836752355099,0.0308250356465578,0.5,0.0510326102375984,0.0550557971000671
297,-0.0170783363282681,0.0509390980005264,0.0315528772771358,0.5,0.057154830545187,0.0668032690882683
298,-0.0014847826678305,0.0457055792212486,0.0055110496468842,0.5,0.0368981212377548,0.0378673933446407
299,-0.0003096793952863,0.0221393574029207,-0.022239426150918,0.5,0.0003536876756697,-0.0207923613488674
300,-0.0047104642726481,-0.0126393474638462,-0.0231737662106752,0.5,-0.0294092390686274,-0.0740666836500168
301,-0.0032870140857994,-0.0516784824430943,0.0024654332082718,0.5,-0.0395744889974594,-0.0915454253554344
302,-0.0025161444209516,-0.0842853188514709,0.0293085388839245,0.5,-0.0359305664896965,-0.0715475156903267
303,-0.0106549561023712,-0.0965671092271805,0.0370539985597134,0.5,-0.0286227036267519,-0.0343327224254608
304,-0.0228715948760509,-0.0913549214601517,0.0218577440828085,0.5,-0.0251186657696962,-0.0041678356938064
305,-0.0325043313205242,-0.0771287158131599,-0.0110335713252425,0.5,-0.0292847193777561,0.0043870438821613
306,-0.0396394468843937,-0.0490377135574818,-0.0464754924178123,0.5,-0.03506725654006,-0.0011047781445086
307,-0.0497746989130974,-0.0049616051837801,-0.0662106648087502,0.5,-0.0313785150647163,-0.0042442088015377
308,-0.0629688128829002,0.037720937281847,-0.0613628812134266,0.5,-0.0096510276198387,-0.0011091380147263
309,-0.0686175376176834,0.0567240342497826,-0.0367079377174377,0.5,0.0258637070655823,0.005336619913578
310,-0.0570934601128101,0.0467722974717617,-0.0104132033884525,0.5,0.0537880957126617,0.0139540918171406
311,-0.0269899386912584,0.0253271702677011,0.0046567181125283,0.5,0.0635885298252106,0.0316571518778801
312,0.0086894519627094,0.0197082832455635,0.0120694190263748,0.5,0.0676314905285835,0.0630393922328949
313,0.0305219981819391,0.0361081548035145,0.0136414412409067,0.5,0.0704994574189186,0.0888360887765884
314,0.0304844193160534,0.0463272109627724,-0.0016567326383665,0.5,0.0567599274218082,0.0774347558617592
315,0.01281329523772,0.0250144749879837,-0.0382704138755798,0.5,0.0161066446453333,0.021495383232832
316,-0.007705045863986,-0.0166171062737703,-0.0709288194775581,0.5,-0.0335546992719173,-0.047102514654398
317,-0.017009174451232,-0.0508280396461487,-0.0714534819126129,0.5,-0.0646736845374107,-0.0877521187067032
318,-0.0178388506174088,-0.06336310505867,-0.0491246394813061,0.5,-0.0747130289673805,-0.0797052457928658
319,-0.0155060747638345,-0.0545538701117039,-0.0237970855087042,0.5,-0.070094995200634,-0.03039107657969
320,-0.0089776394888758,-0.0344724021852016,0.0042561590671539,0.5,-0.0503441728651524,0.0246241986751556
321,-0.0027640801854431,-0.0177397690713406,0.0321588851511478,0.5,-0.0243647359311581,0.0575943142175674
322,-3.37376877723727e-05,-0.0060721831396222,0.0482085645198822,0.5,-0.0020772954449057,0.0711666494607925
323,0.0035896729677915,0.0125043829903007,0.0512398891150951,0.5,0.0160920564085245,0.0743892937898636
324,0.0093379188328981,0.0401227213442326,0.0511235967278481,0.5,0.0277175456285477,0.0709015280008316
325,0.011519999243319,0.0616547986865044,0.0502081736922264,0.5,0.0256229154765606,0.0629689618945122
326,0.007558514829725,0.0683292374014854,0.0394755862653255,0.5,0.0075804921798408,0.0520991384983063
327,0.0050272848457098,0.0753762945532799,0.0208787098526955,0.5,-0.0133891925215721,0.0448076091706753
328,0.0068603935651481,0.0941965207457542,0.0117937074974179,0.5,-0.0140411928296089,0.0540319010615349
329,0.00396887678653,0.105604603886604,0.0154355708509684,0.5,0.0066822567023336,0.0813245549798012
330,-0.0044216075912118,0.0885301753878593,0.0149246659129858,0.5,0.0198786705732346,0.102331586182117
331,-0.0095421811565756,0.0475902780890465,0.0067424857988953,0.5,0.0107844537124038,0.0963762849569321
332,-0.0091213816776871,0.0041909217834472,0.0085351271554827,0.5,-0.0019059831975027,0.0752128660678864
333,-0.0012629589764401,-0.0220625288784504,0.0285796672105789,0.5,-0.0004236040695104,0.0597321651875973
334,0.0124211348593235,-0.0307979304343462,0.0510705970227718,0.5,0.0083703836426138,0.0516088828444481
335,0.0158756449818611,-0.0388332344591618,0.0554477833211422,0.5,0.0099476538598537,0.0367043614387512
336,0.0019629795569926,-0.0492924563586712,0.044348556548357,0.5,0.0066235829144716,0.0157814528793097
337,-0.015747431665659,-0.0494821444153786,0.0357440672814846,0.5,0.0071806330233812,0.0134486919268966
338,-0.0261832401156425,-0.0345741212368011,0.0350379534065723,0.5,0.008314604870975,0.0366250947117805
339,-0.0266285073012114,-0.0039371275343,0.0366012193262577,-0.5,0.0071864747442305,0.0577105209231377
340,-0.0173783004283905,0.0327270328998566,0.0331363752484322,-0.5,0.0045006130822002,0.0541354194283485
341,-0.0040533943101763,0.058134563267231,0.0234163794666529,-0.5,0.0002166420454159,0.0372455455362797
342,0.0067728231661021,0.0712518692016602,0.0163792874664068,-0.5,-0.0021199823822826,0.034415677189827
343,0.0121293803676963,0.0806282460689545,0.016919981688261,-0.5,-0.0041671590879559,0.053991686552763
344,0.0144367581233382,0.0951277911663055,0.0230921115726233,-0.5,-0.0094363847747445,0.0833663418889046
345,0.0161720346659422,0.124429665505886,0.0295514035969973,-0.5,-0.0169188119471073,0.116454966366291
346,0.0139743601903319,0.162516489624977,0.0267550274729729,-0.5,-0.0285447426140308,0.149418324232101
347,0.0063756252638995,0.17625293135643,0.0136306220665574,-0.5,-0.0429565943777561,0.162577614188194
348,-0.0005802325322292,0.133675396442413,-0.0038490516599267,-0.5,-0.0510844588279724,0.138385698199272
349,-0.0025412465911358,0.0444170497357845,-0.0232790019363165,-0.5,-0.0468065924942493,0.0887382477521896
350,-0.0041368519887328,-0.0464474558830261,-0.0390138924121857,-0.5,-0.0310688614845276,0.0471394769847393
351,-0.0111078536137939,-0.101037830114365,-0.043236255645752,-0.5,-0.0113121485337615,0.0262395739555359
352,-0.0193566475063562,-0.114880673587322,-0.0344713255763054,-0.5,0.00395541312173,0.0035227518528699
353,-0.0145619660615921,-0.106280237436295,-0.0174079015851021,-0.5,0.0161135643720627,-0.0385827496647835
354,0.0049479915760457,-0.0929526463150978,-0.0020005712285637,-0.5,0.0256632287055254,-0.0758733078837395
355,0.0243221912533045,-0.0765475481748581,0.0083559723570942,-0.5,0.030360821634531,-0.0647529810667038
356,0.0365220345556736,-0.0477389022707939,0.0192440412938595,-0.5,0.0405269265174866,-0.0101886056363583
357,0.0329129956662655,-0.011297388933599,0.0276259556412697,-0.5,0.0579128973186016,0.0371609330177307
358,0.0086277686059474,0.0190557967871428,0.0329242944717407,-0.5,0.0670937448740005,0.0585202760994434
359,-0.0176417250186205,0.0428767539560795,0.0461581647396088,-0.5,0.0589288361370564,0.0704548209905624
360,-0.0331146344542503,0.062068447470665,0.0626342073082924,-0.5,0.0321686640381813,0.0762105509638786
361,-0.0425416305661201,0.066784530878067,0.0602468773722649,-0.5,-0.0134242279455066,0.0662955939769745
362,-0.0475488789379597,0.0497659891843796,0.0362725704908371,-0.5,-0.0674186199903488,0.0508935377001762
363,-0.0470183752477169,0.0246442407369614,0.0151556553319097,-0.5,-0.104347474873066,0.0542615912854671
364,-0.0436451770365238,0.0137294344604015,0.0140025587752461,-0.5,-0.109322667121887,0.0787374228239059
365,-0.0392789244651794,0.0212358087301254,0.029172470793128,-0.5,-0.0912633314728737,0.112833172082901
366,-0.031107485294342,0.0341418161988258,0.051514383405447,-0.5,-0.0636956095695496,0.148222789168358
367,-0.0212796032428741,0.0384455882012844,0.0631205588579178,-0.5,-0.0399997904896736,0.16384656727314
368,-0.0139813683927059,0.0255203153938055,0.0478020198643208,-0.5,-0.0289428532123566,0.137245625257492
369,0.0002421941753709,-0.0004817547451239,0.0229291282594204,-0.5,-0.019927341490984,0.0810697078704834
370,0.0286251790821552,-0.02592515014112,0.0164764858782291,-0.5,-0.0011298072058707,0.0359230898320675
371,0.0588785074651241,-0.0457785949110985,0.0244284067302942,-0.5,0.0175750181078911,0.0193074680864811
372,0.0729114636778831,-0.0574637092649937,0.0265629328787327,-0.5,0.0225920397788286,0.0097277043387293
373,0.0698579475283623,-0.0491058528423309,0.0185952801257372,-0.5,0.0204675327986479,-0.0054036304354667
374,0.0619670748710632,-0.0233519431203604,0.0031718763057142,-0.5,0.0181308928877115,-0.0139684751629829
375,0.0481189861893654,-0.0059422282502055,-0.0217762738466263,-0.5,0.0033592218533158,-0.0067943199537694
376,0.0204803254455328,-0.0033303999807685,-0.0501912012696266,-0.5,-0.0292208790779114,0.0167459286749363
377,-0.0154393576085567,0.0075938669033348,-0.0672236159443855,-0.5,-0.0623872987926006,0.0443983860313892
378,-0.0438822694122791,0.0309806596487761,-0.05959727242589,-0.5,-0.0737126618623734,0.0604992508888245
379,-0.0526768825948238,0.0447693839669228,-0.0246643852442503,-0.5,-0.0556742064654827,0.0667030513286591
380,-0.0463297553360462,0.0384624786674976,0.0204010661691427,-0.5,-0.0249983631074429,0.0708509758114815
381,-0.0397473759949207,0.0289006978273392,0.0486218705773354,-0.5,-0.0089557897299528,0.0731142312288284
382,-0.0391360633075237,0.0368329286575317,0.0491657331585884,-0.5,-0.0171974319964647,0.0716801360249519
383,-0.0386783517897129,0.0537672191858292,0.0333360694348812,-0.5,-0.0324676930904388,0.0696709007024765
384,-0.0321099311113358,0.0542584843933582,0.01667146012187,-0.5,-0.0316630266606808,0.0728544369339943
385,-0.0190772842615843,0.0250983890146017,0.0055591217242181,-0.5,-0.0148210925981402,0.0742724388837814
386,-0.0026804024819284,-0.0255059134215117,0.0007018110482022,-0.5,-0.0025655017234385,0.0542438551783562
387,0.0118726519867778,-0.0720469504594803,0.0070884209126234,-0.5,-0.0045632906258106,0.0180135983973742
388,0.0209197979420424,-0.0884591117501259,0.0272364262491465,-0.5,-0.0123066455125809,0.0037229934241622
389,0.0262482669204474,-0.0668819397687912,0.0519148483872414,-0.5,-0.0163938533514738,0.0283328518271446
390,0.0299115031957626,-0.0252473019063473,0.0690132156014442,-0.5,-0.0139462100341916,0.0611259043216705
391,0.0321767814457417,0.0148025387898088,0.0688746869564056,-0.5,-0.0068974760361015,0.0682075619697571
392,0.0268232692033052,0.0435703098773956,0.042206984013319,-0.5,-0.0067389663308858,0.0536250025033951
393,0.0034407307393848,0.0484447851777077,-0.011727275326848,-0.5,-0.0305188614875078,0.0366115644574165
394,-0.0288177654147148,0.0256763938814402,-0.0685698539018631,-0.5,-0.073181077837944,0.023347444832325
395,-0.0471895001828671,-0.0006485520862042,-0.0941603109240532,-0.5,-0.107511818408966,0.0178738478571177
396,-0.0466917306184769,-0.0148998266085982,-0.0850320085883141,-0.5,-0.120704241096973,0.0181465893983841
397,-0.0412714928388596,-0.0317776761949062,-0.0605399385094643,-0.5,-0.119536094367504,0.0117212580516934
398,-0.0376933105289936,-0.05466677993536,-0.0245723053812981,-0.5,-0.105001248419285,0.0004088539280928
399,-0.0268332194536924,-0.0627819746732712,0.0248667914420366,-0.5,-0.0751776769757271,-0.0002273764403071
400,-0.0034658517688512,-0.0465865656733513,0.0718208178877831,-0.5,-0.0393537133932114,0.0144829880446196
401,0.0225104354321957,-0.0194823183119297,0.097812682390213,-0.5,-0.0099429488182067,0.0384403951466084
402,0.0370484367012978,0.0023989554028958,0.100503042340279,-0.5,0.0074007925577461,0.0645607188344002
403,0.0362042486667633,0.0167373418807983,0.0892872214317322,-0.5,0.0144831817597151,0.0877532139420509
404,0.0266957208514214,0.0305302161723375,0.0689889192581177,-0.5,0.0122593212872744,0.105551332235336
405,0.0186056513339281,0.0483443289995193,0.0355126261711121,-0.5,-0.0015414914814755,0.109817810356617
406,0.0100781330838799,0.0701977014541626,-0.012985760346055,-0.5,-0.0314713828265667,0.0870090052485466
407,-0.011271420866251,0.0872284695506096,-0.0653413534164429,-0.5,-0.0791512802243233,0.0389190539717674
408,-0.0432745963335037,0.0802705511450768,-0.0962124019861221,-0.5,-0.12735553085804,-0.0112350266426802
409,-0.074200913310051,0.042607557028532,-0.0966829583048821,-0.5,-0.156594157218933,-0.0490082912147045
410,-0.0980062335729599,-0.0091615933924913,-0.0880627855658531,0.5,-0.162833109498024,-0.0747332870960236
411,-0.105515837669373,-0.0535208098590374,-0.0806884840130806,0.5,-0.145683869719505,-0.0793867558240891
412,-0.0874264985322952,-0.0774699673056602,-0.0630852207541466,0.5,-0.110717386007309,-0.04966776445508
413,-0.0482371412217617,-0.0800179019570351,-0.0308797545731068,-0.223861902952194,-0.0715650022029877,0.0131120486184955
414,-0.0010452704736962,-0.0672839134931564,0.0092515926808118,-0.5,-0.0385851375758648,0.0833974853157997
415,0.0396805815398693,-0.0467454232275486,0.044528640806675,-0.5,-0.0169467125087976,0.125154912471771
416,0.0632563829421997,-0.027505049481988,0.0588664561510086,-0.5,-0.0126197151839733,0.124704889953136
417,0.0707675963640213,-0.0143708409741521,0.0495411939918995,-0.5,-0.0265560206025839,0.0959489941596985
418,0.0670333504676819,-0.0017810671124607,0.033282782882452,-0.5,-0.0445111729204655,0.065510556101799
419,0.0519036762416363,0.0174565445631742,0.0261302776634693,-0.5,-0.0505531914532185,0.0572988614439964
420,0.0240178406238556,0.0385713130235672,0.0215571373701096,-0.5,-0.0513326041400433,0.0662296786904335
421,-0.0137209016829729,0.0463028140366077,0.0002763376105576,-0.5,-0.0677099600434303,0.0612091049551964
422,-0.047243770211935,0.0372861176729202,-0.0369147844612598,-0.5,-0.0969777330756187,0.0339619070291519
423,-0.0583855696022511,0.0340817794203758,-0.0651138201355934,-0.5,-0.113682456314564,0.0169573947787285
424,-0.0464736185967922,0.0587869435548782,-0.0662050992250443,-0.5,-0.104750849306583,0.039457343518734
425,-0.0254816263914108,0.0999286845326424,-0.0435963459312916,-0.5,-0.072059154510498,0.0885004624724388
426,-0.0050851861014962,0.12187484651804,-0.0141490204259753,-0.5,-0.0279455929994583,0.120477095246315
427,0.0131696732714772,0.105191305279732,0.0080536706373095,-0.5,0.0061696055345237,0.10817563533783
428,0.032066248357296,0.0607628189027309,0.0286640897393227,-0.5,0.0217203535139561,0.0680896490812302
429,0.0508753694593906,0.005339887458831,0.0545397326350212,-0.5,0.0229881703853607,0.0301845539361238
430,0.0630495026707649,-0.0494738258421421,0.0747822001576424,-0.5,0.0141442529857159,0.011573594994843
431,0.0626876577734947,-0.0894272476434708,0.0786671489477158,-0.5,0.0007117269560694,0.027220556512475
432,0.052517257630825,-0.101851545274258,0.0706199780106544,-0.5,-0.009677717462182,0.0718130841851234
433,0.0483685173094273,-0.0801959633827209,0.0653288662433624,-0.5,-0.0068567362613976,0.111019015312195
434,0.0563627369701862,-0.0309053063392639,0.0634600445628166,-0.5,0.0037547124084085,0.129681751132011
435,0.0560401380062103,0.0229053869843483,0.0469387955963612,-0.5,-0.0051530548371374,0.132758617401123
436,0.0319049209356308,0.0581690445542336,0.0143293542787433,-0.5,-0.0438396856188774,0.112012177705765
437,-0.0038796630688011,0.0640374049544334,-0.0102377608418465,-0.5,-0.0856109708547592,0.0723756924271584
438,-0.0321456491947174,0.0437036380171776,-0.0116502027958632,-0.5,-0.101737655699253,0.0424215123057365
439,-0.046901423484087,0.0117205614224076,-2.87247221422149e-05,-0.5,-0.095794290304184,0.0354965850710869
440,-0.0498935654759407,-0.0145471012219787,0.0118246655911207,-0.5,-0.0870503559708595,0.046771876513958
441,-0.0389667041599751,-0.0144284125417471,0.0236642528325319,-0.5,-0.0801680684089661,0.0736460983753204
442,-0.0212441086769104,0.0279134847223759,0.0310113560408354,-0.5,-0.072922095656395,0.107173725962639
443,-0.0162462368607521,0.0895649865269661,0.0226816646754742,-0.5,-0.0661845430731773,0.125342264771461
444,-0.0244729481637478,0.120399065315723,0.0066867140121758,-0.5,-0.0518468730151653,0.11459219455719
445,-0.024772621691227,0.104914046823978,0.0064504421316087,-0.5,-0.0221308153122664,0.0869424194097519
446,-0.0055474997498095,0.0664219036698341,0.0262609496712685,-0.5,0.0113143250346184,0.0658603459596634
447,0.0218509137630463,0.0288157947361469,0.0477633699774742,-0.5,0.0300718527287245,0.0583699084818363
448,0.0413701832294464,0.0044117323122918,0.0579214170575142,-0.5,0.0349591299891472,0.0522485822439194
449,0.0511189624667168,-0.0086813876405358,0.054987445473671,-0.5,0.0427497997879982,0.0346415489912033
450,0.0517645180225372,-0.0201463121920824,0.0361177921295166,-0.5,0.0533539205789566,0.0062233847565949
451,0.0370154641568661,-0.0351116731762886,0.0031365314498543,-0.5,0.0468115471303463,-0.0130807189270854
452,0.006993596907705,-0.0536467134952545,-0.0280340891331434,-0.5,0.0185699574649334,-0.009697082452476
453,-0.0265809372067451,-0.0714874416589737,-0.0433574952185154,-0.5,-0.0185455158352852,-0.0019959027413278
454,-0.0525662489235401,-0.0766785591840744,-0.0462664812803268,-0.5,-0.0573621615767479,-0.0076420754194259
455,-0.0682859644293785,-0.0593006573617458,-0.0437407679855824,-0.5,-0.0901749804615974,-0.013325278647244
456,-0.0687301307916641,-0.0281485393643379,-0.0325960442423821,-0.5,-0.104205258190632,-0.0015670211287215
457,-0.0488459207117558,-0.0016622972907498,-0.0100530311465263,-0.5,-0.0991039648652077,0.026180163025856
458,-0.0187891144305468,0.0121420985087752,0.0176456123590469,-0.5,-0.0851532220840454,0.062354926019907
459,0.0067858602851629,0.0195711180567741,0.0431138165295124,-0.5,-0.0662563294172287,0.097638912498951
460,0.0266279969364405,0.0311099942773581,0.05867650359869,-0.5,-0.0394490323960781,0.11685411632061
461,0.0458787679672241,0.0486685894429684,0.0533012188971043,-0.5,-0.0083754453808069,0.115991979837418
462,0.0568530671298504,0.0658517852425575,0.0230263322591782,-0.5,0.0092288348823785,0.109298892319202
463,0.0437902398407459,0.0743658170104027,-0.0177441462874413,-0.5,-0.0004417447780724,0.0984720960259438
464,0.0039324178360402,0.0588647685945034,-0.0470649711787701,-0.5,-0.0308619663119316,0.0632295981049538
465,-0.0444719046354294,0.0111409854143858,-0.0534773282706738,-0.5,-0.0618855692446232,0.0034340498968958
466,-0.0741774067282677,-0.0434489324688911,-0.0346463695168495,-0.5,-0.0735266581177711,-0.0477806590497494
467,-0.0729438439011574,-0.0737204253673553,0.0019388664513826,-0.5,-0.0613953545689583,-0.064024992287159
468,-0.052251685410738,-0.0849435478448868,0.0330311357975006,-0.5,-0.0401551611721516,-0.0500527359545231
469,-0.0314353257417679,-0.0966992154717445,0.0340760312974453,0.5,-0.0250409711152315,-0.0216819755733013
470,-0.02254369109869,-0.101428627967834,0.0009459123248234,0.5,-0.0190587490797043,0.001599104842171
471,-0.0268852692097425,-0.0838811174035072,-0.0430239737033844,0.5,-0.0178414285182953,-0.0005504076834768
472,-0.0326872430741787,-0.0487487614154816,-0.0632812157273293,0.5,-0.0136222802102566,-0.0122604323551059
473,-0.0266695506870747,-0.0105717433616519,-0.0482575483620167,0.5,-0.0037951243575662,0.003497569123283
474,-0.0109583912417293,0.0194718614220619,-0.0130956070497632,0.5,0.0049078804440796,0.0510573349893093
475,-0.0006943942280486,0.041802279651165,0.0223913323134184,0.5,0.0001994563936023,0.0948392152786255
476,-0.0102765476331115,0.0573217459022999,0.0382844619452953,0.5,-0.0276345666497946,0.0958379507064819
477,-0.0331733338534832,0.0619171150028706,0.0331789962947369,0.5,-0.0622519962489605,0.0599058419466019
478,-0.0418867766857147,0.0571814179420471,0.0319695957005024,0.5,-0.0704255625605583,0.0306176524609327
479,-0.0223562102764845,0.0411418750882149,0.0414520800113678,0.5,-0.0470400154590607,0.0293104685842991
480,0.0078609595075249,0.0067902817390859,0.0405016615986824,0.5,-0.0183155070990324,0.0374187827110291
481,0.0208183135837317,-0.0363820567727089,0.024937117472291,0.5,-0.0084605878219008,0.0367224775254726
482,0.0063945893198251,-0.0645281299948692,0.0129743618890643,0.5,-0.0187130775302649,0.0326903387904167
483,-0.0210788901895285,-0.0627628117799759,0.016003705561161,0.5,-0.0280733369290829,0.0376831442117691
484,-0.0401727445423603,-0.0351278893649578,0.031063761562109,-0.275938153266907,-0.017654387280345,0.0525132976472378
485,-0.0383964143693447,0.0059581100940704,0.0499058961868286,-0.5,0.0075177731923759,0.0727189034223557
486,-0.0153696285560727,0.048141673207283,0.0660554617643356,-0.5,0.0308369770646095,0.096538133919239
487,0.017871517688036,0.0729995965957642,0.0718036666512489,-0.5,0.0450226813554764,0.112167738378048
488,0.0458265021443367,0.068460188806057,0.0609840713441372,-0.5,0.0524910390377045,0.108877368271351
489,0.0536905191838741,0.0418990403413773,0.0358353927731514,-0.5,0.0528997331857681,0.0981162264943123
490,0.0338183753192425,0.0060918219387531,0.0026312414556741,-0.5,0.0371177494525909,0.0870282277464867
491,-0.0017983333673328,-0.0225096344947815,-0.0326760075986385,-0.5,-0.000759074348025,0.0630303025245667
492,-0.0296607930213213,-0.0307008717209101,-0.0633929446339607,-0.5,-0.0516511425375938,0.023943442851305
493,-0.0387835428118706,-0.0225984919816256,-0.0762988924980164,-0.5,-0.0938123539090157,-0.0102730542421341
494,-0.0356258228421211,-0.0031706891022622,-0.0585336796939373,-0.5,-0.106306828558445,-0.017488144338131
495,-0.0335702151060104,0.0227264855057001,-0.0164103712886572,-0.5,-0.0882823541760445,0.002330875955522
496,-0.0424912758171558,0.041200865060091,0.0279954429715872,-0.5,-0.0587962828576565,0.0283323004841805
497,-0.0564442574977875,0.044326551258564,0.0593142621219158,-0.5,-0.0311625469475985,0.0491423234343529
498,-0.061923835426569,0.0418366231024265,0.0762708708643913,-0.5,-0.0072916871868073,0.0671504810452461
499,-0.0567478649318218,0.0421926192939281,0.0808749198913574,0.5,0.0054131802171468,0.0768116638064384
500,-0.0439394153654575,0.0345047265291214,0.0733001381158829,0.5,0.0004682186990976,0.0700670480728149
501,-0.0218851063400507,0.0116418544203043,0.0601424872875214,0.5,-0.0116125242784619,0.0584887340664864
502,0.0056651420891284,-0.0148877464234829,0.0487131997942925,0.5,-0.0146681135520339,0.0572634376585484
503,0.0252078119665384,-0.0370483100414276,0.0261812601238489,0.5,-0.0120974853634834,0.0511053018271923
504,0.0348911769688129,-0.0613465867936611,-0.0186520237475634,0.5,-0.0176171530038118,0.0218152645975351
505,0.0436974428594112,-0.0874651223421097,-0.0637325942516327,0.5,-0.0287022776901722,-0.0144775081425905
506,0.042133804410696,-0.0969598442316055,-0.0790655165910721,0.5,-0.0364301167428494,-0.0371833816170692
507,0.0167263280600309,-0.0758486911654472,-0.0560321323573589,0.5,-0.0373412445187569,-0.0407681055366993
508,-0.0167389903217554,-0.0305376593023539,-0.0048387018032372,0.5,-0.0260426234453917,-0.0218016598373652
509,-0.0374891459941864,0.0174957476556301,0.0485294163227081,0.5,-0.0085153821855783,0.0117030935361981
510,-0.0473133064806461,0.0421068482100964,0.0757715627551079,0.5,-0.0034682366531342,0.0391397513449192
511,-0.0514962375164032,0.0371917560696602,0.0734440237283707,0.5,-0.0117660686373711,0.0497612841427326
512,-0.0496370419859886,0.0185847077518702,0.0546641238033772,0.5,-0.0189132820814848,0.0467067360877991
513,-0.0415441691875458,-0.0043667196296155,0.0268464554101229,0.5,-0.0199720021337271,0.0360564514994621
514,-0.0266770776361227,-0.0236530471593142,-0.0027245271485298,0.5,-0.0189854819327593,0.0260085258632898
515,-0.0102998400107026,-0.0245294310152531,-0.0235607344657183,0.5,-0.0211099479347467,0.027382418513298
516,-0.007800000719726,-0.006393639370799,-0.032797284424305,0.5,-0.0346229560673237,0.03946902602911
517,-0.024342367425561,0.0125259347259998,-0.0337540470063686,0.5,-0.0584377571940422,0.0433500893414021
518,-0.0368713214993477,0.0185375288128853,-0.0194307770580053,0.5,-0.0672555863857269,0.036514900624752
519,-0.0255640111863613,0.0162011925131083,0.0136015703901649,0.5,-0.046852670609951,0.0391707830131054
520,-0.004334170371294,0.0113111762329936,0.0453883074223995,0.5,-0.0195809025317431,0.0540959686040878
521,0.0093610687181353,0.0032744279596954,0.0633447170257568,0.5,-0.0016523414524272,0.0713010355830193
522,0.0200542286038399,-0.0034733635839074,0.0754736363887787,0.5,0.0157598052173853,0.0872316062450409
523,0.0303830355405808,-0.0051523856818676,0.0823791846632957,0.5,0.0350301973521709,0.0979767143726349
524,0.0326227061450481,-0.0069706938229501,0.0759248360991478,0.5,0.0443530865013599,0.0933370366692543
525,0.0263595301657915,-0.0085618225857615,0.0574981868267059,0.5,0.0378304682672024,0.0654605999588966
526,0.0185607671737671,-0.0004492804000619,0.0345844812691212,0.5,0.0225974060595036,0.0338293462991714
527,0.0122378617525101,0.0118072107434273,0.0093631064519286,0.5,0.0064049940556287,0.0216604508459568
528,0.0025926050730049,0.0139172757044435,-0.0138585884124041,0.5,-0.0082708364352583,0.0141761247068644
529,-0.0120464088395238,0.0100815808400512,-0.0229701530188322,0.5,-0.0175007339566946,0.0007533496245741
530,-0.0217661503702402,0.0122576709836721,-0.0126080550253391,0.5,-0.0167636405676603,0.0026546984445303
531,-0.0220134500414133,0.0169819835573435,0.0007957262569107,0.5,-0.0151755446568131,0.0230897590517998
532,-0.0257931817322969,0.0091014597564935,-0.0083580687642097,0.5,-0.0282726343721151,0.0337883308529854
533,-0.0416403003036976,-0.0163540132343769,-0.0396013110876083,0.5,-0.0459457263350487,0.0145648084580898
534,-0.0579605735838413,-0.0490249656140804,-0.0655621141195297,0.5,-0.0503653064370155,-0.0274614654481411
535,-0.061597116291523,-0.0771001130342484,-0.0649873167276382,0.5,-0.0469946376979351,-0.0661242827773094
536,-0.0525353625416756,-0.0952754393219948,-0.0358788929879665,0.5,-0.0402239076793194,-0.075232058763504
537,-0.0368758887052536,-0.100596360862255,0.0069530322216451,0.5,-0.0257455892860889,-0.0439435169100761
538,-0.0207722578197718,-0.0882303491234779,0.0434907972812653,0.5,-0.0086478134617209,0.0187557898461819
539,-0.0115074878558517,-0.0575388520956039,0.0644353181123734,0.5,0.0015948248328641,0.0816907361149788
540,-0.0095186242833733,-0.0226210001856089,0.0683965682983398,0.5,0.0014952418860048,0.110498547554016
541,-0.0056181964464485,0.0021966334898024,0.059793796390295,0.5,-0.00242490042001,0.100243672728539
542,0.0002505134325474,0.0190343130379915,0.0498711690306664,0.5,0.0014543366851285,0.0696941092610359
543,-0.0021964432671666,0.0267403423786163,0.0438793897628784,0.17205274105072,0.0162700451910496,0.0336640886962414
544,-0.0133913485333323,0.01975167542696,0.0400755628943443,-0.5,0.0352830290794373,0.0020595525857061
545,-0.0251643266528845,0.0150186233222485,0.0383284091949463,-0.5,0.05110202729702,-0.0084420526400208
546,-0.032552681863308,0.0367398038506508,0.0364406518638134,-0.5,0.0590749718248844,0.0136124715209007
547,-0.0341371558606625,0.0706050768494606,0.0296278409659863,-0.5,0.0561875849962235,0.0454865247011185
548,-0.0296558272093534,0.0836437791585922,0.0176855847239494,0.5,0.0444858931005001,0.0551932230591774
549,-0.0215103346854448,0.0726520344614983,0.0042218221351504,0.5,0.0340588726103306,0.0524472072720528
550,-0.0171929970383644,0.0515536218881607,-0.0067556351423263,0.5,0.0317171439528465,0.0578416362404823
551,-0.0252791065722704,0.0253080856055021,-0.0158275384455919,0.5,0.0289637949317694,0.0504795722663403
552,-0.0470776744186878,-0.0138865755870938,-0.0306650716811419,0.5,0.0161257348954678,-0.0010532598244026
553,-0.0709058344364166,-0.0663240179419518,-0.0481090508401394,0.5,0.0047202776186168,-0.0823997631669044
554,-0.0783749371767044,-0.110783860087395,-0.0494788959622383,0.5,0.0160393379628658,-0.146433487534523
555,-0.0665151700377464,-0.134742379188538,-0.0306142829358578,0.5,0.0467166602611542,-0.161954507231712
556,-0.0506664775311947,-0.143247470259666,-0.0133569035679102,0.5,0.0706763938069344,-0.134290024638176
557,-0.0348733514547348,-0.133960723876953,-0.0132808899506927,0.5,0.07793889939785,-0.0940998941659927
558,-0.0130349863320589,-0.100122816860676,-0.0205585099756718,0.5,0.0797853395342827,-0.0655604004859924
559,0.0057715340517461,-0.045906238257885,-0.0261337086558342,0.5,0.0791395157575607,-0.0520173124969006
560,0.0112977912649512,0.0115638207644224,-0.0313624516129494,0.5,0.0682679265737534,-0.0444082468748093
561,0.0103163430467248,0.051697101444006,-0.0245526153594255,0.5,0.0553115047514439,-0.0316579975187778
562,0.0113524943590164,0.0668600872159004,0.0086645716801285,-0.5,0.0625412166118622,-0.0070893676020205
563,0.0145673817023635,0.0610773526132107,0.0562393479049206,-0.5,0.0959157645702362,0.0252836067229509
564,0.0178932957351208,0.0373962186276913,0.0900785177946091,-0.5,0.140362828969955,0.0386779271066189
565,0.0166717506945133,-0.0001481262006564,0.0887823551893234,-0.5,0.172396615147591,0.0097743710502982
566,0.0015777139924466,-0.0475659593939781,0.0483857430517673,0.0094572678208351,0.169621154665947,-0.04965615645051
567,-0.0328337661921978,-0.103562124073505,-0.0134766073897481,0.5,0.127400875091553,-0.114480830729008
568,-0.0741007998585701,-0.158079087734222,-0.068484902381897,0.5,0.0670444965362549,-0.168384805321693
569,-0.0980448201298714,-0.190092593431473,-0.0949873700737953,0.5,0.021602638065815,-0.200664147734642
570,-0.0944398865103722,-0.180426731705666,-0.0880612283945084,0.5,0.0120642995461822,-0.204247489571571
571,-0.076787531375885,-0.126860871911049,-0.0597176253795624,0.5,0.0307491440325975,-0.180583238601685
572,-0.0602770075201988,-0.0486718714237213,-0.0270135123282671,0.5,0.0548738874495029,-0.138654232025146
573,-0.0424402169883251,0.0234482865780592,0.0037336582317948,0.5,0.077763631939888,-0.0877829268574715
574,-0.0188962742686272,0.0629740282893181,0.0328512974083424,0.5,0.106621727347374,-0.0403967648744583
575,0.0057029472663998,0.0658289566636086,0.0540440455079079,0.5,0.141208380460739,-0.0054583149030804
576,0.0306825451552868,0.0439170189201832,0.059332262724638,0.5,0.174969583749771,0.0167938750237226
577,0.0517192631959915,0.0035661202855408,0.0490473806858063,0.5,0.202799558639526,0.0120677156373858
578,0.0504373721778393,-0.0443393476307392,0.0249936021864414,0.5,0.212695464491844,-0.0369265228509903
579,0.0207958426326513,-0.0840851068496704,-0.0158478952944279,0.5,0.186550110578537,-0.119154736399651
580,-0.0181693267077208,-0.115310236811638,-0.063867874443531,0.5,0.12922377884388,-0.200807690620422
581,-0.0456849187612534,-0.138628363609314,-0.0924149081110954,0.5,0.0752183943986893,-0.24088542163372
582,-0.0541250184178352,-0.139323472976685,-0.0840992704033852,0.5,0.0520526990294456,-0.214820176362991
583,-0.0479248464107513,-0.105729289352894,-0.0474584959447384,0.5,0.058200154453516,-0.140434473752975
584,-0.0390055663883686,-0.0504723004996777,-0.0092220529913902,0.5,0.0788035467267036,-0.068911612033844
585,-0.0327091105282307,-0.0022450091782957,0.0115312468260527,0.5,0.104975670576096,-0.0314372777938843
586,-0.0187116656452417,0.0183070842176676,0.0170277897268534,0.5,0.132274001836777,-0.0178125817328691
587,0.0023844558745622,0.0067281480878591,0.0138097712770104,0.5,0.150626569986343,-0.0238732397556305
588,0.0088965790346264,-0.0260314475744963,0.0080905742943286,0.5,0.150951907038689,-0.0599728263914585
589,-0.0026526201982051,-0.0592139847576618,0.0094689968973398,0.5,0.137707412242889,-0.113894529640675
590,-0.0107943825423718,-0.0783681422472,0.0192348845303059,0.5,0.125268802046776,-0.15471775829792
591,-0.0053040967322886,-0.0838623121380806,0.0302363280206919,0.5,0.122816525399685,-0.156366378068924
592,0.0010880996705964,-0.0810991078615189,0.037510808557272,0.5,0.129165261983871,-0.116150841116905
593,-0.0073515926487743,-0.0703181996941566,0.0378110595047474,0.5,0.137077540159225,-0.0698418542742729
594,-0.0339490063488483,-0.0548740066587925,0.020818343386054,0.5,0.128345742821693,-0.0585507825016975
595,-0.0718540549278259,-0.0440928898751736,-0.022209208458662,0.5,0.0860350877046585,-0.0776402130723
596,-0.108926877379417,-0.0417728759348392,-0.0760819390416145,0.5,0.0244982820004225,-0.0995473861694336
597,-0.124469645321369,-0.0479688607156277,-0.104840733110905,0.5,-0.0111332647502422,-0.119330607354641
598,-0.101946294307709,-0.0656523033976555,-0.0881376713514328,0.5,0.0099514639005065,-0.140294834971428
599,-0.0532268956303597,-0.0956785380840302,-0.0433501526713371,0.5,0.0698304250836372,-0.15519455075264
600,-0.0052080117166042,-0.127834618091583,0.0006012275698594,0.5,0.128357172012329,-0.155722305178642
601,0.0269013848155737,-0.142548575997353,0.0256121512502432,0.5,0.157397508621216,-0.140129998326302
602,0.0410285778343678,-0.124587439000607,0.0254972446709871,0.5,0.154989510774612,-0.104494087398052
603,0.045385479927063,-0.0777234062552452,0.0118029210716486,0.5,0.144103065133095,-0.0475282780826092
604,0.0483419820666313,-0.0279727596789598,-0.0024618355091661,0.5,0.135884031653404,-0.0033736932091414
605,0.0411423891782761,-0.001530475448817,-0.0143887493759394,0.5,0.115345776081085,-0.0122165130451322
606,0.0140112144872546,-0.0021848990581929,-0.0167579501867294,0.5,0.0762551352381706,-0.0563319511711597
607,-0.0192676447331905,-0.0155426980927587,-0.0010567085118964,0.5,0.0388449691236019,-0.0858839005231857
608,-0.0364718623459339,-0.0215101819485426,0.0336192026734352,0.5,0.0314071625471115,-0.0783796980977058
609,-0.0346396453678608,-0.0128528326749802,0.073278121650219,0.5,0.0615823529660702,-0.0493258647620678
610,-0.0293164439499378,-0.0066824820823967,0.086031399667263,0.5,0.102006614208221,-0.0271153450012207
611,-0.0337472818791866,-0.0088646346703171,0.0595450587570667,0.5,0.116569459438324,-0.0195572040975094
612,-0.0483697578310966,0.0048379823565483,0.01882085762918,0.5,0.0959116816520691,-0.0090849008411169
613,-0.0683620721101761,0.0406765602529049,-0.0183816775679588,0.5,0.0520425774157047,0.0130671598017216
614,-0.0937759950757027,0.0770021229982376,-0.0570775754749775,0.5,0.0004452260618563,0.0301634501665831
615,-0.120086178183556,0.0983383506536484,-0.0947179570794106,0.5,-0.0405908711254597,0.0288741085678339
616,-0.133142709732056,0.0893046036362648,-0.112304523587227,0.5,-0.0545979961752892,0.0099935662001371
617,-0.127516716718674,0.0301692150533199,-0.0991046205163002,0.5,-0.0411476455628872,-0.0303454119712114
618,-0.106404073536396,-0.0628914088010788,-0.0691230818629265,0.5,-0.0118928402662277,-0.091749370098114
619,-0.0676288977265358,-0.119594313204288,-0.0407015606760979,0.5,0.0263001136481762,-0.144630968570709
620,-0.0232851039618254,-0.0952051803469658,-0.0204708408564329,0.5,0.0606959834694862,-0.161645621061325
621,-0.004457339644432,-0.0411511398851871,-0.0061151147820055,0.5,0.0703855752944946,-0.157251641154289
622,-0.0142388548702002,-0.0254266560077667,0.0148887010291219,0.5,0.0609107241034508,-0.147554308176041
623,-0.0243304762989283,-0.0450938642024994,0.0491645112633705,0.5,0.0604579746723175,-0.119390733540058
624,-0.0196853391826153,-0.0663631707429886,0.0803339704871178,0.5,0.0735706016421318,-0.0630064159631729
625,-0.0089994752779603,-0.0741396322846413,0.0891799628734589,0.5,0.0808597877621651,0.008579303510487
626,-0.007782912813127,-0.0594991892576218,0.0768156051635742,0.5,0.0787884518504143,0.0754223614931107
627,-0.019946401938796,-0.0104427253827453,0.0576314926147461,0.5,0.0789004936814308,0.129545122385025
628,-0.0377692431211472,0.0651604160666466,0.0409785620868206,0.5,0.0773561596870422,0.162452057003975
629,-0.0548597685992718,0.125277638435364,0.0228663962334394,0.5,0.0592646673321724,0.152558147907257
630,-0.0654970481991768,0.131160661578178,0.0006637384649366,0.5,0.0280156172811985,0.0955130830407143
631,-0.0627908185124397,0.0905521959066391,-0.0148138580843806,0.5,0.0071354587562382,0.0160423777997494
632,-0.0466517135500908,0.0337025672197342,-0.0187309104949236,0.5,0.0066337049938738,-0.0569274984300137
633,-0.0267667789012194,-0.0223590712994337,-0.0186309795826674,0.5,0.0159774851053953,-0.104069016873837
634,-0.0122593250125647,-0.0730995088815689,-0.0204670373350382,0.5,0.0274280924350023,-0.121071115136147
635,-0.0115762325003743,-0.11524610221386,-0.0292222052812576,0.5,0.0283712260425091,-0.122512876987457
636,-0.0365704968571663,-0.131349578499794,-0.0461648553609848,0.5,0.003093782113865,-0.122417092323303
637,-0.078559011220932,-0.102815762162209,-0.060881782323122,0.5,-0.034135028719902,-0.116425901651382
638,-0.109043143689632,-0.0422561205923557,-0.064546674489975,0.5,-0.0520448163151741,-0.0978298559784889
639,-0.116477198898792,0.0165069121867418,-0.0610945001244545,0.5,-0.0404874160885811,-0.0677866637706757
640,-0.102692186832428,0.0511754862964153,-0.0541167855262756,0.5,-0.0075868130661547,-0.0249244756996632
641,-0.0714709684252739,0.0544066540896893,-0.042324636131525,0.5,0.0316031537950039,0.026302644982934
642,-0.0394936054944992,0.0314223729074001,-0.0250770021229982,0.5,0.0595079176127911,0.0603644102811813
643,-0.0204196311533451,0.0050739743746817,-9.95614827843383e-05,0.5,0.0688428208231926,0.0610747449100018
644,-0.0124919908121228,-0.0046219937503337,0.0358632318675518,0.5,0.0670167505741119,0.04963019490242
645,-0.0110294064506888,0.0021874483209103,0.0817618295550346,0.5,0.0696152374148369,0.0539589002728462
646,-0.0103659462183714,0.0213387794792652,0.129040852189064,0.5,0.0887653529644012,0.0819207802414894
647,-0.0098547013476491,0.054193802177906,0.157686322927475,0.5,0.115137107670307,0.122212916612625
648,-0.0229921713471413,0.0878065824508667,0.141724839806557,0.5,0.117443650960922,0.138968169689178
649,-0.0530341640114784,0.0976505503058434,0.0755527019500732,0.5,0.0765106379985809,0.0971915945410728
650,-0.0831826403737068,0.0808271989226341,-0.0134352939203382,0.5,0.0076143420301377,0.0112748220562935
651,-0.106332562863827,0.0499065704643726,-0.0845675393939018,0.5,-0.0561447590589523,-0.0744586437940598
652,-0.122702121734619,0.013140557333827,-0.109281942248344,0.5,-0.0861925259232521,-0.129330351948738
653,-0.125650361180305,-0.0227095894515514,-0.0903248190879822,0.5,-0.0790244415402412,-0.142588302493095
654,-0.110028713941574,-0.0474050268530846,-0.0523509196937084,0.5,-0.050764050334692,-0.115413144230843
655,-0.0741617009043694,-0.0407839082181454,-0.0156370718032122,0.5,-0.0094320764765143,-0.0517659336328506
656,-0.034452673047781,0.0011348129482939,0.000268981559202,0.5,0.027679892256856,0.02375184930861
657,-0.0220077112317085,0.046599306166172,-0.0174209550023079,0.5,0.0300106182694435,0.0763623639941216
658,-0.0358344279229641,0.0664619654417038,-0.0494571179151535,0.5,0.0002787777630146,0.101021714508533
659,-0.0468306057155132,0.0665121972560883,-0.0574369095265865,0.5,-0.0254784002900124,0.108395300805569
660,-0.0412027612328529,0.067760169506073,-0.0214688833802938,0.5,-0.0220385324209929,0.105177000164986
661,-0.021139670163393,0.0692883431911469,0.0428083576261997,0.5,0.0071415221318602,0.0930715128779411
662,0.002454015193507,0.0543158575892448,0.100375384092331,0.5,0.0422568693757057,0.0778731182217598
663,0.0130652328953147,0.0272614397108555,0.126591965556145,0.5,0.0676316171884537,0.0742867067456245
664,0.004595729522407,0.0176752805709839,0.117870643734932,0.5,0.0795583054423332,0.0785718038678169
665,-0.0136164594441652,0.0380192175507545,0.0837936103343964,0.5,0.0799801424145699,0.0715689659118652
666,-0.0262155421078205,0.0612464137375355,0.0396590791642666,0.5,0.0747111663222313,0.0422707907855511
667,-0.0338701978325844,0.0557770356535912,-0.0036012162454426,0.5,0.0657438561320305,-0.0088374931365251
668,-0.0560821034014225,0.0237636100500822,-0.0414310917258263,0.5,0.0440519526600838,-0.0629864782094955
669,-0.0942805558443069,-0.0077590509317815,-0.0698235109448433,0.5,0.0088741350919008,-0.0946925282478333
670,-0.129330679774284,-0.028683690354228,-0.0866153240203857,0.5,-0.023769523948431,-0.0952640622854233
671,-0.148758977651596,-0.0423083528876305,-0.0858582556247711,0.5,-0.0385524146258831,-0.0692636221647263
672,-0.145233437418938,-0.0354922488331795,-0.0599398463964462,0.5,-0.0306705646216869,-0.0288517381995916
673,-0.118497729301453,-0.0035491143353283,-0.020026633515954,0.5,-0.0092572690919041,0.0061619807966053
674,-0.0806187093257904,0.0324415825307369,0.0099975327029824,0.5,0.0094344280660152,0.0303399469703436
675,-0.0463262386620045,0.0525442399084568,0.0163724310696125,0.5,0.0118637951090932,0.0512855462729931
676,-0.0251126009970903,0.0517012104392052,-0.0010888505494222,0.5,-0.0092336805537343,0.0612232871353626
677,-0.0162117257714272,0.0359052084386349,-0.0251767244189978,0.5,-0.0409973412752151,0.0534989275038242
678,-0.0076942001469433,0.0200134925544262,-0.02882937528193,0.5,-0.0510142371058464,0.0403991229832172
679,0.008019158616662,0.0186685789376497,-0.0044878874905407,0.5,-0.0246249809861183,0.0319425277411938
680,0.0196016523987055,0.0317392237484455,0.0335111878812313,0.5,0.0180148035287857,0.0300020594149828
681,0.0123516917228699,0.0419792756438255,0.0675530210137367,0.5,0.0523345805704594,0.0285889226943254
682,-0.0087160468101501,0.0349257104098797,0.0837251469492912,0.5,0.0723505243659019,0.0178518425673246
683,-0.0268289893865585,0.0148157430812716,0.0782950222492218,0.5,0.0805026814341545,0.0031018676236271
684,-0.0391184389591217,-0.0078057385981082,0.0567133314907551,0.5,0.074557363986969,-0.0070979446172714
685,-0.0525186806917191,-0.0198175124824047,0.0292327553033829,0.5,0.0581333115696907,-0.0131905963644385
686,-0.0629082322120667,-0.0067858304828405,0.0071277040988206,0.5,0.0469540171325207,-0.0111133549362421
687,-0.0682254284620285,0.0313490927219391,-0.0167366452515125,0.5,0.0421908013522625,0.0014554143417626
688,-0.0792357251048088,0.0760007575154305,-0.0587299726903439,0.5,0.0245111472904682,0.0194799732416868
689,-0.092972494661808,0.0877916440367699,-0.103748954832554,0.5,-0.0019702191930264,0.0243879668414593
690,-0.0883003175258636,0.0375652015209198,-0.118021950125694,-0.5,-0.0036245826631784,-0.011943070217967
691,-0.0540201999247074,-0.0454954206943512,-0.0911465287208557,-0.5,0.031339056789875,-0.0746017247438431
692,-0.0003228212881367,-0.101808473467827,-0.0372815057635307,-0.5,0.0776442140340805,-0.111177138984203
693,0.0498329028487206,-0.106235459446907,0.0207346770912409,-0.5,0.105178996920586,-0.10679616779089
694,0.0759618133306503,-0.0794346630573273,0.0638537630438805,0.36898210644722,0.105093963444233,-0.088959239423275
695,0.072493851184845,-0.0532162599265575,0.0824411287903786,0.5,0.0898204445838928,-0.0744125917553902
696,0.0494487658143044,-0.0367948859930038,0.0758895576000214,0.5,0.0746683552861214,-0.0579449310898781
697,0.0217511299997568,-0.0230235531926155,0.0550695508718491,0.5,0.0666036605834961,-0.0389399006962776
698,-0.0021146507933735,-0.0136544816195965,0.0350436978042126,0.5,0.0634728968143463,-0.0284605994820595
699,-0.0222248155623674,-0.0088098524138331,0.0195707324892282,0.5,0.0551394745707512,-0.0318832471966743
700,-0.0418945774435997,0.0024014865048229,0.0027730977162718,0.5,0.035573273897171,-0.0393104292452335
701,-0.0598000697791576,0.0170806907117367,-0.0161395780742168,0.5,0.0116940112784505,-0.0430435016751289
702,-0.067164272069931,0.0143345650285482,-0.0308732315897942,0.5,-0.0058432659134268,-0.0475104339420795
703,-0.0536027811467648,-0.0124961361289024,-0.0343617238104343,0.5,-0.0083067985251545,-0.0470037125051022
704,-0.0215374231338501,-0.0385031327605248,-0.0279331840574741,0.5,0.0050778342410922,-0.0268300771713257
705,0.0119359381496906,-0.0413191542029381,-0.0205599740147591,0.5,0.0210679415613413,0.0054567051120102
706,0.0318309366703033,-0.0337918363511562,-0.0120253898203373,0.5,0.0319615676999092,0.0169035214930773
707,0.0329295136034489,-0.0322853177785873,0.0048891678452491,0.5,0.0455300733447075,-0.013354105874896
708,0.0221520774066448,-0.0270246639847755,0.0321219973266125,0.5,0.068471185863018,-0.057754285633564
709,0.0099691953510046,-0.0070744650438427,0.0618431493639946,0.5,0.0937714204192162,-0.0711439028382301
710,-0.0039805299602448,0.0210041254758835,0.0752556845545769,0.5,0.1070661470294,-0.049768477678299
711,-0.0197883155196905,0.0408443622291088,0.0586750656366348,-0.5,0.105952382087708,-0.0245617050677538
712,-0.0280068535357714,0.0310335606336594,0.0218606945127249,-0.5,0.0980246514081955,-0.0192583035677671
713,-0.0208795145153999,-0.0205536521971226,-0.0123041039332747,-0.5,0.0823830813169479,-0.0349287241697311
714,-0.0043585384264588,-0.0922476202249527,-0.0345602631568909,-0.5,0.0539907366037369,-0.0603982508182526
715,0.0077449586242437,-0.142559051513672,-0.0483310148119926,-0.5,0.0229236390441656,-0.084401547908783
716,0.0123112630099058,-0.152172535657883,-0.0503885969519615,-0.5,0.0064538856968283,-0.0955254808068275
717,0.0097502367570996,-0.128870606422424,-0.0380375199019909,-0.5,0.0053487964905798,-0.0835448727011681
718,-0.002334659686312,-0.0888481661677361,-0.0229259897023439,-0.5,0.0062043713405728,-0.0562789626419544
719,-0.0088982954621315,-0.0507979430258274,-0.014682600274682,-0.5,0.0041502220556139,-0.0415173172950745
720,0.0028408307116478,-0.026600306853652,-0.008995353244245,-0.5,0.004304064437747,-0.0547572150826454
721,0.0187891218811274,-0.0153216877952218,0.0002883089473471,-0.5,0.0063116773962974,-0.0802243128418922
722,0.0271637123078108,-0.0098978700116276,0.0180524997413158,-0.5,0.0105384020134807,-0.086430549621582
723,0.0285782963037491,0.0029505176935344,0.0434670448303223,-0.5,0.0185995101928711,-0.0470621436834335
724,0.0223394669592381,0.0329155400395393,0.0610338747501373,-0.5,0.0217729676514864,0.0284522753208876
725,0.0130999367684126,0.062109787017107,0.0563614182174206,-0.5,0.0144232111051679,0.0855687037110329
726,0.0073556420393288,0.0594755671918392,0.0355837307870388,-0.5,0.0080524114891886,0.0851456001400948
727,0.0023412965238094,0.0228777248412371,0.0184531938284636,-0.5,0.0163541231304407,0.0464039817452431
728,-0.0031168588902801,-0.0202127657830715,0.0179258100688457,-0.5,0.0390655361115932,0.0119569934904575
729,-0.0010332646779716,-0.0460437014698982,0.0284372679889202,-0.5,0.0636450499296188,4.75743290735409e-05
730,0.0097365314140915,-0.0523568540811539,0.0312181711196899,-0.5,0.0750879347324371,-0.0058208457194268
731,0.0165185406804085,-0.0479760318994522,0.0180353578180075,-0.5,0.070734977722168,-0.0192374456673861
732,0.0152406180277467,-0.0378872454166412,0.0060103558935225,-0.5,0.0622142404317856,-0.0254552643746138
733,0.0179504975676537,-0.0231347754597664,0.0110131716355681,-0.5,0.0552469938993454,-0.0107440389692783
734,0.0337896235287189,-0.003735318314284,0.0253787003457546,-0.5,0.0449034981429577,0.0240544117987156
735,0.0612815916538239,0.0194540936499834,0.0393021665513515,-0.5,0.0332751497626305,0.0701567754149437
736,0.088568277657032,0.0408236347138882,0.0538681037724018,-0.5,0.0272667668759823,0.100175619125366
737,0.0990511551499367,0.0492291115224361,0.0638129413127899,-0.5,0.0263487342745066,0.086222916841507
738,0.0933755189180374,0.0385006703436375,0.0598895102739334,-0.5,0.0313571840524673,0.041638370603323
739,0.0818672850728035,0.015537828207016,0.04091677069664,-0.5,0.0380177870392799,0.0004961070953868
740,0.0568641237914562,-0.0102352639660239,0.0074555547907948,-0.5,0.0257128924131393,-0.0316024459898472
741,0.0156957395374775,-0.0268041025847197,-0.0288278553634882,-0.5,-0.0072795748710632,-0.0495285391807556
742,-0.0208919104188681,-0.0233076438307762,-0.0470458827912807,-0.5,-0.035020537674427,-0.033879280090332
743,-0.0353246740996838,-0.0084077026695013,-0.042671263217926,-0.5,-0.0437948517501354,0.0054292865097522
744,-0.023860028013587,0.0025871591642499,-0.0238657537847757,-0.5,-0.0356104485690594,0.042754027992487
745,0.0064660576172173,0.0086009530350565,-0.0007157874642871,-0.5,-0.0134436218068004,0.0711146667599678
746,0.0334625653922558,0.0140003208070993,0.0125308940187097,-0.5,0.0119595713913441,0.0885771214962006
747,0.0373329147696495,0.0152293853461742,0.0118806520476937,-0.5,0.02631800994277,0.0842306837439537
748,0.0228992775082588,0.0026654794346541,0.0071502146311104,-0.5,0.02238979190588,0.0457801036536694
749,0.0099631091579794,-0.0261535029858351,0.0045566717162728,-0.5,0.0030436674132943,-0.0188644379377365
750,0.0113946897909045,-0.0508288219571114,0.0092753954231739,-0.5,-0.0128147844225168,-0.0693762302398682
751,0.0245902333408594,-0.0460375547409058,0.0269014332443476,-0.5,-0.0064310664311051,-0.0756956711411476
752,0.0449908934533596,-0.01686080545187,0.0546815171837807,-0.5,0.0223733931779861,-0.0513347834348679
753,0.0728360563516617,0.0083784172311425,0.0820104703307152,-0.5,0.0579439327120781,-0.0229119844734669
754,0.101509571075439,0.0121697289869189,0.0979135930538177,-0.5,0.0804148465394974,0.0011556082172319
755,0.11654107272625,0.0071504553779959,0.100763842463493,-0.5,0.0876888409256935,0.0341455861926079
756,0.10520176589489,0.01644641533494,0.0897719785571098,-0.5,0.0862212479114532,0.0884218290448189
757,0.0715744718909264,0.0439767763018608,0.0579960979521275,-0.5,0.0645535290241241,0.150725558400154
758,0.035428274422884,0.0733064040541649,0.0092619024217128,-0.5,0.0149484984576702,0.179184317588806
759,0.007514972705394,0.0766869634389877,-0.0387281514704227,-0.5,-0.0441693179309368,0.140517547726631
760,-0.0097942259162664,0.0459745824337006,-0.0657431036233902,-0.5,-0.0826520621776581,0.0633956640958786
761,-0.0058007538318634,0.0146824726834893,-0.0569043830037117,-0.5,-0.0768295228481293,0.0075497035868465
762,0.0212818942964077,0.0103038232773542,-0.0168096348643303,-0.5,-0.0313891172409058,-0.0071252211928367
763,0.055063359439373,0.0169316399842501,0.0354199223220348,-0.5,0.0235366504639387,0.0049295173957943
764,0.0825973749160767,0.012836373411119,0.0804418921470642,-0.5,0.0655824467539787,0.0264108367264271
765,0.094518817961216,-0.0005007607978768,0.0970201715826988,-0.5,0.0825764015316963,0.0401751063764095
766,0.0856638178229332,-0.0152984848245978,0.079061895608902,-0.5,0.0654721111059189,0.0415789932012558
767,0.0654700845479965,-0.0242414977401495,0.0513112582266331,-0.5,0.0252794828265905,0.0426479354500771
768,0.0465019829571247,-0.0201749168336391,0.0414988361299038,-0.5,-0.0084619307890534,0.0516247376799583
769,0.0337158404290676,-0.0059425951912999,0.0508408099412918,-0.5,-0.0168314129114151,0.0619150623679161
770,0.0246578380465508,0.0060294903814792,0.0613997057080269,-0.5,-0.0085352668538689,0.0631345361471176
771,0.0144371688365936,0.0016377500724047,0.0523456633090973,-0.5,-0.0072419443167746,0.0531153939664364
772,0.0012564018834382,-0.0217106509953737,0.0090627186000347,-0.5,-0.0331802666187286,0.0352762490510941
773,-0.0115728648379445,-0.0386755056679249,-0.0564991943538189,-0.5,-0.0839156284928322,0.0204045344144106
774,-0.018686318770051,-0.0180406849831343,-0.10477676987648,-0.5,-0.129323244094849,0.0116397673264146
775,-0.0186446327716112,0.0308117642998695,-0.106736831367016,-0.5,-0.138622939586639,-0.0003904302720911
776,-0.008855901658535,0.0734076499938965,-0.0635337010025978,-0.5,-0.102079480886459,-0.0012557232985273
777,0.0168959386646748,0.0923628211021423,0.0078738117590546,-0.5,-0.0322127602994442,0.0303216315805912
778,0.0545284003019333,0.086727537214756,0.0838328376412392,-0.5,0.0443319007754326,0.0772372335195541
779,0.0859081298112869,0.0646806061267853,0.139053702354431,-0.5,0.0993974432349205,0.102780669927597
780,0.0967048928141594,0.0421155728399754,0.159907266497612,-0.5,0.118978515267372,0.0968901142477989
781,0.0838648229837418,0.0295951869338751,0.144275516271591,-0.5,0.101972095668316,0.0806982293725014
782,0.0541803278028965,0.0173979643732309,0.0997898951172829,-0.5,0.0551993995904922,0.0652142912149429
783,0.0293422285467386,-0.0132138105109334,0.0504269078373909,-0.5,0.0081295128911733,0.0398394241929054
784,0.0197210647165775,-0.0548654049634933,0.0183571185916662,-0.5,-0.0139211863279343,0.0079678688198328
785,0.0103598004207015,-0.078399196267128,0.0048313145525753,-0.5,-0.023125309497118,-0.0064416420646011
786,-0.0048895860090851,-0.0714900121092796,-0.000224697185331,-0.5,-0.0393282733857632,0.0082930391654372
787,-0.0207312554121017,-0.0460523925721645,-0.0067042605951428,-0.5,-0.0662618651986122,0.0389344729483128
788,-0.0368393138051033,-0.0154849234968424,-0.0166937168687582,-0.5,-0.0963960289955139,0.070094145834446
789,-0.0482116676867008,0.0168997514992952,-0.0210710298269987,-0.5,-0.113464921712875,0.0973462462425232
790,-0.0440992973744869,0.051477886736393,-0.01136305462569,-0.5,-0.101075634360313,0.1130241304636
791,-0.0200985819101334,0.0845765322446823,0.0111871501430869,-0.5,-0.0578956119716167,0.113565526902676
792,0.0150058511644602,0.102787509560585,0.0362345650792122,-0.5,-0.0059845992363989,0.108949363231659
793,0.0439678058028221,0.0936155095696449,0.0497835725545883,-0.5,0.0255848001688719,0.0945724174380302
794,0.0583803914487362,0.0614463910460472,0.0462302379310131,-0.5,0.0291849616914988,0.0558631531894207
795,0.0602227263152599,0.0225218329578638,0.0337439030408859,-0.5,0.0212660636752844,0.0015314860502257
796,0.0518799684941769,-0.0066523170098662,0.0251129157841206,-0.5,0.0195292215794325,-0.046970821917057
797,0.0326461903750896,-0.0176708977669477,0.0197408944368362,-0.5,0.0218406710773706,-0.0784923359751701
798,-0.0065516550093889,-0.0182558763772249,-0.0022111304569989,-0.5,0.0022857098374515,-0.0956432893872261
799,-0.0624839626252651,-0.0166068747639656,-0.0516345724463463,-0.5,-0.0584020912647247,-0.100456580519676
800,-0.10765927284956,-0.0057766754180192,-0.103759869933128,-0.5,-0.136118918657303,-0.0824316143989563
801,-0.130033493041992,0.0119956126436591,-0.125942975282669,-0.5,-0.188036277890205,-0.0375451408326626
802,-0.14102678000927,0.0205411482602358,-0.115143343806267,-0.5,-0.198023974895477,0.0218992177397013
803,-0.145894914865494,0.0131564047187567,-0.0874783396720886,-0.5,-0.173357293009758,0.0804677382111549
804,-0.143046110868454,-0.011188929900527,-0.0559627488255501,-0.5,-0.127479746937752,0.114112697541714
805,-0.127531781792641,-0.0449342615902424,-0.0213787984102964,-0.5,-0.0708082765340805,0.0981376841664314
806,-0.0879241153597832,-0.0652553290128708,0.0240821372717619,0.5,-0.0088923769071698,0.04781723767519
807,-0.0269871111959219,-0.0596290528774261,0.0770878568291664,0.5,0.0443436875939369,0.0089741377159953
808,0.0276363808661699,-0.0296971276402473,0.120867989957333,0.5,0.0744036063551903,0.0140100382268429
809,0.0519061647355556,0.0174979325383902,0.137925654649735,0.5,0.0785584822297096,0.0583678483963013
810,0.0416672714054585,0.0595030188560486,0.119952730834484,0.5,0.0580971986055374,0.0983438417315483
811,0.0066588185727596,0.0768742188811302,0.0804182812571526,0.5,0.0228129271417856,0.101052813231945
812,-0.0348664857447147,0.073250025510788,0.0428964458405972,0.5,-0.0098138814792037,0.0790352299809456
813,-0.0705812051892281,0.0649678558111191,0.0163836963474751,0.5,-0.0326940976083279,0.0516863651573658
814,-0.102637425065041,0.0654902532696724,-0.006071493960917,0.5,-0.0550307407975197,0.0165093429386616
815,-0.128294557332993,0.0709775313735008,-0.0294855441898108,0.5,-0.0824735388159752,-0.0216627866029739
816,-0.132039040327072,0.0720741599798203,-0.0460906401276588,0.5,-0.0989953652024269,-0.0320251435041428
817,-0.117266245186329,0.06972586363554,-0.0515103489160538,0.5,-0.090446762740612,-0.0010001469636336
818,-0.105020716786385,0.0560875907540321,-0.0556726977229118,0.5,-0.0677738711237907,0.0359101369976997
819,-0.098049707710743,0.016008336097002,-0.0627047270536423,0.5,-0.0491328872740269,0.0356786400079727
820,-0.0900943279266357,-0.0481763668358326,-0.0637961775064468,0.5,-0.046308621764183,-0.0005673619452863
821,-0.0826422199606895,-0.110809519886971,-0.0534788593649864,0.5,-0.0612168684601784,-0.0340134017169476
822,-0.0737689584493637,-0.138635456562042,-0.0280333980917931,0.5,-0.0764954760670662,-0.0343175753951073
823,-0.0619882829487324,-0.123440898954868,0.0109994895756245,0.5,-0.0727251321077347,-0.0161410495638847
824,-0.0529683567583561,-0.0833377242088318,0.0418598502874374,0.5,-0.05457578971982,-0.0128068188205361
825,-0.0495141036808491,-0.0347117260098457,0.0475349426269531,0.5,-0.0353056117892265,-0.0190959703177214
826,-0.0492294318974018,0.0146205201745033,0.0368115641176701,0.5,-0.0156605411320925,0.0024579525925219
827,-0.0579213239252567,0.0601139068603516,0.0175353474915028,0.5,-0.0016104440437629,0.0561214685440063
828,-0.0857423022389412,0.0963324084877968,-0.0154803767800331,0.5,-0.0101501112803817,0.091884657740593
829,-0.125343263149261,0.108161516487598,-0.0616240352392197,0.5,-0.0456971824169159,0.0700588226318359
830,-0.152477487921715,0.0841225609183311,-0.0980051308870316,0.5,-0.0864271149039268,0.0148486634716392
831,-0.146465465426445,0.0446533933281899,-0.0892999470233917,0.5,-0.0946952402591705,-0.0150104844942689
832,-0.108667224645615,0.0242494847625494,-0.0308062732219696,0.5,-0.0562885403633118,0.005843551363796
833,-0.059696227312088,0.0311113931238651,0.0382576026022434,0.5,3.61063284799457e-05,0.0536683909595013
834,-0.0219658426940441,0.0490916892886162,0.0761491432785988,0.5,0.0348994508385658,0.0909072905778885
835,-0.0106672216206789,0.0681577399373055,0.0739327147603035,0.5,0.0345826856791973,0.0966167822480202
836,-0.0260633751749992,0.0842572301626205,0.0495944023132324,0.5,0.0097021665424108,0.0746873840689659
837,-0.0546408109366894,0.0764137953519821,0.0192696806043386,0.5,-0.0274783279746771,0.0362972803413868
838,-0.0815071016550064,0.0332382805645466,-0.0084381150081753,0.5,-0.0636264532804489,-0.0098811974748969
839,-0.0932952016592026,-0.0144144771620631,-0.0186756197363138,0.5,-0.0755095481872559,-0.0437898822128773
840,-0.0854234397411346,-0.0355806238949299,-0.0032886490225791,0.5,-0.0513111874461174,-0.0439015217125416
841,-0.0711690112948418,-0.0339364185929298,0.021848551928997,0.5,-0.0121156228706241,-0.0146355647593737
842,-0.067435085773468,-0.0256705395877361,0.0338941588997841,0.5,0.01151969935745,0.0265857297927141
843,-0.0812269821763039,-0.0206178762018681,0.0210085138678551,-0.0001413946592947,0.006510451901704,0.0621199086308479
844,-0.112648867070675,-0.0146804107353091,-0.0188519265502691,-0.5,-0.0287798419594765,0.0642122179269791
845,-0.14807702600956,0.0009613746078684,-0.0708631351590157,-0.5,-0.0808123722672462,0.0276103429496288
846,-0.162648379802704,0.0268174912780523,-0.108328826725483,-0.5,-0.119339182972908,-0.0155219081789255
847,-0.14503525197506,0.0604009628295898,-0.114164896309376,-0.5,-0.119126282632351,-0.038567341864109
848,-0.103677861392498,0.0845639631152153,-0.0848289728164673,-0.5,-0.0748196542263031,-0.0363611057400703
849,-0.0627010017633438,0.071846105158329,-0.0369457751512527,-0.5,-0.0149665726348758,-0.0244670864194632
850,-0.0457252562046051,0.0282553676515818,-0.0021898776758462,-0.5,0.0186442974954844,-0.0260865110903978
851,-0.0481964275240898,-0.0086535178124904,0.005055486690253,-0.5,0.0182922426611185,-0.0426490195095539
852,-0.047258697450161,-0.0190964564681053,-0.0006694595795124,-0.5,0.0073787602595984,-0.056872233748436
853,-0.0319938398897648,-0.0204256922006607,0.0001124784321291,-0.5,0.0055971425026655,-0.058678288012743
854,-0.0093340957537293,-0.0361783504486084,0.0101803140714765,-0.5,0.0144641315564513,-0.0575780496001244
855,0.0093110697343945,-0.0617923960089684,0.0271918717771769,-0.5,0.0293884687125683,-0.0601431205868721
856,0.0157327689230442,-0.0774431079626083,0.0485968887805939,0.5,0.0464731715619564,-0.0553823336958885
857,0.0048001669347286,-0.0764070823788643,0.0625226199626923,0.5,0.0591076947748661,-0.0377008430659771
858,-0.0216458346694708,-0.0616747438907623,0.0614885650575161,0.5,0.0639091655611992,-0.0131458900868893
859,-0.0564382188022137,-0.0370865389704704,0.0444952510297298,0.5,0.0561320446431637,0.0120721692219377
860,-0.0912092328071594,-0.0039310348220169,0.0083622252568602,0.5,0.0307854861021042,0.02284468524158
861,-0.112346202135086,0.0405133776366711,-0.037046305835247,0.5,-0.0002538595581427,0.0046557388268411
862,-0.10807478427887,0.0829114988446236,-0.0690666437149048,0.5,-0.0214076470583677,-0.0276081655174494
863,-0.079434722661972,0.101613610982895,-0.0699228048324585,0.5,-0.0284428168088198,-0.0392281487584114
864,-0.0387492440640926,0.10294159501791,-0.0342417620122433,0.5,-0.0191318653523922,-0.0158019941300154
865,-0.0042028799653053,0.100878685712814,0.01834337413311,0.5,0.0020388725679367,0.0188822168856859
866,0.0117951212450862,0.0837693959474564,0.0535577796399593,0.5,0.0230289716273546,0.0358869843184948
867,0.0083271786570549,0.0405569784343243,0.0556291602551937,0.5,0.0317589528858662,0.0232410617172718
868,-0.0083087189123034,-0.014657654799521,0.0342482291162014,0.5,0.0196426399052143,-0.0191531088203192
869,-0.0265664048492908,-0.0564487352967262,0.0097720250487327,0.5,-0.0076757902279496,-0.0643701702356339
870,-0.040219783782959,-0.064370296895504,-0.0072710891254246,0.5,-0.0367467664182186,-0.0767077878117561
871,-0.0530642345547676,-0.0396054051816463,-0.0211586505174637,0.5,-0.0587030723690987,-0.0602547414600849
872,-0.063614197075367,-0.0070028258487582,-0.0316505804657936,0.5,-0.0634558871388435,-0.0438933745026588
873,-0.0664342418313026,0.0147787444293499,-0.0323083288967609,0.5,-0.0462525151669979,-0.0384652763605118
874,-0.0637234747409821,0.0168363619595766,-0.027449743822217,0.5,-0.0195939801633358,-0.0448629893362522
875,-0.0588625408709049,-0.0147544760257006,-0.0296966768801212,0.5,-0.0010636931983754,-0.0712768584489822
876,-0.0537262074649334,-0.0755654945969582,-0.0410688705742359,0.5,0.0020076208747923,-0.113431721925735
877,-0.0466366484761238,-0.131435617804527,-0.0475213453173637,0.5,-0.0047894450835883,-0.141307771205902
878,-0.0308918133378029,-0.150517106056213,-0.0384521521627903,0.5,-0.0108034713193774,-0.12686625123024
879,-0.0112646855413914,-0.126500025391579,-0.01969039067626,0.5,-0.0106891458854079,-0.0652806237339973
880,-0.0058051729574799,-0.0660525783896446,-0.0044554909691214,0.5,-0.0097902454435825,0.01739133708179
881,-0.0212446674704552,0.0194125771522522,0.0006166839739307,0.5,-0.0138605423271656,0.075458787381649
882,-0.0462202541530132,0.0956762507557869,-0.0015471599763259,0.5,-0.0175321996212006,0.0863511711359024
883,-0.0641142651438713,0.123579896986485,-0.0109513103961945,0.5,-0.0179877579212189,0.0519926808774471
884,-0.0629796832799912,0.104864329099655,-0.0266741663217545,0.5,-0.0169721841812134,-0.0113352229818702
885,-0.0470744632184505,0.0660529211163521,-0.0325727909803391,0.5,-0.0096981916576623,-0.0638580694794655
886,-0.0279235132038593,0.0215927474200726,-0.0143169676885009,0.5,0.0039516976103186,-0.0720271840691566
887,-0.0078283492475748,-0.0172612145543098,0.020995119586587,0.5,0.0141226602718234,-0.0353356823325157
888,0.0120413564145565,-0.0332659333944321,0.0580700002610683,0.5,0.0192480329424143,0.0259090587496758
889,0.0230133980512619,-0.0176542364060879,0.0862704440951347,0.5,0.0245351158082485,0.0859400928020477
890,0.0165011864155531,0.0195098109543324,0.0936548039317131,0.5,0.0234265215694904,0.123181700706482
891,-0.0027018615510314,0.0625108629465103,0.0768564939498901,0.5,0.0130467964336276,0.134482890367508
892,-0.0193846169859171,0.100714661180973,0.0499397851526737,0.5,0.0085313338786363,0.132412597537041
893,-0.0240632984787226,0.118680514395237,0.0215311925858259,0.5,0.0145250707864761,0.12017584592104
894,-0.0229173060506582,0.10458105802536,-0.0142856016755104,0.5,0.0111898528411984,0.0870963782072067
895,-0.0364201664924622,0.0590742155909538,-0.0683273822069168,0.5,-0.0246365461498499,0.0160965994000435
896,-0.0732258707284927,-0.0146967601031065,-0.137972474098206,0.5,-0.0930410698056221,-0.0966651365160942
897,-0.104270920157433,-0.0901456028223038,-0.178717344999313,0.5,-0.152446806430817,-0.203834921121597
898,-0.0940620005130768,-0.121344193816185,-0.14306665956974,0.5,-0.152663007378578,-0.237995624542236
899,-0.0474792458117008,-0.0944100022315979,-0.0439130440354347,0.5,-0.0878499895334244,-0.181657984852791
900,0.0056464103981852,-0.0317735932767391,0.0662115067243576,0.5,0.0135382190346718,-0.0705982372164726
901,0.0456835478544235,0.0315700359642506,0.14041268825531,0.5,0.11527618765831,0.0465169362723827
902,0.0685097724199295,0.0689385756850243,0.159991875290871,0.5,0.175493061542511,0.139010414481163
903,0.0716312900185585,0.0756922587752342,0.136629968881607,0.5,0.167730316519737,0.183313339948654
904,0.0494450516998768,0.0627853199839592,0.0918049737811089,0.5,0.107924252748489,0.164804711937904
905,0.0118479989469051,0.053549412637949,0.0452945493161678,0.5,0.0379608049988747,0.111504621803761
906,-0.021846130490303,0.0613434873521328,0.0129049913957715,0.5,-0.0151877608150244,0.0681155025959015
907,-0.0418175272643566,0.0720179006457329,0.0019747156184166,0.5,-0.0450600944459438,0.0476227924227715
908,-0.0426868051290512,0.0733229219913483,0.0077155721373856,-0.5,-0.0502001643180847,0.0356589965522289
909,-0.02299096994102,0.069531224668026,0.0196734089404345,-0.5,-0.0354790948331356,0.0277177896350622
910,0.0076090991497039,0.0667959153652191,0.0321395620703697,-0.5,-0.0126081360504031,0.0362745262682438
911,0.0311025511473417,0.0650992318987846,0.04024887830019,-0.5,0.0061106192879378,0.0529963709414005
912,0.0333582684397697,0.0625031888484955,0.0354452840983868,-0.5,0.0132353128865361,0.0547369122505188
913,0.0209600161761045,0.0653259456157684,0.0138565935194492,-0.5,0.011474727652967,0.0404370985925198
914,0.0141876088455319,0.0733821466565132,-0.0168099161237478,-0.5,0.0062947385013103,0.0215830970555544
915,0.0111966542899609,0.0601441897451878,-0.0435924977064133,-0.5,-0.0048165619373321,0.0018268916755914
916,-0.0045759286731481,0.0081710759550333,-0.0533835366368294,-0.5,-0.0222925934940577,-0.0222517978399992
917,-0.0284082815051079,-0.0496822074055672,-0.0392435267567635,-0.5,-0.036767840385437,-0.0476011633872986
918,-0.0423491671681404,-0.072399877011776,-0.0126907806843519,-0.5,-0.0415468439459801,-0.0602210462093353
919,-0.039496161043644,-0.0611453764140606,0.0094948858022689,-0.5,-0.036962416023016,-0.0508443787693977
920,-0.0291008185595274,-0.0348540283739567,0.0233723856508732,-0.5,-0.0231781024485826,-0.0266165435314178
921,-0.0196589007973671,-0.0022674964275211,0.0302368737757206,-0.5,-0.000661056372337,-0.0064064944162964
922,-0.0039655971340835,0.0264133904129267,0.0338480472564697,-0.5,0.0251072570681572,0.001139081432484
923,0.0225320532917976,0.0375934839248657,0.0323025844991207,-0.5,0.0367186330258846,0.0104244630783796
924,0.0479416996240616,0.0310607068240643,0.0121989278122783,-0.5,0.0129677848890424,0.0265399124473333
925,0.0582439042627811,0.0184520836919546,-0.0211701132357121,-0.5,-0.0401825904846191,0.0251546781510115
926,0.0484434701502323,0.0111425723880529,-0.0416108928620815,-0.5,-0.0889051333069801,-0.0044971327297389
927,0.0276640821248293,0.012145203538239,-0.0402965843677521,-0.5,-0.10610494017601,-0.0413861162960529
928,0.0154450163245201,0.014611997641623,-0.0281417742371559,-0.5,-0.0898270532488823,-0.0670986399054527
929,0.0171954724937677,0.0130036249756813,-0.0228888690471649,-0.5,-0.0629167780280113,-0.0806512907147408
930,0.0122255114838481,0.004893708974123,-0.0426277071237564,-0.5,-0.0580539405345917,-0.087561272084713
931,-0.0149508351460099,-0.0004121868987567,-0.0775013715028763,-0.5,-0.0810153111815453,-0.0834368467330933
932,-0.049586221575737,0.0185492113232613,-0.0971024557948112,-0.5,-0.104414232075214,-0.0607375986874104
933,-0.0684358179569244,0.0606973208487034,-0.0920963063836098,-0.5,-0.106425374746323,-0.0317741595208645
934,-0.0663509517908096,0.0998674556612968,-0.0754818990826607,-0.5,-0.090531200170517,-0.0175042953342199
935,-0.0512660406529903,0.114332668483257,-0.0600922480225563,-0.5,-0.072182297706604,-0.0207559783011675
936,-0.0269234087318182,0.102390825748444,-0.0454282015562058,-0.5,-0.0557346269488335,-0.0262856055051088
937,0.0044782124459743,0.0778517797589302,-0.0288531146943569,-0.5,-0.0370173566043377,-0.0264241639524698
938,0.03520617634058,0.0599602125585079,-0.0254935156553984,-0.5,-0.0271476209163666,-0.0234861690551043
939,0.0527684241533279,0.0583238378167152,-0.0588999688625336,-0.5,-0.0463172122836113,-0.0214424673467875
940,0.0455503724515438,0.0560143366456032,-0.127993866801262,-0.5,-0.0927268639206886,-0.0491678863763809
941,0.0212742257863283,0.0301841907203197,-0.19225025177002,-0.5,-0.134070456027985,-0.129208594560623
942,-0.0015961894532665,-0.0159291997551918,-0.217506721615791,-0.5,-0.151476040482521,-0.225337699055672
943,-0.0197339057922363,-0.0573740787804127,-0.21476486325264,-0.5,-0.161975368857384,-0.284172385931015
944,-0.0359446853399277,-0.0685883909463882,-0.202122196555138,-0.5,-0.172808423638344,-0.280342429876328
945,-0.0428041890263557,-0.0441037453711033,-0.179205372929573,-0.5,-0.16727802157402,-0.222580105066299
946,-0.0321080908179283,-0.0052747088484466,-0.147109925746918,-0.5,-0.139326333999634,-0.148412317037582
947,-0.0112101305276155,0.0253788810223341,-0.114038564264774,-0.5,-0.102598331868649,-0.0909984782338142
948,0.0045728958211839,0.038954384624958,-0.0965983048081398,-0.5,-0.0781124606728554,-0.0647647306323051
949,0.0065765967592597,0.0326471067965031,-0.109890192747116,-0.5,-0.0827851369976997,-0.0705228820443153
950,-0.0008112820214591,0.01658003218472,-0.141479760408401,-0.5,-0.110352247953415,-0.0889752805233002
951,-0.0009520688327029,0.0141982808709145,-0.162363782525063,-0.5,-0.133041054010391,-0.095479242503643
952,0.0145874321460724,0.0433393716812134,-0.158179491758347,-0.5,-0.130152180790901,-0.0904300957918167
953,0.0333080515265465,0.0909364372491837,-0.136127039790154,0.5,-0.105767630040646,-0.0941225960850716
954,0.0408157184720039,0.111649006605148,-0.117077983915806,0.5,-0.0811066776514053,-0.115435317158699
955,0.0408549942076206,0.0845357403159142,-0.121086418628693,0.5,-0.0741174817085266,-0.137102663516998
956,0.0459716767072678,0.0425900742411613,-0.15109358727932,0.5,-0.087108701467514,-0.135680392384529
957,0.0506215393543243,0.0167171452194452,-0.198081344366074,0.5,-0.116018690168858,-0.126921951770782
958,0.0295029189437628,-0.0029885373078286,-0.256074726581573,0.5,-0.167605355381966,-0.157914459705353
959,-0.0259910095483065,-0.0353760942816734,-0.313361525535584,0.5,-0.238635689020157,-0.23633898794651
960,-0.0852360129356384,-0.0761636719107628,-0.348271459341049,0.5,-0.291519194841385,-0.318658351898193
961,-0.104826174676418,-0.105285674333572,-0.343642473220825,0.5,-0.286172032356262,-0.357652604579926
962,-0.0773585587739944,-0.111981101334095,-0.293894439935684,0.5,-0.223181620240211,-0.33981391787529
963,-0.0389438755810261,-0.110034510493279,-0.212052240967751,0.5,-0.141537591814995,-0.291886329650879
964,-0.0171148553490639,-0.116740986704826,-0.130122229456902,0.5,-0.0788707435131073,-0.247087389230728
965,-0.0016266549937427,-0.127252995967865,-0.0719300583004951,0.5,-0.0404927097260952,-0.214956238865852
966,0.0247571691870689,-0.120539389550686,-0.0296860951930285,0.5,-0.0068507939577102,-0.180602177977562
967,0.0613014064729214,-0.0801113694906235,0.0120394183322787,0.5,0.0342286564409733,-0.120742067694664
968,0.0934041067957878,-0.0116983707994223,0.0464950948953629,0.5,0.0722149983048439,-0.0382347665727139
969,0.104208700358868,0.058305237442255,0.05840053409338,0.5,0.0889495313167572,0.0242073070257902
970,0.089464083313942,0.0983937904238701,0.0430594980716705,0.5,0.0783120691776276,0.0316987112164497
971,0.0637184679508209,0.0985464826226234,0.0077553801238536,0.5,0.0522940270602703,-0.0011959056137129
972,0.042361706495285,0.0804027169942856,-0.0342809744179249,0.5,0.0293508023023605,-0.035541158169508
973,0.0239002611488104,0.0638567134737968,-0.0736624896526337,0.5,0.0174224004149437,-0.0505817346274853
974,-0.0001715742691885,0.0507251061499119,-0.113035149872303,0.5,0.006004826631397,-0.0527015291154385
975,-0.0320429019629955,0.0335873626172543,-0.156988143920898,0.5,-0.0185361318290234,-0.0650585666298866
976,-0.0619021989405155,0.0104888007044792,-0.186346545815468,0.5,-0.0468734167516232,-0.0989112630486488
977,-0.0741842687129974,-0.0157864466309547,-0.179889902472496,0.5,-0.0627819150686264,-0.13670052587986
978,-0.0643473938107491,-0.0555132031440735,-0.150575086474419,0.5,-0.0676962807774544,-0.157077848911285
979,-0.0408818833529949,-0.10618931800127,-0.114953264594078,0.5,-0.0628833025693893,-0.146814838051796
980,-0.0127887995913625,-0.141920074820518,-0.069034144282341,0.5,-0.0386033318936825,-0.101125165820122
981,0.01405621599406,-0.145695507526398,-0.0147268855944276,0.5,0.0055882129818201,-0.0322812348604202
982,0.0281322821974754,-0.125191077589989,0.0264661237597466,0.5,0.0509335324168205,0.0219938047230244
983,0.0259493496268988,-0.0945196971297264,0.0388794466853142,0.5,0.0838623940944672,0.02361174300313
984,0.023462250828743,-0.0483667254447937,0.0350237265229225,0.5,0.108681797981262,-0.0025733658112585
985,0.0342553742229939,0.0208731275051832,0.0299901198595762,0.5,0.127411127090454,0.0110936686396599
986,0.0488228164613247,0.0927933156490326,0.0182866286486387,0.5,0.130392953753471,0.0739598199725151
987,0.0422777943313122,0.127962857484818,-0.0069007603451609,0.5,0.107779331505299,0.120168529450893
988,0.0104247685521841,0.113230586051941,-0.0378133542835712,0.5,0.0639771670103073,0.0988195240497589
989,-0.0219098813831806,0.0689342841506004,-0.0554852820932865,0.5,0.0208810660988092,0.034212164580822
990,-0.0345335677266121,0.0115806059911847,-0.0429955422878265,0.5,0.0047285044565796,-0.016273757442832
991,-0.0261320117861032,-0.0433170385658741,-0.0011018150253221,0.5,0.0257380232214928,-0.0288476888090372
992,-0.0015079725999385,-0.072169691324234,0.0558744966983795,0.5,0.0763127654790878,-0.0119383670389652
993,0.0317995734512806,-0.0696721002459526,0.110133603215218,0.5,0.138326689600945,0.0255103297531605
994,0.0628992542624474,-0.0493765398859978,0.144156262278557,0.5,0.182616144418716,0.0734235495328903
995,0.0837917923927307,-0.0191362369805574,0.150035858154297,0.5,0.188498020172119,0.113230504095554
996,0.0914667695760727,0.0166556071490049,0.133915692567825,0.5,0.163077175617218,0.133772343397141
997,0.0856495574116707,0.0482036918401718,0.106904059648514,0.5,0.125946879386902,0.142645835876465
998,0.0675216540694237,0.0599369034171104,0.0740825310349464,0.5,0.0878388062119484,0.140858620405197
999,0.042797926813364,0.0480836518108845,0.0397186577320099,0.5,0.052727248519659,0.128220722079277
1000,-0.0715478584170341,-0.12655933201313,-0.0714698731899261,0.5,-0.0184248369187117,-0.0876448154449463
1001,-0.0839555338025093,-0.101418949663639,-0.0325064547359943,0.5,-0.0044332239776849,-0.0814273506402969
1002,-0.0547466352581978,-0.081288106739521,0.0311898924410343,0.5,0.0459202155470848,-0.0457545444369316
1003,0.0003400598070584,-0.0782987251877785,0.101440079510212,0.5,0.108224608004093,0.0026278835721314
1004,0.0585375018417835,-0.0782682225108147,0.159755364060402,0.5,0.162662237882614,0.051578912883997
1005,0.106716454029083,-0.0615720935165882,0.195571959018707,0.5,0.212054491043091,0.0943617597222328
1006,0.139551728963852,-0.0210207439959049,0.207385718822479,0.5,0.256870031356812,0.130696460604668
1007,0.149354934692383,0.020347049459815,0.195144087076187,0.5,0.271108001470566,0.161286577582359
1008,0.129827857017517,0.0328050144016743,0.166284754872322,0.5,0.2334104180336,0.186981692910194
1009,0.0935751050710678,0.0254984870553017,0.141449466347694,0.5,0.162386536598206,0.217386484146118
1010,0.057152409106493,0.0310213770717382,0.132734090089798,0.5,0.0935279577970505,0.259443610906601
1011,0.0220589470118284,0.0642476230859756,0.131310790777206,0.5,0.0448846556246281,0.293774008750916
1012,-0.0116136474534869,0.104928903281689,0.127765104174614,0.5,0.0169411431998014,0.292489796876907
1013,-0.0371676050126553,0.118027478456497,0.123014032840729,0.5,0.004334500990808,0.252315133810043
1014,-0.0499845147132874,0.0946672558784485,0.114125445485115,0.5,-0.001969379838556,0.186146974563599
1015,-0.0529616512358189,0.04734131321311,0.0953181385993958,0.5,-0.0069365622475743,0.109799109399319
1016,-0.0499900095164776,-0.0110747469589114,0.0735015422105789,0.5,-0.003666898002848,0.0431065820157528
1017,-0.0397900976240635,-0.0630383640527725,0.0587748438119888,0.5,0.0118399588391185,-0.0039444169960916
1018,-0.0182080306112766,-0.0858571752905846,0.0500581115484238,0.5,0.0340823084115982,-0.0283105298876762
1019,0.0150083396583796,-0.0677307322621346,0.0425823256373405,0.5,0.0596215277910233,-0.0226018708199263
1020,0.0480282455682755,-0.0285784881561995,0.0338117256760597,0.5,0.0812237784266472,0.0044275252148509
1021,0.0614439435303211,-0.0050796056166291,0.025164145976305,0.5,0.0859793499112129,0.0333773046731949
1022,0.0504637099802494,-0.005655825138092,0.0264168512076139,0.5,0.0756125524640083,0.0685841739177704
1023,0.0357145220041275,-0.0041282526217401,0.0495546758174896,0.5,0.0729237645864487,0.12228786945343
1024,0.037845715880394,0.0131943486630917,0.0923617705702782,0.5,0.0946964621543884,0.178137555718422
1025,0.0524080246686935,0.0204772558063269,0.131756633520126,0.5,0.124135091900826,0.201611995697021
1026,0.0637663975358009,-0.006217832211405,0.146347641944885,0.5,0.13329242169857,0.180312171578407
1027,0.0670720413327217,-0.0466115362942219,0.140158846974373,0.5,0.119539022445679,0.136496528983116
1028,0.0622308924794197,-0.0637437328696251,0.12923501431942,0.5,0.0964610278606415,0.09637101739645
1029,0.0429863594472408,-0.0525166690349579,0.120340541005135,0.5,0.0750513076782227,0.0719099268317223
1030,0.0095548825338482,-0.0313915722072124,0.111607372760773,0.5,0.0616165921092033,0.062271524220705
1031,-0.01823915168643,-0.0072312871925532,0.105156242847443,0.5,0.0587948597967625,0.066527359187603
1032,-0.0189308524131775,0.0225055608898401,0.102628730237484,0.5,0.0611642897129059,0.0909876972436905
1033,0.0033317413181066,0.0424817204475403,0.0915890112519264,0.5,0.0504207946360111,0.11783117800951
1034,0.0235259886831045,0.0349001698195934,0.0679383352398872,0.5,0.0200193133205175,0.117587797343731
1035,0.0281614605337381,0.0137079311534762,0.0535858608782291,0.5,-0.0067552882246673,0.098827563226223
1036,0.0290496721863747,0.001045687473379,0.0697676613926888,0.5,-0.0051990789361298,0.0944538488984108
1037,0.041162982583046,0.0033893641084432,0.109769999980927,0.5,0.0237829554826021,0.123998902738094
1038,0.0611726492643356,0.0132399322465062,0.142850488424301,0.5,0.0598918162286282,0.172659784555435
1039,0.0720121636986732,0.0167445689439774,0.14315302670002,0.5,0.0843914300203323,0.192725256085396
1040,0.0641493797302246,0.0130319567397237,0.115389540791512,0.5,0.089672639966011,0.15197566151619
1041,0.0426256284117699,0.006564384792,0.0878408700227737,0.5,0.0786258205771446,0.0784508883953094
1042,0.0176895689219236,-0.0011772926663979,0.0792144387960434,0.5,0.0636824816465378,0.0303034540265799
1043,-0.0008982161525636,-0.0034974857699126,0.0823914557695389,0.5,0.0543429404497147,0.0269164498895407
1044,-0.004611812531948,0.0031835441477596,0.0878931879997253,0.5,0.0525462552905083,0.0518811792135239
1045,0.0125197200104594,0.0203879419714212,0.100168779492378,0.5,0.0618432313203812,0.105369620025158
1046,0.0374758690595627,0.0454566441476345,0.115100190043449,0.5,0.075809583067894,0.174741953611374
1047,0.0446392670273781,0.061097975820303,0.121506035327911,0.5,0.0759204477071762,0.211393550038338
1048,0.0326850228011608,0.0609130002558231,0.120755091309547,0.5,0.056751411408186,0.197412848472595
1049,0.0222617574036121,0.0556920915842056,0.117721579968929,0.5,0.0367017239332199,0.158335030078888
1050,0.0224701687693596,0.0427942685782909,0.112042784690857,0.5,0.0385158099234104,0.112397827208042
1051,0.0245799403637648,0.0094652865082025,0.0975437611341476,0.5,0.0564697906374931,0.0550871305167675
1052,0.0258796848356724,-0.0378229580819607,0.0771677047014236,0.5,0.0679107904434204,-0.006611056625843
1053,0.0379540845751762,-0.0662648007273674,0.0758152157068253,0.5,0.0770232975482941,-0.0314858108758926
1054,0.062224518507719,-0.0524288564920425,0.10696829855442,0.5,0.0950055345892906,0.0069440873339772
1055,0.0786779001355171,-0.0130945714190602,0.143570050597191,0.5,0.101983353495598,0.0702872350811958
1056,0.0720216706395149,0.0198326446115971,0.154880523681641,0.5,0.0834045559167862,0.10371920466423
1057,0.0484375767409801,0.0392634645104408,0.142588883638382,0.5,0.0575018599629402,0.111745230853558
1058,0.0265984497964382,0.0578919239342213,0.121261335909367,0.5,0.0432034246623516,0.131276026368141
1059,0.0203625839203596,0.0733471587300301,0.0934032648801804,-0.185873568058014,0.0385385081171989,0.156401187181473
1060,0.0226427093148232,0.0665718540549278,0.0558758825063705,-0.5,0.0289071016013622,0.154486089944839
1061,0.0201779268682003,0.0389302670955658,0.018415279686451,-0.5,0.0084235910326242,0.131698921322823
1062,0.0124851418659091,0.011852890253067,-0.0101384771987796,-0.5,-0.0179551020264626,0.107723258435726
1063,0.0070434608496725,-0.0120979454368353,-0.0286515913903713,-0.5,-0.0420973338186741,0.0736785307526588
1064,0.0114449476823211,-0.0355100408196449,-0.0247494708746672,-0.5,-0.047789428383112,0.0296957455575466
1065,0.0240572169423103,-0.0462452173233032,0.0072126975283026,-0.5,-0.0301055796444416,0.0015402825083583
1066,0.0387217104434967,-0.0403317809104919,0.0578469224274158,-0.5,0.0010684854350984,0.0046516102738678
1067,0.0560751743614674,-0.0224384777247906,0.117536045610905,-0.5,0.0436745472252369,0.0275387354195118
1068,0.0684679448604584,0.0018794279312714,0.157170832157135,-0.5,0.0814554765820503,0.0487217381596565
1069,0.0538927502930164,0.0228932332247496,0.143839910626411,-0.5,0.0795840248465538,0.0515152886509895
1070,0.0110689103603363,0.0321871042251587,0.0933831930160522,-0.5,0.0348918698728085,0.0332985073328018
1071,-0.0293897278606892,0.0234245862811804,0.0499078035354614,-0.5,-0.0172493569552898,0.0096968915313482
1072,-0.0409736968576908,-0.0031382299493998,0.0375611148774624,-0.5,-0.0421778000891209,0.0009656578768044
1073,-0.0207128208130598,-0.0321038924157619,0.0566756129264832,-0.5,-0.0257624983787537,0.0204917564988136
1074,0.0169677566736937,-0.0370467007160187,0.0887023732066154,-0.5,0.0205848477780819,0.0740250051021576
1075,0.0491352453827858,-0.005749374628067,0.109425090253353,-0.5,0.0686801597476006,0.15426579117775
1076,0.0589248612523079,0.0408325120806694,0.109435826539993,-0.5,0.0975321903824806,0.223181828856468
1077,0.0482920780777931,0.0739022269845009,0.0923154205083847,-0.5,0.0997786819934845,0.228640109300613
1078,0.0361314229667187,0.0776587724685669,0.0703480914235115,-0.5,0.0826259702444077,0.15981812775135
1079,0.0366085283458233,0.0459767691791058,0.0593037195503712,-0.5,0.0654094740748405,0.0589181445538998
1080,0.0458554588258266,-0.0055575245060026,0.0637364163994789,-0.5,0.061237171292305,-0.0172196347266436
1081,0.0576551221311092,-0.0390828065574169,0.0772397965192795,-0.5,0.0693105012178421,-0.0338268131017685
1082,0.0699810683727264,-0.0283197928220034,0.0852983295917511,-0.5,0.076890729367733,0.0010164204286411
1083,0.0790508985519409,0.0113362921401858,0.0747710987925529,-0.5,0.0730359479784966,0.0551524125039577
1084,0.081086128950119,0.0413652621209621,0.0519379936158657,-0.5,0.063320480287075,0.0956643223762512
1085,0.0706156343221664,0.04678900167346,0.0310106966644526,-0.5,0.0539084039628506,0.0913129448890686
1086,0.0470335073769093,0.0416720919311047,0.0153184859082103,-0.5,0.0431238636374474,0.0534477308392525
1087,0.0250187031924725,0.0392344072461128,0.0024088369682431,-0.5,0.0357391908764839,0.0286167412996292
1088,0.0174611508846283,0.0324163921177387,-0.0049598650075495,-0.5,0.03552071377635,0.022522795945406
1089,0.0214045811444521,0.0116480449214578,-0.0025681559927761,-0.5,0.0363662801682949,0.0060985488817095
1090,0.0320221371948719,-0.0157706867903471,0.0058144815266132,-0.5,0.0366916619241238,-0.0284256301820278
1091,0.0499213933944702,-0.0405025482177734,0.0174369998276234,-0.5,0.0422428548336029,-0.0577038154006004
1092,0.0722448825836182,-0.0522987470030785,0.0367526710033417,-0.5,0.0525876767933369,-0.0531697385013103
1093,0.0849796459078789,-0.0429886803030968,0.0568002387881279,-0.5,0.0544828996062279,-0.019485954195261
1094,0.0759112238883972,-0.031497348099947,0.0595938824117184,-0.5,0.037123616784811,0.007497429382056
1095,0.0535581111907959,-0.0480796471238136,0.0452378392219543,-0.5,0.0112739084288478,0.0054062106646597
1096,0.0376622937619686,-0.0894985347986221,0.0318815037608147,-0.5,-0.0033751369919627,-0.0177605636417866
1097,0.0366189256310463,-0.121868103742599,0.0300686284899712,-0.5,-0.0003271861060056,-0.0398971885442734
1098,0.0448523424565792,-0.1187364757061,0.0391996838152409,-0.5,0.0168979521840811,-0.0388154089450836
1099,0.0575326457619667,-0.0749961957335472,0.0563972145318985,-0.5,0.0466522835195065,0.0006360791157931
1100,0.0709411576390266,-0.0047906297259032,0.0746569186449051,-0.5,0.0856828540563583,0.0600322037935257
1101,0.0782437548041344,0.0571147389709949,0.0827009677886963,-0.5,0.121784456074238,0.0872147381305695
1102,0.0802031755447388,0.0753546580672264,0.0749658793210983,-0.5,0.143923863768578,0.0610297918319702
1103,0.0832438766956329,0.050359271466732,0.057452104985714,-0.5,0.152823641896248,0.0113844880834222
1104,0.0857217982411385,0.0210249070078135,0.0359372496604919,-0.5,0.149275451898575,-0.0245933532714844
1105,0.0798949003219604,0.0194871369749308,0.0107126897200942,-0.5,0.127951428294182,-0.0271038822829723
1106,0.0633320212364197,0.0461520031094551,-0.0117669412866235,-0.5,0.0912770554423332,-0.0078738862648606
1107,0.0409002862870693,0.0825302377343178,-0.0212431699037552,-0.5,0.0537008121609688,-0.0014128104085102
1108,0.0219692941755056,0.100672841072083,-0.012599884532392,-0.5,0.0310632158070803,-0.0220996048301458
1109,0.015925083309412,0.0838980078697205,0.0122835477814078,-0.5,0.0295235738158226,-0.0530745387077332
1110,0.0251672938466072,0.0400382205843925,0.0456957705318928,-0.5,0.0431517735123634,-0.0701547563076019
1111,0.0481405071914196,-0.0072161187417805,0.079359270632267,-0.5,0.0655633434653282,-0.0601338930428028
1112,0.0783526599407196,-0.0416183285415173,0.102939300239086,-0.5,0.0908650904893875,-0.0309566128998995
1113,0.101447530090809,-0.0702303647994995,0.104060016572475,-0.5,0.106827840209007,-0.0046200989745557
1114,0.109556384384632,-0.0968869477510452,0.0836537405848503,-0.5,0.109689228236675,0.0081375362351536
1115,0.102111652493477,-0.108788974583149,0.053814634680748,-0.5,0.101530864834785,0.0158915519714355
1116,0.078875333070755,-0.0929367393255234,0.0198764372617006,-0.5,0.0761445537209511,0.0358046777546406
1117,0.0491440556943417,-0.0401246696710587,-0.0138285588473082,-0.5,0.0406135767698288,0.069069430232048
1118,0.0281169135123491,0.0320785641670227,-0.0384351909160614,-0.5,0.0176057312637568,0.0848390758037567
1119,0.0231474786996841,0.07938452064991,-0.048976693302393,-0.5,0.0119559383019805,0.0571072287857533
1120,0.0281280595809221,0.093718409538269,-0.0449461936950684,-0.5,0.0097341183573007,0.0010392633266747
1121,0.0328171290457249,0.0926317647099495,-0.0265605710446835,-0.5,0.0069223777391016,-0.045987706631422
1122,0.0383186712861061,0.0624825842678547,0.0014051049947738,-0.5,0.011545336805284,-0.0615522563457489
1123,0.0502027682960033,-0.0052694035694003,0.0251675844192505,-0.5,0.0248971041291952,-0.0527503006160259
1124,0.0703958868980408,-0.0757928267121315,0.0424328483641148,-0.5,0.0479937121272087,-0.0411510430276394
1125,0.10053862631321,-0.108246468007565,0.0717228502035141,-0.5,0.0896902233362198,-0.0292760394513607
1126,0.133683487772942,-0.0966778695583344,0.111897774040699,-0.5,0.144490614533424,0.0001016079695546
1127,0.147965967655182,-0.0605584718286991,0.130860328674316,-0.5,0.184473112225533,0.0446872413158417
1128,0.127665609121323,-0.0150741878896952,0.110628835856915,-0.5,0.18552628159523,0.0791874527931213
1129,0.0804221630096436,0.0242346972227097,0.0659364089369774,-0.5,0.146092787384987,0.0947204530239105
1130,0.0315823741257191,0.0486326776444912,0.0244554299861193,-0.5,0.0867214724421501,0.104909040033817
1131,0.0100506423041224,0.0689898580312729,0.0055629555135965,-0.5,0.0371837019920349,0.104589127004147
1132,0.0198410842567682,0.0828863456845284,0.0073729427531361,-0.5,0.0113441133871675,0.0749014616012573
1133,0.0366964004933834,0.0830031633377075,0.0143514825031161,-0.5,0.001536721480079,0.0300015304237604
1134,0.0413569770753384,0.0746033638715744,0.01538853533566,-0.5,-0.0033107183407992,-0.0032879244536161
1135,0.0392290391027927,0.0525637455284595,0.0120625142008066,-0.5,-0.0016786425840109,-0.023808941245079
1136,0.0488984286785126,0.0212491322308779,0.0136160748079419,-0.5,0.0172075107693672,-0.0381713025271893
1137,0.0698109492659569,0.0034737437963485,0.0225639920681715,-0.5,0.047506108880043,-0.0405949950218201
1138,0.0825740993022919,0.0117985131219029,0.0283557064831257,-0.5,0.0655758380889893,-0.0169903486967087
1139,0.0826635733246803,0.0463845580816269,0.0145974466577172,-0.5,0.057685699313879,0.0261661969125271
1140,0.0689955726265907,0.0851738303899765,-0.0258027520030737,-0.5,0.0274045001715422,0.0456310398876667
1141,0.0324372984468937,0.0990337505936623,-0.0772286877036095,-0.5,-0.0136777013540268,0.0208639837801456
1142,-0.0140694994479418,0.0871465057134628,-0.111961647868156,-0.5,-0.0523617528378963,-0.0176432356238365
1143,-0.0369414202868938,0.0559079013764858,-0.111282058060169,-0.5,-0.0632876381278038,-0.0377509631216526
1144,-0.0154237234964967,0.0148764019832015,-0.0815701559185982,-0.5,-0.0237885862588882,-0.0363426096737385
1145,0.0350749641656876,-0.0252253171056509,-0.0515817701816559,-0.5,0.0373286679387093,-0.0386522151529789
