,AF3,AF4,Fp1,Fp2,AF7,AF8
0,-0.0486505031585693,-0.0822789669036865,-0.0940677672624588,0.5,-0.0564684271812439,-0.0397342965006828
1,-0.0279755443334579,-0.104115717113018,-0.104239843785763,0.5,-0.0476499833166599,-0.0398451238870621
2,-0.0158120952546597,-0.117120034992695,-0.109378159046173,0.5,-0.0561535842716694,-0.0382214523851871
3,-0.0162691492587328,-0.114132404327393,-0.106823906302452,0.5,-0.0729250758886337,-0.0377335250377655
4,-0.017493586987257,-0.0909527838230133,-0.0930378809571266,0.5,-0.0746585354208946,-0.0338133946061134
5,-0.0141524011269212,-0.0525800324976444,-0.0719323381781578,0.5,-0.0535928085446358,-0.0273283030837774
6,-0.014670267701149,-0.0184443909674883,-0.0576532706618309,0.5,-0.0301120914518833,-0.0240810122340918
7,-0.0273784343153238,-0.0048959851264953,-0.0555291622877121,0.5,-0.0274707842618227,-0.0262584928423166
8,-0.0482974983751774,-0.0063600749708712,-0.0545477829873562,0.5,-0.041348684579134,-0.0250130370259285
9,-0.0632915869355202,-0.0148709658533335,-0.0498623438179493,0.5,-0.0545845627784729,-0.0100918812677264
10,-0.0665283203125,-0.0289506558328867,-0.0494065955281258,0.5,-0.0697484239935875,0.0090247662737965
11,-0.0634562224149704,-0.0391046814620495,-0.0529952943325043,0.5,-0.0925440788269043,0.0192964617162943
12,-0.055062435567379,-0.035694133490324,-0.0489704385399818,0.5,-0.106754377484322,0.0271970499306917
13,-0.0381694138050079,-0.0177383553236723,-0.0292589459568262,0.5,-0.0950295776128769,0.043850552290678
14,-0.0154487527906895,0.0104640321806073,0.002283290727064,0.5,-0.0608912408351898,0.072346419095993
15,0.0034134248271584,0.0350539050996304,0.0276942942291498,0.5,-0.0237251240760088,0.100161083042622
16,0.0121200168505311,0.0405235216021538,0.0303854886442423,0.5,-0.0013209588360041,0.10782440751791
17,0.0121737327426672,0.0240892171859741,0.0109865935519338,0.5,0.0004646494053304,0.0900733023881912
18,0.002554161241278,-0.0084238247945904,-0.022795844823122,0.5,-0.0163837410509586,0.0517342016100883
19,-0.0139940716326237,-0.0441413410007954,-0.0603395141661167,0.5,-0.0407138466835022,0.008049976080656
20,-0.0278517417609692,-0.0652524381875992,-0.0894305184483528,0.5,-0.0595407821238041,-0.018769633024931
21,-0.0360161811113358,-0.0638276785612106,-0.104954764246941,0.5,-0.0708741620182991,-0.0217423215508461
22,-0.0376440323889256,-0.0456752590835094,-0.106004677712917,0.5,-0.0725512877106667,-0.0113043626770377
23,-0.0332738868892193,-0.028040824458003,-0.0992198511958122,0.5,-0.064112164080143,-0.0024905959144234
24,-0.030150456354022,-0.0278754755854607,-0.0978178307414055,0.5,-0.0602721720933914,-0.0027184272184968
25,-0.0306261535733938,-0.0397126041352749,-0.101503193378448,0.5,-0.0654972046613693,-0.0042321621440351
26,-0.0293460432440043,-0.0455093085765839,-0.09685929864645,0.5,-0.0601384751498699,0.0012846557656303
27,-0.021902633830905,-0.0415438003838062,-0.0790688246488571,0.5,-0.0361208058893681,0.0080956425517797
28,-0.0096852956339716,-0.0381727069616318,-0.0603058971464634,0.5,-0.0132155604660511,0.0017980085685849
29,-0.004346122033894,-0.0387488380074501,-0.0566347800195217,0.5,-0.0147272711619735,-0.0241159945726395
30,-0.0138915134593844,-0.036659374833107,-0.0654165297746658,0.5,-0.0401781834661961,-0.0507287718355656
31,-0.0292687211185694,-0.0333159118890762,-0.0684177875518799,0.5,-0.0653833448886871,-0.0532214753329754
32,-0.0442190319299698,-0.0354672372341156,-0.0602421574294567,0.5,-0.0738816857337952,-0.0384953357279301
33,-0.0608608536422253,-0.0390053652226925,-0.0477831400930882,-0.5,-0.0660830065608025,-0.0304656848311424
34,-0.0704402104020119,-0.0325090698897839,-0.0283646695315838,-0.5,-0.0436781421303749,-0.0251665860414505
35,-0.0613232366740704,-0.0152370883151889,-0.0027534591499716,-0.5,-0.0177038870751858,-0.0013711233623325
36,-0.0364873223006725,-0.0014583317097276,0.0096350824460387,-0.5,-0.009101815521717,0.0261685345321894
37,-0.0120582673698664,-0.001237700227648,-0.0023444390390068,-0.5,-0.0236709881573915,0.023463997989893
38,-0.0037719993852078,-0.0070349238812923,-0.0233048647642136,-0.5,-0.0479761436581612,-0.00371331628412
39,-0.010485160164535,-0.0060514220967888,-0.0314097441732883,-0.5,-0.0660184472799301,-0.0231703203171492
40,-0.0194217227399349,0.0043903011828661,-0.0219014640897512,-0.5,-0.0693577080965042,-0.0185176301747561
41,-0.0204621125012636,0.0190644189715385,-0.0052405567839741,-0.5,-0.0603340342640877,0.0069565535522997
42,-0.0127341467887163,0.0284718330949545,0.0069825849495828,-0.5,-0.0489637069404125,0.0383765026926994
43,-0.0051754345186054,0.0266440939158201,0.0091986171901226,-0.5,-0.0436702221632004,0.0615976266562939
44,-0.0015647322870791,0.0243816040456295,0.0065345871262252,-0.5,-0.0410936772823334,0.0792925953865051
45,0.0033059359993785,0.0336303673684597,0.0090418010950088,-0.5,-0.0293763987720013,0.0949063897132874
46,0.0126054603606462,0.0453172847628593,0.0193578191101551,-0.5,0.000306538247969,0.0948654413223267
47,0.0275141131132841,0.0449888706207275,0.0287681389600039,-0.5,0.0427693501114845,0.0693632438778877
48,0.0412778072059155,0.0384369902312756,0.0237848162651062,-0.5,0.0723293870687485,0.0291864555329084
49,0.0397851541638374,0.0376373305916786,0.0024198815226554,-0.5,0.0650762617588043,-0.0020400187931954
50,0.0216296203434467,0.0416011214256287,-0.0213486105203629,-0.5,0.0253765601664782,-0.0049449135549366
51,-0.0019882044289261,0.0466038472950459,-0.0357120744884014,-0.288584351539612,-0.0217139273881912,0.0114208394661546
52,-0.0261916071176529,0.0421490296721458,-0.0492539703845978,0.5,-0.0614936873316765,0.0109925083816051
53,-0.0493091754615307,0.0122825624421239,-0.0758206099271774,0.5,-0.0972960218787193,-0.0251135230064392
54,-0.0596444681286812,-0.0333741046488285,-0.100811816751957,0.5,-0.122844867408276,-0.0745038315653801
55,-0.0510658398270607,-0.0624863505363464,-0.0987224951386452,0.5,-0.123276978731155,-0.102513790130615
56,-0.0321891941130161,-0.0622342489659786,-0.0696742013096809,0.5,-0.0977487862110138,-0.095417894423008
57,-0.0096573606133461,-0.0469006821513176,-0.0257190987467766,0.5,-0.0537436157464981,-0.0597290135920048
58,0.0138764316216111,-0.026239637285471,0.0233578775078058,0.5,0.0001655184314586,-0.0108047910034657
59,0.0295598823577166,-0.0002445709542371,0.0605620220303535,0.5,0.0431620068848133,0.0293396431952715
60,0.0296995304524899,0.0224546734243631,0.0702329874038696,0.5,0.0516528710722923,0.0460862405598164
61,0.0228521395474672,0.0334641709923744,0.0586534813046455,0.5,0.0322005748748779,0.0510279797017574
62,0.0201080460101366,0.0397195927798748,0.0449748076498508,0.5,0.0108785117045045,0.0636464282870293
63,0.0174884349107742,0.0484490394592285,0.0349618941545486,0.5,-0.003481597173959,0.085698276758194
64,0.0094552487134933,0.0542559251189232,0.0216446593403816,0.5,-0.0157933570444584,0.104860737919807
65,-0.0004084909742232,0.0498770922422409,-0.0012299437075853,0.5,-0.0294903889298439,0.0973653346300125
66,-0.0067002456635236,0.0430992804467678,-0.0276365429162979,0.5,-0.0420999154448509,0.0585519447922707
67,-0.010565372183919,0.0502779595553875,-0.0380346216261387,0.5,-0.0438821129500866,0.0199625641107559
68,-0.0184109695255756,0.0636497661471367,-0.024305684491992,0.5,-0.0319536663591862,0.0026252642273902
69,-0.0279828514903784,0.0587881915271282,-0.0017499139066785,0.5,-0.0187219474464655,0.0012149498797953
70,-0.0287372916936874,0.0330782756209373,0.0137869352474809,0.5,-0.0153509611263871,0.0011796521721407
71,-0.0197039432823658,-0.0002481855335645,0.0190165545791388,0.5,-0.0183708872646093,-0.0091663151979446
72,-0.0071034324355423,-0.0300166588276625,0.0174015779048204,0.5,-0.0147391837090254,-0.0235540978610516
73,0.0062146726995706,-0.0490835681557655,0.016153572127223,0.5,-0.0002809858124237,-0.0312526933848858
74,0.0170678552240133,-0.0581484846770763,0.0181577075272799,0.5,0.0108542731031775,-0.037829514592886
75,0.0236167870461941,-0.0592946708202362,0.0187066160142422,0.5,0.0079298838973045,-0.0514538288116455
76,0.0244949515908957,-0.055918000638485,0.0099491532891988,0.5,-0.0067597758024931,-0.0684484541416168
77,0.0165901128202677,-0.0558910667896271,-0.0115948710590601,0.5,-0.0295006614178419,-0.0762467235326767
78,0.0049776476807892,-0.0577953718602657,-0.0343552641570568,0.5,-0.0512341931462288,-0.0634594261646271
79,0.0007848220411688,-0.0503051653504372,-0.0440858043730259,0.5,-0.0572459399700165,-0.0344695299863815
80,0.0063677527941763,-0.0312430076301098,-0.0410852655768394,0.5,-0.0456209182739258,-0.0064388872124254
81,0.0132640693336725,-0.0107305571436882,-0.0329720973968506,0.5,-0.0329619161784649,0.0113076223060489
82,0.0108198244124651,0.0021825300063937,-0.0252466630190611,0.5,-0.0308606866747141,0.0208684112876654
83,-0.0027266782708466,0.0120040792971849,-0.0171335879713297,0.5,-0.032888226211071,0.0278695579618216
84,-0.0141234071925282,0.0346464775502682,-0.0029773726128041,0.5,-0.0286325961351395,0.041721984744072
85,-0.0127624310553074,0.0703199058771133,0.0135344164445996,0.5,-0.0144881159067154,0.06934704631567
86,-0.0064610899426043,0.0981141850352287,0.0202602781355381,0.5,0.0044872057624161,0.0973248705267906
87,-0.0056742019951343,0.105606839060783,0.0162231661379337,0.5,0.0184003487229347,0.0989923626184464
88,-0.0068119140341877,0.103052616119385,0.0132359880954027,0.5,0.0257509630173445,0.0776000916957855
89,-0.0018324134871363,0.103120900690556,0.0208501107990742,0.5,0.0346569046378136,0.0624435693025589
90,0.0084812995046377,0.0941705405712128,0.0335462391376495,0.5,0.0409539006650448,0.050980880856514
91,0.0184883717447519,0.0574116483330727,0.0388437025249004,0.5,0.0321217216551304,0.0181960295885801
92,0.0247597526758909,0.0013171501923352,0.0388228856027126,0.5,0.0170996114611626,-0.026660056784749
93,0.0241242405027151,-0.0524463281035423,0.0351431220769882,0.5,0.0085691530257463,-0.0634043738245964
94,0.0150563260540366,-0.0941722244024277,0.0177087876945734,0.5,-0.00401560543105,-0.0951280519366264
95,0.0031316934619098,-0.120595380663872,-0.0068828868679702,0.5,-0.0276248175650835,-0.118001386523247
96,-0.0037812124937772,-0.127987131476402,-0.0211376827210188,0.5,-0.0503220669925213,-0.117612756788731
97,-0.0041990699246525,-0.112064942717552,-0.024430463090539,0.5,-0.06435227394104,-0.0936043411493301
98,-0.0054851369932293,-0.0734456777572632,-0.0253095049411058,0.5,-0.0744227692484856,-0.0550952218472958
99,-0.0098007088527083,-0.0216961763799191,-0.021918099373579,0.5,-0.0791752636432648,-0.008244490250945
100,-0.0078587047755718,0.0312674306333065,-0.0055235847830772,0.5,-0.06661356985569,0.0385358668863773
101,0.0014050637837499,0.070749007165432,0.0199503172188997,0.5,-0.0360393300652504,0.0715839266777039
102,0.008219470269978,0.0849029347300529,0.0367102958261967,0.5,-0.0015455553075298,0.0844329744577408
103,0.0049722273834049,0.0783289596438408,0.0314243175089359,0.5,0.0247209388762712,0.0782040059566498
104,-0.0120063237845898,0.0569874122738838,0.0037981951609253,0.5,0.0306248031556606,0.048492219299078
105,-0.0376752354204655,0.0179364960640669,-0.034236341714859,0.5,0.0062919133342802,-0.0004634820797946
106,-0.0567354187369347,-0.0214749872684479,-0.0604087933897972,0.5,-0.0328721292316914,-0.0328640975058079
107,-0.0540881231427193,-0.0237503778189421,-0.0599837936460972,0.5,-0.0519080124795437,-0.0172754190862179
108,-0.0243195556104183,0.0158985704183578,-0.0431462526321411,0.5,-0.0345355905592442,0.024516997858882
109,0.0157541129738092,0.0501642450690269,-0.0284343380481005,0.5,0.0012538763694465,0.0418420620262623
110,0.0360702015459538,0.037002932280302,-0.0257936324924231,0.5,0.0204549487680197,0.0130778299644589
111,0.0282358713448048,-0.0168208964169025,-0.0410752817988396,0.5,0.0007132812752388,-0.0430686958134174
112,0.0102148130536079,-0.0765591710805893,-0.0605057813227177,-0.5,-0.0374403595924377,-0.091412790119648
113,0.0012194231385365,-0.10394299775362,-0.0500169582664967,-0.5,-0.0485691241919994,-0.0983422473073006
114,0.006178637035191,-0.0812458693981171,1.79589242179645e-05,-0.5,-0.0199599768966436,-0.0572451762855053
115,0.016803240403533,-0.0316031686961651,0.057860191911459,-0.5,0.0178612750023603,0.0044469507411122
116,0.0245811119675636,0.0055206725373864,0.0884243324398994,-0.5,0.0364060290157795,0.0547815784811974
117,0.0291302017867565,0.0177761651575565,0.0883685871958733,-0.5,0.0411931276321411,0.0787919610738754
118,0.0296731740236282,0.0213028863072395,0.0757315680384636,-0.5,0.0484772101044655,0.0776895135641098
119,0.0235101226717234,0.0334333889186382,0.063132718205452,-0.5,0.0554313808679581,0.0636124834418297
120,0.0133882202208042,0.0553412586450577,0.0480305589735508,-0.5,0.0520644895732403,0.0481233038008213
121,0.0049299392849206,0.0681058615446091,0.0254975631833076,-0.5,0.0420576184988022,0.0321152918040752
122,-0.0013211901532486,0.0563181005418301,0.001535500632599,-0.5,0.0344338044524193,0.0165726654231548
123,-0.0107862381264567,0.0262174978852272,-0.0259110908955336,-0.5,0.0182869713753462,-0.0012968283845111
124,-0.0242036283016205,-0.0129734808579087,-0.0633565038442612,-0.5,-0.0201998930424452,-0.029942762106657
125,-0.0346063114702702,-0.0529309213161469,-0.0923082679510117,-0.5,-0.0636511743068695,-0.0545721426606178
126,-0.0374501124024391,-0.07571130245924,-0.0897560268640518,-0.5,-0.0873128995299339,-0.048104140907526
127,-0.0331860780715942,-0.0696675628423691,-0.0562320500612259,-0.5,-0.0861853882670403,-0.0053309071809053
128,-0.0244022738188505,-0.0443719588220119,-0.0088156666606664,-0.5,-0.0671434551477432,0.0593982562422752
129,-0.0167986266314983,-0.016076160594821,0.0328087732195854,-0.5,-0.0415083020925522,0.120728567242622
130,-0.0121061839163303,0.0103089949116111,0.060024194419384,-0.5,-0.0170209370553494,0.147759079933167
131,-0.0034785589668899,0.033220287412405,0.0770419836044312,0.5,0.0075424495153129,0.130427092313766
132,0.013265741057694,0.0500522255897522,0.0844623520970345,0.5,0.0328823551535606,0.0950832664966583
133,0.0313232429325581,0.0597427226603031,0.0767566561698914,0.5,0.0494549944996834,0.0639232099056244
134,0.0379661843180656,0.0512104891240597,0.0541879758238792,0.5,0.0464440323412418,0.0222721137106419
135,0.0244628880172968,0.0108243282884359,0.0186332687735558,0.5,0.0237466040998697,-0.0437517501413822
136,-0.0040220464579761,-0.0506973639130592,-0.0221216771751642,0.5,-0.0088327601552009,-0.108849056065083
137,-0.0280517917126417,-0.0976038053631783,-0.0472402311861515,0.5,-0.0353878848254681,-0.134452819824219
138,-0.0318512991070747,-0.105676829814911,-0.0447638966143131,0.5,-0.0450530536472797,-0.113351292908192
139,-0.0160397384315729,-0.086240254342556,-0.0252815447747707,0.5,-0.0415682680904865,-0.0697003528475761
140,0.0056519983336329,-0.0615674406290054,-0.0065381070598959,0.5,-0.0335072055459023,-0.0294864941388369
141,0.0186779461801052,-0.0366371124982834,0.0063646091148257,0.5,-0.0207134243100882,0.0004529622674454
142,0.0223317537456751,-0.0082701835781335,0.01850919239223,0.5,0.0005677732406184,0.0265864692628384
143,0.0217979475855827,0.0208336338400841,0.0275322906672955,0.5,0.0204526446759701,0.050123929977417
144,0.0162008069455624,0.044829998165369,0.0252154879271984,0.5,0.0226020775735378,0.066497914493084
145,0.0043900301679968,0.0548343919217587,0.010167608037591,0.5,0.0065236492082476,0.0690317079424858
146,-0.009640023112297,0.0436375252902508,-0.0094350157305598,0.5,-0.0121463881805539,0.0549429021775723
147,-0.0155760543420911,0.0179443433880806,-0.0189636275172234,0.5,-0.0149351917207241,0.0356237851083279
148,-0.0067507335916161,-0.0120736164972186,-0.0127422362565994,0.5,0.0002373166353208,0.0206226240843534
149,0.008885140530765,-0.0478245168924332,-0.0040026288479566,0.5,0.0131939817219973,0.0030193047132343
150,0.0200719460844994,-0.0859565362334251,-0.003432875033468,0.5,0.0100609371438622,-0.0191098395735025
151,0.0259401071816683,-0.104890197515488,-0.0022903156932443,0.5,0.002415083348751,-0.0302983913570642
152,0.0347864478826523,-0.0867676213383675,0.0098620625212788,0.5,0.0079957274720072,-0.0188508238643408
153,0.0489973202347755,-0.0443395711481571,0.0247983504086733,0.5,0.0248016156256199,0.0048085036687552
154,0.054704874753952,-0.0096741123124957,0.0266127903014421,0.5,0.0338434763252735,0.0215515531599522
155,0.0422213338315487,0.0031336203683167,0.0164195206016302,0.5,0.0237845275551081,0.0322206020355225
156,0.0186013970524073,0.0024389692116528,0.0069610732607543,0.5,-0.0004937883350066,0.0449939295649529
157,-0.0053277551196515,-0.0044012744911015,-0.000708214007318,0.5,-0.0296155884861946,0.0476039238274097
158,-0.0221324861049652,-0.0138380052521825,-0.0114454152062535,0.5,-0.0562961883842945,0.0309610590338707
159,-0.0300062596797943,-0.0239338837563992,-0.0208155084401369,0.5,-0.0727536156773567,0.0060730311088264
160,-0.0290983971208334,-0.0334618948400021,-0.0189715400338173,0.5,-0.0680990293622017,-0.0134146697819233
161,-0.0144014237448573,-0.0341293402016163,-7.73542487877421e-05,0.5,-0.0334480181336403,-0.0188315100967884
162,0.0100216390565038,-0.0254901442676783,0.0250884257256985,0.5,0.0147359585389495,-0.0146131347864866
163,0.0232340004295111,-0.0204354990273714,0.0352350920438766,0.5,0.0373169705271721,-0.011375249363482
164,0.0155891282483935,-0.019790718331933,0.0270773563534021,0.5,0.0180427674204111,-0.0029350819531828
165,-0.0010635899379849,-0.0125588141381741,0.0133275724947453,0.5,-0.0235076583921909,0.020459683611989
166,-0.0107999946922064,0.0052066524513065,0.0017002667300403,0.5,-0.0602526478469372,0.0488269440829754
167,-0.0048848674632608,0.0289511494338512,-0.0018078555585816,0.5,-0.07375118881464,0.0654183402657509
168,0.0084482245147228,0.0515677146613598,0.005509446375072,0.5,-0.0588895827531815,0.0631610229611397
169,0.0133140049874783,0.0737084820866585,0.0168019253760576,0.5,-0.0321473814547062,0.0483286827802658
170,0.0067356200888752,0.0986485481262207,0.025479244068265,0.5,-0.0191845763474703,0.0390869602560997
171,-0.0030645988881588,0.11594183743,0.0296543594449759,0.5,-0.0231348760426044,0.0463535338640213
172,-0.004929116461426,0.109373837709427,0.0296874418854713,0.5,-0.0223731435835361,0.0650041177868843
173,0.0035547481384128,0.0701923742890358,0.0234216749668121,0.5,-0.0048092282377183,0.0822179764509201
174,0.0088317329064011,0.0039306823164224,0.0058521009050309,0.5,0.0120416032150388,0.0732064843177795
175,0.0001016291207633,-0.0637136623263359,-0.021941252052784,0.5,0.0065206661820411,0.0250266119837761
176,-0.014812140725553,-0.104586660861969,-0.0462574250996113,0.5,-0.0133540229871869,-0.0327870920300484
177,-0.0197251681238413,-0.11113379150629,-0.0466835163533688,0.5,-0.0188643746078014,-0.0621590092778206
178,-0.0104500874876976,-0.0884261578321457,-0.0156404376029968,0.5,0.0003820559650193,-0.0540831983089447
179,0.0017291750991717,-0.0480127111077309,0.0300243515521288,0.5,0.0226367600262165,-0.0200428981333971
180,0.0070841796696186,-0.0118602570146322,0.0634655803442001,0.5,0.027541009709239,0.0284312032163143
181,0.0069518871605396,0.0105782877653837,0.0719277635216713,0.5,0.0213750712573528,0.0767170637845993
182,0.004903357475996,0.0372578464448452,0.0579168014228344,0.5,0.0118974400684237,0.106641955673695
183,-0.0041118143126368,0.0761992186307907,0.0264497417956591,0.5,-0.0106918187811971,0.111456446349621
184,-0.0254939552396536,0.0978422239422798,-0.0084115071222186,0.5,-0.0463311485946178,0.0887562036514282
185,-0.0455911383032799,0.0784174576401711,-0.0218377783894539,0.5,-0.0677723363041878,0.0457911863923073
186,-0.0431049056351185,0.0367988310754299,-0.0012847889447584,0.5,-0.0490789189934731,0.0100863128900528
187,-0.0177410375326872,0.0047951601445674,0.0392352268099785,0.5,0.0046189278364181,0.0017619932768866
188,0.0143001889809966,-0.0040905061177909,0.0765528380870819,0.5,0.0623179003596306,0.0136968260630965
189,0.0418237037956715,0.0054687997326254,0.102605819702148,0.5,0.0973734185099602,0.030712965875864
190,0.0615009777247906,0.0224301181733608,0.118079029023647,0.5,0.109094813466072,0.0461086146533489
191,0.0726216733455658,0.0401082523167133,0.120143093168736,0.5,0.114493042230606,0.0555241219699383
192,0.0734081268310547,0.0552937425673008,0.110827594995499,0.5,0.124574787914753,0.0548523813486099
193,0.0600308962166309,0.0601606667041779,0.094422459602356,0.5,0.129976317286491,0.0476278103888035
194,0.0360333360731602,0.0452015772461891,0.0609477274119854,0.5,0.105887889862061,0.035428773611784
195,0.0112795606255531,0.0141513459384441,0.0013831763062626,0.5,0.0375062376260757,0.008006764575839
196,-0.0092339497059583,-0.0160144418478012,-0.0599187910556793,0.5,-0.0502996519207954,-0.0307139363139868
197,-0.0200883410871029,-0.0266463663429022,-0.0837143808603287,0.5,-0.107447974383831,-0.0506024658679962
198,-0.0164357591420412,-0.0098003428429365,-0.0608543120324612,0.5,-0.109295397996902,-0.0309236608445644
199,-0.00204763491638,0.0199214536696672,-0.0146240377798676,0.5,-0.0691718012094498,0.0165782514959574
200,0.016049837693572,0.0317954607307911,0.0243987757712603,0.5,-0.0191559214144945,0.0602944754064083
201,0.0245566163212061,0.0069179916754365,0.0371538959443569,0.5,0.0045417882502079,0.0726285353302956
202,0.0136070214211941,-0.0330391563475132,0.0300757698714733,0.5,-0.0073760133236646,0.0565909408032894
203,-0.0070860399864614,-0.0439789183437824,0.0255838502198458,0.5,-0.0288159810006619,0.0423653274774551
204,-0.0259823054075241,-0.0106510128825903,0.0309728477150202,0.5,-0.0379373021423817,0.0503462143242359
205,-0.0401945635676384,0.0409707985818386,0.0370347425341606,0.5,-0.0348338782787323,0.073353685438633
206,-0.0467402227222919,0.0771952271461487,0.0376752093434334,0.5,-0.0263919606804848,0.0879485607147217
207,-0.0430504642426968,0.0870994552969933,0.0321519449353218,0.5,-0.0183356963098049,0.0749031081795692
208,-0.0306312944740057,0.0773566588759422,0.0254333559423685,0.5,-0.0108948592096567,0.0480745285749435
209,-0.0131382048130035,0.0558644346892834,0.0244032740592957,0.5,0.0015445991884917,0.040888350456953
210,0.0081968754529953,0.0364498943090439,0.0302373133599758,0.5,0.023297406733036,0.0519400499761105
211,0.0311910901218653,0.0362967737019062,0.0423700772225857,0.5,0.0523428693413734,0.0556185208261013
212,0.0507553890347481,0.0516149811446667,0.0549917407333851,0.5,0.0754352957010269,0.0437611453235149
213,0.0625945329666138,0.0618483237922192,0.0544856823980808,0.5,0.0793841332197189,0.0217464361339808
214,0.0596747361123562,0.0626740157604218,0.0314089208841324,0.5,0.0608086511492729,-0.0001938492787303
215,0.0349187925457954,0.0686001181602478,-0.0058437446132302,0.5,0.0180822294205427,-0.0122913178056479
216,-0.0011515187798067,0.0759691298007965,-0.0331786051392555,0.5,-0.0398727357387543,-0.0176837742328644
217,-0.0264916457235813,0.0575649440288544,-0.0383479706943035,0.5,-0.0933011919260025,-0.0272004529833794
218,-0.0352290943264961,0.00761329382658,-0.0288342125713825,0.5,-0.128394335508347,-0.0425147227942944
219,-0.0320289544761181,-0.0463018417358398,-0.0085890246555209,0.5,-0.135317146778107,-0.0510682873427868
220,-0.0212713181972504,-0.0739762410521507,0.0226898677647114,0.5,-0.111008323729038,-0.0398147441446781
221,-0.0080581400543451,-0.0595390424132347,0.055613711476326,0.5,-0.0647400096058846,-0.0072648557834327
222,0.0068581765517592,-0.0108231818303466,0.0794365108013153,0.5,-0.0087721310555934,0.0342409908771515
223,0.0206579901278019,0.0382902435958385,0.0957882553339005,0.5,0.0486164055764675,0.0655968487262726
224,0.0311207491904497,0.0593003928661346,0.110311649739742,0.5,0.100868605077267,0.0820023939013481
225,0.0383471511304379,0.050856426358223,0.114637836813927,0.5,0.133650854229927,0.0885279849171638
226,0.036552332341671,0.0288553405553102,0.0987694039940834,0.5,0.135223984718323,0.0862811356782913
227,0.0268014445900917,0.0187182705849409,0.0734286680817604,0.5,0.112052612006664,0.083585724234581
228,0.0180168263614178,0.0325110331177711,0.0531399063766003,0.5,0.0744711235165596,0.0853146761655808
229,0.0092027327045798,0.0487698800861835,0.03624676913023,0.5,0.0310484152287245,0.0762224420905113
230,-0.0045262943021953,0.0412459969520569,0.0164799373596907,0.5,-0.0057470467872917,0.043577779084444
231,-0.0204163659363985,0.0147288683801889,-0.0044743549078702,0.5,-0.0302151739597321,-0.0007078915950842
232,-0.032448373734951,-0.007074998691678,-0.0213032681494951,0.5,-0.0434119775891304,-0.0341392867267132
233,-0.0375762842595577,-0.0112417610362172,-0.0278484560549259,0.5,-0.0468056350946426,-0.0441211201250553
234,-0.0382787585258484,0.0033375127241015,-0.0197434108704329,0.5,-0.0489554554224014,-0.0252842847257853
235,-0.036222118884325,0.0320542976260185,-0.0024060751311481,0.5,-0.0566964894533157,0.0220069289207459
236,-0.0280848052352667,0.0661950707435608,0.0140265841037035,0.5,-0.0616168342530727,0.0790743306279182
237,-0.0141064925119281,0.0942549407482147,0.0204076208174229,0.5,-0.0569989308714867,0.117342613637447
238,-0.0005779059720225,0.106749251484871,0.0151895713061094,0.5,-0.0473613627254963,0.136938214302063
239,0.0102099664509296,0.108776040375233,0.011521777138114,0.5,-0.0326016843318939,0.149981543421745
240,0.0211856160312891,0.107324883341789,0.015631165355444,0.5,-0.0140171926468611,0.136942535638809
241,0.0311169121414423,0.0977311581373215,0.0185124818235636,0.5,-0.0006741760880686,0.0874657407402992
242,0.0376381985843182,0.0773074850440025,0.0172846764326096,0.5,0.0083310222253203,0.0276796985417604
243,0.0408787280321121,0.048296894878149,0.0129901124164462,0.5,0.0169860702008009,-0.0200736783444881
244,0.0372833460569382,0.016631543636322,0.0074252774938941,0.5,0.0220295675098896,-0.0492572858929634
245,0.0245077274739742,-0.0077312523499131,0.0100264856591821,0.5,0.0233285464346409,-0.056763406842947
246,0.0071484041400253,-0.0205982085317373,0.0240625981241465,0.5,0.0207694042474031,-0.0495115853846073
247,-0.0106652909889817,-0.0214211773127317,0.041335329413414,0.5,0.0143623566254973,-0.0387200191617012
248,-0.0288795102387667,-0.0086151156574487,0.0553070046007633,0.5,0.0106560112908483,-0.0228366814553738
249,-0.0441398732364178,0.0151940677314997,0.0648933574557304,0.5,0.0125044556334615,0.0058021983131766
250,-0.0506259799003601,0.0411694087088108,0.068236730992794,0.5,0.0110190194100142,0.0429860763251781
251,-0.0464664064347744,0.0590585768222809,0.063264325261116,0.5,0.0012182008940726,0.0741133838891983
252,-0.0305610150098801,0.0674183741211891,0.0521673783659935,0.5,-0.006790813524276,0.0927624776959419
253,-0.0076471660286188,0.0727540254592896,0.0378270633518696,0.5,-0.0055329357273876,0.10266924649477
254,0.0072311693802475,0.0763724148273468,0.0210783760994673,0.5,-0.0010727124754339,0.104074403643608
255,0.0027076608967036,0.071980856359005,0.0042297621257603,0.5,-0.002952178241685,0.0908136963844299
256,-0.0183851048350334,0.0526957549154758,-0.0110782915726304,0.204157099127769,-0.0189124848693609,0.0587300881743431
257,-0.0401563756167889,0.020390884950757,-0.0244890954345465,-0.5,-0.0440398864448071,0.0165208168327808
258,-0.0446388944983482,-0.0070399101823568,-0.0297393146902323,-0.5,-0.0569046288728714,-0.0127438129857183
259,-0.0297905821353197,-0.0081657581031322,-0.0216404125094414,-0.5,-0.047648549079895,-0.0099761663004756
260,-0.0089817689731717,0.0244671683758497,-0.0056271865032613,-0.5,-0.0277588572353125,0.0241409465670586
261,0.00684948079288,0.0784008502960205,0.0103794289752841,-0.5,-0.0089778359979391,0.0728843808174133
262,0.0158630162477493,0.125917136669159,0.0233131088316441,-0.5,0.0086500588804483,0.115828529000282
263,0.0214012935757637,0.142234951257706,0.0338159054517746,-0.5,0.0285711232572794,0.137620866298676
264,0.0236137807369232,0.119636461138725,0.0381269901990891,-0.5,0.0437162108719349,0.126730099320412
265,0.0149324489757419,0.0682101622223854,0.0240984857082367,-0.5,0.0408524125814438,0.0794695988297462
266,-0.0044945729896426,0.0096767954528331,-0.0060494276694953,-0.5,0.0197056531906128,0.015594650991261
267,-0.0180163439363241,-0.0300693437457085,-0.0280745308846235,-0.5,-0.0030079286079853,-0.0298567935824394
268,-0.0145498719066381,-0.0371744558215141,-0.0278665348887444,-0.5,-0.0143305128440261,-0.0393855571746826
269,0.0018653437728062,-0.0195652060210705,-0.0093329139053821,-0.5,-0.0145294116809964,-0.018087413161993
270,0.0269279293715954,0.0074652638286352,0.019289480522275,-0.5,-0.0065143005922436,0.0237010754644871
271,0.0544701665639877,0.0354270525276661,0.0450719520449638,-0.5,0.0068417382426559,0.0721896886825562
272,0.0704621523618698,0.0647475942969322,0.0593209788203239,-0.5,0.0228730365633965,0.109408058226109
273,0.0649764537811279,0.094934344291687,0.0664170384407043,-0.5,0.0415811575949192,0.123555324971676
274,0.0436027534306049,0.120589293539524,0.0742944702506065,-0.5,0.0603873021900654,0.118770770728588
275,0.0196702722460032,0.138360992074013,0.0836880952119827,-0.5,0.0694305077195168,0.114107504487038
276,0.001224460080266,0.145154789090157,0.0875936895608902,-0.5,0.0635786429047585,0.128720343112946
277,-0.0103326225653291,0.141877815127373,0.0811925306916237,-0.5,0.0511162243783474,0.159932717680931
278,-0.0189636051654816,0.133472353219986,0.0653448328375816,-0.5,0.0387082435190678,0.179718628525734
279,-0.0289797876030207,0.114565923810005,0.0411579832434654,-0.5,0.0234498549252748,0.160283699631691
280,-0.0377889275550842,0.0826851204037666,0.0167037341743708,-0.5,0.0059801978059113,0.104645468294621
281,-0.0401215739548206,0.0558138824999332,0.0044037029147148,-0.5,-0.0052512981928885,0.0449029169976711
282,-0.0338811874389648,0.0470132604241371,0.003756063291803,-0.5,-0.001888797734864,0.0057199918664991
283,-0.0171486642211676,0.0472891069948673,0.0084039121866226,-0.5,0.022071136161685,-0.0098061170428991
284,0.0099463267251849,0.0479665286839008,0.0207879655063152,-0.5,0.0663681328296661,-0.0033506201580166
285,0.0392893329262733,0.051558081060648,0.0415414646267891,-0.5,0.117619343101978,0.0181061755865812
286,0.0588710382580757,0.0565008483827114,0.0554971396923065,-0.5,0.14815166592598,0.0329095162451267
287,0.0599276162683964,0.0531298965215683,0.0456166155636311,-0.5,0.132414862513542,0.0232069287449121
288,0.044168297201395,0.0415579117834568,0.0173166524618864,-0.5,0.0785926431417465,-0.0008376300684176
289,0.0268741641193628,0.0374493338167667,-0.0060264789499342,-0.5,0.0256757587194443,-0.0103813372552395
290,0.0172877758741379,0.0574271902441978,-0.0112059907987714,-0.5,-0.0029495754279196,0.0109204687178135
291,0.0051903682760894,0.103208489716053,-0.0077584735117852,-0.5,-0.018469724804163,0.0484792999923229
292,-0.0154472421854734,0.151675596833229,-0.0093946708366274,-0.5,-0.0313689969480038,0.0753735080361366
293,-0.0327477492392063,0.169563382863998,-0.0162196587771177,-0.5,-0.032436516135931,0.0802539810538292
294,-0.0365777462720871,0.145265430212021,-0.0188792608678341,-0.5,-0.0188417099416256,0.067723236978054
295,-0.0254713725298643,0.0998239442706108,-0.0115457633510232,-0.5,5.44065585472708e-07,0.0497918464243412
296,-0.0060751950368285,0.0638751015067101,0.0016652278136462,-0.5,0.0176279228180647,0.0378647148609161
297,0.0061019868589937,0.0501969940960407,0.0172860976308584,-0.5,0.0321977846324444,0.0387590043246746
298,0.0088169639930129,0.0556282661855221,0.0402158759534359,-0.5,0.0480387769639492,0.0608290769159794
299,0.01629838347435,0.0785771831870079,0.0729486122727394,-0.5,0.0698432698845863,0.108977228403091
300,0.0331278257071972,0.11550085246563,0.107008330523968,-0.5,0.0957149639725685,0.164957329630852
301,0.0513061136007309,0.148979708552361,0.128279820084572,-0.5,0.126046344637871,0.196238562464714
302,0.0616400651633739,0.161062300205231,0.12910832464695,-0.5,0.159870699048042,0.188481092453003
303,0.054009847342968,0.146141991019249,0.111232288181782,-0.5,0.177721321582794,0.147211328148842
304,0.02846759557724,0.109364897012711,0.0815636962652206,-0.5,0.158608138561249,0.0909597277641296
305,0.0031556021422147,0.0696357041597366,0.053442295640707,-0.5,0.115010023117065,0.0480492562055588
306,-0.004508851096034,0.0474056079983711,0.0372896678745747,-0.5,0.0773869454860687,0.0332392454147339
307,0.0056230509653687,0.0455286093056202,0.0280196871608496,-0.5,0.05256662145257,0.0374536029994488
308,0.0215951055288315,0.0573836602270603,0.0208559762686491,-0.5,0.0320982150733471,0.0467665307223797
309,0.0302561372518539,0.0775233507156372,0.0215400084853172,-0.5,0.0154219716787338,0.0575030706822872
310,0.023367140442133,0.10165898501873,0.0267574172466993,-0.5,0.0015542871551588,0.0721400007605553
311,0.0088911168277263,0.131497323513031,0.0292674843221903,-0.5,-0.0061209206469357,0.0975969508290291
312,0.00257736351341,0.165778174996376,0.0328753292560577,-0.5,0.0039829262532293,0.139741897583008
313,0.0023556186351925,0.191828951239586,0.0406102575361729,-0.5,0.0287766084074974,0.178288742899895
314,0.0005180147709324,0.199726790189743,0.050917986780405,-0.5,0.0537058673799038,0.17940978705883
315,0.0030063756275922,0.185833290219307,0.0629838332533836,-0.5,0.0733233094215393,0.146563395857811
316,0.0168789904564619,0.152044966816902,0.0777301266789436,-0.0564093813300133,0.0891251489520073,0.114071451127529
317,0.0404849871993065,0.114424757659435,0.0886696130037308,0.5,0.101648077368736,0.098225012421608
318,0.0628414079546928,0.0898163467645645,0.0792399048805237,0.5,0.111250981688499,0.0876428410410881
319,0.0687715485692024,0.0790233835577965,0.050436045974493,0.5,0.12315808236599,0.0706241428852081
320,0.0563471242785454,0.0731916278600693,0.0245076436549425,0.5,0.143973097205162,0.0488146468997002
321,0.0395215004682541,0.0627110525965691,0.0151552064344287,0.5,0.164387553930283,0.0291218161582947
322,0.0266234613955021,0.0434507206082344,0.0212411526590586,0.5,0.159601032733917,0.0213266722857952
323,0.0129478005692363,0.0218841359019279,0.035123772919178,0.5,0.12053569406271,0.0310138463973999
324,-0.0007212056079879,0.0138192567974329,0.0504563711583614,0.5,0.0690910518169403,0.0560425259172916
325,-0.0053661866113543,0.031283225864172,0.0671206191182137,0.5,0.0357063487172127,0.0935553684830666
326,-3.0721854272997e-05,0.0677420943975449,0.0814760103821754,0.5,0.0314945094287395,0.138379514217377
327,0.0084670446813106,0.106234654784203,0.0819343253970146,0.5,0.0442728735506535,0.179609999060631
328,0.0118119530379772,0.134383991360664,0.0604225322604179,0.5,0.0523795634508133,0.199489280581474
329,0.0066189370118081,0.147892147302628,0.0262344628572464,0.5,0.0419740565121174,0.188328891992569
330,0.0020657870918512,0.156167209148407,0.0017327137757092,0.5,0.0206905286759138,0.162427797913551
331,0.0022870798129588,0.166977047920227,-0.003532173577696,0.5,0.0068685379810631,0.140295878052711
332,-0.0007221695268526,0.167898863554001,0.0037103900685906,0.5,0.0101752476766706,0.119418516755104
333,-0.003400111105293,0.153626099228859,0.0234275851398706,0.5,0.032400730997324,0.101764254271984
334,0.0061416593380272,0.13968788087368,0.0593320764601231,0.5,0.0678783133625984,0.10032743960619
335,0.0260272566229105,0.138891696929932,0.0974461957812309,0.5,0.101048611104488,0.112695917487144
336,0.0447171963751316,0.14873605966568,0.115663781762123,0.5,0.118864879012108,0.12471729516983
337,0.0573594979941845,0.152556195855141,0.110690020024776,0.5,0.128218099474907,0.131348341703415
338,0.0684770047664642,0.134912624955177,0.0958012193441391,0.5,0.148650527000427,0.136517226696014
339,0.0807215794920921,0.102070458233356,0.0808214992284775,0.5,0.177182152867317,0.138748541474342
340,0.0874134823679924,0.0726030245423317,0.0693534165620804,0.5,0.187246516346931,0.132831797003746
341,0.0808613300323486,0.0546104460954666,0.0657362416386604,0.5,0.16856025159359,0.121815226972103
342,0.0612504407763481,0.047439206391573,0.0697360709309578,0.5,0.133027791976929,0.111320465803146
343,0.0343164540827274,0.0505546517670155,0.0739450976252556,0.5,0.0940838754177094,0.104358777403831
344,0.0085706785321235,0.0620402172207832,0.0740196853876114,0.5,0.0621251724660397,0.106556005775929
345,-0.0074619152583181,0.0783057063817978,0.0683029145002365,0.5,0.0427133031189442,0.121646046638489
346,-0.0069575849920511,0.0962545499205589,0.0549224130809307,0.5,0.041628286242485,0.143073469400406
347,0.013503978960216,0.108177252113819,0.0360780917108059,0.5,0.0650702491402626,0.151370197534561
348,0.0383142083883286,0.103940658271313,0.0115492036566138,0.5,0.0964083150029182,0.125545784831047
349,0.0392005108296871,0.087758406996727,-0.0188127253204584,0.5,0.0994089171290398,0.0697282701730728
350,0.0102245155721903,0.0710679218173027,-0.0446868017315865,0.5,0.0585303418338299,0.0206664279103279
351,-0.0268409959971905,0.0626687780022621,-0.0587055198848248,0.5,-0.0034334876108914,0.011895383708179
352,-0.0444091446697712,0.0730835869908333,-0.0560328140854836,0.5,-0.0439595617353916,0.0395760163664818
353,-0.0322043001651764,0.0960739776492119,-0.0233229734003544,0.5,-0.0313483253121376,0.0804160535335541
354,-0.0008382042287848,0.111684419214725,0.040439922362566,0.5,0.0317336730659008,0.1229582503438
355,0.0342346653342247,0.111632138490677,0.110858447849751,0.5,0.109081007540226,0.164902970194817
356,0.0593981482088566,0.0967954769730568,0.158299535512924,0.461004734039307,0.160700514912605,0.195384740829468
357,0.0720980614423752,0.0762702524662018,0.173699215054512,-0.0332933440804482,0.176521122455597,0.205473184585571
358,0.082322359085083,0.0700350999832153,0.170900076627731,-0.5,0.174317061901093,0.206758543848991
359,0.0944651812314987,0.0877185463905334,0.164304986596107,-0.5,0.174492418766022,0.209928810596466
360,0.101611986756325,0.114072307944298,0.152958288788795,-0.5,0.176283270120621,0.204507246613503
361,0.0929991826415062,0.128062859177589,0.131819531321526,-0.5,0.157031908631325,0.181325018405914
362,0.0668608248233795,0.124967932701111,0.105891451239586,-0.5,0.111540406942368,0.151889204978943
363,0.0371343903243542,0.114127591252327,0.0816736221313477,-0.5,0.0667882040143013,0.130964249372482
364,0.0188508685678244,0.106015607714653,0.0592502094805241,-0.5,0.0455732010304928,0.120513185858727
365,0.0155932223424315,0.10273527354002,0.0430587716400623,-0.5,0.0484161004424095,0.11811126768589
366,0.0241160783916712,0.099872961640358,0.0450163297355175,-0.5,0.0696534588932991,0.125496864318848
367,0.0393320508301258,0.0932939574122429,0.0609894767403603,-0.5,0.0987541675567627,0.139071345329285
368,0.0529015325009823,0.0807893425226212,0.0643748715519905,-0.5,0.114174261689186,0.142801076173782
369,0.058029543608427,0.0712299421429634,0.0451762452721596,-0.5,0.106505528092384,0.128478676080704
370,0.058334156870842,0.077219732105732,0.0234037861227989,-0.5,0.0892094969749451,0.113539323210716
371,0.0592677444219589,0.0858244672417641,0.0106978612020612,-0.5,0.0736309438943863,0.115752503275871
372,0.0558771751821041,0.0707347542047501,-0.0001627767487661,-0.5,0.0608725324273109,0.12274144589901
373,0.0437648296356201,0.0334084890782833,-0.0094109838828444,-0.5,0.0546518228948116,0.116846062242985
374,0.0316498167812824,0.0025343808811157,-0.0057192617096006,-0.5,0.0646118670701981,0.107765272259712
375,0.0309755485504866,0.0006028136704117,0.0157435480505228,-0.5,0.0945491939783096,0.11252299696207
376,0.0400652550160885,0.0292081087827683,0.0465339757502079,-0.5,0.129135027527809,0.131702184677124
377,0.0493649393320084,0.0749453008174896,0.0749033018946648,-0.5,0.146374851465225,0.155360326170921
378,0.0553505048155785,0.115593150258064,0.0963291078805923,-0.5,0.146135851740837,0.173188403248787
379,0.059598945081234,0.136027932167053,0.116204455494881,-0.5,0.143691495060921,0.184665262699127
380,0.0650811120867729,0.142051517963409,0.137447237968445,-0.5,0.141773834824562,0.195813775062561
381,0.0715495496988297,0.149841487407684,0.151798918843269,-0.5,0.13491778075695,0.210514441132545
382,0.0731290504336357,0.163008704781532,0.151055291295052,-0.5,0.124935887753963,0.237656757235527
383,0.0686337649822235,0.170403987169266,0.13723623752594,-0.5,0.117834627628326,0.270530581474304
384,0.0632579922676086,0.166909605264664,0.116594709455967,-0.5,0.117620348930359,0.271790206432343
385,0.0604124404489994,0.152085363864899,0.0895029529929161,-0.5,0.120239600539207,0.222536101937294
386,0.0580206252634525,0.120794780552387,0.0562974885106087,-0.5,0.116347797214985,0.147843196988106
387,0.0514049977064133,0.0757998004555702,0.0276954490691423,-0.5,0.110498487949371,0.0837098211050034
388,0.040043368935585,0.0352374948561192,0.0143830897286534,-0.5,0.11338060349226,0.05426225066185
389,0.0258024483919144,0.0206156335771084,0.0126195214688778,-0.5,0.11944916844368,0.0680979117751122
390,0.0119471838697791,0.0382410027086735,0.0130210490897298,-0.5,0.118628807365894,0.107333935797215
391,0.0079269586130976,0.0750018358230591,0.0179247297346592,-0.5,0.110187344253063,0.137374252080917
392,0.0176918171346188,0.103492066264153,0.0334486067295074,-0.5,0.0966143012046814,0.141227930784225
393,0.0311288181692362,0.0973997935652733,0.0539306700229645,-0.5,0.0841042548418045,0.126647666096687
394,0.0403427332639694,0.0590579099953175,0.07364322245121,-0.5,0.0854076221585274,0.110833190381527
395,0.0492050275206566,0.0163813065737486,0.093182384967804,-0.5,0.1059365645051,0.105310119688511
396,0.0642480999231339,-0.0058410712517797,0.110788010060787,-0.5,0.135427594184875,0.113126672804356
397,0.0859778076410294,0.0032871975563466,0.127769753336906,-0.5,0.163527265191078,0.138206720352173
398,0.106648683547974,0.038221076130867,0.146341845393181,-0.5,0.188465803861618,0.178858026862144
399,0.117893144488335,0.0793713927268982,0.158485248684883,-0.5,0.209050446748734,0.216248854994774
400,0.12117999792099,0.108687169849873,0.152730822563171,-0.5,0.218918368220329,0.226448372006416
401,0.117560505867004,0.117338016629219,0.126601994037628,-0.5,0.206961780786514,0.203210726380348
402,0.10036201775074,0.111969396471977,0.0940209403634071,-0.5,0.175170704722404,0.164555981755257
403,0.0706625804305077,0.114620886743069,0.0737910643219948,-0.5,0.142192050814629,0.133228421211243
404,0.0434077195823193,0.138232156634331,0.0685187131166458,-0.5,0.125978037714958,0.119053401052952
405,0.0344636105000973,0.169373780488968,0.0680848732590675,-0.5,0.131881698966026,0.118555933237076
406,0.0457869730889797,0.179955765604973,0.0658703520894051,-0.5,0.143685236573219,0.128519043326378
407,0.0685832500457764,0.155701324343681,0.0624657943844795,-0.5,0.143015325069427,0.16312001645565
408,0.0887157917022705,0.110706612467766,0.0593539103865623,-0.5,0.127169772982597,0.218065604567528
409,0.0885792002081871,0.0651234686374664,0.0572606511414051,-0.5,0.0998727008700371,0.24868631362915
410,0.067427471280098,0.0268134661018848,0.0614140294492245,-0.5,0.0725986361503601,0.233034372329712
411,0.0433063469827175,0.0023246856871992,0.0781029760837555,-0.5,0.061274416744709,0.196334019303322
412,0.0277221500873566,-0.0020079135429114,0.1009835973382,-0.5,0.0669073760509491,0.166277334094048
413,0.0232790466398001,0.0123862205073237,0.117922149598598,-0.5,0.0811387076973915,0.15212282538414
414,0.0313001573085785,0.0378273613750935,0.124516241252422,-0.5,0.102476522326469,0.150582775473595
415,0.0452839024364948,0.0619677826762199,0.120479829609394,-0.5,0.129060924053192,0.153876274824142
416,0.0564486533403397,0.0753212720155716,0.108803808689117,-0.5,0.153317511081696,0.159573137760162
417,0.0636863633990288,0.0796957984566689,0.0949519425630569,-0.5,0.169124200940132,0.168182894587517
418,0.0684758424758911,0.0849549397826195,0.0844629779458046,-0.5,0.176670029759407,0.178862690925598
419,0.072705365717411,0.101907700300217,0.0831309929490089,-0.5,0.179418906569481,0.195514962077141
420,0.0780181214213371,0.129442408680916,0.0925713628530502,-0.5,0.177466407418251,0.222230494022369
421,0.0834153294563293,0.148134261369705,0.106133662164211,-0.5,0.169567212462425,0.247353762388229
422,0.0887051820755005,0.143455281853676,0.114013910293579,-0.5,0.160325542092323,0.250954240560532
423,0.0924042910337448,0.12284179776907,0.11190827190876,-0.5,0.154396638274193,0.227041468024254
424,0.0935270711779594,0.102611236274242,0.103825658559799,-0.5,0.153376832604408,0.1855099350214
425,0.0975886359810829,0.0955258384346962,0.0970445200800896,-0.5,0.16368293762207,0.147438675165176
426,0.104587957262993,0.103725537657738,0.0885264426469803,-0.5,0.182885140180588,0.124585896730423
427,0.104050703346729,0.11407994478941,0.0694478899240494,-0.5,0.193405255675316,0.103914722800255
428,0.0944508016109467,0.112639307975769,0.0441580265760422,-0.5,0.190003588795662,0.0790343433618546
429,0.0899243801832199,0.103181019425392,0.0216971021145582,-0.5,0.178716093301773,0.0655220448970795
430,0.0956336706876755,0.0902783647179604,0.0041388804093003,-0.5,0.150722414255142,0.0730898752808571
431,0.0912706553936005,0.0647566169500351,-0.0083595905452966,-0.5,0.0955338552594185,0.0932459086179733
432,0.0620612800121307,0.0315497703850269,-0.0119965504854918,-0.5,0.030552426353097,0.113386772572994
433,0.0261642932891846,0.0190488062798977,0.0036858294624835,-0.5,-0.0051851854659616,0.137420892715454
434,0.0107825230807066,0.0440546199679375,0.045158252120018,-0.5,0.0125810177996755,0.18230152130127
435,0.025575440376997,0.087019607424736,0.104639187455177,-0.5,0.071755439043045,0.242006435990334
436,0.0602045692503452,0.11880636960268,0.16251340508461,-0.5,0.137115716934204,0.285625368356705
437,0.0945171490311623,0.13249135017395,0.196740061044693,-0.5,0.178421229124069,0.299677342176437
438,0.116105191409588,0.137420132756233,0.201168149709702,-0.5,0.191935390233994,0.29449674487114
439,0.123883083462715,0.143257215619087,0.187952801585197,-0.5,0.1954425573349,0.270899206399918
440,0.118273600935936,0.150125950574875,0.166204765439034,-0.5,0.201351776719093,0.22447606921196
441,0.102657482028008,0.148143693804741,0.136771738529205,-0.5,0.205431893467903,0.176221206784248
442,0.0899292901158333,0.133406266570091,0.108496852219105,-0.5,0.202758103609085,0.155400067567825
443,0.0891097113490105,0.112424574792385,0.0911264941096306,-0.5,0.189210504293442,0.153343990445137
444,0.0946123674511909,0.0844258219003677,0.0772876888513565,-0.5,0.155370622873306,0.137355655431747
445,0.0991281792521477,0.050356600433588,0.0608078725636005,-0.5,0.106513537466526,0.106274627149105
446,0.101411901414394,0.0288238581269979,0.0521280467510223,-0.5,0.0690013989806175,0.0897867828607559
447,0.102535910904408,0.0351581275463104,0.0603559389710426,-0.5,0.0651831552386284,0.101491831243038
448,0.105138599872589,0.0564505010843277,0.0794181972742081,-0.5,0.0946001559495926,0.123348876833916
449,0.108700200915337,0.0646727010607719,0.094338059425354,-0.5,0.136420220136642,0.134417816996574
450,0.105052448809147,0.055780578404665,0.101327158510685,-0.5,0.165222257375717,0.137836083769798
451,0.0912386924028397,0.0499403774738312,0.108019471168518,-0.5,0.167515784502029,0.146920964121819
452,0.0778526738286018,0.0597173906862736,0.114755161106586,-0.5,0.145784080028534,0.16048264503479
453,0.0760409981012344,0.0815976485610008,0.121931083500385,-0.5,0.117997646331787,0.176660344004631
454,0.0863440856337547,0.109657041728497,0.134154453873634,-0.5,0.11041720956564,0.200564160943031
455,0.100401043891907,0.140323236584663,0.142493709921837,-0.5,0.128721743822098,0.220978900790215
456,0.105710543692112,0.159527093172073,0.132172107696533,-0.5,0.149699300527573,0.215465769171715
457,0.0979108288884163,0.153535351157188,0.105197735130787,-0.5,0.157333180308342,0.185303017497063
458,0.0857386142015457,0.134216248989105,0.0759092643857002,-0.5,0.154485002160072,0.160229802131653
459,0.0778283327817917,0.119953773915768,0.0561516880989075,-0.5,0.146440550684929,0.169115334749222
460,0.0763434171676636,0.106589838862419,0.0518901385366917,-0.5,0.139123097062111,0.205310136079788
461,0.0765597149729729,0.0799488201737404,0.0567764490842819,-0.5,0.13001175224781,0.224303066730499
462,0.0746991783380508,0.0388197936117649,0.0595742240548134,-0.5,0.112781576812267,0.197151035070419
463,0.0789584219455719,0.0004990306915715,0.0698752328753471,-0.5,0.102871783077717,0.146067142486572
464,0.0963577404618263,-0.0167954787611961,0.103217661380768,-0.297516465187073,0.119580276310444,0.108019314706326
465,0.117559686303139,-0.0108425226062536,0.151297852396965,0.5,0.156265676021576,0.0946279391646385
466,0.128537684679031,0.0168313402682543,0.195489957928658,0.5,0.194156274199486,0.104722373187542
467,0.123441576957703,0.0655290111899376,0.220553815364838,0.5,0.216006770730019,0.139000162482262
468,0.100739359855652,0.119797758758068,0.217113435268402,0.5,0.210373565554619,0.187731355428696
469,0.0694378241896629,0.160835817456245,0.193885996937752,0.5,0.185941487550735,0.230863019824028
470,0.0476648844778538,0.182018950581551,0.166905105113983,0.5,0.158055365085602,0.248202130198479
471,0.0406175218522549,0.175848573446274,0.141773641109467,0.5,0.129722028970718,0.230138808488846
472,0.0468590892851353,0.143529132008553,0.126207023859024,0.5,0.111797273159027,0.194050043821335
473,0.0674361512064934,0.107643276453018,0.129885837435722,0.5,0.12309417873621,0.169432356953621
474,0.0983717665076256,0.0882962718605995,0.145934358239174,0.5,0.162916168570518,0.164184406399727
475,0.13006828725338,0.0839831829071045,0.157053768634796,0.5,0.209050133824348,0.168183669447899
476,0.144643783569336,0.084014780819416,0.151121005415916,0.5,0.232148677110672,0.175616919994354
477,0.130547598004341,0.0883464589715004,0.126530423760414,0.5,0.215489625930786,0.187622576951981
478,0.0975493341684341,0.0983152464032173,0.0924796909093857,0.5,0.171372070908546,0.195212990045547
479,0.0623045079410076,0.0998493432998657,0.0578334145247936,0.5,0.12542724609375,0.173071965575218
480,0.0419622808694839,0.0734828189015388,0.0228713899850845,0.5,0.0955298468470573,0.112441003322601
481,0.0480638705193996,0.0149353127926588,-0.0107472455129027,0.5,0.0859521627426147,0.0415652729570866
482,0.0646891295909882,-0.05680301040411,-0.0358838401734829,0.5,0.083918422460556,-0.0098265372216701
483,0.0667856559157372,-0.10428325086832,-0.0410136394202709,0.5,0.0815423205494881,-0.0368565283715725
484,0.0566515363752842,-0.10249474644661,-0.0127885788679123,0.5,0.0903237760066986,-0.0394486598670483
485,0.0516467988491058,-0.0660158544778824,0.045679971575737,0.5,0.11813273280859,-0.0122757526114583
486,0.0574953965842724,-0.0232023857533932,0.108471870422363,0.5,0.154200196266174,0.0360181927680969
487,0.0689349845051765,0.0157749447971582,0.14984105527401,0.5,0.179458111524582,0.0880196690559387
488,0.0764857679605484,0.0590805448591709,0.163143068552017,0.5,0.181586623191834,0.136543482542038
489,0.0736118853092194,0.111850053071976,0.15853713452816,0.5,0.16656818985939,0.178775250911713
490,0.0657205581665039,0.157001540064812,0.150198593735695,0.5,0.155890628695488,0.208688765764236
491,0.0633411109447479,0.17286716401577,0.143292397260666,0.5,0.162990242242813,0.216645374894142
492,0.0706690028309822,0.157895505428314,0.136060327291489,0.5,0.182469397783279,0.199212744832039
493,0.0818550810217857,0.126430839300156,0.126563608646393,0.5,0.201898336410522,0.168476685881615
494,0.0870417281985283,0.0941266417503357,0.114062041044235,0.5,0.21268393099308,0.13950988650322
495,0.0811012834310532,0.0680520832538605,0.101426869630814,0.5,0.211728051304817,0.113404266536236
496,0.0635510683059692,0.045663096010685,0.088748887181282,0.5,0.200118869543076,0.0814631953835487
497,0.0400993898510933,0.0198371391743422,0.0720249935984612,0.5,0.182536274194717,0.0461191982030869
498,0.020963367074728,-0.0117079457268119,0.0497384630143642,0.5,0.161389648914337,0.0248095281422138
499,0.0144822532311082,-0.0399875193834305,0.0255883112549782,0.5,0.141472965478897,0.0251536164432764
500,0.0265279300510883,-0.052897471934557,0.01078712195158,0.5,0.142222821712494,0.0325782708823681
501,0.0538051389157772,-0.0514244809746742,0.0088102342560887,0.5,0.171794950962067,0.0307392850518227
502,0.0785256922245026,-0.0489007644355297,0.0087255807593464,0.5,0.200239926576614,0.0176264978945255
503,0.0833095461130142,-0.0529055334627628,0.0059284213930368,0.5,0.197480887174606,0.0021714945323765
504,0.0693841576576233,-0.0573349483311176,0.0065439259633421,0.5,0.169442787766457,-0.003265094012022
505,0.0502622053027153,-0.0488576292991638,0.0125771006569266,0.5,0.135997489094734,0.007999368943274
506,0.0354212038218975,-0.0199270397424698,0.0193515028804541,0.5,0.110456846654415,0.0349463075399399
507,0.031715665012598,0.0234222486615181,0.0283745359629393,0.5,0.104208916425705,0.0768813639879227
508,0.0430301316082478,0.0675993412733078,0.0479722917079926,0.5,0.120725050568581,0.125260174274445
509,0.061387911438942,0.10327559709549,0.0765758529305458,0.5,0.147520869970322,0.16102734208107
510,0.0729475319385529,0.129057854413986,0.099474661052227,0.5,0.168661117553711,0.175293534994125
511,0.0728365853428841,0.142559587955475,0.105052746832371,-0.0787989348173141,0.179256871342659,0.169193252921104
512,0.0659412741661072,0.135820835828781,0.0924731940031052,-0.5,0.180865541100502,0.145885601639748
513,0.0588836632668972,0.109705686569214,0.0702104866504669,-0.5,0.177192434668541,0.118897311389446
514,0.0557094551622868,0.0782414674758911,0.051082119345665,-0.5,0.175035029649735,0.0976462960243225
515,0.0534707345068455,0.0520987957715988,0.0424289517104626,-0.5,0.174714267253876,0.0744081363081932
516,0.0484244376420975,0.0351366065442562,0.0459768585860729,-0.5,0.175373360514641,0.0511525347828865
517,0.0399673543870449,0.0273961015045643,0.0574368312954903,-0.5,0.180395200848579,0.0409608334302902
518,0.0227288398891687,0.0199576988816261,0.0651993900537491,-0.5,0.181146278977394,0.039289303123951
519,-0.0004588818119373,0.0048317485488951,0.0620433390140533,-0.5,0.166804403066635,0.0370676927268505
520,-0.0119853504002094,-0.0119526740163565,0.0540222711861134,-0.5,0.148029968142509,0.0449478626251221
521,-0.0039087901823222,-0.0168882347643375,0.0510692521929741,-0.5,0.143197014927864,0.0670755878090858
522,0.0150356348603964,-0.0066069490276277,0.0517717786133289,-0.5,0.153681412339211,0.0821600332856178
523,0.0314399488270283,0.0033547219354659,0.0434267856180668,-0.5,0.161245346069336,0.0698897540569305
524,0.0341437309980392,-0.0006426348700188,0.0235398877412081,-0.5,0.152324080467224,0.0317220203578472
525,0.0247720666229725,-0.016272496432066,0.0073925438337028,-0.5,0.137916445732117,-0.0108535857871175
526,0.019248379394412,-0.0368880070745945,0.0041187149472534,-0.5,0.130693018436432,-0.0349595807492733
527,0.0273090451955795,-0.0516725294291973,0.0116173401474953,-0.5,0.127161100506783,-0.0297949239611626
528,0.0390244051814079,-0.0504038333892822,0.0276812929660082,-0.5,0.120597042143345,-3.48567550645384e-06
529,0.0409058667719364,-0.0324046798050404,0.0490360334515572,-0.5,0.113276556134224,0.0410156920552254
530,0.0349716059863567,0.0028821553569287,0.0731531456112862,-0.5,0.115510120987892,0.0913336053490639
531,0.0294150672852993,0.051172997802496,0.0962929129600525,-0.5,0.130015090107918,0.147527948021889
532,0.0232071839272976,0.0938760191202164,0.111245505511761,-0.5,0.143465146422386,0.183186277747154
533,0.0132393008098006,0.111510887742043,0.110948584973812,-0.5,0.144778624176979,0.175059095025063
534,0.002082719001919,0.0991599559783936,0.0933563113212585,-0.5,0.136464804410934,0.137612894177437
535,-0.0055616260506212,0.0683225765824318,0.0692451149225235,-0.5,0.122453533113003,0.106072053313255
536,-0.0029064419213682,0.0393711291253567,0.0566913858056068,0.0146805280819535,0.11471601575613,0.0912320613861084
537,0.0139837982133031,0.0242030899971724,0.0599661953747272,0.5,0.133779942989349,0.0780262276530266
538,0.0335062183439732,0.0147517202422023,0.0620526112616062,0.5,0.169126272201538,0.0558918789029121
539,0.0347173027694225,0.0010180663084611,0.0513881668448448,0.5,0.181765183806419,0.0324569270014763
540,0.0136915920302272,-0.0071431044489145,0.039361659437418,0.5,0.155713886022568,0.0230477713048458
541,-0.0107350861653686,0.0073664649389684,0.0383095368742943,0.5,0.109673835337162,0.0318865142762661
542,-0.0233563594520092,0.0371545292437077,0.0461410209536552,0.5,0.0740175098180771,0.0471585169434547
543,-0.0266073886305094,0.0541722141206265,0.0539429374039173,0.5,0.0621546991169453,0.0581962056457996
544,-0.0255708787590265,0.050230585038662,0.0554508082568645,0.5,0.063355378806591,0.0667513161897659
545,-0.0217939000576735,0.0380799658596516,0.0482423231005669,0.5,0.0653967261314392,0.0679747238755226
546,-0.0200628638267517,0.0222095623612404,0.0349451452493668,0.5,0.0675504058599472,0.0571684576570988
547,-0.0249219723045826,0.0057086492888629,0.0237699430435896,0.5,0.0755634754896164,0.049534197896719
548,-0.0350391753017902,-0.0002859143423847,0.0163393821567297,0.5,0.087902620434761,0.053814023733139
549,-0.0446340143680573,0.0102994283661246,0.0080857118591666,0.5,0.0932416543364525,0.0608402416110039
550,-0.0476940535008907,0.0298988595604897,0.0020256813149899,0.5,0.0878017023205757,0.0658191740512848
551,-0.0416603796184063,0.0458183214068413,0.0021695087198168,0.5,0.0803141072392464,0.0667507275938988
552,-0.025389963760972,0.0527439825236797,0.0066457935608923,0.5,0.081213004887104,0.0580466762185097
553,-0.0005798022611998,0.0493163242936134,0.0159496497362852,0.5,0.0993525087833405,0.0413940064609051
554,0.022056708112359,0.0335082672536373,0.031300887465477,0.5,0.130918309092522,0.0218489374965429
555,0.0300679989159107,0.010151881724596,0.0488559231162071,0.5,0.15375629067421,0.0046023773029446
556,0.0176822356879711,-0.0079620108008384,0.0601970106363297,0.5,0.149710685014725,-0.001431128825061
557,-0.0085826432332396,-0.0122741851955652,0.0599190071225166,0.5,0.123950272798538,0.0067610340192914
558,-0.0281550642102957,-0.0008915697108022,0.0534712113440037,0.5,0.09950290620327,0.0242881570011377
559,-0.0306106880307198,0.0262853484600782,0.0479751266539097,0.5,0.0916551575064659,0.0499381497502327
560,-0.027284299954772,0.0677964016795158,0.0437950156629086,0.5,0.0951602607965469,0.0920682847499847
561,-0.0293343383818865,0.112993359565735,0.0387177467346191,0.5,0.100710742175579,0.141923397779465
562,-0.0396450869739056,0.134895622730255,0.0306060388684273,0.5,0.110623650252819,0.163889080286026
563,-0.0550283119082451,0.11721121519804,0.0210574995726347,0.5,0.129929825663567,0.143258541822433
564,-0.0661960244178772,0.0755225270986557,0.0185831300914288,0.5,0.150118693709373,0.0956840366125107
565,-0.0671999976038933,0.0324756018817425,0.0226249229162931,0.5,0.152666583657265,0.0337725058197975
566,-0.0572260804474354,-0.0017062870319932,0.0145022198557854,0.5,0.125615105032921,-0.0329586304724216
567,-0.0423905961215496,-0.0189346801489592,-0.0123419044539332,0.5,0.077750101685524,-0.0842878967523575
568,-0.0350688099861145,-0.0117825334891677,-0.035030372440815,0.5,0.035186629742384,-0.1000667065382
569,-0.0350045524537563,0.0132535081356764,-0.0282575804740191,0.5,0.0209460817277431,-0.0764919966459274
570,-0.0314682386815548,0.0430203564465046,0.0070889126509428,0.5,0.0371237397193909,-0.0274683926254511
571,-0.0220845807343721,0.0691892951726913,0.0468907095491886,0.5,0.0675989761948586,0.0231995135545731
572,-0.0122856087982655,0.0931638404726982,0.0699267387390137,0.5,0.0966899022459984,0.0599104464054108
573,-0.0072808181867003,0.117308937013149,0.0724380239844322,0.5,0.11396374553442,0.0781005620956421
574,-0.0075813131406903,0.125692754983902,0.0616056844592094,0.5,0.115009270608425,0.0730699971318245
575,-0.0108793899416924,0.101720608770847,0.0443634055554867,0.5,0.107054881751537,0.0435841009020805
576,-0.0159058514982462,0.0526963658630848,0.0221648402512074,0.435104727745056,0.100199267268181,0.0005037780501879
577,-0.0194258019328117,0.010617621243,-0.0018927792552858,0.254659622907639,0.0984511226415634,-0.03063590452075
578,-0.0195972453802824,0.0029342009220272,-0.019750140607357,0.0397790633141994,0.0983614325523376,-0.0309435650706291
579,-0.0213877148926258,0.0153522854670882,-0.0298709142953157,-0.125485852360725,0.0924907624721527,-0.0170754995197058
580,-0.0275960136204958,0.0200270637869835,-0.0357854142785072,-0.240325227379799,0.081565298140049,-0.0213493090122938
581,-0.0332452096045017,0.0105483960360289,-0.0356865301728249,-0.349652796983719,0.0739283487200737,-0.047942228615284
582,-0.0335790105164051,-0.009817698970437,-0.0266727562993765,-0.462133496999741,0.0730623304843903,-0.0717973336577415
583,-0.0311171747744083,-0.0296486523002386,-0.0093501284718513,-0.5,0.07909045368433,-0.0785605981945992
584,-0.0296713411808014,-0.0325404778122902,0.00938989687711,-0.5,0.0932203307747841,-0.0790897756814957
585,-0.0250096712261438,-0.0190149731934071,0.0187521725893021,-0.5,0.117768526077271,-0.0792337954044342
586,-0.0156671330332756,-0.0020667982753366,0.018729081377387,-0.5,0.153742343187332,-0.0763775482773781
587,-0.0104098431766033,0.0127465771511197,0.0223069153726101,-0.5,0.190679684281349,-0.0754179358482361
588,-0.0108134793117642,0.027432369068265,0.0401773676276207,-0.5,0.210518628358841,-0.0751879215240479
589,-0.0116738276556134,0.0499100796878338,0.0622571595013142,-0.5,0.200579479336739,-0.069102831184864
590,-0.0144987488165498,0.0814771428704262,0.065144769847393,-0.5,0.159045651555061,-0.0630142912268639
591,-0.0159549843519926,0.106719464063644,0.0501564890146255,-0.5,0.106361135840416,-0.0618517994880676
592,-0.0084643922746181,0.116137512028217,0.0360113643109798,-0.5,0.0723709836602211,-0.0580131150782108
593,-9.53619455685839e-05,0.112597845494747,0.0231850314885378,-0.5,0.062877431511879,-0.047260470688343
594,-0.0032710451632738,0.0977991297841072,0.0081547331064939,-0.5,0.0665474981069565,-0.0369615145027637
595,-0.0160897467285395,0.0732250288128853,-0.0049612382426857,-0.438931792974472,0.0715372934937477,-0.039351474493742
596,-0.0311592016369104,0.0402479432523251,-0.020233666524291,-0.19278122484684,0.062904953956604,-0.0635978505015373
597,-0.0416772104799747,0.0085411239415407,-0.0379375703632832,-0.0786987841129303,0.0400248616933823,-0.0977207124233246
598,-0.0387201979756355,-0.0042696711607277,-0.0412029474973679,-0.0649499222636223,0.026757875457406,-0.104758813977242
599,-0.0201466828584671,0.0007895737071521,-0.0218947771936655,-0.130205109715462,0.0402270555496216,-0.0741990506649017
600,0.003825535532087,0.0066576544195413,0.0033847608137875,-0.251328408718109,0.0675762668251991,-0.0455499403178692
601,0.0214962027966976,0.007408442441374,0.0132025526836514,-0.394791603088379,0.0849074125289917,-0.0503954887390137
602,0.0281704291701317,0.0093114031478762,0.0025652598123997,-0.5,0.0873008146882057,-0.0763953253626823
603,0.0231528002768755,0.015954690054059,-0.0168123152107,-0.5,0.0868127048015594,-0.102280616760254
604,0.0075817164033651,0.0286234989762306,-0.029357336461544,-0.5,0.0906678065657616,-0.123813778162003
605,-0.0102599216625094,0.04643939062953,-0.0237103831022978,-0.5,0.099591962993145,-0.135011658072472
606,-0.0188882201910019,0.0604587160050869,-0.0003639255883172,-0.5,0.112370125949383,-0.128525465726852
607,-0.0188601538538933,0.0641050189733505,0.0254135262221098,-0.5,0.122867181897163,-0.113048046827316
608,-0.0177410580217838,0.0580503568053246,0.038963720202446,-0.5,0.129676580429077,-0.101279027760029
609,-0.0155011666938663,0.0425016991794109,0.0391801632940769,-0.5,0.138236358761787,-0.0987688973546028
610,-0.0110203996300697,0.0203709844499826,0.030714463442564,-0.5,0.144223853945732,-0.111488543450832
611,-0.0114073613658547,0.0046877525746822,0.0122329648584127,-0.5,0.131465777754784,-0.135606199502945
612,-0.0237439498305321,0.0151249868795276,-0.0128842191770673,-0.5,0.0938626900315285,-0.145525395870209
613,-0.0423565767705441,0.0534913502633572,-0.025823937729001,-0.5,0.0524472668766975,-0.125801205635071
614,-0.0534519888460636,0.0897118523716927,-0.0211806241422892,-0.5,0.0295686777681112,-0.0944129899144173
615,-0.0552221387624741,0.0969227477908134,-0.0193022470921278,-0.5,0.0189727023243904,-0.0785219967365265
616,-0.0546335838735104,0.0790831670165062,-0.0259279068559408,-0.5,0.0092029264196753,-0.0896373018622398
617,-0.0484030805528164,0.0522468239068985,-0.0200292710214853,-0.5,0.0097711430862546,-0.112237475812435
618,-0.0334814414381981,0.0275894086807966,0.0085647907108068,-0.5,0.0315404906868935,-0.121431395411491
619,-0.0163155011832714,0.0145827177911997,0.0455843880772591,-0.5,0.0673032775521278,-0.109443917870522
620,-0.0021890259813517,0.0171856768429279,0.0709119811654091,-0.5,0.101662918925285,-0.0837900936603546
621,0.0057504577562212,0.028137655928731,0.0739248842000961,-0.5,0.128150433301926,-0.0566813871264458
622,0.0069683268666267,0.0439630001783371,0.0617239624261856,-0.5,0.150217205286026,-0.0336677879095078
623,0.0040003582835197,0.064179427921772,0.0472235716879368,-0.5,0.162443682551384,-0.0206274688243866
624,-0.0034715682268142,0.0783484652638435,0.0344307012856007,-0.5,0.154635190963745,-0.0285419691354036
625,-0.0140686873346567,0.081490233540535,0.0244253296405077,-0.5,0.13430891931057,-0.0514900200068951
626,-0.0211516711860895,0.0820039510726929,0.0181633159518242,-0.5,0.11841007322073,-0.0713624358177185
627,-0.0212781652808189,0.0879477858543396,0.0114610278978944,-0.5,0.112682461738586,-0.079612985253334
628,-0.0204023532569408,0.0998710915446281,-0.0011179463472217,-0.5,0.107608757913113,-0.0743632912635803
629,-0.0273933839052916,0.111313529312611,-0.0172086171805859,-0.5,0.0931066870689392,-0.06676334887743
630,-0.0391206368803978,0.112115532159805,-0.0297432597726583,-0.5,0.0745483264327049,-0.076811395585537
631,-0.0407081358134747,0.0951341241598129,-0.0390438362956047,-0.5,0.0654840245842934,-0.104328505694866
632,-0.0259201526641846,0.0645292475819588,-0.0486482977867126,-0.5,0.0747744366526604,-0.133218541741371
633,-0.0059251217171549,0.0378665402531624,-0.0550416298210621,-0.5,0.0990969389677048,-0.150419518351555
634,0.0042269546538591,0.0351499132812023,-0.0540846697986126,-0.5,0.11886265873909,-0.152999922633171
635,-0.0015493279788643,0.0606649182736874,-0.0465716309845448,-0.5,0.117297880351543,-0.147267624735832
636,-0.0163758527487516,0.0984527543187141,-0.0334757082164288,-0.5,0.100947923958302,-0.13491752743721
637,-0.0257522631436586,0.128720656037331,-0.0138381831347942,-0.5,0.0884096920490265,-0.1145393922925
638,-0.0208218786865473,0.140591993927956,0.0098054306581616,-0.5,0.0897156298160553,-0.0934333726763725
639,-0.0041395253501832,0.136677339673042,0.0313004963099957,-0.5,0.103333190083504,-0.0785973146557808
640,0.0116867972537875,0.127216413617134,0.0459045693278313,-0.5,0.121195755898952,-0.0702609047293663
641,0.0105967419221997,0.114681601524353,0.0459649674594402,-0.5,0.133566305041313,-0.0690747275948524
642,-0.0099304495379328,0.0987016782164574,0.0272924806922674,-0.5,0.136296197772026,-0.0709835216403008
643,-0.033157967031002,0.0879405215382576,0.0022155453916639,-0.5,0.13389889895916,-0.0637505799531937
644,-0.0439001955091953,0.0939607322216034,-0.0125224636867642,-0.5,0.134157299995422,-0.0446547903120518
645,-0.046814501285553,0.118697851896286,-0.0147513169795275,-0.5,0.138231560587883,-0.02800621278584
646,-0.0543825030326843,0.152378082275391,-0.013944061473012,-0.5,0.138504087924957,-0.0281158871948719
647,-0.0646014809608459,0.1857790350914,-0.0118704484775662,-0.5,0.13114969432354,-0.0401898063719273
648,-0.0633170232176781,0.211978912353516,-0.0015324797714129,-0.5,0.128055080771446,-0.0442511029541492
649,-0.0437599383294582,0.219235777854919,0.0117532657459378,-0.5,0.14319621026516,-0.0391590967774391
650,-0.0184994731098413,0.198103174567223,0.0105779683217406,-0.5,0.163995742797852,-0.0534814856946468
651,-0.0083848256617784,0.147961869835854,-0.0135814920067787,-0.5,0.15885192155838,-0.104176320135593
652,-0.0123021863400936,0.0850986987352371,-0.0449624136090279,-0.5,0.125634238123894,-0.166493207216263
653,-0.0094649894163012,0.0400601178407669,-0.0538956671953201,-0.5,0.0992456153035164,-0.194794327020645
654,0.0051737311296165,0.029911944642663,-0.033436119556427,-0.5,0.0987601652741432,-0.168469160795212
655,0.0183757431805134,0.052852313965559,-0.0021649054251611,-0.5,0.111351452767849,-0.115240395069122
656,0.0213765632361174,0.100450195372105,0.0257412455976009,-0.5,0.122560240328312,-0.0753713324666023
657,0.016698993742466,0.155259072780609,0.0475340932607651,-0.5,0.127355515956879,-0.0591528192162514
658,0.0101966662332416,0.195058390498161,0.0632737874984741,-0.5,0.12669837474823,-0.0575191266834736
659,0.0011837921338155,0.204583689570427,0.0699920803308487,-0.5,0.122979514300823,-0.0659716501832008
660,-0.0112404711544514,0.182479664683342,0.06360724568367,-0.5,0.115066051483154,-0.0832008048892021
661,-0.0174421947449446,0.143107533454895,0.0439983755350113,-0.5,0.101802945137024,-0.100581742823124
662,-0.0102896317839623,0.10569266974926,0.0149850388988853,-0.5,0.0860870629549026,-0.109950833022594
663,0.0012860967544838,0.0844097286462784,-0.0171654969453812,-0.5,0.0709659680724144,-0.113249212503433
664,0.0076062181033194,0.0874925628304482,-0.0461583063006401,-0.5,0.0602647848427296,-0.108170762658119
665,0.0116779953241348,0.113892093300819,-0.0689210668206215,-0.5,0.0615224726498127,-0.0941444262862206
666,0.0142504712566733,0.152806401252747,-0.0859364792704582,-0.5,0.0710073709487915,-0.0912383049726486
667,0.0072472454048693,0.180504307150841,-0.100465394556522,-0.5,0.0705163031816483,-0.114745639264584
668,-0.0161207355558872,0.170490875840187,-0.114039428532124,-0.5,0.05213638022542,-0.153782278299332
669,-0.0493264235556126,0.128682255744934,-0.115418285131454,-0.5,0.0326086953282356,-0.183412969112396
670,-0.0684111788868904,0.0900218710303307,-0.0885503143072128,-0.5,0.0386432819068432,-0.180640861392021
671,-0.0591418035328388,0.075065016746521,-0.0406914763152599,-0.5,0.0708714053034782,-0.147393047809601
672,-0.0326615236699581,0.0788069441914558,0.0007194824283942,-0.5,0.101007744669914,-0.11247842758894
673,-0.0056226141750812,0.0865819081664085,0.0224278625100851,-0.5,0.113246373832226,-0.0989405140280724
674,0.0166345927864313,0.0880876407027245,0.0348595902323723,-0.5,0.117331735789776,-0.101346485316753
675,0.0344223640859127,0.0840863063931465,0.0458205305039883,-0.5,0.123297140002251,-0.10577604919672
676,0.0411351062357426,0.0753821656107903,0.0471665412187576,-0.5,0.128852978348732,-0.11781882494688
677,0.0329678393900394,0.0595211125910282,0.0346506014466286,-0.5,0.132472574710846,-0.141847461462021
678,0.0170992463827133,0.0386879593133926,0.0159005783498287,-0.5,0.135187089443207,-0.160426899790764
679,0.0020927449222654,0.0191493239253759,-0.0055931275710463,-0.5,0.12867945432663,-0.166961789131165
680,-0.004608510993421,0.0102413073182106,-0.0290009751915932,-0.5,0.107272289693356,-0.170555010437965
681,-0.0009746744181029,0.0209383498877287,-0.0474863573908806,-0.5,0.0800594389438629,-0.162104576826096
682,0.0073498887941241,0.0523035041987896,-0.0586379691958427,-0.5,0.0584078580141068,-0.133828267455101
683,0.0165527388453484,0.0947224870324135,-0.0649826675653458,-0.5,0.0467702895402908,-0.101983226835728
684,0.0238993410021067,0.131577953696251,-0.0672565102577209,-0.5,0.0423758029937744,-0.0818782672286034
685,0.0267118867486715,0.147152900695801,-0.0657940208911896,-0.5,0.0423334836959839,-0.077365018427372
686,0.0271127093583345,0.139099597930908,-0.0611817613244057,-0.5,0.0487962923943996,-0.087337352335453
687,0.0282160378992558,0.119596630334854,-0.0562202297151089,-0.5,0.0597947016358376,-0.104271240532398
688,0.0310746766626835,0.0965860038995743,-0.0524535402655602,-0.5,0.0680807158350945,-0.118937119841576
689,0.03462153673172,0.0689728334546089,-0.047400277107954,-0.5,0.0720936357975006,-0.126971885561943
690,0.0369286052882671,0.041232205927372,-0.0401683412492275,-0.5,0.0765451565384865,-0.13044810295105
691,0.0421477630734444,0.0258161798119545,-0.0318898297846317,-0.5,0.086849719285965,-0.139327511191368
692,0.0512605719268322,0.0244963318109512,-0.0261163618415594,-0.5,0.100911043584347,-0.160299390554428
693,0.0502531602978706,0.022047707810998,-0.029790498316288,-0.5,0.104704901576042,-0.184844225645065
694,0.0328351855278015,0.0131079517304897,-0.0441157780587673,-0.5,0.0908077210187912,-0.199354618787766
695,0.0119903469458222,0.0063293888233602,-0.0605796873569489,-0.5,0.0693260207772255,-0.202772691845894
696,-0.0039833448827266,0.0004937428166158,-0.0679619908332825,-0.5,0.0529904924333096,-0.203733131289482
697,-0.0182311572134495,-0.0104386014863849,-0.0663235932588577,-0.5,0.0421749651432037,-0.204888388514519
698,-0.0351131074130535,-0.0233008693903685,-0.0704409629106522,-0.5,0.0263899937272072,-0.202932044863701
699,-0.05329704657197,-0.0286971144378185,-0.0852455943822861,-0.5,0.0021334767807275,-0.196127727627754
700,-0.0642451569437981,-0.0189827214926481,-0.100893050432205,-0.5,-0.0239502172917128,-0.187620520591736
701,-0.0662320703268051,-0.0015278236242011,-0.113339319825172,-0.5,-0.0453949645161629,-0.180107623338699
702,-0.0597973167896271,0.0118192192167044,-0.117918036878109,-0.5,-0.0538488477468491,-0.160648763179779
703,-0.037616454064846,0.0218748897314072,-0.107223346829414,-0.5,-0.0439635626971722,-0.126566514372826
704,-0.0037076836451888,0.0323631949722767,-0.0864029824733734,-0.5,-0.0218491703271866,-0.104374423623085
705,0.0264936033636332,0.0456719733774662,-0.065019428730011,-0.5,0.0018540350720286,-0.0998984128236771
706,0.0440589599311352,0.0592212006449699,-0.0463250353932381,-0.5,0.0201631467789412,-0.0932314321398735
707,0.049001682549715,0.0655680671334267,-0.0278645157814026,-0.5,0.034020759165287,-0.0786163806915283
708,0.0478263683617115,0.065791517496109,-0.005931245163083,-0.5,0.0494124628603458,-0.0647160485386848
709,0.0468075089156628,0.0681521520018578,0.0146385449916124,-0.5,0.0673565864562988,-0.060367476195097
710,0.0482644960284233,0.0779220759868622,0.0244808848947287,-0.5,0.0814080536365509,-0.0643488094210625
711,0.0503726489841938,0.0947175472974777,0.0213843733072281,-0.5,0.0836799964308739,-0.0676098987460136
712,0.0465021505951881,0.114778459072113,0.0088662998750805,-0.5,0.0713686719536781,-0.0687575414776802
713,0.0337309278547764,0.12585686147213,-0.0092820031568408,-0.5,0.0496520735323429,-0.0763021484017372
714,0.0191487371921539,0.110850103199482,-0.031425304710865,-0.5,0.0306330807507038,-0.0965113863348961
715,0.0162534844130278,0.0753469988703728,-0.0539304427802563,0.271792680025101,0.0258470717817545,-0.124229416251183
716,0.0280672311782837,0.0434046275913715,-0.0694562420248985,0.5,0.0300599411129951,-0.145692497491837
717,0.0358468629419804,0.0224767997860909,-0.0756003111600876,0.352127939462662,0.0280537195503712,-0.154053121805191
718,0.0266566388309002,0.0035751445684582,-0.0743923112750053,-0.5,0.0217435136437416,-0.155006483197212
719,0.0085524516180157,-0.0164960399270058,-0.0736124143004417,-0.5,0.0116064585745335,-0.155189260840416
720,-0.0126058319583535,-0.036898996680975,-0.0882085189223289,-0.5,-0.0218096394091845,-0.161173135042191
721,-0.0321949012577534,-0.056757215410471,-0.11405511200428,-0.5,-0.0747557207942009,-0.172844082117081
722,-0.0378387868404388,-0.060942530632019,-0.123671069741249,-0.5,-0.109673798084259,-0.169240966439247
723,-0.0296089835464954,-0.0347923412919044,-0.107239902019501,-0.5,-0.107599183917046,-0.135123565793037
724,-0.0211967807263136,0.0106642572209239,-0.083818607032299,0.319286853075027,-0.0861459374427795,-0.0872152596712112
725,-0.0144010502845049,0.0529489442706108,-0.0721630677580833,0.5,-0.0664695873856544,-0.0507415942847729
726,-0.0022031746339052,0.0749323219060898,-0.0742878317832947,0.5,-0.0538340583443642,-0.031518243253231
727,0.0121607510372996,0.0761642307043076,-0.0791559368371964,0.5,-0.0459743216633797,-0.0287481192499399
728,0.0197688713669777,0.0690858289599419,-0.0763589218258858,0.5,-0.0422590635716915,-0.0524463914334774
729,0.0191998016089201,0.057335402816534,-0.0652907863259315,-0.0423992872238159,-0.0412319973111153,-0.0945013910531998
730,0.0184128433465958,0.0461782403290272,-0.0468805655837059,-0.5,-0.0361601002514362,-0.119876228272915
731,0.0217508934438229,0.0448792986571789,-0.0252201557159424,-0.5,-0.0260262377560139,-0.117843873798847
732,0.0261768028140068,0.0531812347471714,-0.0135719552636147,-0.5,-0.0195443276315928,-0.114553540945053
733,0.0303370859473944,0.0711103603243828,-0.0158116221427917,-0.5,-0.019548436626792,-0.125848203897476
734,0.0304384846240282,0.0921273082494736,-0.0224683899432421,-0.5,-0.0196724645793438,-0.142645359039307
735,0.0241928212344646,0.0990707948803902,-0.0255031269043684,-0.5,-0.0122001152485609,-0.151119962334633
736,0.0194722209125757,0.088108129799366,-0.0205038003623486,-0.5,0.0033691893331706,-0.141764536499977
737,0.0233699195086956,0.0675673186779022,-0.01112992875278,-0.5,0.0206398125737906,-0.115355834364891
738,0.0352183096110821,0.0420787744224072,-0.0091520398855209,-0.5,0.0382800549268723,-0.0880802422761917
739,0.0486042723059654,0.0128574185073376,-0.0250597987323999,-0.5,0.0467114150524139,-0.0787683054804802
740,0.0518171451985836,-0.0172384586185217,-0.062060970813036,-0.5,0.0198984760791063,-0.0879948660731316
741,0.033460944890976,-0.0366658605635166,-0.109353728592396,-0.5,-0.048323854804039,-0.102735474705696
742,-0.0026244670152664,-0.0307367630302906,-0.141552850604057,-0.5,-0.127345681190491,-0.114975057542324
743,-0.0314478352665901,0.0051221018657088,-0.135052680969238,-0.5,-0.17725545167923,-0.119949854910374
744,-0.0302460249513388,0.0616375394165516,-0.0907255634665489,-0.5,-0.179762244224548,-0.109376356005669
745,-0.0002703155041672,0.117211751639843,-0.0348047278821468,-0.5,-0.147249266505241,-0.0853093490004539
746,0.0393729992210865,0.149320513010025,0.0068531823344528,-0.5,-0.104518346488476,-0.0614958852529526
747,0.0651651471853256,0.153104558587074,0.0282597560435534,-0.5,-0.0696293711662292,-0.0439799949526787
748,0.0602025389671326,0.143725126981735,0.0288252960890532,-0.5,-0.0560670122504234,-0.0349513329565525
749,0.0276620294898748,0.134362816810608,0.0002437694784021,-0.5,-0.0705432966351509,-0.0348428003489971
750,-0.009864111430943,0.12614269554615,-0.0513374544680119,-0.5,-0.101008728146553,-0.034984115511179
751,-0.0326109603047371,0.121077351272106,-0.0978773310780525,-0.5,-0.12627699971199,-0.0400228910148144
752,-0.0348062813282013,0.123696736991405,-0.114676654338837,-0.5,-0.134419426321983,-0.0603465288877487
753,-0.0223274268209934,0.12776181101799,-0.100534468889236,-0.5,-0.128496170043945,-0.0822035744786263
754,-0.0075152711942791,0.118853978812695,-0.0738598629832268,-0.5,-0.117214061319828,-0.0870118141174316
755,0.0050712684169411,0.0976047739386559,-0.0512714982032776,-0.5,-0.100062415003777,-0.0715263932943344
756,0.0174690652638674,0.0780948922038078,-0.0368184745311737,-0.5,-0.0738988518714905,-0.0472951009869576
757,0.0303264483809471,0.0626534074544907,-0.0251989755779505,-0.5,-0.0419196747243404,-0.0359168462455273
758,0.0435698181390762,0.0453507006168365,-0.0100795887410641,-0.5,-0.0103200701996684,-0.051536813378334
759,0.0540999472141266,0.0288138296455145,0.0018661215435713,-0.5,0.0084937531501054,-0.0877102166414261
760,0.0597864612936974,0.0159310381859541,-0.0099559566006064,-0.5,0.0012033105595037,-0.131179943680763
761,0.0585614033043385,0.0035489297006279,-0.0564108118414879,-0.5,-0.0281383935362101,-0.175651848316193
762,0.0452803000807762,-0.0037712471093982,-0.115059241652489,-0.5,-0.0580992735922337,-0.211455956101418
763,0.0239415597170591,-0.0010470021516084,-0.147557035088539,-0.5,-0.0783679708838463,-0.225898906588554
764,0.008412042632699,0.0007597510120831,-0.144644662737846,-0.5,-0.100154608488083,-0.218384221196175
765,0.008681901730597,-0.0048749176785349,-0.124405957758427,-0.5,-0.12746924161911,-0.198149397969246
766,0.0246656164526939,-0.0066882665269076,-0.0968700498342514,-0.5,-0.144864499568939,-0.171738922595978
767,0.0453955344855785,0.0037397334817796,-0.0658209025859833,-0.5,-0.140783563256264,-0.140839248895645
768,0.0559720769524574,0.0248337686061859,-0.0416287109255791,-0.5,-0.121756337583065,-0.106951177120209
769,0.0506382174789906,0.0516083687543869,-0.0296084191650152,-0.5,-0.0988891124725342,-0.0776202157139778
770,0.0359087064862251,0.0696720629930496,-0.0278834849596024,-0.5,-0.0783142298460007,-0.0695008039474487
771,0.021079383790493,0.0627843290567398,-0.0345708094537258,-0.5,-0.0646979510784149,-0.090071476995945
772,0.010691350325942,0.0344821773469448,-0.042338814586401,-0.5,-0.0571509748697281,-0.114419795572758
773,0.0049544028006494,0.0019758518319577,-0.0443199537694454,-0.5,-0.0480885580182076,-0.116949357092381
774,0.0049521760083735,-0.0237394701689482,-0.0452907383441925,-0.5,-0.034880492836237,-0.112084560096264
775,0.0123555958271027,-0.0419686250388622,-0.0530688054859638,-0.5,-0.0263492725789547,-0.118529468774796
776,0.0217627305537462,-0.059273824095726,-0.0670909285545349,-0.5,-0.0333000756800175,-0.13446906208992
777,0.0266729444265366,-0.0764768272638321,-0.0795193985104561,-0.5,-0.0559993162751198,-0.157400488853455
778,0.026596438139677,-0.0809293016791344,-0.087226040661335,-0.5,-0.0862281918525696,-0.177327364683151
779,0.0217190869152546,-0.0656497851014137,-0.0954490005970001,-0.5,-0.115768916904926,-0.184723734855652
780,0.0174508634954691,-0.0384609065949917,-0.100862868130207,-0.5,-0.131860092282295,-0.18657124042511
781,0.0227034240961075,-0.0060975267551839,-0.0940306931734085,-0.5,-0.121631383895874,-0.186379358172417
782,0.0359117761254311,0.0324362479150295,-0.0784839242696762,-0.5,-0.0923261120915413,-0.174867689609528
783,0.0480734631419182,0.0666298493742943,-0.0624308846890926,-0.5,-0.0663695856928825,-0.148413822054863
784,0.0542691983282566,0.0705399438738823,-0.0489548146724701,-0.5,-0.0558701120316982,-0.120908446609974
785,0.0586869493126869,0.0366977229714394,-0.0392974503338337,-0.5,-0.0534906312823296,-0.109488934278488
786,0.0687100887298584,-0.0137769905850291,-0.0338155701756477,-0.5,-0.046981755644083,-0.118842393159866
787,0.0820283815264702,-0.0512477643787861,-0.0370824597775936,-0.5,-0.0338374115526676,-0.146249368786812
788,0.0866526216268539,-0.0595171637833118,-0.0519606396555901,-0.5,-0.0184654146432877,-0.1816526055336
789,0.0741980001330376,-0.0540014952421188,-0.0709990635514259,-0.5,-0.0103142354637384,-0.202937602996826
790,0.0485068932175636,-0.0579749494791031,-0.0873679742217064,-0.5,-0.0238694380968809,-0.199972406029701
791,0.0217012260109186,-0.0764478221535683,-0.0994126573204994,-0.5,-0.0617799274623394,-0.187480077147484
792,0.0090431803837418,-0.106441229581833,-0.106866084039211,-0.5,-0.104778654873371,-0.174819990992546
793,0.0190352126955986,-0.13643029332161,-0.112590499222279,-0.5,-0.131009921431541,-0.154469326138496
794,0.0416711494326591,-0.145674630999565,-0.120168320834637,-0.5,-0.138250783085823,-0.133331283926964
795,0.0574321039021015,-0.126718118786812,-0.13119438290596,-0.5,-0.140254408121109,-0.140517100691795
796,0.0519425868988037,-0.100416772067547,-0.144266858696938,-0.5,-0.148642748594284,-0.184102758765221
797,0.0289615038782358,-0.0912647619843483,-0.147599712014198,-0.5,-0.156679570674896,-0.226008102297783
798,0.0074474466964602,-0.0922465547919273,-0.123467154800892,-0.5,-0.143754988908768,-0.222887083888054
799,-0.0016234373906627,-0.0787651240825653,-0.0716883763670921,-0.5,-0.10553266108036,-0.178972229361534
800,0.0052155596204102,-0.0412610061466694,-0.0131244380027056,-0.5,-0.0606398023664951,-0.129946991801262
801,0.0288355275988579,0.0087820701301097,0.0293362084776163,-0.5,-0.0280542653053999,-0.0963599234819412
802,0.0589617937803268,0.0447384864091873,0.0432590655982494,-0.5,-0.0141880577430129,-0.0780677646398544
803,0.081202931702137,0.0371336489915848,0.0290164202451706,-0.5,-0.0170882437378168,-0.0745251774787903
804,0.0865219309926033,-0.0135256741195917,-0.005248833913356,-0.5,-0.0382091253995895,-0.0916983634233475
805,0.0708484575152397,-0.0648829638957977,-0.0503103509545326,-0.5,-0.0819002613425255,-0.124306179583073
806,0.0405583679676056,-0.0863483026623726,-0.0937600657343864,-0.5,-0.138348236680031,-0.146377131342888
807,0.0146269528195262,-0.0833886116743088,-0.117829851806164,-0.5,-0.182534784078598,-0.131279662251472
808,0.0065498622134327,-0.066716693341732,-0.113484084606171,-0.5,-0.19473822414875,-0.085794560611248
809,0.0110419653356075,-0.0526288636028767,-0.08854029327631,-0.5,-0.174576729536057,-0.0507198944687843
810,0.0180863998830318,-0.0590771622955799,-0.0601466745138168,-0.5,-0.143532440066338,-0.0576870702207088
811,0.026937572285533,-0.0791720375418663,-0.0423713400959969,-0.5,-0.123500213027,-0.100579388439655
812,0.0389065109193325,-0.0931488797068596,-0.0403390787541866,-0.5,-0.115790255367756,-0.150355607271194
813,0.0490917377173901,-0.100888714194298,-0.0599239729344845,-0.5,-0.120911732316017,-0.189891561865807
814,0.0514306053519249,-0.113576158881187,-0.0966321527957916,-0.0147308688610792,-0.141712799668312,-0.212853074073792
815,0.0447689406573772,-0.126845821738243,-0.124336399137974,0.5,-0.161621272563934,-0.213041007518768
816,0.0355202183127403,-0.127179548144341,-0.120819360017776,0.5,-0.161550521850586,-0.197771057486534
817,0.0361843667924404,-0.110108688473701,-0.0854367911815643,0.5,-0.142591252923012,-0.175454750657082
818,0.050635389983654,-0.0840696170926094,-0.0357329286634922,0.5,-0.120173655450344,-0.146707117557526
819,0.0688539445400238,-0.0574700348079205,0.0067868544720113,0.5,-0.106152579188347,-0.113623179495335
820,0.0801607295870781,-0.0338001362979412,0.0306110475212336,0.5,-0.0993193313479424,-0.0826795995235443
821,0.0836631655693054,-0.0227994341403246,0.0360200516879559,0.5,-0.0938054695725441,-0.0623010545969009
822,0.0879716277122498,-0.0256108120083809,0.0311839897185564,0.5,-0.0847146958112717,-0.0551125854253769
823,0.09463120251894,-0.030257323756814,0.0187269039452076,0.5,-0.0745531395077705,-0.0624063424766064
824,0.0922104194760323,-0.02953209169209,-0.003889575600624,0.5,-0.0768884718418121,-0.0793241336941719
825,0.0745299160480499,-0.0257556717842817,-0.0290710404515266,0.5,-0.100023508071899,-0.0924170315265656
826,0.0476822033524513,-0.031091595068574,-0.0459894724190235,0.5,-0.131776615977287,-0.0977915152907372
827,0.0221062675118446,-0.0530585870146751,-0.054631233215332,0.5,-0.151027053594589,-0.0963978692889214
828,0.0055190389975905,-0.0871849581599236,-0.0613370202481747,0.5,-0.15321971476078,-0.0867854803800583
829,0.0016228404128924,-0.117558166384697,-0.0648732408881187,0.5,-0.147708371281624,-0.0751461833715439
830,0.0105866556987166,-0.126949802041054,-0.0595793649554253,0.5,-0.139915317296982,-0.0729693174362183
831,0.0205118991434574,-0.126181527972221,-0.0605911649763584,0.5,-0.141447737812996,-0.0905763059854507
832,0.0124592036008835,-0.134223803877831,-0.0933273285627365,0.5,-0.167709559202194,-0.130585759878159
833,-0.0102330651134253,-0.145511373877525,-0.150081440806389,0.5,-0.210696265101433,-0.17807899415493
834,-0.022302282974124,-0.149124756455421,-0.195101276040077,0.5,-0.247909739613533,-0.211302533745766
835,-0.0130155645310879,-0.141189768910408,-0.199978873133659,0.5,-0.266198843717575,-0.216606289148331
836,0.0088673438876867,-0.119362831115723,-0.155922949314117,0.5,-0.260151773691177,-0.183681458234787
837,0.0369192585349083,-0.0853821411728859,-0.0764843598008156,0.5,-0.231292858719826,-0.107492662966251
838,0.0665755942463875,-0.0479839295148849,0.0053633637726306,0.5,-0.194936841726303,-0.0145418792963028
839,0.0898650735616684,-0.0202828943729401,0.0604890175163746,0.5,-0.167413711547852,0.044587641954422
840,0.10217547416687,-0.0059840190224349,0.0847476348280907,0.5,-0.147845879197121,0.0541714578866959
841,0.105322062969208,0.0004377052828203,0.0880255997180939,0.5,-0.127321466803551,0.0366927273571491
842,0.105095900595188,-0.0064229615963995,0.0756849125027657,0.5,-0.105380140244961,0.0073340688832104
843,0.102426148951054,-0.0325686223804951,0.0483834221959114,0.5,-0.0918925255537033,-0.030202129855752
844,0.0911980792880058,-0.0641146153211594,0.0092102326452732,0.5,-0.0974211245775223,-0.0654735714197159
845,0.0696941167116165,-0.0834922716021538,-0.0313264243304729,0.5,-0.120472341775894,-0.0833810567855835
846,0.0440728478133678,-0.0859402269124985,-0.0598220340907574,0.5,-0.148126557469368,-0.0818514972925186
847,0.021018024533987,-0.078790195286274,-0.0727813616394997,0.5,-0.167367607355118,-0.0769298747181892
848,0.0069890357553958,-0.0769077017903328,-0.077979750931263,0.5,-0.173557609319687,-0.0824796408414841
849,0.0059002814814448,-0.0878730490803719,-0.0822571367025375,0.5,-0.175908699631691,-0.0959015414118767
850,0.0069386018440127,-0.107168138027191,-0.0847374796867371,0.5,-0.187583833932877,-0.109333589673042
851,-0.0042822998948395,-0.132368728518486,-0.0837780609726906,0.5,-0.206696376204491,-0.116685263812542
852,-0.0215677320957184,-0.153468951582909,-0.0819185599684715,0.5,-0.221338450908661,-0.118762522935867
853,-0.0288612730801106,-0.150173977017403,-0.0855338722467422,0.5,-0.229628935456276,-0.124411143362522
854,-0.0207190793007612,-0.126793250441551,-0.0970053821802139,0.5,-0.239889919757843,-0.131319060921669
855,0.0028423168696463,-0.106939755380154,-0.0995371416211128,0.5,-0.251177340745926,-0.127192080020905
856,0.0379667356610298,-0.0994479060173035,-0.0721435099840164,0.5,-0.247450292110443,-0.108478426933289
857,0.0713044553995132,-0.0970818176865578,-0.0172324571758509,0.5,-0.216461434960365,-0.0779531374573708
858,0.0894739702343941,-0.0926736667752266,0.0411998853087425,0.5,-0.168101131916046,-0.0366975851356983
859,0.0883640721440315,-0.0844033658504486,0.0748109221458435,0.5,-0.129743129014969,0.0109012676402926
860,0.0778852477669716,-0.0731651857495308,0.0704465359449387,0.5,-0.120484381914139,0.0478228591382504
861,0.0738898068666458,-0.0606928840279579,0.0397135764360428,0.5,-0.135114938020706,0.0581150762736797
862,0.0714826285839081,-0.0490867719054222,0.002093106508255,0.5,-0.159529745578766,0.0419771708548069
863,0.0517210178077221,-0.0464479215443134,-0.0332432948052883,0.5,-0.185804933309555,0.0088835768401622
864,0.0173202846199274,-0.0573779121041298,-0.0597355104982853,0.5,-0.206049159169197,-0.0258667562156916
865,-0.0085561517626047,-0.0744039788842201,-0.0699452832341194,0.5,-0.210616618394852,-0.052008431404829
866,-0.0111224399879575,-0.0899502709507942,-0.0648080185055733,0.5,-0.198796078562737,-0.0709366202354431
867,0.0031357873231172,-0.101902134716511,-0.0510030388832092,0.5,-0.183246120810509,-0.0814668089151382
868,0.0163462460041046,-0.111502557992935,-0.0373139455914497,0.5,-0.179430916905403,-0.0773808285593987
869,0.0193185340613127,-0.118058234453201,-0.0286394413560629,0.5,-0.188098698854446,-0.0583928674459457
870,0.0187980458140373,-0.120095781981945,-0.0212375912815332,0.5,-0.195255592465401,-0.0353496707975864
871,0.025168739259243,-0.121129602193832,-0.0125377485528588,0.5,-0.189609631896019,-0.0212837867438793
872,0.0383438803255558,-0.118696644902229,-0.0066708903759717,0.5,-0.171386778354645,-0.0209406763315201
873,0.0419630743563175,-0.105392843484879,-0.0149879036471248,0.5,-0.161623537540436,-0.0390722192823887
874,0.0210260897874832,-0.0848288089036942,-0.0428156144917011,0.5,-0.186388537287712,-0.0734326392412186
875,-0.0133661096915603,-0.0709823220968246,-0.0701801255345345,0.5,-0.232168138027191,-0.100899614393711
876,-0.0355111062526703,-0.0766989141702652,-0.0731665715575218,0.5,-0.257545113563538,-0.10901977866888
877,-0.0275565888732672,-0.100182883441448,-0.0513629354536533,0.5,-0.244730547070503,-0.108985349535942
878,0.010698308236897,-0.124754197895527,-0.0169670581817627,0.5,-0.208131328225136,-0.103307873010635
879,0.0555396676063538,-0.133636355400085,0.0186604987829924,0.5,-0.168655142188072,-0.0850251242518425
880,0.0804371535778046,-0.121057398617268,0.045620534569025,0.5,-0.13947893679142,-0.0551600493490696
881,0.0815358310937881,-0.100669272243977,0.0495981685817242,0.5,-0.133525371551514,-0.0269278027117252
882,0.06474419683218,-0.102221235632896,0.0167557001113892,0.5,-0.159370824694633,-0.0243625566363335
883,0.034961074590683,-0.134473443031311,-0.0418275706470013,0.5,-0.200605615973473,-0.0596767514944077
884,0.0048130261711776,-0.166849046945572,-0.091535396873951,0.5,-0.227307707071304,-0.10404597222805
885,-0.0113144470378757,-0.170573383569717,-0.105105668306351,0.5,-0.22655163705349,-0.108524315059185
886,-0.0110953729599714,-0.145348027348518,-0.083038441836834,0.5,-0.205660045146942,-0.0648579746484756
887,-0.0066846394911408,-0.107536517083645,-0.0505901649594307,0.5,-0.181322306394577,-0.0157811790704727
888,-0.0068255527876317,-0.0810310617089272,-0.0325411930680275,0.5,-0.16774719953537,-0.0049083177000284
889,-0.0043290802277624,-0.0801572799682617,-0.0275803040713072,0.5,-0.165313020348549,-0.0280019510537386
890,0.0082857981324195,-0.0962860360741615,-0.0168749671429396,0.5,-0.162758946418762,-0.0382109582424164
891,0.0231323502957821,-0.114626511931419,0.0023391633294522,0.5,-0.156694978475571,-0.0174441207200289
892,0.0252770185470581,-0.126415476202965,0.0101766623556614,0.5,-0.154845863580704,-0.0025072703137993
893,0.0149377016350627,-0.123194016516209,-0.0076581877656281,0.5,-0.156099110841751,-0.0281492248177528
894,0.010254523716867,-0.110177926719189,-0.0373083166778088,0.5,-0.151810884475708,-0.0881603732705116
895,0.0246133394539356,-0.105693094432354,-0.0512260533869267,0.5,-0.139275401830673,-0.141528218984604
896,0.0479683317244053,-0.10869126021862,-0.0439213216304779,0.5,-0.125893488526344,-0.15688319504261
897,0.0583600178360939,-0.107989102602005,-0.0317875370383263,0.5,-0.123776592314243,-0.140353128314018
898,0.049314696341753,-0.105449244379997,-0.0245381277054548,0.5,-0.134101510047913,-0.108937501907349
899,0.0334400460124016,-0.0998272746801376,-0.016099501401186,0.5,-0.140830144286156,-0.0711695030331612
900,0.0259981453418732,-0.0884295031428337,-0.0008322077337652,0.5,-0.126622393727303,-0.0361155569553375
901,0.0344603061676025,-0.0898062065243721,0.0062300232239067,0.5,-0.0984184220433235,-0.0241136886179447
902,0.0502948649227619,-0.122523754835129,-0.0101361721754074,0.5,-0.0861790254712105,-0.0460668206214905
903,0.051282100379467,-0.173485994338989,-0.0365161783993244,0.5,-0.109054908156395,-0.0791431963443756
904,0.0266854800283909,-0.212755635380745,-0.0532219745218754,0.5,-0.156115993857384,-0.0928494706749916
905,-0.0084016267210245,-0.217967718839645,-0.0545822158455849,0.5,-0.199979737401009,-0.0814241394400597
906,-0.033648669719696,-0.18614099919796,-0.0439389050006866,0.5,-0.222295626997948,-0.058731384575367
907,-0.038448728621006,-0.14106585085392,-0.0279424339532852,0.5,-0.221725195646286,-0.0406837090849876
908,-0.0172701347619295,-0.110560514032841,-0.0082067642360925,0.5,-0.199846267700195,-0.0347683876752853
909,0.0196266174316406,-0.0948907881975174,0.0142785971984267,0.5,-0.162661895155907,-0.035410787910223
910,0.0457274094223976,-0.0802000761032104,0.0331977382302284,0.5,-0.124901562929153,-0.0280012916773558
911,0.0474338941276073,-0.0708303526043892,0.0411720983684063,0.5,-0.0978037938475609,-0.0105162318795919
912,0.0342147275805473,-0.087572805583477,0.0291010458022356,0.5,-0.0929441452026367,-0.0155598130077124
913,0.0204692017287016,-0.134218648076057,-0.0055840834975242,0.5,-0.11556201428175,-0.0699098408222198
914,0.0154098700731993,-0.189488470554352,-0.0459256432950497,0.5,-0.143111780285835,-0.139773845672607
915,0.0181839894503355,-0.232564494013786,-0.0685785785317421,0.5,-0.151196047663689,-0.176857560873032
916,0.0182651039212942,-0.249314874410629,-0.0644114166498184,0.5,-0.145149096846581,-0.171113565564156
917,0.0121505688875914,-0.232593476772308,-0.0412224195897579,0.5,-0.139497935771942,-0.132376417517662
918,0.0065719126723706,-0.190170630812645,-0.0162527356296778,0.5,-0.137070566415787,-0.0783401280641556
919,0.0045668785460293,-0.137740924954414,5.69366784475278e-05,0.5,-0.137260138988495,-0.0277888104319572
920,0.0009170512785203,-0.08916325122118,0.0107688084244728,0.5,-0.141725793480873,0.0130514455959201
921,-0.0037943087518215,-0.0562374517321587,0.0212418828159571,0.5,-0.146690264344215,0.0369454883038998
922,-0.0019588964059948,-0.0511412806808949,0.0302747748792171,0.5,-0.14850315451622,0.0292501170188189
923,-0.0010248883627355,-0.0779870897531509,0.0291925054043531,0.5,-0.155139729380608,-0.0058226785622537
924,-0.0113357091322541,-0.119122616946697,0.0162068326026201,0.5,-0.172301694750786,-0.0406077392399311
925,-0.0222756080329418,-0.145957097411156,0.0070346323773264,0.5,-0.188768863677979,-0.0525764226913452
926,-0.0196656938642263,-0.147470504045486,0.0161699131131172,0.5,-0.185083210468292,-0.0427823401987553
927,0.0002046417357632,-0.131409421563149,0.0397733934223652,0.5,-0.151666432619095,-0.026845708489418
928,0.0281103737652302,-0.11043506115675,0.0618753619492054,0.5,-0.103616148233414,-0.0130915120244026
929,0.0442738384008408,-0.0963893905282021,0.0697570666670799,0.5,-0.0699859336018562,0.0028140353970229
930,0.0428711287677288,-0.0887584015727043,0.0632070302963257,0.5,-0.0631519109010696,0.0182427745312452
931,0.0325315482914448,-0.0879449993371964,0.0488789975643158,0.5,-0.0770909860730171,0.0208042617887259
932,0.0183154083788395,-0.108805246651173,0.0334732048213482,0.5,-0.105235449969769,0.009069918654859
933,-0.0006748075829818,-0.147359669208527,0.0221146587282419,0.5,-0.142339617013931,-0.0087175015360117
934,-0.0289624705910683,-0.173526108264923,0.0097989877685904,0.5,-0.183136686682701,-0.0243751518428326
935,-0.0594880431890488,-0.175347104668617,-0.011369064450264,0.5,-0.220696300268173,-0.0299719739705324
936,-0.0769742131233215,-0.170442059636116,-0.0367861874401569,0.5,-0.245658725500107,-0.0277691353112459
937,-0.0806450694799423,-0.168499618768692,-0.0598122254014015,0.5,-0.251697182655334,-0.0348082296550274
938,-0.073213204741478,-0.163340151309967,-0.0784761011600494,0.5,-0.241206169128418,-0.0615091994404793
939,-0.0550102405250072,-0.158225312829018,-0.0853869393467903,0.5,-0.226840317249298,-0.0970097780227661
940,-0.0341179445385933,-0.160669967532158,-0.0671883672475815,0.5,-0.213355183601379,-0.11551446467638
941,-0.0114368367940187,-0.158509805798531,-0.0214746613055468,0.5,-0.18864706158638,-0.0885291397571564
942,0.018938547000289,-0.126895904541016,0.0332264006137848,0.5,-0.149344727396965,-0.0170483086258173
943,0.0493813380599022,-0.0727038308978081,0.0748514533042908,0.5,-0.111016005277634,0.0539183914661407
944,0.0660330355167389,-0.0398419015109539,0.0986624583601952,0.5,-0.0839328244328499,0.0815692543983459
945,0.0658464282751083,-0.0500407107174397,0.113064788281918,0.5,-0.0623174421489239,0.0690305382013321
946,0.0527497492730618,-0.0846520513296127,0.114929050207138,0.5,-0.0445815548300743,0.0416560471057892
947,0.0263494476675987,-0.125467598438263,0.0887754037976265,0.5,-0.0448075644671917,0.0059625222347676
948,-0.0119590098038316,-0.167178496718407,0.0398746691644192,0.5,-0.0734304636716843,-0.0400608368217945
949,-0.0453298948705196,-0.199870049953461,-0.0022366866469383,0.5,-0.117697261273861,-0.0813117772340775
950,-0.0597757324576378,-0.211001336574554,-0.0150414081290364,0.5,-0.154083490371704,-0.0956693291664124
951,-0.0626323372125626,-0.198944181203842,0.0026303648483008,0.5,-0.169670477509499,-0.0712953805923462
952,-0.0630374252796173,-0.170710012316704,0.0336703658103943,0.5,-0.165217116475105,-0.0131082693114877
953,-0.0645934268832207,-0.138198554515839,0.0470826290547848,0.5,-0.157560408115387,0.0416110530495644
954,-0.0697156637907028,-0.119258657097816,0.0219232514500618,0.5,-0.167201101779938,0.0522580780088902
955,-0.0675467997789383,-0.121458753943443,-0.0246553663164377,0.5,-0.188937962055206,0.0260025802999735
956,-0.0464312583208084,-0.139187097549438,-0.0592763498425484,0.5,-0.204029068350792,-0.0091335605829954
957,-0.0176657028496265,-0.16161884367466,-0.0687865167856216,0.5,-0.208830446004868,-0.0300102084875107
958,0.0005641693132929,-0.171591773629189,-0.0550070330500603,0.5,-0.205325990915298,-0.0172505136579275
959,0.0027712485752999,-0.160420075058937,-0.0240966472774744,0.5,-0.193781465291977,0.0154334465041757
960,-0.0062772026285529,-0.137208268046379,0.0120220137760043,0.5,-0.178862154483795,0.0347050204873085
961,-0.0157147124409676,-0.117689684033394,0.0440883114933968,0.5,-0.16242827475071,0.0334722362458706
962,-0.0171795208007097,-0.110770888626575,0.0702371299266815,0.5,-0.141650080680847,0.0245722755789757
963,-0.0073519269935786,-0.11191875487566,0.0917918011546135,0.5,-0.109502606093884,0.0156148187816143
964,0.0142975756898522,-0.111102551221848,0.110711760818958,0.5,-0.0571048893034458,0.0093579972162842
965,0.036177933216095,-0.109388940036297,0.120309576392174,0.5,0.0018713790923357,0.009212477132678
966,0.0419467501342297,-0.113080285489559,0.103774026036263,0.5,0.0290043763816357,0.0119342794641852
967,0.0286433380097151,-0.121892340481281,0.054082989692688,0.5,0.0007071699947118,0.0011763428337872
968,-0.0012105804635211,-0.139699369668961,-0.0106111029163003,0.5,-0.0698122829198837,-0.0330898948013783
969,-0.0428410731256008,-0.164988175034523,-0.058189831674099,0.5,-0.148468017578125,-0.0669417977333069
970,-0.0800722166895866,-0.175955608487129,-0.0711364969611168,0.5,-0.205817073583603,-0.0594070143997669
971,-0.0975588113069534,-0.155534505844116,-0.0565582700073719,0.5,-0.230712130665779,-0.0039305058307945
972,-0.0954782515764236,-0.114800721406937,-0.0361840724945068,0.5,-0.230176672339439,0.0588618814945221
973,-0.0866235792636871,-0.0833555608987808,-0.0322153717279434,0.5,-0.222784504294395,0.0789976790547371
974,-0.0797698199748993,-0.082970917224884,-0.0434664972126484,0.5,-0.217202678322792,0.0467658564448357
975,-0.0699301287531853,-0.111660912632942,-0.0477871373295784,0.5,-0.205735355615616,0.0013542058877646
976,-0.0586036071181297,-0.152024552226067,-0.0356701798737049,0.5,-0.192853301763535,-0.0283668022602797
977,-0.0557457618415356,-0.186360701918602,-0.0151514820754528,0.5,-0.192459315061569,-0.0503695085644722
978,-0.0539036206901073,-0.202338218688965,0.0081475311890244,0.5,-0.194226741790771,-0.065185472369194
979,-0.0351729169487953,-0.192375168204308,0.0356239154934883,0.5,-0.173818022012711,-0.0576130077242851
980,0.001733194454573,-0.15948061645031,0.0664871037006378,0.5,-0.130091801285744,-0.0265635065734386
981,0.0375970527529716,-0.118762291967869,0.0897628590464592,0.5,-0.0875014066696167,0.0094793085008859
982,0.0534691214561462,-0.0876171290874481,0.0906971022486687,0.5,-0.0676557570695877,0.026275722309947
983,0.0475892797112465,-0.0737501233816147,0.067132756114006,0.5,-0.0690499022603035,0.0184719879180193
984,0.0261903200298548,-0.0679573118686676,0.0263728853315115,0.5,-0.0811241045594215,0.0049298978410661
985,-0.0072026802226901,-0.0683259293437004,-0.026258310303092,0.5,-0.105846419930458,-0.0020559474360197
986,-0.0441361591219902,-0.0921137630939484,-0.0759234428405762,0.5,-0.141204982995987,-0.0073690493591129
987,-0.0724800303578377,-0.140078112483025,-0.0972556471824646,0.5,-0.171432137489319,-0.0133919827640057
988,-0.0874805003404617,-0.186626464128494,-0.0810962244868279,0.5,-0.18946173787117,-0.0115446960553527
989,-0.0895954668521881,-0.20732469856739,-0.0423029400408268,0.5,-0.193635269999504,0.0029035198967903
990,-0.0791829004883766,-0.198684439063072,-0.0010547005804255,0.5,-0.177250131964684,0.0164403263479471
991,-0.0570183359086514,-0.176925599575043,0.0309520997107029,0.5,-0.142750173807144,0.0203245747834444
992,-0.0274001304060221,-0.157412320375443,0.0462076514959335,0.5,-0.104936756193638,0.0252501629292965
993,-0.0006197851034812,-0.144659712910652,0.0346158817410469,0.5,-0.0785606652498245,0.0301451347768307
994,0.014298602938652,-0.13786543905735,-0.0012228613486513,0.5,-0.0728929340839386,0.0192734710872173
995,0.0162015371024609,-0.132502287626266,-0.0399342551827431,0.5,-0.0908996760845184,-0.0087354136630892
996,0.0050217607058584,-0.132112324237823,-0.0657524093985558,0.5,-0.126589998602867,-0.044042807072401
997,-0.0172894485294819,-0.143409103155136,-0.0757233500480652,0.5,-0.165160313248634,-0.0764617770910263
998,-0.0387212559580803,-0.152459502220154,-0.0664299875497818,0.5,-0.18605574965477,-0.0928510129451752
999,-0.0450589507818222,-0.141961976885796,-0.0356767810881138,0.5,-0.172463178634644,-0.0850460231304169
1000,-0.0725554823875427,-0.140117183327675,-0.0973434597253799,0.5,-0.171510726213455,-0.0134547278285027
1001,-0.0875570476055145,-0.18666610121727,-0.0811853110790253,0.5,-0.189541459083557,-0.0116083631291986
1002,-0.0896741300821304,-0.207365423440933,-0.0423944927752018,0.5,-0.193717196583748,0.0028380847070366
1003,-0.079263910651207,-0.198726356029511,-0.0011489919852465,0.5,-0.177334517240524,0.0163729358464479
1004,-0.0571010261774063,-0.176968395709991,0.0308558382093906,0.5,-0.142836317420006,0.0202557910233736
1005,-0.0274833105504513,-0.157455369830132,0.046110812574625,0.5,-0.10502340644598,0.0251809824258089
1006,-0.0007023723446764,-0.144702449440956,0.034519724547863,0.5,-0.078646682202816,0.0300764609128237
1007,0.0142170256003737,-0.137907654047012,-0.0013178434455767,0.5,-0.0729778930544853,0.0192056428641081
1008,0.0161205343902111,-0.132544204592705,-0.0400285683572292,0.5,-0.0909840390086174,-0.008802767843008
1009,0.0049403188750147,-0.132154479622841,-0.0658472329378128,0.5,-0.126674816012383,-0.0441105365753174
1010,-0.0173723511397839,-0.143452003598213,-0.0758198723196983,0.5,-0.165246650576591,-0.0765307322144508
1011,-0.0388060957193375,-0.15250338613987,-0.0665287747979164,0.5,-0.186144113540649,-0.0929215848445892
1012,-0.0451454147696495,-0.142006695270538,-0.0357774682343006,0.5,-0.172553241252899,-0.0851179510354996
1013,-0.0373721271753311,-0.115169882774353,0.0046864082105457,0.5,-0.130152359604836,-0.0552092976868153
1014,-0.0304366517812014,-0.0862400606274605,0.0343103110790253,0.5,-0.0856126323342323,-0.0167667362838984
1015,-0.0264548864215612,-0.070754237473011,0.0430081710219383,0.5,-0.058284442871809,0.0051711248233914
1016,-0.0153593942523003,-0.0817590579390526,0.033609539270401,0.5,-0.0506604164838791,-0.0013374771224334
1017,-0.0038966212887316,-0.115969896316528,0.0140658533200622,0.5,-0.059213362634182,-0.0174238905310631
1018,-0.0075598754920065,-0.154697328805923,-0.0094856200739741,0.5,-0.07918830960989,-0.017403956502676
1019,-0.0250806212425232,-0.186130106449127,-0.0353703536093235,0.5,-0.101052708923817,-0.0021334832999855
1020,-0.0419910736382008,-0.20515264570713,-0.0592973865568638,0.5,-0.109777800738811,0.0025858941953629
1021,-0.0460769273340702,-0.204176068305969,-0.0723068043589592,0.5,-0.0985346138477325,-0.0134983714669943
1022,-0.0365636013448238,-0.184979245066643,-0.0682064667344093,0.5,-0.0770853236317635,-0.0311479847878218
1023,-0.0221198126673698,-0.162203535437584,-0.0500376224517822,0.5,-0.0586768053472042,-0.0366685278713703
1024,-0.0099341543391346,-0.145754560828209,-0.0289252176880836,0.5,-0.0498028695583344,-0.0392747335135937
1025,-0.0029116093646735,-0.13518038392067,-0.0142397368326783,0.5,-0.0530768297612667,-0.0469181463122368
1026,0.0022434338461607,-0.124971427023411,-0.0053577781654894,0.5,-0.0628544464707375,-0.0503834784030914
1027,0.0115721225738525,-0.10630938410759,0.0014824089594185,0.5,-0.0687892287969589,-0.0438316203653812
1028,0.0209197290241718,-0.0781415179371834,0.0031747387256473,0.5,-0.0723550021648407,-0.0318081267178059
1029,0.0202804282307625,-0.0581193640828133,-0.0065839174203574,0.5,-0.0808427408337593,-0.0157329253852367
1030,0.0041837147437036,-0.0637102872133255,-0.0313503928482533,0.5,-0.0948382318019867,-0.0049401768483221
1031,-0.0221772976219654,-0.0905236154794693,-0.0667438134551048,0.5,-0.109151363372803,-0.0162118002772331
1032,-0.0429577901959419,-0.126469939947128,-0.0959348827600479,0.5,-0.114522121846676,-0.0464721769094467
1033,-0.048760786652565,-0.162992835044861,-0.106386631727219,0.5,-0.105228289961815,-0.0748597458004951
1034,-0.0446991659700871,-0.192467480897903,-0.105643570423126,0.5,-0.0883118584752083,-0.0907323732972145
1035,-0.0421132110059261,-0.211888015270233,-0.105928502976894,0.5,-0.0790962725877762,-0.101292103528976
1036,-0.044041071087122,-0.222384363412857,-0.105681166052818,0.5,-0.0809333845973015,-0.112828351557255
1037,-0.0425392091274261,-0.224079191684723,-0.0950358062982559,0.5,-0.0818556994199753,-0.118770241737366
1038,-0.0389151200652123,-0.216859176754951,-0.074913389980793,0.5,-0.0787204504013062,-0.113408163189888
1039,-0.0401872843503952,-0.202740043401718,-0.0543280355632305,0.5,-0.0795454382896423,-0.101914294064045
1040,-0.0389818735420704,-0.182269170880318,-0.0311211924999952,0.5,-0.0828981101512909,-0.0824916139245033
1041,-0.0258513353765011,-0.155831411480904,0.001356469001621,0.5,-0.0743964016437531,-0.041059285402298
1042,-0.0054362514056265,-0.124306350946426,0.0395174324512482,0.5,-0.0433907732367516,0.0244027376174927
1043,0.0120792957022786,-0.0817021653056145,0.071186900138855,0.5,-0.0036939594428986,0.0883215218782425
1044,0.0208829157054424,-0.0313623733818531,0.0782148838043213,0.5,0.0121162720024586,0.116125553846359
1045,0.023305244743824,-0.0047194799408316,0.0518769398331642,0.5,-0.0102636646479368,0.0969417691230774
1046,0.0218854248523712,-0.0249371789395809,0.0077665112912654,0.5,-0.0549239404499531,0.0494848303496838
1047,0.0089661618694663,-0.0755535662174225,-0.0361272990703583,-0.5,-0.101082473993301,-0.0001907812256831
1048,-0.0166261754930019,-0.128043323755264,-0.0769275724887848,-0.5,-0.137343168258667,-0.0411427319049835
1049,-0.0398085825145245,-0.167347401380539,-0.109358310699463,-0.5,-0.158792912960052,-0.0719764977693558
1050,-0.0504612885415554,-0.181291103363037,-0.12243328243494,-0.5,-0.16407810151577,-0.0807695239782333
1051,-0.0513618774712086,-0.162852689623833,-0.121337525546551,-0.5,-0.155954003334045,-0.0583244487643242
1052,-0.0456433035433292,-0.137947604060173,-0.126879155635834,-0.5,-0.144167870283127,-0.0330601036548615
1053,-0.0359225459396839,-0.135740250349045,-0.14587327837944,-0.5,-0.133395567536354,-0.0441511943936348
1054,-0.0285703297704458,-0.137240931391716,-0.154913797974586,-0.5,-0.113701231777668,-0.086876854300499
1055,-0.0278435535728931,-0.123453982174397,-0.129367649555206,-0.5,-0.0840213969349861,-0.127424046397209
1056,-0.0297352280467749,-0.117029920220375,-0.0723883882164955,-0.5,-0.0603348165750504,-0.135623544454575
1057,-0.0276619624346495,-0.126020520925522,0.0011086105369031,-0.5,-0.0477907545864582,-0.100259110331535
1058,-0.023093655705452,-0.127376884222031,0.0745483636856079,-0.5,-0.0356045290827751,-0.0409581065177917
1059,-0.0202591139823198,-0.11018568277359,0.123011238873005,-0.5,-0.0223807916045189,0.0117201199755073
1060,-0.0172375701367855,-0.0853312611579895,0.131906360387802,-0.5,-0.0216484554111958,0.0440113544464111
1061,-0.0105821024626493,-0.0690966844558716,0.112355329096317,-0.5,-0.038621049374342,0.0593484230339527
1062,0.0018480247817933,-0.0699821561574936,0.0857380628585815,-0.5,-0.0584634803235531,0.0652314275503159
1063,0.0174858514219522,-0.083624579012394,0.0622891783714294,-0.5,-0.0654335096478462,0.0643633455038071
1064,0.0264215003699064,-0.100004382431507,0.0355099774897099,-0.5,-0.0630843043327332,0.0537116900086403
1065,0.0236453078687191,-0.111013524234295,0.0019595653284341,-0.5,-0.0620968975126743,0.0329733826220036
1066,0.0104382690042257,-0.111920177936554,-0.0288730356842279,-0.5,-0.0647100284695625,0.0131543381139636
1067,-0.0147007685154676,-0.104675777256489,-0.055475078523159,-0.5,-0.0771003365516663,0.0056377560831606
1068,-0.0485529415309429,-0.0956899523735046,-0.0870553851127625,-0.5,-0.110314726829529,0.0007775066187605
1069,-0.0790535435080528,-0.0933895036578178,-0.121405519545078,-0.5,-0.154197111725807,-0.0248296391218901
1070,-0.0913777202367783,-0.100817859172821,-0.139301389455795,-0.5,-0.176126152276993,-0.0691979080438614
1071,-0.0711411833763123,-0.103464253246784,-0.122108668088913,-0.5,-0.152824997901917,-0.0979329869151115
1072,-0.0188666358590126,-0.091125950217247,-0.0760886892676353,-0.5,-0.0917669981718063,-0.0932773277163506
1073,0.0375604704022408,-0.0821884125471115,-0.034734420478344,-0.5,-0.0331703461706638,-0.0845922157168388
1074,0.0624003224074841,-0.0984913259744644,-0.0236521027982235,-0.5,-0.0209940560162067,-0.102301232516766
1075,0.0454174801707268,-0.129980072379112,-0.0320212468504906,-0.5,-0.0545488744974136,-0.127319946885109
1076,0.008793469518423,-0.13928359746933,-0.0306807849556208,-0.5,-0.0942472890019417,-0.114038653671741
1077,-0.0206559132784605,-0.102473825216293,-0.007854969240725,-0.5,-0.112000107765198,-0.0470594726502895
1078,-0.0312531776726246,-0.0394482426345348,0.0269922688603401,-0.5,-0.106529235839844,0.0340927094221115
1079,-0.0259358361363411,0.0104593615978956,0.0578499101102352,-0.5,-0.0895412936806679,0.0789978578686714
1080,-0.0213588066399097,0.0242254510521889,0.0657116174697876,-0.5,-0.0785375833511353,0.0766259580850601
1081,-0.0306665617972612,0.0021005105227232,0.040705393999815,-0.5,-0.0845622941851616,0.0446710735559464
1082,-0.0464009493589401,-0.0354880839586258,-0.0033420599065721,-0.5,-0.0980251878499985,0.0061810025945305
1083,-0.0557264275848866,-0.0687613114714623,-0.0398355908691883,-0.5,-0.0985101610422134,-0.0223312992602587
1084,-0.0582106970250607,-0.0913617387413979,-0.0523990802466869,-0.5,-0.0823384150862694,-0.0374475046992302
1085,-0.0591658167541027,-0.102265380322933,-0.0485976934432983,-0.5,-0.0670949593186378,-0.0456683747470379
1086,-0.0573997609317303,-0.107613392174244,-0.0504902936518192,-0.5,-0.0678696930408478,-0.0491001382470131
1087,-0.0452220402657986,-0.109274365007877,-0.0621175616979599,-0.5,-0.0784667953848839,-0.0303582176566124
1088,-0.0207285545766354,-0.0965650230646133,-0.0688550025224686,-0.5,-0.0809613168239594,0.0101895974949002
1089,0.007802290841937,-0.0673274248838425,-0.0733803063631058,-0.5,-0.0691899359226227,0.0275314133614302
1090,0.0329072251915932,-0.0334418602287769,-0.087361603975296,-0.5,-0.0516832135617733,-0.0037207950372248
1091,0.0463846102356911,-0.0144829619675875,-0.10101892799139,-0.5,-0.0400947704911232,-0.0541242137551308
1092,0.0358727276325226,-0.0206291005015373,-0.0988655760884285,-0.5,-0.0408137738704681,-0.0806198194622993
1093,0.0039761248044669,-0.0385953038930893,-0.0797072276473045,-0.5,-0.0498706474900246,-0.0738861784338951
1094,-0.0265537761151791,-0.0582001321017742,-0.0505205579102039,-0.5,-0.0560560338199139,-0.0628180801868439
1095,-0.039863295853138,-0.0838321521878242,-0.0224149003624916,-0.5,-0.056498471647501,-0.0656736046075821
1096,-0.0425727367401123,-0.11589290946722,-0.0062734731473028,-0.5,-0.0634525865316391,-0.071235790848732
1097,-0.0460585206747055,-0.143560200929642,-0.0018476602854207,-0.5,-0.0843641981482506,-0.0654577538371086
1098,-0.0495250709354877,-0.148979738354683,0.0034804677125066,-0.5,-0.106046617031097,-0.0447786711156368
1099,-0.0462341159582138,-0.123907662928104,0.0195185746997595,-0.5,-0.109472848474979,-0.0131419589743018
1100,-0.0346691682934761,-0.0787445679306984,0.0382332913577557,-0.5,-0.0900688394904137,0.022786995396018
1101,-0.022354805842042,-0.0277332402765751,0.0419734828174114,-0.5,-0.06235671043396,0.0569324307143688
1102,-0.0199049059301615,0.0208848547190428,0.0264669004827738,-0.5,-0.0488644875586033,0.0906157717108727
1103,-0.0281369686126709,0.0593415051698685,0.0013685846934095,-0.5,-0.0589297041296959,0.124377019703388
1104,-0.0360612832009792,0.0791141390800476,-0.0244089998304844,-0.5,-0.0815465077757835,0.136943653225899
1105,-0.0341666080057621,0.0749412924051285,-0.0439581237733364,-0.5,-0.0980740264058113,0.105752170085907
1106,-0.0221933964639902,0.0503345765173435,-0.0547734536230564,-0.5,-0.0961497724056244,0.0427534095942974
1107,-0.0019756809342652,0.0177698004990816,-0.0606517568230629,-0.5,-0.0761444270610809,-0.0188066195696592
1108,0.0221692975610495,-0.013906610198319,-0.0601054131984711,-0.5,-0.0497111938893795,-0.0581695325672627
1109,0.036505963653326,-0.0455147363245487,-0.0448757223784924,-0.5,-0.0322913229465485,-0.0754116997122765
1110,0.02986990660429,-0.0795845165848732,-0.0201296154409647,-0.5,-0.033330500125885,-0.0782943144440651
1111,0.0071057952009141,-0.114588417112827,-0.0102535979822278,0.421759188175201,-0.0522905588150024,-0.0797055140137672
1112,-0.0196495335549116,-0.149915009737015,-0.031558882445097,0.5,-0.086278073489666,-0.0929242745041847
1113,-0.0452935434877872,-0.18127629160881,-0.071514405310154,0.5,-0.131149530410767,-0.106677569448948
1114,-0.070157952606678,-0.187896475195885,-0.10062425583601,0.5,-0.171476140618324,-0.0943420231342316
1115,-0.0900739580392838,-0.151733338832855,-0.100364848971367,0.5,-0.187752991914749,-0.0546370595693588
1116,-0.097648911178112,-0.0897711515426636,-0.0752601400017738,0.5,-0.171959102153778,-0.0139164179563522
1117,-0.0875709354877472,-0.0360043495893478,-0.0387751720845699,0.5,-0.129316791892052,0.0094523644074797
1118,-0.0574757009744644,-0.0062277028337121,-0.0025024476926773,0.5,-0.075095497071743,0.017975389957428
1119,-0.0155829796567559,-0.0009879564167931,0.0233862940222025,0.5,-0.0273909028619528,0.0258035399019718
1120,0.0202737990766764,-0.0098699843510985,0.0326708555221558,0.5,0.0038386681117117,0.0535970106720924
1121,0.0393039844930172,-0.0106428489089012,0.0248418357223272,0.5,0.0178671423345804,0.0952813848853111
1122,0.0359304323792458,0.0053042154759168,0.0030105791520327,0.5,0.0132147185504436,0.109540686011314
1123,0.0081821614876389,0.0210365727543831,-0.0266067683696747,0.5,-0.0133054684847593,0.0744170993566513
1124,-0.030673710629344,0.0183755028992891,-0.0521488338708878,0.5,-0.0540507957339287,0.0098483804613351
1125,-0.0579514801502228,-0.0069368411786854,-0.0583133138716221,0.5,-0.0844555497169495,-0.045406199991703
1126,-0.0566065572202206,-0.0459013469517231,-0.0401761941611767,0.5,-0.0807834938168526,-0.0691246539354324
1127,-0.0355103798210621,-0.0812259837985039,-0.0144974635913968,0.5,-0.0531978867948055,-0.0754900351166725
1128,-0.0228607393801212,-0.101520575582981,-0.002151976339519,0.5,-0.0352273881435394,-0.080928273499012
1129,-0.0276435930281878,-0.108034774661064,-0.0052079479210078,0.5,-0.0378452092409134,-0.0750023871660233
1130,-0.0377629734575748,-0.10650996863842,-0.0135856997221708,0.5,-0.0487644597887993,-0.0463646128773689
1131,-0.0437134057283401,-0.097616896033287,-0.0211452916264534,0.5,-0.0586182288825512,-0.009265037253499
1132,-0.0443350598216057,-0.0760027319192886,-0.0335174426436424,0.5,-0.0692915245890617,0.0113287549465895
1133,-0.0452241934835911,-0.043126005679369,-0.0589054301381111,0.5,-0.0852284729480743,0.0070024929009378
1134,-0.0486084707081318,-0.0106645543128252,-0.0906482934951782,0.5,-0.098195992410183,-0.00740577140823
1135,-0.0462629236280918,0.0093915108591318,-0.112777680158615,0.5,-0.0953223034739494,-0.0164274536073208
1136,-0.0352366007864475,0.009367904625833,-0.113372214138508,0.5,-0.0758359581232071,-0.0293518677353859
1137,-0.0205457825213671,-0.0080692432820797,-0.0886803939938545,0.5,-0.0450616031885147,-0.0604470632970333
1138,-0.0011990722268819,-0.0356698073446751,-0.0485340170562267,0.5,-0.0079622436314821,-0.0984415337443352
1139,0.0227773170918226,-0.0669863969087601,-0.0119282603263855,0.5,0.0234896708279848,-0.121406629681587
1140,0.0398872382938862,-0.0896842405200005,0.0055220900103449,0.5,0.031302023679018,-0.124438181519508
1141,0.0398870930075645,-0.0963369756937027,0.0029183062724769,0.5,0.0133671667426825,-0.117975518107414
1142,0.0266573261469603,-0.092170774936676,-0.0067309662699699,0.5,-0.0089123910292983,-0.107115656137466
1143,0.010585717856884,-0.0828104242682457,-0.0139984507113695,0.5,-0.0141895916312933,-0.0858215168118477
1144,-0.0032068220898509,-0.070721223950386,-0.0191045422106981,0.5,0.0010309250792488,-0.0603660419583321
1145,-0.018165934830904,-0.0603146739304066,-0.0265691820532084,0.5,0.0210424065589905,-0.0547454655170441
1146,-0.0357345826923847,-0.0576873831450939,-0.041972242295742,0.5,0.0241604559123516,-0.0706282630562782
1147,-0.046863716095686,-0.0673638507723808,-0.0656942278146744,0.5,0.0059015597216785,-0.0834154486656189
