,AF3,AF4,Fp1,Fp2,AF7,AF8
0,-0.0554237700998783,0.0122546432539821,-0.0246266704052687,0.5,-0.0195343624800444,-0.0832863599061966
1,-0.0798369869589806,-0.0089160874485969,-0.0387912020087242,0.5,-0.0505041405558586,-0.077770046889782
2,-0.0731522813439369,-0.0266204234212637,-0.0103813502937555,0.5,-0.0321909487247467,-0.0424556918442249
3,-0.0428446605801582,-0.0221001803874969,0.0446041524410248,0.5,0.0197595860809088,0.014980910345912
4,-0.0096284598112106,0.0020314259454608,0.0877275094389915,0.5,0.071940615773201,0.0742004588246346
5,0.0089245336130261,0.0305081810802221,0.0957518890500069,0.5,0.0995306372642517,0.118638068437576
6,0.0158140137791634,0.0486643724143505,0.0779194161295891,0.5,0.10207536816597,0.138787090778351
7,0.0246731713414192,0.0472238324582577,0.0517024025321007,0.5,0.0962474048137665,0.12532202899456
8,0.0389811620116234,0.0281538628041744,0.0158787798136473,0.5,0.091826930642128,0.079237200319767
9,0.0496041476726532,0.0003600107738748,-0.0332641340792179,0.5,0.080668568611145,0.0098771648481488
10,0.0437547005712986,-0.0286128986626863,-0.0776096507906914,0.243062064051628,0.0519683659076691,-0.0651407390832901
11,0.0177412629127502,-0.050826657563448,-0.0936739891767502,0.123186163604259,0.0105061717331409,-0.120852962136269
12,-0.0121732978150249,-0.0542973540723324,-0.0714563205838203,0.199205204844475,-0.0175340082496405,-0.137958288192749
13,-0.0203204825520515,-0.0307833384722471,-0.0158458687365055,0.41935932636261,-0.0075433831661939,-0.106918379664421
14,-0.0020042194519192,0.0083398325368762,0.0509196706116199,0.5,0.0294644497334957,-0.0414063818752766
15,0.0183958392590284,0.0407254323363304,0.100549176335335,0.5,0.0625891089439392,0.021292794495821
16,0.0142157208174467,0.0535016842186451,0.113943986594677,0.5,0.0726523771882057,0.0500182695686817
17,-0.0116276107728481,0.0470222681760788,0.0935154929757118,0.5,0.0585817210376263,0.0420791134238243
18,-0.0352631621062756,0.0289134941995144,0.0633751079440117,0.5,0.0328556187450886,0.0158092454075813
19,-0.0476899743080139,0.0064141149632632,0.0381547324359417,0.5,0.0060082650743424,-0.0094324583187699
20,-0.0533410385251045,-0.0125406514853239,0.0124942744150758,0.5,-0.0173694677650929,-0.0178402978926897
21,-0.0526793040335178,-0.0236637629568577,-0.0182879623025656,0.5,-0.0368052572011948,-0.0111644184216857
22,-0.0425888374447823,-0.030365239828825,-0.0464900843799114,0.5,-0.05125642567873,-0.0096989572048187
23,-0.021076763048768,-0.0337989665567875,-0.0573748275637627,0.5,-0.0507897175848484,-0.0177423115819693
24,0.0049028121866285,-0.0311498139053583,-0.0492571964859962,0.5,-0.0343079045414925,-0.0225277300924063
25,0.02094273455441,-0.0191371608525515,-0.0346914790570736,0.5,-0.0163781195878983,-0.0182289499789476
26,0.0206206180155277,-0.0043644453398883,-0.0244431886821985,0.5,-0.0051124719902873,-0.0117003219202161
27,0.0128208501264453,-0.0012710840674117,-0.0203155986964703,0.5,0.0022744226735085,-0.0147597193717957
28,0.0074187833815813,-0.0067586079239845,-0.0156451687216759,0.5,0.0053116302005946,-0.0288489814847708
29,-0.0018502339953556,-0.0086206393316388,-0.0070736734196543,0.386959791183472,-0.0023681581951677,-0.0464423708617687
30,-0.0227475110441446,-0.0064973845146596,0.0039217481389641,0.325528025627136,-0.0176759995520115,-0.0579140111804008
31,-0.0450504869222641,-0.0017501639667898,0.0213911738246679,0.312512427568436,-0.024252824485302,-0.0482982620596886
32,-0.0538631454110146,0.0084949852898716,0.0489810556173325,0.290813237428665,-0.0114935906603932,-0.0131946709007025
33,-0.0457986891269684,0.0273938868194819,0.0803090184926987,0.231698974967003,0.0174687709659338,0.0310576800256968
34,-0.0272436197847128,0.0548262447118759,0.101142659783363,0.148159071803093,0.0507063455879688,0.0671378374099731
35,-0.0076486645266413,0.0821983218193054,0.0998047739267349,0.0550091080367565,0.0719500854611397,0.08841223269701
36,0.0053655002266168,0.0984760671854019,0.0784199982881546,-0.0317969880998135,0.0755560547113419,0.0932302102446556
37,0.0109839262440801,0.0987776592373848,0.0532325766980648,-0.0850730687379837,0.0734364837408066,0.0833957269787788
38,0.0130352061241865,0.084332711994648,0.0388195104897022,-0.099428653717041,0.0736478939652443,0.0643319860100746
39,0.0113755231723189,0.064750961959362,0.029695512726903,-0.100264638662338,0.0659914314746857,0.0410980693995953
40,0.0057899099774658,0.0471244119107723,0.012866267003119,-0.097229577600956,0.04094098508358,0.0198846906423569
41,-3.92984111385886e-05,0.0268465336412191,-0.0110425101593137,-0.0755254924297333,0.0056011257693171,0.0074426988139748
42,-0.000461417628685,0.00865382514894,-0.0288589745759964,-0.047891840338707,-0.0213851183652878,0.0094606624916195
43,0.0080671347677707,0.0066053913906216,-0.0282077342271805,-0.0346693992614746,-0.0255546495318413,0.0277650691568851
44,0.0166188143193722,0.0183881372213364,-0.016876719892025,-0.0181409940123558,-0.0157443359494209,0.0430268943309784
45,0.0106988279148936,0.0291055087000132,-0.0117948325350881,0.0049207899719476,-0.0137478457763791,0.0292070582509041
46,-0.0121983923017979,0.0291701052337885,-0.0153390187770128,0.0177722964435816,-0.0273079611361027,-0.0042416942305862
47,-0.0377395935356617,0.0224967319518328,-0.0208447761833668,0.0361298397183418,-0.0459914579987526,-0.0233588423579931
48,-0.0458982549607754,0.0238409917801619,-0.0229249652475119,0.0820300579071045,-0.0542736351490021,-0.0122744739055634
49,-0.0322084985673428,0.0359590314328671,-0.0219970736652613,0.131360962986946,-0.0472350120544434,0.0130001250654459
50,-0.0145609611645341,0.0456266514956951,-0.0207405500113964,0.128104701638222,-0.0310033019632101,0.0232815723866224
51,-0.015120567753911,0.043478649109602,-0.0197157952934504,0.0491256155073643,-0.0135193821042776,0.0072112875059247
52,-0.0382258035242558,0.0304154325276613,-0.0234957709908485,-0.0934370383620262,-0.0045176800340414,-0.0216220263391733
53,-0.0682731345295906,0.0110668493434787,-0.0344888754189014,-0.289526015520096,-0.0114549808204174,-0.0466574728488922
54,-0.0861072465777397,-0.0138071356341243,-0.0430098846554756,-0.5,-0.0270961187779903,-0.0615227296948433
55,-0.0803359970450401,-0.0394473038613796,-0.0349176749587059,-0.5,-0.0287730637937784,-0.0593346394598484
56,-0.049530141055584,-0.0537381805479527,-0.0046848733909428,-0.5,-0.0001747110218275,-0.0324286296963692
57,-0.0072217578999698,-0.0508011765778065,0.0350136011838913,-0.5,0.0452337861061096,0.0121129797771573
58,0.0279117729514837,-0.0351390466094017,0.0623704083263874,-0.5,0.0769342854619026,0.0568663813173771
59,0.0508459322154522,-0.0146637288853526,0.0686817690730095,-0.5,0.0798346027731895,0.088398702442646
60,0.0626230388879776,0.0073788133449852,0.0619626305997372,-0.5,0.0612683072686195,0.102312661707401
61,0.059345718473196,0.0321338698267937,0.0530610345304012,-0.5,0.0357238352298737,0.102389365434647
62,0.0430538170039654,0.0588291920721531,0.0481139272451401,-0.5,0.0144898314028978,0.0979401990771294
63,0.0239981282502413,0.0809677019715309,0.0465825833380222,-0.5,0.0018496960401535,0.0953692942857742
64,0.007763996720314,0.0854423567652702,0.0384086072444916,-0.5,-0.0076931961812079,0.0841518342494965
65,-0.0070691909641027,0.069200225174427,0.0187326855957508,-0.5,-0.0217036344110966,0.0529776811599731
66,-0.0241256654262543,0.0483176335692406,-0.0008450516615994,-0.5,-0.0392281413078308,0.0179383885115385
67,-0.0412095114588737,0.0360525697469711,-0.0084240809082984,-0.5,-0.0502247661352158,0.0012846734607592
68,-0.0506623387336731,0.0342639982700348,-0.0069665452465415,-0.5,-0.048332005739212,-0.0028762386646121
69,-0.0535886362195015,0.0414024814963341,-0.0100913550704718,-0.5,-0.0431313626468182,-0.0104838274419308
70,-0.0549542419612408,0.0494190752506256,-0.0259810257703066,-0.5,-0.0469032414257526,-0.0247846599668264
71,-0.0534139573574066,0.0420520305633545,-0.0520174354314804,-0.5,-0.0571579858660698,-0.0482483208179474
72,-0.0431135557591915,0.0196617059409618,-0.0747006759047508,-0.5,-0.0569831244647503,-0.0751436501741409
73,-0.0212809555232525,0.013037484139204,-0.0733572095632553,-0.5,-0.0326657108962536,-0.0835372433066368
74,-0.0016973520396277,0.0354380831122398,-0.0435976013541222,-0.5,0.0035234987735748,-0.0592697449028492
75,0.0006711353780701,0.0541747584939003,-0.0057000960223376,-0.5,0.0271400064229965,-0.0099848881363868
76,-0.0071927499957382,0.0390997007489204,0.0158223174512386,-0.5,0.0305360965430737,0.0367010124027729
77,-0.0065695005469024,-0.0001563276600791,0.0162061955779791,-0.5,0.0250679049640894,0.0545359738171101
78,0.0119442455470562,-0.0361309871077538,0.0141671597957611,-0.5,0.0255627147853374,0.0441136136651039
79,0.0379282236099243,-0.0544336587190628,0.0236175842583179,-0.5,0.0319906920194626,0.0213121399283409
80,0.0522986724972725,-0.0594093687832356,0.0358508974313736,-0.5,0.0325312986969948,-0.0043436237610876
81,0.0480338782072067,-0.0576550252735615,0.0416418462991714,-0.5,0.0236878748983145,-0.0248338971287012
82,0.0322953872382641,-0.0459828227758408,0.0453712530434132,-0.5,0.0123010789975524,-0.0281815938651562
83,0.015319250524044,-0.0214851330965757,0.0503367856144905,-0.5,0.004553475882858,-0.0115346452221274
84,0.006788620725274,0.0116942711174488,0.0554359219968319,-0.5,0.0057188374921679,0.0192061923444271
85,0.0100013548508286,0.0444913767278194,0.0559767745435238,-0.5,0.0127769336104393,0.057847298681736
86,0.0169570874422789,0.0651491582393646,0.0372534170746803,-0.5,0.0065864552743732,0.0914607346057892
87,0.0174770783632994,0.0721552073955536,-0.0038568810559809,-0.5,-0.0210377871990204,0.103317372500896
88,0.0030011527705937,0.0710845962166786,-0.0469337478280067,-0.5,-0.0534635782241821,0.0823735073208809
89,-0.0261302813887596,0.0574676692485809,-0.0740650296211243,-0.5,-0.0744634941220284,0.0328059159219265
90,-0.0528030321002007,0.0314029455184937,-0.0813818573951721,-0.5,-0.0796294435858727,-0.0184514299035072
91,-0.0614265948534012,0.0079979561269283,-0.0758186429738998,-0.5,-0.0733153596520424,-0.0482019558548927
92,-0.051388043910265,0.0064538568258285,-0.0616876594722271,-0.5,-0.0578356459736824,-0.0494723841547966
93,-0.0329685248434544,0.0344510488212109,-0.0365642830729485,-0.5,-0.0328127071261406,-0.0207640044391155
94,-0.0205396227538586,0.0698797628283501,-0.0111365029588342,-0.5,-0.010857610963285,0.0187572054564953
95,-0.0190215352922678,0.0804897546768188,-0.0002424450649414,-0.5,-0.0031326443422585,0.0414662174880505
96,-0.0228395909070969,0.058203212916851,-0.0047591221518814,-0.466254264116287,-0.006926042959094,0.040633499622345
97,-0.0266204345971346,0.0173679757863283,-0.017831239849329,-0.364763855934143,-0.0184479597955942,0.023168383166194
98,-0.0283298585563898,-0.0217394754290581,-0.0296100992709398,-0.268012493848801,-0.0327864736318588,-0.0006446713814511
99,-0.027370372787118,-0.0427087359130383,-0.0315178781747818,-0.221556395292282,-0.043665949255228,-0.0184195227921009
100,-0.0186165031045675,-0.0422152541577816,-0.0269732605665922,-0.252329289913177,-0.0513175949454308,-0.0210362412035465
101,-0.0014954431680962,-0.0361552685499191,-0.0315438248217106,-0.338739395141602,-0.0624169185757637,-0.015411114320159
102,0.0069519905373454,-0.0427579842507839,-0.052147913724184,-0.44496962428093,-0.0796583592891693,-0.0219728760421276
103,-0.006336772814393,-0.057846300303936,-0.0725710093975067,-0.5,-0.0944316908717155,-0.042735081166029
104,-0.031785998493433,-0.0641172826290131,-0.0722713768482208,-0.5,-0.0983808264136314,-0.0588693842291832
105,-0.0547020584344864,-0.054330337792635,-0.0503402054309845,-0.5,-0.09366574883461,-0.0599503703415394
106,-0.0660469681024551,-0.0337588228285313,-0.024108437821269,-0.5,-0.0862281918525696,-0.049942921847105
107,-0.0591118671000004,-0.0112665398046374,-0.0070105260238051,-0.5,-0.07689468562603,-0.0357282347977161
108,-0.0387417152523994,0.0059147733263671,0.0011165315518155,-0.5,-0.065881684422493,-0.0212195757776499
109,-0.0187183991074562,0.0144715011119843,0.002372653922066,-0.5,-0.0579706281423569,-0.0055491863749921
110,-0.005983451846987,0.0197675507515669,0.0003088296507485,-0.5,-0.0534099750220776,0.0157374143600464
111,-0.0005229960079304,0.0312931165099144,0.0003073802508879,-0.5,-0.0459162965416908,0.0411322452127934
112,0.0049911867827177,0.0516905710101128,0.0009185448870994,-0.5,-0.0290999226272106,0.0600179769098759
113,0.0137119386345148,0.0720586255192757,-0.0068142032250762,-0.5,-0.0088733378797769,0.0608429349958897
114,0.0096533214673399,0.0729945302009583,-0.0305050630122423,-0.5,-0.0100154941901565,0.0389993004500866
115,-0.0168641023337841,0.0461986847221851,-0.062420304864645,-0.5,-0.0450047142803669,0.0080856513231992
116,-0.0495201013982296,0.0137389395385981,-0.0818838626146317,-0.5,-0.0894777998328209,-0.0044128238223493
117,-0.0627241581678391,0.0047029866836965,-0.0733454525470734,-0.5,-0.106221057474613,0.0114360004663467
118,-0.0468068495392799,0.0189350061118603,-0.0444574505090714,-0.5,-0.0856464877724648,0.0344128496944904
119,-0.0233337450772524,0.0294685605913401,-0.0272445771843195,-0.5,-0.0580506287515163,0.0353577509522438
120,-0.0204682517796755,0.0230440348386765,-0.0358853898942471,-0.5,-0.0518911294639111,0.0138253988698125
121,-0.0365335084497929,0.0114680817350745,-0.0472378991544247,-0.5,-0.0591592900454998,-0.0036487025208771
122,-0.05228091776371,0.0018197934841737,-0.0430118255317211,-0.5,-0.0627869591116905,-0.0044008381664753
123,-0.0603524632751942,-0.0113198896870017,-0.0315765663981438,-0.5,-0.0636551082134247,0.0012033152161166
124,-0.0649711936712265,-0.0263595469295979,-0.0273280330002308,-0.5,-0.0682841539382935,-0.001211906899698
125,-0.0632955133914948,-0.0275266766548157,-0.027243584394455,-0.436080545186996,-0.0700919553637505,-0.0108668245375156
126,-0.0473087318241596,-0.0112266791984439,-0.0204366315156221,-0.36475458741188,-0.0600904040038586,-0.0151443546637893
127,-0.0204859022051096,0.0066615059040486,-0.0082197384908795,-0.30865490436554,-0.0423256978392601,-0.0091087622568011
128,0.005940661765635,0.0217423569411039,0.0040674796327948,-0.295433133840561,-0.0237263347953558,0.0081008011475205
129,0.0196490436792374,0.0390527211129665,0.0091538187116384,-0.333588808774948,-0.0133548006415367,0.0321488976478577
130,0.0134689910337329,0.0538607202470303,-0.0021729031577706,-0.400140821933746,-0.0202534198760986,0.0468290857970715
131,-0.0034194772597402,0.0586852543056011,-0.0218477677553892,-0.465636879205704,-0.0358350202441216,0.048563290387392
132,-0.0181807857006788,0.0497069656848907,-0.0313681028783321,-0.5,-0.0448959469795227,0.0488165654242039
133,-0.0300667285919189,0.0276187937706709,-0.0271749403327703,-0.5,-0.0463986843824387,0.0447856746613979
134,-0.0395353361964226,0.0023405358660966,-0.0166624560952187,-0.5,-0.0439587831497192,0.030154924839735
135,-0.0443983934819698,-0.0145728252828121,-0.0108766779303551,-0.5,-0.0400528535246849,0.0111332051455975
136,-0.0454699695110321,-0.0181534048169851,-0.0177656784653664,-0.5,-0.0411838442087173,-0.0072364904917776
137,-0.0399519316852093,-0.0075916149653494,-0.0275280866771936,-0.5,-0.0456486903131008,-0.0223468206822872
138,-0.0252902377396822,0.0108335176482797,-0.0292330849915743,-0.414890736341476,-0.0442029312252998,-0.0278296805918217
139,-0.0064007965847849,0.0286036413162947,-0.0288038644939661,-0.337385922670364,-0.0360385477542877,-0.0189818516373634
140,0.0143030798062682,0.0432770699262619,-0.0347011499106884,-0.295329391956329,-0.0258535705506802,-0.0005487454473041
141,0.0341252982616425,0.0529708564281464,-0.0519919916987419,-0.260010719299316,-0.0191880911588669,0.0081334169954061
142,0.0410429611802101,0.0517233684659004,-0.0763327032327652,-0.225099161267281,-0.016374783590436,-0.0080276587978005
143,0.0256456974893808,0.0319361835718155,-0.0881989002227783,-0.223267987370491,-0.0141482390463352,-0.0386465601623058
144,-0.0054729683324694,-0.0068362513557076,-0.0781827196478844,-0.255835235118866,-0.0202205386012793,-0.0647780895233154
145,-0.033573254942894,-0.048517182469368,-0.0572272874414921,-0.290929228067398,-0.0410365089774132,-0.0737806633114815
146,-0.0483033210039139,-0.0678873062133789,-0.0354671888053417,-0.312909215688705,-0.0651801973581314,-0.0582434087991714
147,-0.0537035949528217,-0.0527116693556309,-0.0128651531413198,-0.313225418329239,-0.0756162852048874,-0.0242976564913988
148,-0.0501100309193134,-0.014165673404932,0.0103982174769044,-0.270208269357681,-0.0627130195498466,0.0118973106145859
149,-0.0367361567914486,0.0251454785466194,0.0269485618919134,-0.167828962206841,-0.0288660190999508,0.0423334762454033
150,-0.0228191148489714,0.0539392828941345,0.0309613645076752,-0.0271752737462521,0.0091775553300976,0.0667723044753075
151,-0.0175479706376791,0.072847805917263,0.0233597066253424,0.110063455998898,0.0325934924185276,0.076792873442173
152,-0.0213256813585758,0.0756357163190842,0.0054385648109018,0.215760082006454,0.033777192234993,0.0616648755967617
153,-0.0286461245268583,0.0583680309355259,-0.0235669054090977,0.263391494750977,0.010747124440968,0.0280439648777246
154,-0.0372429080307484,0.02751892991364,-0.0626096501946449,0.224829614162445,-0.0375171527266502,-0.0129917608574033
155,-0.0471735820174217,-0.0112886689603329,-0.100204445421696,0.0892321690917015,-0.0959254503250122,-0.0583241209387779
156,-0.0530979670584202,-0.045384407043457,-0.116288065910339,-0.119381867349148,-0.132803976535797,-0.0957494154572487
157,-0.0489247292280197,-0.0526881068944931,-0.101121433079243,-0.329125583171844,-0.12981516122818,-0.104150101542473
158,-0.0338046476244926,-0.0276743844151497,-0.0640179961919785,-0.445099025964737,-0.0966167524456978,-0.0742885917425156
159,-0.0126803908497095,0.0112034613266587,-0.0232387259602547,-0.424979418516159,-0.0535404570400715,-0.0221226066350937
160,0.0065768607892096,0.0450842715799809,0.0058382130227983,-0.332689076662064,-0.017250619828701,0.0219765715301037
161,0.021018398925662,0.0626163855195045,0.0143547309562564,-0.263282030820847,0.0008608540520071,0.0379395112395287
162,0.0325425192713737,0.0599921457469463,0.0051281806081533,-0.26190310716629,0.003370267804712,0.0298132132738829
163,0.0378509759902954,0.0459186919033527,-0.0075420360080897,-0.335010319948196,0.003250204725191,0.0159756224602461
164,0.0302947591990232,0.0328190363943577,-0.0127801448106766,-0.463762491941452,0.0055068447254598,0.0071972403675317
165,0.0103682316839695,0.0230899713933468,-0.0126074077561498,-0.5,0.0065999827347695,0.0013269684277474
166,-0.0138408644124866,0.0081947343423962,-0.0134793687611818,-0.5,0.0059512760490179,-0.0073988465592265
167,-0.0287974495440722,-0.0111484481021762,-0.0141127798706293,-0.5,0.0099273202940821,-0.0175089202821255
168,-0.0253753997385502,-0.0217048246413469,-0.0127357747405767,-0.5,0.0175733026117086,-0.0207958538085222
169,-0.0110938064754009,-0.0184454452246428,-0.0151664391160011,-0.5,0.0143294418230653,-0.0150392269715667
170,0.0021554969716817,-0.0035854345187544,-0.0211083777248859,-0.5,-0.0029393122531473,-0.002200853312388
171,0.0058730882592499,0.0217963848263025,-0.026935625821352,-0.5,-0.0204468108713627,0.0162817649543285
172,-0.0047319936566054,0.0472808852791786,-0.0424470528960228,-0.442290872335434,-0.0320702865719795,0.0283689275383949
173,-0.0241658184677362,0.0519473403692245,-0.0732265934348106,-0.307951003313065,-0.0449008606374264,0.0170472767204046
174,-0.0459084138274193,0.0308164674788713,-0.103743590414524,-0.202246651053429,-0.0664573535323143,-0.0159120298922062
175,-0.0630758851766586,0.0070929820649325,-0.113206349313259,-0.110543102025986,-0.0914652273058891,-0.0479276776313782
176,-0.067429780960083,-0.0018627854296937,-0.0961462259292603,-0.0364624746143818,-0.104909837245941,-0.0619779862463474
177,-0.0595626421272755,-0.005721578374505,-0.0647833347320557,0.0003437963314354,-0.0963090732693672,-0.0546054691076279
178,-0.0430900603532791,-0.0139554850757122,-0.0334973931312561,0.0099319908767938,-0.0649680197238922,-0.0235397256910801
179,-0.020531864836812,-0.0178124327212572,-0.0143099501729012,0.0277323555201292,-0.0277451016008854,0.0153003372251987
180,0.0012567380908876,-0.0091531025245785,-0.0183244831860065,0.0636791214346886,-0.0112773012369871,0.0264717023819685
181,0.016529705375433,0.0052683311514556,-0.0420339964330196,0.0951086729764938,-0.0209955796599388,0.0005287685198709
182,0.0252142697572708,0.0145023837685585,-0.0692394003272057,0.107494406402111,-0.039468802511692,-0.0396375097334385
183,0.0274459775537252,0.0121619487181306,-0.0876855254173279,0.121573783457279,-0.0538106225430965,-0.0715445503592491
184,0.0204077363014221,-0.0004551511083263,-0.0925416946411133,0.158162578940392,-0.0644599795341492,-0.0829300135374069
185,0.0023135957308113,-0.0163744799792767,-0.088551752269268,0.198276877403259,-0.0741989016532898,-0.0752701535820961
186,-0.0229903198778629,-0.0296235214918852,-0.0813570022583008,0.224801883101463,-0.0791956707835197,-0.057614091783762
187,-0.0437511913478374,-0.0321448408067226,-0.0622513704001904,0.256838649511337,-0.0690442994236946,-0.0281005445867777
188,-0.0439846739172935,-0.0157916340976954,-0.0229448080062866,0.301543474197388,-0.0382856652140617,0.0164780262857676
189,-0.022809199988842,0.0140287410467863,0.0217659324407578,0.335252642631531,-0.0005047965678386,0.0601986050605774
190,0.0002387990389252,0.037742342799902,0.0452609658241272,0.348200857639313,0.0212670378386974,0.0774237513542175
191,0.0080437595024704,0.040187381207943,0.0338143780827522,0.34966853260994,0.0151549456641078,0.0595565922558308
192,0.0022805682383477,0.0274089109152555,-0.0034083395730704,0.326160907745361,-0.013699266128242,0.0245935469865799
193,-0.0091017531231045,0.0152050787582994,-0.0466828607022762,0.276319175958633,-0.0506456904113293,-0.0097156148403883
194,-0.0254548117518425,0.0045972554944455,-0.0828416496515274,0.246904149651527,-0.0823477581143379,-0.0444757528603077
195,-0.0430006980895996,-0.0095925815403461,-0.102556072175503,0.250389367341995,-0.0981514751911163,-0.0760249122977257
196,-0.0532866418361664,-0.0195434875786304,-0.102373242378235,0.256201654672623,-0.0955610647797585,-0.0891781970858574
197,-0.0513863489031792,-0.0138462539762259,-0.0895001739263535,0.265312016010284,-0.0821053236722946,-0.0785515308380127
198,-0.0377905145287514,0.0049399146810174,-0.0724715292453766,0.288070648908615,-0.0636340826749802,-0.0536653250455856
199,-0.0220601093024015,0.0205591861158609,-0.058206457644701,0.307352721691132,-0.0482859164476395,-0.0277831070125103
200,-0.0152826057747006,0.0210512485355139,-0.0534845441579819,0.307358175516129,-0.0490181818604469,-0.0084793446585536
201,-0.0179639607667923,0.0096430303528904,-0.063341423869133,0.285956919193268,-0.0670672655105591,0.0010251458734273
202,-0.0217149015516043,0.0022349546197801,-0.0827559977769852,0.239746525883675,-0.0859973430633545,0.0035016245674341
203,-0.0193894729018211,0.0106948250904679,-0.0929533317685127,0.167803749442101,-0.0865057855844498,0.0121357347816229
204,-0.0130477910861373,0.0272582061588764,-0.0831989794969559,0.102743782103062,-0.0663677304983139,0.0330330356955528
205,-0.0056825373321771,0.0411479026079178,-0.0607379898428917,0.0921871811151505,-0.0377914868295193,0.0517447255551815
206,0.0033520760480314,0.0429338626563549,-0.0382549352943897,0.134854272007942,-0.0118172885850072,0.0495567284524441
207,0.0104692922905087,0.0195304937660694,-0.0288825649768114,0.205171942710876,0.0029940705280751,0.0232982449233532
208,0.0086347907781601,-0.0198108460754156,-0.0341201536357403,0.293562263250351,0.002041395753622,-0.0061753508634865
209,-0.0020733207929879,-0.0418634004890919,-0.0354792028665543,0.372516095638275,-0.0075199552811682,-0.0117772417142987
210,-0.0092473570257425,-0.027651209384203,-0.0158444978296757,0.40411189198494,-0.0104369735345244,0.0047769574448466
211,-0.0077835200354456,0.006767553742975,0.0178519692271948,0.393861025571823,-0.0010323253227397,0.0176306385546923
212,-0.0079947104677557,0.0331672765314579,0.043770469725132,0.379810035228729,0.01384780369699,0.0155575387179852
213,-0.0141025828197598,0.0434401594102383,0.0480047315359116,0.389027982950211,0.0228768270462751,0.0074308649636805
214,-0.0220604483038187,0.0420453473925591,0.0281801149249077,0.426713287830353,0.0082804448902607,-0.00467174872756
215,-0.0257516205310822,0.0288631319999695,-0.0071506765671074,0.469966739416122,-0.0341742299497128,-0.0260847117751837
216,-0.0154891163110733,0.0114510338753462,-0.0386087894439697,0.478146940469742,-0.0783532336354256,-0.0505469292402267
217,0.0015028171474114,0.0022920242045074,-0.0551043935120106,0.435104012489319,-0.101895727217197,-0.0674711987376213
218,0.002955911681056,0.0020429771393537,-0.0618890039622784,0.369967222213745,-0.10858091711998,-0.0716416761279106
219,-0.0102545078843832,0.0055345520377159,-0.0618768706917763,0.315094590187073,-0.105253115296364,-0.0551428534090519
220,-0.013683726079762,0.0104082971811295,-0.0472548045217991,0.261894673109055,-0.0877669081091881,-0.0132391983643174
221,0.0028511360287666,0.0156320985406637,-0.0188923701643944,0.198651045560837,-0.0575521476566792,0.0428796298801899
222,0.0236870404332876,0.0212290175259113,0.0048286854289472,0.143687874078751,-0.0309681352227926,0.0924798920750618
223,0.0340637713670731,0.0260526780039072,0.0115340854972601,0.101385205984116,-0.0175034999847412,0.115637436509132
224,0.0304078962653875,0.0282367654144764,0.0025865454226732,0.0588526502251625,-0.0143757993355393,0.102569796144962
225,0.0121798096224666,0.0318310000002384,-0.0148030780255795,0.0249894056469202,-0.0200095884501934,0.0666216015815735
226,-0.0131600359454751,0.0394521728157997,-0.0254772175103426,0.0149582084268332,-0.0263562351465225,0.0305872168391943
227,-0.0307046938687563,0.0465923883020878,-0.0192641951143742,0.0293647721409798,-0.0181585531681776,0.0078365700319409
228,-0.03043382614851,0.0469247326254845,-0.0067424420267343,0.0477433986961842,0.0048176464624702,0.0021285866387188
229,-0.015146104618907,0.0333176665008068,-0.0044784797355532,0.0370699763298035,0.0229860059916973,0.0035301183816045
230,0.0076140225864946,0.007122463081032,-0.0115527873858809,-0.0198881346732378,0.0253548473119736,-0.0012700117658823
231,0.0319863669574261,-0.0178485121577978,-0.0152660710737109,-0.114990867674351,0.0201612133532763,-0.0128577752038836
232,0.0475595146417618,-0.0319802053272724,-0.0145789217203856,-0.215286627411842,0.0120136393234134,-0.0276180822402239
233,0.0468795038759708,-0.0339960567653179,-0.0228236559778452,-0.286667913198471,-0.007497358135879,-0.0480522029101849
234,0.0337915942072868,-0.0238885786384344,-0.0418207310140133,-0.327413111925125,-0.0396145731210709,-0.071304090321064
235,0.0130140697583556,-0.0076682996004819,-0.0543147213757038,-0.348810523748398,-0.0677056312561035,-0.0821403190493584
236,-0.0131566263735294,0.0059191598556935,-0.0508381463587284,-0.332038760185242,-0.0787837132811546,-0.072434701025486
237,-0.0348369255661964,0.0183882415294647,-0.0330314934253693,-0.271298468112946,-0.0720990300178528,-0.0440629944205284
238,-0.0376238189637661,0.037746999412775,-0.0009743135306052,-0.220301628112793,-0.0499034151434898,0.0025590376462787
239,-0.016857149079442,0.0621728301048279,0.036964301019907,-0.216738268733025,-0.0201189480721951,0.0557408966124058
240,0.0158072654157877,0.0779269635677338,0.0641357451677322,-0.229530036449432,0.0051824478432536,0.0961402803659439
241,0.041831485927105,0.0736703351140022,0.069728672504425,-0.210120350122452,0.0192117933183908,0.1152713149786
242,0.0546286404132843,0.0527604185044765,0.0515854619443417,-0.142131477594376,0.0219665970653296,0.112291872501373
243,0.057573314756155,0.0293196737766266,0.0149001823738217,-0.0401287712156773,0.0142398755997419,0.0892488062381744
244,0.0510476976633072,0.0118342703208327,-0.0253846682608128,0.0680456236004829,-0.0006378440302796,0.0501369535923004
245,0.0389061756432056,0.000427048333222,-0.0486394874751568,0.148030444979668,-0.0128418980166316,0.0068347640335559
246,0.0301416292786598,-0.0048879473470151,-0.0491657815873623,0.165257126092911,-0.0186209660023451,-0.0198986120522022
247,0.0274830386042595,-0.0041417120955884,-0.0414396934211254,0.106712266802788,-0.0224762447178364,-0.0242448896169662
248,0.0291232485324144,0.0054581621661782,-0.0327042751014233,-0.0156584568321705,-0.0196587946265936,-0.0153734469786286
249,0.0292612798511982,0.0237174853682518,-0.0210488736629486,-0.171140506863594,-0.0069170738570392,-0.0019156190101057
250,0.0193607099354267,0.0405761487782002,-0.0078471098095178,-0.302936792373657,0.0059623327106237,0.007785705383867
251,-6.27153422101401e-05,0.0490064024925232,0.005731760058552,-0.371803551912308,0.0099605033174157,0.0109736397862434
252,-0.0201580058783293,0.046803243458271,0.0131859304383397,-0.386285960674286,0.0008186677005141,0.0099284863099455
253,-0.031414408236742,0.0327181369066238,0.0110672758892179,-0.358034402132034,-0.0126250796020031,0.0086939539760351
254,-0.03044842928648,0.0112146809697151,0.0038539601955562,-0.288389593362808,-0.0151525344699621,0.0081279706209898
255,-0.022501427680254,-0.0074978629127144,-0.006905332673341,-0.208515480160713,-0.0116190761327744,0.0077436603605747
256,-0.0147518115118146,-0.0113089550286531,-0.0159838031977415,-0.164858669042587,-0.0181872881948948,0.0131398001685739
257,-0.0090662958100438,0.0031657079234719,-0.0188859645277262,-0.15249365568161,-0.0379333309829235,0.0230509322136641
258,-0.000962825550232,0.0272326674312353,-0.0208036992698908,-0.132421866059303,-0.0596228912472725,0.0273744557052851
259,0.0117725264281034,0.0491122119128704,-0.0224727168679237,-0.117065474390984,-0.0681791380047798,0.0231101773679256
260,0.0241722669452429,0.0565560087561607,-0.0221772044897079,-0.14758962392807,-0.0593413673341274,0.0139512727037072
261,0.0294851176440716,0.046802744269371,-0.0263337269425392,-0.190811023116112,-0.0462980791926384,0.008069290779531
262,0.0242628343403339,0.033406674861908,-0.036529541015625,-0.19102618098259,-0.0423485189676285,0.0152367353439331
263,0.0106048136949539,0.0237829647958279,-0.0456171371042728,-0.159511610865593,-0.04800870642066,0.0300969071686268
264,-0.0056032920256257,0.0111530860885978,-0.0481247492134571,-0.0993218496441841,-0.0565494745969772,0.0394102297723293
265,-0.0189602952450514,-0.0028489832766354,-0.0405882634222507,0.0065665440633893,-0.0579970292747021,0.0425364561378956
266,-0.0270761121064425,-0.0073923547752201,-0.0234460439532995,0.128814548254013,-0.0471851900219917,0.0423411428928375
267,-0.0274165384471416,0.0006009317585267,-0.0036386100109666,0.217972919344902,-0.0284538771957159,0.0363414362072945
268,-0.0133006954565644,0.0176494270563126,0.0106242587789893,0.243219897150993,-0.0061877747066319,0.0255186334252357
269,0.0186403952538967,0.0352293290197849,0.0170665141195059,0.191367894411087,0.0186448935419321,0.0129770915955305
270,0.0570666901767254,0.0453267619013786,0.0215489733964205,0.0695654824376106,0.0427910573780537,0.0012474909890443
271,0.0785334929823875,0.048866230994463,0.0240081399679184,-0.0694114342331886,0.0548996366560459,-0.0087159695103764
272,0.070279635488987,0.0491340458393097,0.018809512257576,-0.170716539025307,0.0439154617488384,-0.0181156527251005
273,0.0451212413609028,0.0545882023870945,0.0145962657406926,-0.23287670314312,0.0192579496651888,-0.0152089055627584
274,0.0211717821657658,0.0708654969930649,0.0197474658489227,-0.266447812318802,-0.0013162458781153,0.0094482973217964
275,0.0071293977089226,0.0850871950387955,0.0286915693432093,-0.282334119081497,-0.0128453057259321,0.0380575843155384
276,0.0086240582168102,0.0830202549695969,0.039003498852253,-0.318964868783951,-0.0141111630946398,0.053751889616251
277,0.0213555693626404,0.064948558807373,0.0484726279973984,-0.389253616333008,-0.0075035104528069,0.0593036487698555
278,0.0321017615497112,0.0422990955412388,0.0518400706350803,-0.430199891328812,-0.0014677530853077,0.0630772188305855
279,0.0348658487200737,0.0276502165943384,0.050803653895855,-0.389238625764847,0.0015094461850822,0.0700820833444595
280,0.0352690517902374,0.0230290330946445,0.0469400584697723,-0.313608407974243,0.0072090136818587,0.0772508606314659
281,0.0338813178241253,0.0141613837331533,0.0266367830336094,-0.282522141933441,0.0100703341886401,0.073139563202858
282,0.0192559137940407,-0.0131214149296284,-0.0255323648452759,-0.301191508769989,-0.0098395310342311,0.0468644984066486
283,-0.0044194352813065,-0.0450780130922794,-0.0863936096429825,-0.32318326830864,-0.0474992766976357,0.0074359928257763
284,-0.0182938128709793,-0.0577204860746861,-0.11360040307045,-0.344876646995544,-0.0724701508879662,-0.0192765817046165
285,-0.0181510467082262,-0.0506815947592258,-0.107747599482536,-0.384080439805985,-0.0758796408772469,-0.0251540392637253
286,-0.0131418248638511,-0.0324429161846638,-0.0947634801268578,-0.383236199617386,-0.0735507234930992,-0.024704871699214
287,-0.0096992794424295,-0.0014632251113653,-0.0735471919178963,-0.270519435405731,-0.0702888518571854,-0.0211102589964867
288,-0.007383796852082,0.0357483513653278,-0.0315356962382793,-0.0720208585262299,-0.0559890195727348,-0.0033279897179454
289,-0.0050539248622953,0.0652679800987244,0.0234813205897808,0.140584588050842,-0.0264835674315691,0.0273455958813429
290,-0.0040617710910737,0.0854827091097832,0.0691185891628265,0.310445457696915,0.0123684778809547,0.0545451082289219
291,-0.0061167273670435,0.0949419811367989,0.085419774055481,0.388055205345154,0.0483805611729622,0.0619787387549877
292,-0.0099821258336305,0.0845601037144661,0.0739587619900703,0.363041520118713,0.071636937558651,0.0500603057444096
293,-0.0125855822116137,0.0539718568325043,0.0551872737705708,0.285694748163223,0.0759661197662354,0.0307977423071861
294,-0.0125931072980165,0.018289914354682,0.041639931499958,0.207295298576355,0.0547059029340744,0.01351388823241
295,-0.0109220473095775,-0.001673300168477,0.0323238633573055,0.130124419927597,0.0142942862585187,0.0061068749055266
296,-0.0122015988454223,-0.0020535432267934,0.0247241649776697,0.058256883174181,-0.0259076952934265,0.0076548899523913
297,-0.0139307724311948,0.0029177365358918,0.0204672552645206,0.011198528110981,-0.0498425923287869,0.013902205042541
298,-0.0049249986186623,0.0083111859858036,0.0212056860327721,-0.0294443145394325,-0.0493022464215755,0.0330066606402397
299,0.011142666451633,0.0172382909804583,0.019077155739069,-0.0794685781002045,-0.0297521483153105,0.0630779787898064
300,0.0193372275680304,0.0258161257952452,0.0024503823369741,-0.120462112128735,-0.0104365162551403,0.0730475708842278
301,0.0170593280345201,0.0257994402199984,-0.0244761686772108,-0.156957775354385,-0.0028761306311935,0.0438363440334797
302,0.0116821574047208,0.0116039644926786,-0.0424176380038261,-0.20087842643261,-0.0009089361410588,0.0016396476421505
303,0.0085974168032407,-0.0111498264595866,-0.0389396026730537,-0.224509984254837,0.0026280374731868,-0.0195510871708393
304,0.0126223657280207,-0.0294746775180101,-0.0202635396271944,-0.210367113351822,0.0080938022583723,-0.0152079770341516
305,0.0271758306771517,-0.0328832864761353,-0.0004627088201232,-0.192823052406311,0.0154323522001505,0.0013895009178668
306,0.0421467572450638,-0.02191705070436,0.0104842726141214,-0.193872377276421,0.0218971017748117,0.0177104864269495
307,0.0404867567121983,-0.0068461364135146,0.0110102742910385,-0.187890186905861,0.0206611324101686,0.0291479341685772
308,0.0227619633078575,0.0113159846514463,0.0152469966560602,-0.157597705721855,0.0140730263665318,0.0380889289081097
309,0.0029362621717155,0.0341325737535954,0.0364167205989361,-0.109207764267921,0.0128609435632825,0.0412366315722466
310,-0.014070481993258,0.0445300005376339,0.0556299351155758,-0.0490480847656727,0.0127834957093,0.025759968906641
311,-0.0302119869738817,0.0299555044621229,0.0451652519404888,-0.0025608174037188,-9.79057367658243e-05,-0.0101020187139511
312,-0.0396149717271328,0.0065107415430247,0.0161959137767553,0.0008396671619266,-0.0187227837741375,-0.0421332083642483
313,-0.0352846495807171,-0.0077539491467177,-0.0004772924003191,-0.0155536672100425,-0.0251808762550354,-0.0484514869749546
314,-0.0231454037129879,-0.0131154237315059,0.0016644741408526,-0.0040827635675668,-0.0180655065923929,-0.037858422845602
315,-0.0127315586432815,-0.0108285313472152,0.0132018830627203,0.0359761342406273,-0.0030110883526504,-0.0254526417702436
316,-0.0082167778164148,-0.001489297254011,0.0235189646482468,0.0807780101895332,0.0127500239759684,-0.0133911045268178
317,-0.0120305009186268,0.0026202902663499,0.0188291817903519,0.150211274623871,0.0143877286463976,-0.003789966693148
318,-0.0182265713810921,-0.0002906997688114,-0.0025788357015699,0.281560271978378,-0.001474866643548,0.0054637910798192
319,-0.0142339253798127,0.005998333916068,-0.0292073786258698,0.447781503200531,-0.0204320717602968,0.0186595655977726
320,-0.0010869719553738,0.0208367127925158,-0.0532959885895252,0.5,-0.0291596353054047,0.0255673658102751
321,0.0049818959087133,0.0203294903039932,-0.0695574134588242,0.5,-0.0293307192623615,0.0119946338236332
322,-0.0019855201244354,-0.0049957297742366,-0.0694135203957558,0.487178802490234,-0.0291546061635017,-0.0149641204625368
323,-0.0040033087134361,-0.0304201766848564,-0.0449736937880516,0.376294314861298,-0.0198228973895311,-0.023792190477252
324,0.0113528296351433,-0.0318533144891262,-0.0016307779587805,0.27773529291153,0.0083915442228317,0.0035612094216048
325,0.0310990121215582,-0.0131452828645706,0.0427783392369747,0.211111843585968,0.0471006035804749,0.0509414449334145
326,0.0415856391191483,0.0104698380455375,0.0775701478123665,0.135416314005852,0.0837045907974243,0.0957844406366348
327,0.0363422483205795,0.0270754434168339,0.0988627374172211,0.0276396218687296,0.0974433124065399,0.122768424451351
328,0.0153780141845346,0.032256867736578,0.102235473692417,-0.0726899653673172,0.0733335837721825,0.122179433703423
329,-0.0078460536897182,0.0306791719049215,0.0882123783230782,-0.138741418719292,0.0301224961876869,0.0956034138798714
330,-0.022475752979517,0.028382021933794,0.0631054118275642,-0.185031935572624,-0.0018236710457131,0.0540925487875938
331,-0.0325223803520203,0.0229091178625822,0.0321391150355339,-0.215492770075798,-0.0179791711270809,0.0084167886525392
332,-0.0448176339268684,0.0079111633822321,-0.0034722976852208,-0.20869642496109,-0.0354397632181644,-0.0315909497439861
333,-0.0544174499809742,-0.0112097579985857,-0.0329717583954334,-0.162209138274193,-0.0587932169437408,-0.0528429746627808
334,-0.0509888529777527,-0.0205703545361757,-0.0381107106804848,-0.09642343968153,-0.0724209472537041,-0.0504679754376411
335,-0.0325980298221111,-0.0143786957487464,-0.0198455844074488,-0.0165435168892145,-0.0664674937725067,-0.0367933288216591
336,-0.0052805040031671,0.0003202737425453,-0.0008698798483237,0.0739485397934914,-0.05026451125741,-0.0270324926823378
337,0.0219089705497026,0.0090526370331645,-0.0009609102853573,0.148018136620522,-0.0371182039380074,-0.0249813701957464
338,0.0375582091510296,0.0013191900216043,-0.0198430009186268,0.190888494253159,-0.0305896680802107,-0.0301903057843447
339,0.0377793274819851,-0.0190073922276497,-0.0401932746171951,0.217379927635193,-0.0244450308382511,-0.0412758588790894
340,0.032622404396534,-0.0394069887697697,-0.0486352629959583,0.233869090676308,-0.0103734619915485,-0.0498655922710896
341,0.0260565970093012,-0.0538266822695732,-0.048841618001461,0.24102458357811,0.0076212100684642,-0.0476420409977436
342,0.0163653548806906,-0.0571739599108696,-0.0410530343651772,0.253612726926804,0.0232191979885101,-0.0302162896841764
343,0.0093436893075704,-0.0395014360547066,-0.0181622952222824,0.254668921232224,0.0393853709101677,-0.0011966882739216
344,0.0030282058287411,-0.003119348315522,0.0102111138403416,0.213252305984497,0.0521087124943733,0.024114890024066
345,-0.0102459061890841,0.0367318652570248,0.0291443653404713,0.158635005354881,0.0525374189019203,0.0364760830998421
346,-0.0307894740253687,0.0626344308257103,0.0353396311402321,0.136418223381042,0.0379125885665417,0.0373288691043854
347,-0.0523484945297241,0.0673636943101883,0.0313242562115192,0.139784634113312,0.0128788528963923,0.0294742546975613
348,-0.0622447617352009,0.0635253489017487,0.0234373547136784,0.151588946580887,-0.0123882535845041,0.0253715850412846
349,-0.0523799955844879,0.0615253038704395,0.0176645051687956,0.190025120973587,-0.0303190965205431,0.0387679375708103
350,-0.0304524749517441,0.0602047368884087,0.0167929138988256,0.259342104196548,-0.0351663902401924,0.0603983886539936
351,-0.0150663163512945,0.0524932965636253,0.0163288414478302,0.318417996168137,-0.0287980865687132,0.064770944416523
352,-0.0176560208201408,0.0298274159431458,0.0086015211418271,0.344139277935028,-0.025084350258112,0.0421269871294498
353,-0.0269773453474045,0.0018991492688655,0.0009903693571686,0.373459845781326,-0.0286995824426413,0.0121979294344783
354,-0.0242579393088818,-0.0190841481089592,0.0003506311622913,0.432215631008148,-0.0340054668486118,-0.0054376400075852
355,-0.0095382565632462,-0.039322454482317,-0.0099786110222339,0.488836616277695,-0.0426393523812294,-0.0164082478731871
356,0.0017074643401429,-0.0654154792428017,-0.0422805286943913,0.5,-0.0548450909554958,-0.0359975099563599
357,7.30481624486856e-05,-0.093882218003273,-0.0814803540706635,0.5,-0.0644843131303787,-0.0640193074941635
358,-0.0107916444540024,-0.110112719237804,-0.103230871260166,0.5,-0.0686497837305069,-0.0816762149333954
359,-0.0251571144908667,-0.100748121738434,-0.0957297533750534,0.5,-0.0690344646573067,-0.0770961791276932
360,-0.0373390316963196,-0.0715602040290833,-0.0620810128748417,0.5,-0.0622727610170841,-0.054666344076395
361,-0.0404662378132343,-0.036978404968977,-0.0119108213111758,0.5,-0.0409129112958908,-0.019545067101717
362,-0.0374246314167976,-0.0074205705896019,0.0385208427906036,0.5,-0.0096957590430975,0.020044507458806
363,-0.0361012518405914,0.0122498450800776,0.071224220097065,0.5,0.0175355672836304,0.0499076023697853
364,-0.0350186042487621,0.0261740796267986,0.0825820490717888,0.5,0.0333995297551155,0.0629710257053375
365,-0.0312971919775009,0.0405357480049133,0.0803555399179459,0.5,0.0379276238381863,0.0603072829544544
366,-0.0291801635175943,0.05135328322649,0.066727876663208,0.5,0.0304946713149548,0.0450556762516499
367,-0.028418030589819,0.0519574359059334,0.0442374907433987,0.5,0.0142219541594386,0.0267501994967461
368,-0.0214682053774595,0.0434611029922962,0.0235036853700876,0.472555935382843,-0.0007766517228446,0.016616752371192
369,-0.0064035397954285,0.0296553913503885,0.0088163716718554,0.320600032806396,-0.0102491201832891,0.014328820630908
370,0.0095846084877848,0.0204953979700804,-0.0042117680422961,0.205626621842384,-0.017244178801775,0.0136034665629268
371,0.0168960932642221,0.0263888332992792,-0.0179435200989246,0.159576579928398,-0.0223940312862396,0.0116498656570911
372,0.0080194044858217,0.0343674868345261,-0.0324373282492161,0.143900394439697,-0.0261243991553783,0.0033511312212795
373,-0.0141555946320295,0.0216838624328375,-0.0459877029061317,0.113027960062027,-0.0335826650261879,-0.0146466083824635
374,-0.0361512675881386,-0.0125595331192017,-0.0548388287425041,0.0760463029146194,-0.048286497592926,-0.030205711722374
375,-0.0512117743492126,-0.0538605116307735,-0.059757687151432,0.0632633343338966,-0.067317321896553,-0.0321996174752712
376,-0.0613966323435307,-0.0843334719538689,-0.0657606944441795,0.0905150398612022,-0.083631232380867,-0.031579852104187
377,-0.0653295293450356,-0.0866093188524246,-0.0698641687631607,0.15375979244709,-0.08648282289505,-0.0363706201314926
378,-0.0611104741692543,-0.0646619275212288,-0.062805138528347,0.213595435023308,-0.0719869583845139,-0.0366234891116619
379,-0.0486193373799324,-0.0405565686523914,-0.0466505289077759,0.226210072636604,-0.0521439649164677,-0.0287920050323009
380,-0.0275659039616585,-0.0253717247396708,-0.0322396978735924,0.209081783890724,-0.0394619330763817,-0.0209182966500521
381,-0.0085030877962708,-0.0165634863078594,-0.0211787782609463,0.214402288198471,-0.0350065529346466,-0.0143644232302904
382,-0.004344169050455,-0.0118303773924708,-0.0070176078006625,0.242101550102234,-0.0316894240677357,-0.0039399499073624
383,-0.0108503689989448,-0.0155899412930012,0.0091279977932572,0.270134717226028,-0.0235318560153246,0.0046482835896313
384,-0.0142775056883693,-0.0312359258532524,0.0170565508306026,0.302433639764786,-0.0128426142036915,0.0014883312396705
385,-0.0043724104762077,-0.0480954349040985,0.0127159953117371,0.332006454467773,-0.0017139270203188,-0.0078319543972611
386,0.0194504056125879,-0.0521337613463402,0.0021314558107405,0.351593434810638,0.0106711843982339,-0.0145282242447138
387,0.0455083139240742,-0.0465111173689365,-0.0108931660652161,0.369354069232941,0.0149589329957962,-0.0249515194445848
388,0.0584591329097748,-0.04069809243083,-0.0256568118929863,0.384482800960541,0.0005167995695956,-0.0396431684494019
389,0.0527746342122555,-0.0300681069493294,-0.0335781760513783,0.397598505020142,-0.0215411614626646,-0.0388931334018707
390,0.0337743945419788,-0.0026968084275722,-0.0215329956263304,0.421583533287048,-0.0285191629081964,-0.0108808968216181
391,0.0086870929226279,0.0377027317881584,0.0096948901191353,0.470677644014359,-0.0142714129760861,0.0323800891637802
392,-0.0113147096708417,0.0709602385759354,0.0479410775005817,0.5,0.0108578288927674,0.0754499658942223
393,-0.0172325652092695,0.0835840702056885,0.0806751251220703,0.5,0.0338577777147293,0.10671716183424
394,-0.0188519135117531,0.0712700039148331,0.0913234353065491,0.5,0.0411190465092659,0.109113842248917
395,-0.0255406834185123,0.0403630807995796,0.0767942145466805,0.5,0.0331834591925144,0.0802492126822472
396,-0.0302951913326979,0.011899683624506,0.0531734600663185,0.5,0.0254947282373905,0.0404513776302338
397,-0.0309011768549681,-0.0030159971211105,0.0279834773391485,0.5,0.0192833859473467,0.0025556401815265
398,-0.0330506004393101,-0.0135894948616624,-0.0016311476938426,0.5,0.003999329637736,-0.036750566214323
399,-0.0358594655990601,-0.029694277793169,-0.0297681372612715,0.5,-0.0185276381671429,-0.0767009779810905
400,-0.0320156812667847,-0.0517778135836124,-0.0466266460716724,0.5,-0.0363542549312115,-0.105756670236588
401,-0.0193025972694159,-0.0765050202608109,-0.0548889935016632,0.5,-0.0470117591321468,-0.115364924073219
402,-0.0077294814400374,-0.0959949493408203,-0.0597493685781956,0.5,-0.0577850416302681,-0.104557283222675
403,-0.0092658344656229,-0.100587405264378,-0.0569023787975311,0.5,-0.0687059238553047,-0.0771460309624672
404,-0.0238194111734629,-0.0899111032485962,-0.0438000857830048,0.5,-0.071595661342144,-0.0423845462501049
405,-0.0382298193871975,-0.0682373940944672,-0.024194922298193,0.5,-0.0587050504982471,-0.0063450238667428
406,-0.03487578779459,-0.0344668962061405,-0.001290219835937,0.5,-0.0274004172533751,0.0324836447834969
407,-0.0082855504006147,0.0126603348180652,0.0198998004198074,0.455163687467575,0.0128055475652218,0.0709077343344688
408,0.0250373892486095,0.059044674038887,0.0302493572235107,0.403410196304321,0.0410326831042767,0.0941507741808891
409,0.048335786908865,0.0812746658921242,0.0270111355930567,0.346697151660919,0.0467435643076897,0.0902641862630844
410,0.063713051378727,0.0761039406061172,0.0147891482338309,0.265807420015335,0.0390327386558056,0.0635379776358604
411,0.0736662000417709,0.0597508549690247,-0.0012104418128728,0.186726421117783,0.0283176824450493,0.0288918595761061
412,0.0698373168706894,0.0418850667774677,-0.0116359703242779,0.129538431763649,0.0188290681689978,0.0002717048919294
413,0.0471119917929173,0.0214523617178202,-0.0124528836458921,0.0395797789096832,0.0087574440985918,-0.0168495923280716
414,0.0121201360598207,-0.0018265506951138,-0.0113434456288815,-0.124042145907879,-0.0058976979926228,-0.0206918772310019
415,-0.0232576355338097,-0.021024202927947,-0.0124150635674596,-0.270886838436127,-0.021474851295352,-0.0130841378122568
416,-0.0530556812882423,-0.0290736556053162,-0.0165631305426359,-0.292237639427185,-0.033608689904213,-0.0120880510658026
417,-0.0730789303779602,-0.031202981248498,-0.0257219187915325,-0.211359858512878,-0.0426375679671764,-0.0301172062754631
418,-0.0767242312431335,-0.0422650240361691,-0.0387733206152916,-0.0957616791129112,-0.0504568107426167,-0.054158840328455
419,-0.0681790411472321,-0.0672744885087013,-0.0521252267062664,0.0300125312060118,-0.0612641200423241,-0.072761058807373
420,-0.0572540871798992,-0.089796394109726,-0.0553861781954765,0.138240516185761,-0.072359524667263,-0.0844001471996307
421,-0.0433356203138828,-0.0958378985524178,-0.0412826910614967,0.216779887676239,-0.0732864066958427,-0.0896298885345459
422,-0.0230923350900412,-0.0880448892712593,-0.011620756238699,0.279513299465179,-0.0581815540790558,-0.088084913790226
423,0.0010829370003193,-0.0661917477846146,0.0309485495090485,0.298921227455139,-0.0295343827456236,-0.0707029178738594
424,0.0210558641701937,-0.0354978442192078,0.0683762729167938,0.240091413259506,-0.0020479352679103,-0.0375894568860531
425,0.0273288656026125,-0.0170742589980364,0.0750456973910332,0.141633838415146,0.006766827777028,-0.0104654189199209
426,0.0236399099230766,-0.0192534197121859,0.0526233315467834,0.0607294179499149,-0.0009272602037526,-0.0019099505152553
427,0.0221022665500641,-0.0240711476653814,0.0282677542418242,0.0060612428933382,-0.0030984440818429,0.0060262391343712
428,0.0241440534591675,-0.012580999173224,0.0242894981056452,-0.0350460857152939,0.0135468300431967,0.0325230993330479
429,0.0234392955899239,0.0115475440397859,0.0366094149649143,-0.0735998600721359,0.0348377637565136,0.0653205141425133
430,0.0179593749344349,0.0309335365891457,0.0444360300898552,-0.134801164269447,0.0418798252940178,0.0792341157793999
431,0.0107323937118053,0.0341121628880501,0.0364291854202747,-0.238305926322937,0.0363704413175583,0.066700704395771
432,0.003432547673583,0.0221943203359842,0.0143319992348552,-0.34491890668869,0.0278264116495848,0.0312093216925859
433,-0.0010163785191252,0.0063314684666693,-0.0137099688872695,-0.399884045124054,0.0146525027230382,-0.0201057903468609
434,0.0009283255203627,-0.00684405118227,-0.0363765768706799,-0.41246297955513,-0.0075491499155759,-0.0696221366524696
435,-0.0035448661074042,-0.0243291910737753,-0.0586843304336071,-0.421687543392181,-0.042842548340559,-0.102884545922279
436,-0.027615861967206,-0.0474625937640667,-0.0900864452123642,-0.420213431119919,-0.0866160094738007,-0.112962506711483
437,-0.0558957792818546,-0.0609344393014908,-0.109531618654728,-0.373331099748611,-0.111114554107189,-0.0906777381896973
438,-0.0686459839344025,-0.0573938861489296,-0.0951349437236786,-0.275721490383148,-0.100582554936409,-0.0452917851507664
439,-0.0632800236344337,-0.0466130934655666,-0.0571137554943562,-0.141852602362633,-0.0737177804112434,-0.0065264184959232
440,-0.046063344925642,-0.0323300398886204,-0.0129282111302018,0.0076156901195645,-0.0511696748435497,0.0137014994397759
441,-0.0309521649032831,-0.0135959722101688,0.0255491062998772,0.140571057796478,-0.0403741113841534,0.0283883716911078
442,-0.0265172384679317,0.0031799359712749,0.0489495545625687,0.231801450252533,-0.038677241653204,0.0493395514786243
443,-0.022344809025526,0.0159793682396412,0.0605576038360596,0.27802562713623,-0.0301161725074053,0.0714254975318909
444,-0.0075284079648554,0.025921618565917,0.0704135447740555,0.29683318734169,-0.0020965014118701,0.0828768014907837
445,0.0129958158358932,0.0277758557349443,0.0816619396209717,0.313936293125153,0.0386173650622368,0.0819210186600685
446,0.0240718275308609,0.0127690704539418,0.0808561071753502,0.349648863077164,0.0675030425190926,0.0615896098315716
447,0.0172047074884176,-0.0175119359046221,0.0526881814002991,0.400460869073868,0.0618082545697689,0.0135447448119521
448,0.0021283586975187,-0.041805949062109,0.0135311931371689,0.421671688556671,0.0294123068451881,-0.0402741655707359
449,-0.0119279753416777,-0.0492800250649452,-0.0146328285336494,0.373452216386795,-0.0099984984844923,-0.0733476355671883
450,-0.0268740933388472,-0.0524096749722958,-0.037244264036417,0.277201920747757,-0.0475194007158279,-0.087189182639122
451,-0.0425481013953686,-0.0574120543897152,-0.0612826980650425,0.179081961512566,-0.0701889917254448,-0.0917783677577972
452,-0.0519169010221958,-0.0645053088665009,-0.078464150428772,0.112278334796429,-0.0701996386051178,-0.0929162353277206
453,-0.041734766215086,-0.0744108557701111,-0.0788379907608032,0.114203482866287,-0.055525328963995,-0.0908110365271568
454,-0.0110621387138963,-0.0772302374243736,-0.0647497773170471,0.197585627436638,-0.0383670479059219,-0.0780513286590576
455,0.0169622395187616,-0.0554219633340836,-0.04415437951684,0.311030447483063,-0.0277011338621378,-0.0490867160260677
456,0.023819413036108,-0.0074577503837645,-0.0156379621475935,0.403991222381592,-0.0204621609300375,-0.0052892509847879
457,0.0115720788016915,0.0350783988833427,0.021864727139473,0.498966634273529,-0.0085138510912656,0.0405123457312584
458,-0.0055704414844512,0.0443728491663933,0.0597712285816669,0.5,0.0078920386731624,0.0701480284333229
459,-0.0122238080948591,0.0303683783859015,0.0889576599001884,0.5,0.0247339159250259,0.0814381390810013
460,-0.0063280654139816,0.0142472637817264,0.103057205677032,0.5,0.0382345989346504,0.0840303376317024
461,0.0036520501598715,0.0059899208135902,0.100730538368225,0.5,0.0473890751600266,0.0808675140142441
462,0.0108039332553744,0.0078130606561899,0.0865412503480911,0.5,0.0539535284042358,0.0682827085256577
463,0.0123168975114822,0.0124501930549741,0.0632127970457077,0.5,0.0546025186777115,0.0422879494726658
464,0.0105114672333002,0.0098132919520139,0.03306844830513,0.5,0.0440320298075676,0.006432197522372
465,0.011111281812191,-0.0012761829420924,0.0033496543765068,0.5,0.0249526537954807,-0.0242718327790499
466,0.016898687928915,-0.0185936540365219,-0.0181185938417912,0.5,0.0049001602455973,-0.0365386679768562
467,0.0259536579251289,-0.035587701946497,-0.025596683844924,0.5,-0.0059529691934585,-0.0288039408624172
468,0.0363632701337337,-0.0368146374821663,-0.0183241665363312,0.5,0.0042984294705092,-0.0110876234248281
469,0.0460243932902813,-0.0194136817008257,-0.0064658797346055,0.449153602123261,0.0271360035985708,7.4269250035286e-05
470,0.0470216535031796,-0.001884697121568,-0.0005295620649121,0.419601917266846,0.0373737812042236,-0.0004579430969897
471,0.0316391699016094,-0.0003721331013366,-0.000223651077249,0.454913377761841,0.027514161542058,-0.0058524440973997
472,0.0058951540850102,-0.013871836476028,-0.0029539105016738,0.495116204023361,0.0063991243951022,-0.0151767451316118
473,-0.0173298008739948,-0.0315228588879108,-0.0084807509556412,0.5,-0.0175104793161154,-0.0311128497123718
474,-0.0315439961850643,-0.0454920716583729,-0.0146402167156339,0.5,-0.0374188460409641,-0.0471389815211296
475,-0.0299192536622286,-0.05040193349123,-0.0130782667547464,0.5,-0.0452530682086945,-0.0486942231655121
476,-0.0090356115251779,-0.0362572111189365,0.0045480583794415,0.5,-0.0340904630720615,-0.0249975733458996
477,0.0135857732966542,-0.0027006093878299,0.0292330589145422,0.5,-0.0100376065820456,0.0159726366400719
478,0.0176911242306232,0.032807070761919,0.046762477606535,0.5,0.0146348066627979,0.0549577102065086
479,0.0091390507295727,0.0550176464021206,0.0598396137356758,0.5,0.0386337079107761,0.0825860425829887
480,0.0048866453580558,0.0613794438540936,0.0731302499771118,0.5,0.0637310743331909,0.0906321108341217
481,0.0124280685558915,0.054829552769661,0.0816910862922668,0.5,0.0845121219754219,0.0746477022767067
482,0.0265195984393358,0.0361536145210266,0.0810004249215126,0.5,0.0923724770545959,0.0519804209470749
483,0.0357409901916981,0.0076592988334596,0.0704311802983284,0.5,0.0834307000041008,0.0380443669855595
484,0.0370690077543259,-0.0177380461245775,0.053112830966711,0.5,0.0631816834211349,0.0263188797980547
485,0.0334857031702995,-0.026871383190155,0.0356995947659016,0.410081475973129,0.0401723943650723,0.0076221488416194
486,0.0273914933204651,-0.0217748135328293,0.0210830941796303,0.313165605068207,0.0182230807840824,-0.0159401800483465
487,0.0185956489294767,-0.0173208191990852,0.0039758407510817,0.215143159031868,-0.0020805324893444,-0.0389760434627533
488,0.0059264074079692,-0.026406342163682,-0.0169309861958027,0.114445671439171,-0.0197822228074074,-0.0587461590766907
489,-0.0044558495283126,-0.0434315726161003,-0.0282757896929979,0.0397399514913559,-0.0293529890477657,-0.0652997195720673
490,-0.0070739667862653,-0.0500446669757366,-0.0185468718409538,0.0042912377975881,-0.0220518037676811,-0.0453800670802593
491,-0.0030003811698406,-0.0358640812337399,0.0035665521863848,-0.0113919302821159,-0.0004534779582172,-0.007578466553241
492,0.0051570180803537,-0.0067049362696707,0.0203586537390947,-0.0378346666693687,0.0166376866400242,0.019736684858799
493,0.0098175415769219,0.0160642582923174,0.0247352346777916,-0.10827149450779,0.0138788605108857,0.0222803354263306
494,0.0017876734491437,0.013135340064764,0.0180023405700922,-0.21968400478363,-0.0061681009829044,0.0138611532747746
495,-0.0175840612500906,-0.0041278731077909,0.0046425047330558,-0.3238705098629,-0.0258210189640522,0.0153991859406233
496,-0.036632526665926,-0.0081207072362303,-0.0042248223908245,-0.392506778240204,-0.0259467903524637,0.0277032218873501
497,-0.0433891639113426,0.0053519019857049,-0.0009684870019555,-0.420250862836838,-0.0066013410687446,0.0322395376861095
498,-0.0341241620481014,0.0196000747382641,0.007810756098479,-0.390051424503326,0.0110064819455147,0.0179944913834333
499,-0.0193219631910324,0.0226308256387711,0.0116786193102598,-0.315209686756134,0.0082916570827364,-0.0002658438170328
500,-0.0094891730695962,0.0179043579846621,0.0138030648231506,-0.254398584365845,-0.0053358003497123,0.0001681485882727
501,-0.0023793873842805,0.0170935112982988,0.0229677613824606,-0.233752012252808,-0.0049805645830929,0.0143022397533059
502,0.006734350696206,0.0199712142348289,0.036102432757616,-0.23280668258667,0.0166740175336599,0.0194353759288788
503,0.0182429905980825,0.0139011722058058,0.0427197441458702,-0.259149223566055,0.0433971174061298,0.00838462729007
504,0.0260557290166616,-0.0048921699635684,0.0349237062036991,-0.338649541139603,0.0517613217234612,-0.0124699240550399
505,0.0235716663300991,-0.0298073496669531,0.0143981771543622,-0.428178578615189,0.0329543836414814,-0.0356351025402546
506,0.0141577310860157,-0.051233671605587,-0.0048868563026189,-0.448369473218918,0.0034039081074297,-0.051507193595171
507,0.0045071123167872,-0.062004454433918,-0.0115107791498303,-0.394630521535873,-0.0147679205983877,-0.0515886284410954
508,-0.0008364402456209,-0.0664134100079536,-0.0111321527510881,-0.314117521047592,-0.0203311610966921,-0.0357919111847878
509,0.0023457452189177,-0.0690590143203735,-0.0142777897417545,-0.228146925568581,-0.0214605759829283,-0.0112375114113092
510,0.0111686009913683,-0.0639245361089706,-0.0194364115595818,-0.148018077015877,-0.0188775230199099,0.0090960608795285
511,0.014990970492363,-0.0483832098543644,-0.0246190465986729,-0.102231182157993,-0.0185565203428268,0.0102815963327885
512,0.0080127147957682,-0.0285986997187138,-0.0343147702515125,-0.114435136318207,-0.0275175012648106,-0.007402888033539
513,-0.0044410130940377,-0.0067290202714502,-0.041113056242466,-0.176547914743423,-0.0346049889922142,-0.0203722640872002
514,-0.0129897464066744,0.0203471630811691,-0.0272651128470898,-0.262122392654419,-0.0215723793953657,-0.0074946386739611
515,-0.0117160147055984,0.0498528182506561,0.0170779973268509,-0.351174056529999,0.0161595232784748,0.0279006138443947
516,-0.0016398545121774,0.0697111412882805,0.0783804133534431,-0.430252492427826,0.0615753754973412,0.0663031190633774
517,0.0120513746514916,0.073700837790966,0.125516772270203,-0.5,0.0891266316175461,0.0923930704593658
518,0.0232292376458645,0.0702013298869133,0.137266278266907,-0.5,0.0878728032112122,0.104307249188423
519,0.0234490875154734,0.0674436613917351,0.114737562835217,-0.5,0.0633938014507294,0.100192159414291
520,0.0091920401901006,0.0671548694372177,0.0758018121123314,-0.5,0.0295809451490641,0.0777240246534348
521,-0.014979301020503,0.0631686821579933,0.0340242460370064,-0.5,-0.0056481845676899,0.0425263121724129
522,-0.0409116484224796,0.044073648750782,-0.0090074948966503,-0.5,-0.0410168282687664,0.0003976266889367
523,-0.0594953484833241,0.0116447266191244,-0.0490168817341328,-0.5,-0.0663453564047813,-0.041129469871521
524,-0.070161946117878,-0.0264207851141691,-0.0812184512615204,-0.5,-0.0749719366431236,-0.0753767043352127
525,-0.07827378064394,-0.0662716031074524,-0.104268305003643,-0.5,-0.077060729265213,-0.107558012008667
526,-0.0810526236891747,-0.0967582389712334,-0.110171526670456,-0.5,-0.0791415944695473,-0.137434959411621
527,-0.0706664249300957,-0.107537984848022,-0.0895080491900444,-0.5,-0.0728225484490395,-0.136714652180672
528,-0.0495976470410824,-0.0950533449649811,-0.0491081103682518,-0.5,-0.0543214417994022,-0.0746532678604126
529,-0.0310116689652205,-0.0662199705839157,-0.0160200782120228,-0.492946416139603,-0.0385667607188225,0.0202914718538523
530,-0.0165727492421865,-0.039217833429575,-0.00808881316334,-0.370661050081253,-0.0385726913809776,0.0783026516437531
531,0.0029066388960927,-0.0199779216200113,-0.0088197337463498,-0.304369688034058,-0.0415015108883381,0.0783398225903511
532,0.0230633839964867,-0.0023324999492615,0.0011562046129256,-0.317649155855179,-0.0289281755685806,0.0498290471732616
533,0.0344087220728397,0.0142964664846659,0.0203563645482063,-0.323665380477905,-6.89618027536199e-05,0.0192488115280867
534,0.0387802645564079,0.0285720843821764,0.0459726862609386,-0.285295993089676,0.0367686152458191,0.0017004464752972
535,0.0387549102306366,0.0411166548728943,0.0766091868281364,-0.275529623031616,0.0701476633548737,0.0029190899804234
536,0.0308598428964615,0.0475722923874855,0.0999866425991058,-0.293156981468201,0.0864433348178864,0.013638973236084
537,0.0183978360146284,0.0425507053732872,0.107172526419163,-0.272800177335739,0.0852149724960327,0.0231538899242878
538,0.0145349018275738,0.0314717814326286,0.103891037404537,-0.253062933683395,0.0819698497653008,0.0357804261147976
539,0.0212171748280525,0.0246983375400305,0.0919592976570129,-0.324517339468002,0.0818978473544121,0.0537086091935635
540,0.0234666839241982,0.0264424327760935,0.0648375600576401,-0.472772538661957,0.0700035840272903,0.0613242536783218
541,0.0101818209514022,0.0332176461815834,0.0224499646574259,-0.5,0.0326948612928391,0.0453586578369141
542,-0.0136343017220497,0.0361234210431576,-0.022009888663888,-0.5,-0.0194554831832647,0.0136388139799237
543,-0.0348141901195049,0.0314330086112022,-0.0494642667472363,-0.5,-0.0570360720157623,-0.0132101261988282
544,-0.0471423007547855,0.0204518437385559,-0.054585624486208,-0.5,-0.0651243627071381,-0.0259669907391071
545,-0.0525859519839287,1.71465744642774e-05,-0.0475331470370293,-0.5,-0.0557615868747234,-0.0295136272907257
546,-0.0528998076915741,-0.0234716348350048,-0.037196934223175,-0.5,-0.0476112961769104,-0.0174774192273617
547,-0.0495058819651604,-0.0312480442225933,-0.0253378674387932,-0.5,-0.0470726527273655,0.0251877717673779
548,-0.0432476624846458,-0.0180106833577156,-0.0099186636507511,-0.5,-0.0444784052670002,0.0907970368862152
549,-0.032727662473917,0.0017291220137849,0.0052056089043617,-0.453626841306686,-0.0303293392062187,0.141225546598434
550,-0.0140187265351415,0.0170007646083832,0.0155204655602574,-0.397638708353043,-0.0044058351777494,0.143269091844559
551,0.0102505190297961,0.0321214385330677,0.0250901952385902,-0.353749811649323,0.0299229230731726,0.100134335458279
552,0.0228098407387733,0.0474764369428158,0.0293841250240803,-0.36587855219841,0.0588748902082443,0.0363572724163532
553,0.021129073575139,0.0480157248675823,0.021521870046854,-0.423889994621277,0.068745382130146,-0.0250558238476515
554,0.031059393659234,0.0193114746361971,0.0061661028303206,-0.483532816171646,0.0634759217500687,-0.0735779106616974
555,0.0589585267007351,-0.0289199240505695,-0.0131217036396265,-0.5,0.0502902939915657,-0.107710681855679
556,0.0751707330346107,-0.0625225827097893,-0.0306009724736214,-0.5,0.0327944494783878,-0.118327938020229
557,0.0604870244860649,-0.0602682158350945,-0.0331547111272812,-0.5,0.020050847902894,-0.0984037593007088
558,0.0303762760013342,-0.0325115285813808,-0.0085534825921058,-0.488239616155624,0.022753331810236,-0.0536511987447739
559,0.0053219110704958,0.000161732561537,0.0374950245022774,-0.289011061191559,0.0387766398489475,0.0028895260766148
560,-0.0161271914839745,0.0245231799781322,0.0760129243135452,-0.0404681041836739,0.0508961863815784,0.0521520264446735
561,-0.041609063744545,0.0368657484650612,0.0834630653262138,0.205135077238083,0.0451805852353573,0.0826268866658211
562,-0.0672315508127213,0.0323230214416981,0.0555215068161488,0.376674681901932,0.0204818211495876,0.0922069549560547
563,-0.0843826904892921,0.0106930509209633,0.0013004516949877,0.423536211252213,-0.0146407792344689,0.0749469324946404
564,-0.0860942229628563,-0.0130108967423439,-0.0498104728758335,0.367414981126785,-0.0416578277945518,0.0304790362715721
565,-0.0700712576508522,-0.0281012374907732,-0.0670157894492149,0.261794149875641,-0.0452243015170097,-0.0243085194379091
566,-0.0452998168766499,-0.0379509627819061,-0.0537180192768574,0.148069322109222,-0.0318403951823711,-0.070905439555645
567,-0.025151189416647,-0.0460552237927914,-0.0333055257797241,0.0505487732589245,-0.0168817024677992,-0.10185232013464
568,-0.0132032809779048,-0.0512890368700027,-0.0164025984704494,-0.0177447870373726,-0.0031148255802691,-0.111607514321804
569,-0.0013301239814609,-0.051123172044754,0.0019169155275449,-0.0253807343542576,0.0180283021181822,-0.0921031013131142
570,0.0192719679325819,-0.0379778668284416,0.0308429710566998,0.0473615787923336,0.0543135926127434,-0.0437378846108913
571,0.042784757912159,-0.008144567720592,0.065517745912075,0.153999090194702,0.0967332422733307,0.0084761660546064
572,0.0557577908039093,0.0276519004255533,0.0858658254146576,0.225019961595535,0.124912649393082,0.0326165966689587
573,0.0591271482408047,0.0537722632288933,0.0811315178871155,0.250522702932358,0.13241158425808,0.0282826125621796
574,0.061709001660347,0.0591896362602711,0.0548182651400566,0.272283732891083,0.125959843397141,0.0114234555512667
575,0.0645104125142097,0.0444506965577602,0.0155462743714452,0.290072292089462,0.112754486501217,-0.0120955081656575
576,0.0657453462481499,0.0189048498868942,-0.0228791460394859,0.231682911515236,0.0975110977888107,-0.0349281802773476
577,0.0602770894765854,-0.0116480868309736,-0.0515769608318806,0.0452454835176468,0.0746275410056114,-0.0508765615522861
578,0.0421142764389515,-0.0421548448503017,-0.0693288072943687,-0.21785306930542,0.0399319753050804,-0.0576838701963425
579,0.0133347939699888,-0.0681259259581566,-0.0759419575333595,-0.446566164493561,0.0036155758425593,-0.0520556718111038
580,-0.0174368396401405,-0.0877632722258568,-0.0745312198996544,-0.5,-0.0228073634207249,-0.0450680069625378
581,-0.0369603894650936,-0.0965539813041687,-0.0646305084228516,-0.5,-0.0310113001614809,-0.0554401837289333
582,-0.0360093601047993,-0.0935512036085129,-0.041945606470108,-0.355082482099533,-0.0174733530730009,-0.0808208733797073
583,-0.0183582846075296,-0.0814671143889427,-0.0097785061225295,-0.0900475457310677,0.0104074105620384,-0.0991157293319702
584,0.0011197875719517,-0.0634350627660751,0.0194756742566824,0.172527596354485,0.0397182181477547,-0.0997706279158592
585,0.0115921692922711,-0.0453630611300468,0.0324487797915936,0.316954851150513,0.0620139874517918,-0.091748520731926
586,0.0158402249217033,-0.0269693993031979,0.0235658437013626,0.296295762062073,0.072186216711998,-0.0842117071151733
587,0.0152729647234082,-0.004692047368735,-0.0040660626254975,0.187254354357719,0.0641545727849007,-0.0856593996286392
588,0.0103570176288486,0.0143400300294161,-0.0342831462621689,0.0853225290775299,0.0419603027403355,-0.0956410318613052
589,0.0096368826925754,0.0220922641456127,-0.0434800051152706,0.0027801101095974,0.022836621850729,-0.0929591357707977
590,0.0166344437748194,0.0197124276310205,-0.0264749173074961,-0.0806609317660332,0.0180221796035767,-0.0688163191080093
591,0.0274117682129145,0.0094998404383659,0.0010187276639044,-0.143010675907135,0.0251383055001497,-0.0375687852501869
592,0.0381300747394562,-0.0059853391721844,0.0233674440532923,-0.155229389667511,0.0371281914412975,-0.0074200364761054
593,0.0446979515254498,-0.0168452113866806,0.0365606993436813,-0.137761145830154,0.0494778677821159,0.0186011902987957
594,0.0444463528692722,-0.010824722237885,0.0446911752223969,-0.121153987944126,0.0607737563550472,0.033353254199028
595,0.0393967106938362,0.0118068102747202,0.0499285161495209,-0.116264536976814,0.0711610689759254,0.0318145006895065
596,0.0331288166344166,0.0347057208418846,0.0497222319245338,-0.14686806499958,0.0829884707927704,0.0179141946136951
597,0.0264183487743139,0.0386677496135235,0.0402545519173145,-0.226220518350601,0.0944903716444969,0.0005310344276949
598,0.0185055639594793,0.0169493481516838,0.0194453522562981,-0.316851645708084,0.094299890100956,-0.0204828325659037
599,0.00632437877357,-0.0220556054264307,-0.0132376542314887,-0.349676430225372,0.0713669061660767,-0.0487449057400227
600,-0.0101200947538018,-0.0586627796292305,-0.0522400066256523,-0.274784445762634,0.0325775146484375,-0.0768705755472183
601,-0.0240213330835104,-0.0763176754117012,-0.0847335979342461,-0.0961363986134529,-0.0042480030097067,-0.100398488342762
602,-0.0312549136579037,-0.0790449753403664,-0.101102493703365,0.137801736593246,-0.0322000496089458,-0.124340578913689
603,-0.0280615836381912,-0.0726911649107933,-0.0956497341394424,0.354435205459595,-0.0456218793988228,-0.136748850345612
604,-0.0119185205549002,-0.0507972352206707,-0.0739294588565826,0.48638916015625,-0.0382141955196857,-0.123379066586494
605,0.0057774730958044,-0.0239737536758184,-0.0576307959854603,0.5,-0.0223164930939674,-0.102981716394424
606,0.0103411488234997,-0.0148441670462489,-0.0517527349293232,0.5,-0.0124232620000839,-0.0914954021573067
607,0.0030296093318611,-0.0201656650751829,-0.0382671728730202,0.435723930597305,-0.004423214122653,-0.072675995528698
608,-0.00104018044658,-0.0223112385720015,-0.0107540674507618,0.304820030927658,0.0114929107949138,-0.035585556179285
609,0.0107019739225507,-0.0142412539571524,0.0231027062982321,0.170710310339928,0.038213349878788,0.0105252740904689
610,0.033683717250824,0.0039474731311202,0.0579637475311756,0.0917863771319389,0.0702199265360832,0.0591500587761402
611,0.0561831183731556,0.0277595277875662,0.0895599201321602,0.102149099111557,0.0986012890934944,0.10322929918766
612,0.0745807737112045,0.0485095418989658,0.107291825115681,0.17857326567173,0.11737222969532,0.123577997088432
613,0.0842101275920868,0.0611403696238995,0.0997913554310799,0.224032193422318,0.119986362755299,0.11105839908123
614,0.0776247531175613,0.0689226016402245,0.0678525045514107,0.142765238881111,0.101846151053905,0.0792597085237503
615,0.0536334104835987,0.0735292509198189,0.0188920982182026,-0.0507808476686478,0.0647882521152496,0.0384181253612041
616,0.0202819053083658,0.0667099952697754,-0.0354384072124958,-0.259879589080811,0.0197922270745039,-0.0120026348158717
617,-0.0069650043733418,0.0424581468105316,-0.0714851692318916,-0.435952872037888,-0.0113811176270247,-0.0595044158399105
618,-0.0222791079431772,0.0124582722783089,-0.0742663592100143,-0.5,-0.0180178768932819,-0.0815803706645966
619,-0.0330199673771858,-0.0039833975024521,-0.0511429011821747,-0.5,-0.0089871073141694,-0.0713945850729942
620,-0.0389675609767437,-0.0043246368877589,-0.0135431289672852,-0.5,0.0079121002927422,-0.0408127270638943
621,-0.0298216268420219,0.001617012778297,0.0296854972839355,-0.5,0.0288294479250908,-0.0078016226179897
622,-0.0014418548671528,0.0082682473585009,0.0689216479659081,-0.5,0.0466352254152298,0.0138706443831325
623,0.0333637297153473,0.0113009456545115,0.0943129062652588,-0.5,0.0537979379296303,0.0217417348176241
624,0.0527374371886253,0.0056318091228604,0.0927101001143456,-0.5,0.0440342091023922,0.016207255423069
625,0.0494156628847122,-0.0076243113726377,0.0594161041080952,-0.5,0.0201145969331265,1.95089087355882e-05
626,0.0363003350794315,-0.0167870968580246,0.0131116341799498,-0.5,-0.0021889097988605,-0.0071304165758192
627,0.027302548289299,-0.0123887434601784,-0.0226494073867798,-0.5,-0.0109088653698564,0.0074869445525109
628,0.0261373519897461,-0.0033473039511591,-0.0383357666432858,-0.5,-0.0046866289339959,0.0254062041640282
629,0.0252222418785095,-0.0080017717555165,-0.0369748957455158,-0.479795217514038,0.0085083721205592,0.0241686794906855
630,0.014579207636416,-0.0259993299841881,-0.0317104458808899,-0.33274319767952,0.0132455267012119,0.0064956522546708
631,-0.0025788000784814,-0.0336621813476086,-0.0382511988282204,-0.140731871128082,0.0007328697829507,-0.0136136431246996
632,-0.0204205233603716,-0.0227491669356823,-0.06348567456007,0.0182960275560617,-0.0252154804766178,-0.0342020429670811
633,-0.0366071350872517,-0.0051927808672189,-0.0887870118021965,0.0809221714735031,-0.0428303927183151,-0.043874129652977
634,-0.039515595883131,0.0167617313563824,-0.0849524363875389,0.0376443080604076,-0.028662296012044,-0.02828717418015
635,-0.0261060912162066,0.035107746720314,-0.059206448495388,-0.0669222176074982,0.0023803843650966,-0.0100602246820927
636,-0.015368739143014,0.036513414233923,-0.0371081084012985,-0.149890229105949,0.0187193788588047,-0.0140310665592551
637,-0.016699867323041,0.0304264836013317,-0.0156983267515898,-0.163648277521133,0.0212433971464634,-0.023877901956439
638,-0.0176602620631456,0.0266797542572021,0.0149225564673543,-0.109987236559391,0.0263992752879858,-0.0157467778772116
639,-0.0103031173348427,0.0215790886431932,0.0453457236289978,0.0118882730603218,0.0364743508398533,0.0075524733401835
640,-0.0014639622531831,0.0203987136483192,0.0617537125945091,0.173524245619774,0.0453681945800781,0.0324968658387661
641,-0.0011433369945734,0.0252291802316904,0.0591131485998631,0.292224645614624,0.0449026599526405,0.0530652031302452
642,-0.0125761711969972,0.0186772365123034,0.0417085848748684,0.32211047410965,0.0291174966841936,0.0656593143939972
643,-0.0272270850837231,-0.0054577742703259,0.017573295161128,0.28094893693924,0.002083427272737,0.0658439174294472
644,-0.0309176836162806,-0.026461023837328,-0.003466255031526,0.194210812449455,-0.024934183806181,0.0584347136318684
645,-0.0203264113515615,-0.0260939039289951,-0.0107267964631319,0.0938306972384453,-0.0404680110514164,0.0534115694463253
646,-0.0034472341649234,-0.0075107347220182,-0.0060689584352076,0.0320179760456085,-0.0395373068749905,0.0475565753877163
647,0.0120333479717374,0.0149877173826098,-0.0036668016109615,0.0213895700871944,-0.0258406829088926,0.0344158187508583
648,0.021065466105938,0.0286233182996511,-0.0147209223359823,0.0173186399042606,-0.0064346864819526,0.01583531498909
649,0.0201850086450577,0.0255947466939688,-0.0446468479931355,0.0021534806583076,0.0057593155652284,-0.0139263607561588
650,0.014712487347424,0.0084822857752442,-0.0808808356523514,-0.0149798216298223,0.0051318360492587,-0.0542620755732059
651,0.016474025323987,-0.0107926763594151,-0.0944354310631752,-0.0474615693092346,0.0073909182101488,-0.0783836469054222
652,0.0250390637665987,-0.0243449006229639,-0.0763367936015129,-0.0982682257890701,0.0210829265415668,-0.0623190999031067
653,0.0287802778184414,-0.0261651687324047,-0.0435118675231934,-0.162864074110985,0.0337369479238987,-0.0145525792613626
654,0.020397936925292,-0.010816958732903,-0.0152724627405405,-0.262206703424454,0.0344860181212425,0.0286237895488739
655,0.0033761647064238,0.0091305086389184,0.0021215241868048,-0.398781538009644,0.0262714643031359,0.0400807037949562
656,-0.0063377330079674,0.0165197663009167,0.0173149015754461,-0.5,0.0210810862481594,0.0327278934419155
657,-0.0012874101521447,0.0132124433293939,0.0315051078796387,-0.5,0.0213987454771996,0.0290350466966629
658,0.0038023730739951,0.010207244195044,0.0375390835106373,-0.486618727445602,0.0174930430948734,0.0347009226679802
659,-0.0013237386010587,0.0129839032888412,0.0388878881931305,-0.380028158426285,0.0058350712060928,0.051593866199255
660,-0.0117452712729573,0.0176305379718542,0.0394444763660431,-0.284653007984161,-0.010648506693542,0.0702820345759392
661,-0.0200212839990854,0.0222823582589626,0.0390998013317585,-0.217035427689552,-0.0251517575234175,0.0736740380525589
662,-0.0234341472387314,0.0280368104577065,0.0354083366692066,-0.168985649943352,-0.0336576029658318,0.0555034801363945
663,-0.0269332956522703,0.0272900499403477,0.0206259693950415,-0.112041339278221,-0.044180441647768,0.02010827511549
664,-0.0326956138014793,0.0195110570639372,-0.001349726691842,-0.0257036164402962,-0.0579791478812695,-0.0142983719706535
665,-0.0337542518973351,0.0181984193623066,-0.0142509285360575,0.0577706545591354,-0.062224168330431,-0.0232541970908642
666,-0.0235544443130493,0.0285130050033331,-0.0119423232972622,0.0881988331675529,-0.0502797514200211,0.0078995069488883
667,-0.0053046480752527,0.0436433739960194,-0.0033949869684875,0.0816516429185867,-0.0313587747514248,0.0665768831968308
668,0.0069468105211854,0.0538386143743992,-0.0010515275644138,0.0951233059167862,-0.0202883128076792,0.101141639053822
669,0.0076658064499497,0.0488137640058994,-0.0060948077589273,0.168482050299644,-0.0175419189035892,0.0770677775144577
670,0.0120349982753396,0.0281645972281694,-0.0047272774390876,0.31372144818306,-0.0044603566639125,0.0274840500205755
671,0.0307711586356163,0.0022429735399782,0.0123579064384103,0.479972571134567,0.0305537730455399,5.39658685738686e-06
672,0.0534181967377663,-0.021525576710701,0.033431950956583,0.5,0.0710853487253189,-0.0037070524413138
673,0.0636339634656906,-0.0417919456958771,0.0378438197076321,0.5,0.091695249080658,-0.0108625385910273
674,0.0522508583962917,-0.0570894405245781,0.0160252135246992,0.5,0.0827883183956146,-0.0327552147209644
675,0.0243481881916523,-0.0646662265062332,-0.0242985114455223,0.5,0.0523246899247169,-0.0583439469337463
676,-0.00376234552823,-0.066969558596611,-0.0669774562120438,0.5,0.0159703698009253,-0.0794530734419823
677,-0.022780504077673,-0.0702274143695831,-0.097414530813694,0.5,-0.0141245508566499,-0.0987377762794495
678,-0.0308243408799171,-0.0683203637599945,-0.10223425924778,0.5,-0.0324071124196053,-0.109000667929649
679,-0.0305704157799482,-0.0496528334915638,-0.0816904008388519,0.5,-0.0430747903883457,-0.0966338887810707
680,-0.0326929204165936,-0.0177224949002266,-0.0545444712042809,0.5,-0.0552327446639538,-0.0671231746673584
681,-0.0406511910259724,0.0184684600681067,-0.0311831776052713,0.5,-0.0634558573365211,-0.0346745476126671
682,-0.0442332625389099,0.0504915080964565,-0.0063639134168624,0.5,-0.0514544881880283,-0.0044592823833227
683,-0.0313121043145657,0.0730018615722656,0.0230145007371902,0.5,-0.0151504622772336,0.0188287384808064
684,-8.75987898325548e-05,0.0895339474081993,0.0465699546039104,0.5,0.0284624677151442,0.0259771198034287
685,0.0344745852053165,0.0898307412862778,0.0429128333926201,0.5,0.0525082610547543,0.0107302358374
686,0.0529359802603722,0.0600990727543831,0.0112481005489826,0.445831775665283,0.0498087145388126,-0.0184953138232231
687,0.0504409708082676,0.0159053225070238,-0.0172213297337294,0.330674767494202,0.0389475002884865,-0.0412541665136814
688,0.0390557684004307,-0.0198779813945293,-0.0215007215738297,0.305329352617264,0.0348771326243877,-0.0483100675046444
689,0.0340710021555424,-0.0387276336550713,-0.0089599108323454,0.313316375017166,0.0396069139242172,-0.0455471202731133
690,0.0377052165567875,-0.0420635081827641,0.0037149174604564,0.325444608926773,0.0470694936811924,-0.0434470437467098
691,0.0417135320603848,-0.0359386540949345,0.0074981674551963,0.36697068810463,0.0472361035645008,-0.0473215468227863
692,0.0435918271541595,-0.0234082248061895,0.0061262003146112,0.423904120922089,0.0406464226543903,-0.0471795424818993
693,0.0431324131786823,-0.0103226443752646,-0.0014753806171938,0.43185168504715,0.032126784324646,-0.0389692671597004
694,0.0343612618744373,-0.007648407947272,-0.0240795332938433,0.390786170959473,0.0160433277487755,-0.0415615476667881
695,0.0173977501690388,-0.0198202114552259,-0.0569790229201317,0.361209481954575,-0.0097186351194977,-0.0671852380037308
696,0.0010427546221762,-0.0411243662238121,-0.0860031619668007,0.377675563097,-0.036391094326973,-0.102730803191662
697,-0.007237812038511,-0.0567683577537537,-0.100659213960171,0.455195873975754,-0.0510028563439846,-0.122468829154968
698,-0.004464060999453,-0.051043912768364,-0.0962902829051018,0.5,-0.0414887927472591,-0.111858002841473
699,0.0029925466515123,-0.0297297369688749,-0.0834748521447182,0.5,-0.0167065598070621,-0.0886192098259926
700,0.0063464287668466,-0.0115596000105143,-0.0776640176773071,0.5,0.0006289049633778,-0.0754444897174835
701,0.0056285937316715,0.0023250286467373,-0.0751570910215378,0.5,0.010909890756011,-0.0717187002301216
702,0.0068957237526774,0.0180590003728867,-0.0579942800104618,0.5,0.0342729091644287,-0.0707994699478149
703,0.017885135486722,0.032873909920454,-0.0190170984715223,0.46769255399704,0.0748445689678192,-0.0658656880259514
704,0.0404925756156445,0.0388371385633945,0.0261277593672276,0.330804347991943,0.113795213401318,-0.0507798492908478
705,0.0692824795842171,0.0325908623635769,0.0585817433893681,0.198134422302246,0.136057123541832,-0.026617918163538
706,0.094716839492321,0.0247784629464149,0.0714398473501205,0.0464970991015434,0.138717472553253,-0.0033646547235548
707,0.104063540697098,0.0213571973145008,0.0650311633944511,-0.0897541493177414,0.1225401237607,0.0012150915572419
708,0.0928321778774261,0.0144161423668265,0.0521991029381752,-0.173286691308022,0.100370697677135,-0.0131660094484687
709,0.0732738375663757,0.0029283282347023,0.050018422305584,-0.223284631967545,0.091790497303009,-0.0236187931150198
710,0.0589943379163742,-0.006831616628915,0.0529214292764664,-0.271109640598297,0.0945142656564713,-0.0241537149995565
711,0.0480452701449394,-0.0137487156316638,0.0407686680555344,-0.319939911365509,0.0890234932303429,-0.0328273102641106
712,0.0293145906180143,-0.0218231249600649,0.0096669737249612,-0.354886531829834,0.0683385655283928,-0.0582459084689617
713,-0.0025001459289342,-0.037080142647028,-0.026521373540163,-0.36041659116745,0.0385933071374893,-0.0901006981730461
714,-0.0362235046923161,-0.0555205605924129,-0.052144031971693,-0.341229528188705,0.0084270201623439,-0.104335263371468
715,-0.0505593828856945,-0.0531526952981949,-0.0629091262817383,-0.326583355665207,-0.013369794934988,-0.0848601907491684
716,-0.0386255905032158,-0.0152221359312534,-0.0621676966547966,-0.34184467792511,-0.0186731331050396,-0.0500551834702492
717,-0.0145923132076859,0.0333991423249245,-0.0499901622533798,-0.372883647680283,-0.0033194124698638,-0.0287849903106689
718,0.0066105644218623,0.0516907386481762,-0.0337934605777264,-0.379239052534103,0.0235904715955257,-0.0320962704718113
719,0.0246071666479111,0.024395365267992,-0.0273360293358564,-0.374895334243774,0.046465277671814,-0.0567946434020996
720,0.0454516597092152,-0.0242117997258902,-0.0298603065311909,-0.407948464155197,0.0597454532980919,-0.0838398337364197
721,0.0645446479320526,-0.0560270175337791,-0.0258169695734978,-0.442531287670136,0.0667960941791534,-0.0865516513586044
722,0.0724424570798874,-0.0519870892167091,-0.0043573495931923,-0.442670345306396,0.0729772970080376,-0.0573279783129692
723,0.0691163539886475,-0.0179532766342163,0.0282425377517939,-0.494571506977081,0.0819700360298157,-0.0155542567372322
724,0.0592466555535793,0.0233251769095659,0.0560367703437805,-0.5,0.0927875861525536,0.0109759978950024
725,0.0519316159188747,0.0505794435739517,0.0740141123533249,-0.5,0.106115356087685,0.0145775526762009
726,0.0532969646155834,0.0579629726707935,0.0876983776688576,-0.5,0.122622072696686,0.0123309008777142
727,0.0520605966448784,0.0495708659291267,0.0934722945094109,-0.5,0.130747362971306,0.0191835723817348
728,0.0382500253617764,0.0329347513616085,0.0848897248506546,-0.5,0.115860469639301,0.0302445311099291
729,0.0222772136330605,0.0140791330486536,0.0661726519465446,-0.5,0.0810620784759521,0.0338037051260471
730,0.0166973676532507,-0.0043821008875966,0.0434425324201584,-0.5,0.0427879393100739,0.0257970243692398
731,0.0156811811029911,-0.018157659098506,0.0235269106924534,-0.5,0.0133132170885801,0.0058130738325417
732,0.0053627248853445,-0.0247810203582048,0.0134659940376878,-0.5,-0.0038438031915575,-0.0232619568705559
733,-0.0148302000015974,-0.0213914792984724,0.0075692888349294,-0.5,-0.0124944848939776,-0.0491914749145508
734,-0.0323914550244808,-0.0033056458923965,-0.003543202066794,-0.5,-0.0168318450450897,-0.0569575130939484
735,-0.0393006838858128,0.0203634742647409,-0.0165822207927704,-0.5,-0.0183210074901581,-0.0442375093698502
736,-0.0381771810352802,0.0379458032548428,-0.0224421098828316,-0.5,-0.017454219982028,-0.0217685364186764
737,-0.0343288220465183,0.0489276126027107,-0.0191824082285166,-0.414416283369064,-0.0119183463975787,-0.0023344994988292
738,-0.0276886019855738,0.0511516965925694,-0.0081591177731752,-0.426712572574615,0.0042680371552705,0.0114225689321756
739,-0.0129279494285584,0.0399333760142326,0.0094526819884777,-0.5,0.0359913781285286,0.0226569753140211
740,0.0115047330036759,0.0163067039102316,0.0256015434861183,-0.5,0.0758828371763229,0.0248227119445801
741,0.0397205129265785,-0.0119643369689584,0.0319885388016701,-0.5,0.103301249444485,0.0130719821900129
742,0.0599447749555111,-0.0314773730933666,0.0314911492168903,-0.5,0.101274192333221,-0.0033992326352745
743,0.0605837740004063,-0.0293893776834011,0.0338035896420479,-0.5,0.0744713395833969,-0.0110630979761481
744,0.0434199348092079,-0.0061405450105667,0.0419009514153004,-0.5,0.0458171851933002,-0.0019275251543149
745,0.022009301930666,0.0231101550161839,0.0498720593750477,-0.5,0.0380482152104378,0.0250552892684937
746,0.005678319837898,0.0409284569323063,0.0483681038022041,-0.5,0.0524150282144547,0.0533087179064751
747,-0.0056523429229855,0.0382547602057457,0.0303397830575705,-0.5,0.0639026314020157,0.0537185184657574
748,-0.0164669305086136,0.01973906904459,0.0026856537442654,-0.5,0.0522595643997192,0.0226039588451386
749,-0.0301122032105923,0.0013278842670843,-0.0175464767962694,-0.5,0.0236903410404921,-0.0171947330236435
750,-0.0420574359595776,-0.0016474773874506,-0.0209691859781742,-0.5,-0.0053071603178978,-0.0447522848844528
751,-0.0470716506242752,0.0061668115667998,-0.0123957293108106,-0.5,-0.0297206081449986,-0.0511849112808704
752,-0.0468017719686031,0.0071389498189091,-0.0002261730987811,-0.5,-0.0509878769516945,-0.0365387015044689
753,-0.0390171222388744,0.0061959414742887,0.0144115090370178,-0.5,-0.0602447465062141,-0.00074031308759
754,-0.0242653675377369,0.0148107055574656,0.027302410453558,-0.5,-0.0528984889388084,0.0500720776617527
755,-0.0081491945311427,0.0229258239269257,0.0327413231134415,-0.5,-0.0366012006998062,0.0955254137516022
756,0.0153157124295831,0.0256005022674799,0.0388510413467884,-0.462245494127274,-0.0102663207799196,0.118208609521389
757,0.0480845868587494,0.0320906676352024,0.0520011335611343,-0.495830655097961,0.0262986980378628,0.119575411081314
758,0.0740068703889847,0.0424453094601631,0.0640568435192108,-0.5,0.0557065792381763,0.110842645168304
759,0.0796914920210838,0.0429936274886131,0.0623690523207188,-0.5,0.061689767986536,0.0938795879483223
760,0.0640988722443581,0.0218887683004141,0.0352715812623501,-0.5,0.04137172549963,0.0580851100385189
761,0.0338984727859497,-0.0127271944656968,-0.011298269033432,-0.5,0.00608761748299,0.0032616250682622
762,0.0045031500048935,-0.0361448563635349,-0.0457045882940292,-0.5,-0.0166563615202904,-0.0441529341042042
763,-0.0091440193355083,-0.0372260324656963,-0.0445948205888271,-0.5,-0.0099003855139017,-0.0539758652448654
764,-0.0049861371517181,-0.0268237572163343,-0.0200336575508118,-0.5,0.0094007160514593,-0.0285429507493973
765,0.0077654318884015,-0.0134195825085044,-0.0007979543297551,-0.5,0.0154671734198928,0.0017317421734333
766,0.0158925168216228,0.0048951026983559,-0.0009838119149208,-0.485679745674133,0.0004038383485749,0.0180058255791664
767,0.0111081311479211,0.0312058459967375,-0.014822724275291,-0.399973303079605,-0.0266251657158136,0.0310557316988707
768,-0.0062919682823121,0.0540241003036499,-0.0334478653967381,-0.400954395532608,-0.0506538897752762,0.0479626506567001
769,-0.0308234710246325,0.0486461892724037,-0.0511691942811012,-0.448549449443817,-0.0635880753397942,0.0472579188644886
770,-0.0505865104496479,0.0195507630705833,-0.0574660450220108,-0.486630707979202,-0.0610757060348988,0.0204203501343727
771,-0.0538178905844688,-0.0030263867229223,-0.0451339855790138,-0.48605677485466,-0.0424740836024284,-0.0097843753173947
772,-0.0418493002653122,-0.0089527517557144,-0.0189936105161905,-0.443827480077744,-0.0188258998095989,-0.0213216934353113
773,-0.022996723651886,-0.0097718806937336,0.0163421109318733,-0.391312599182129,0.0009070892701856,-0.0050875772722065
774,-0.0059548481367528,-0.0164283197373152,0.05367236956954,-0.369327455759048,0.0133132841438055,0.0300398990511894
775,0.0002177299757022,-0.0249604117125273,0.0777351930737495,-0.38771003484726,0.0123216649517417,0.061442892998457
776,-0.0034199184738099,-0.024614293128252,0.0827923789620399,-0.434678852558136,0.0001393382990499,0.078398309648037
777,-0.00920105073601,-0.0162915885448456,0.0740079954266548,-0.494014710187912,-0.0145901758223772,0.0843865498900414
778,-0.0106555419042706,-0.0046729915775358,0.0589375458657742,-0.5,-0.0225886795669794,0.0807311683893204
779,-0.0033467966131866,0.0101933488622308,0.0429225377738476,-0.5,-0.014668682590127,0.0695099234580994
780,0.0056065693497657,0.0266685001552105,0.0193307846784592,-0.5,-0.0009324907441623,0.0559226423501968
781,0.0025621494278311,0.0416426472365856,-0.0169384777545929,-0.5,-0.0041787610389292,0.0388032868504524
782,-0.0149710178375244,0.0452428124845028,-0.0542853996157646,-0.5,-0.0271298438310623,0.0116514330729842
783,-0.033874899148941,0.0294330473989248,-0.0712353736162186,-0.5,-0.0495296828448772,-0.0204145349562168
784,-0.0427220016717911,0.0013697925023734,-0.0566613264381886,-0.5,-0.0561695732176304,-0.0369826592504978
785,-0.0445831306278706,-0.0249782633036375,-0.0286921095103025,-0.5,-0.0560560747981071,-0.0236205793917179
786,-0.0432099886238575,-0.0278562530875206,-0.0074514783918857,-0.5,-0.0591891258955002,0.018330404534936
787,-0.0390903688967228,0.0041854209266603,0.0098236100748181,-0.5,-0.0570525154471397,0.0734175145626068
788,-0.0322562344372272,0.0469756722450256,0.0284869279712439,-0.5,-0.0408641807734966,0.115918897092342
789,-0.0180920567363501,0.0693581253290176,0.0479578003287315,-0.447278469800949,-0.0134599776938558,0.127639457583427
790,-0.002445459831506,0.0612909346818924,0.0652023032307625,-0.402729988098145,0.0142986821010709,0.112689323723316
791,-0.0017375184688717,0.0287345666438341,0.069514662027359,-0.413086891174316,0.0264562293887138,0.0834270864725113
792,-0.0155532341450453,-0.0110830990597606,0.0528156571090221,-0.457953184843063,0.013246476650238,0.0476917363703251
793,-0.0247436594218016,-0.0387259423732758,0.0249648429453373,-0.480505913496017,-0.0150789991021156,0.0178366675972939
794,-0.0182754322886467,-0.0467646792531013,0.002747856779024,-0.469036012887955,-0.0378369987010956,0.0064943912439048
795,-0.0052968831732869,-0.0381848178803921,-0.0047916886396706,-0.46543076634407,-0.0455094650387764,0.0221646651625633
796,0.0017480696551501,-0.0179815795272589,-0.0025569188874214,-0.5,-0.0466831251978874,0.0570279099047184
797,-0.0021919079590588,0.0062440480105578,-0.0046229152940213,-0.5,-0.0533620119094849,0.0778625756502151
798,-0.0177904386073351,0.0223016664385796,-0.0147771956399083,-0.5,-0.0638490244746208,0.0676986575126648
799,-0.0379870422184467,0.0280066765844822,-0.0224522277712822,-0.5,-0.0682305693626404,0.0457135140895844
800,-0.0498493239283562,0.0371623113751411,-0.014591340906918,-0.5,-0.0604398921132088,0.0350121445953846
801,-0.0487319864332676,0.0499192140996456,0.0094309812411665,-0.5,-0.0437286980450153,0.0423621796071529
802,-0.0416137501597404,0.0536417923867702,0.0363031178712845,-0.5,-0.028136357665062,0.0613355822861195
803,-0.0340458154678345,0.0485784262418747,0.0537337958812714,-0.5,-0.0179553907364607,0.0825184807181358
804,-0.0306505747139454,0.0357516966760159,0.0516002960503101,-0.5,-0.0159118119627237,0.0958333685994148
805,-0.0345050841569901,0.018006069585681,0.0295029804110527,-0.470769166946411,-0.0241794362664223,0.0955883115530014
806,-0.0371960960328579,0.003726024646312,0.0050810296088457,-0.352779030799866,-0.0332662351429462,0.0812536776065826
807,-0.034425888210535,-0.0120252147316933,-0.0078549208119511,-0.363003075122833,-0.0364608652889729,0.0495610274374485
808,-0.0329768024384975,-0.0317985527217388,-0.0094971824437379,-0.396623104810715,-0.0375446826219559,0.0101142805069685
809,-0.0322139412164688,-0.0444459989666939,-0.0049192328006029,-0.365353673696518,-0.0376929305493832,-0.0164588335901499
810,-0.0268526114523411,-0.0430145375430584,0.00080077489838,-0.32978481054306,-0.0335385538637638,-0.0230425950139761
811,-0.021227715536952,-0.0265535954385996,0.0049601988866925,-0.354282110929489,-0.0256933439522982,-0.0091733029112219
812,-0.0251893159002066,0.0031394995748996,0.0072468174621462,-0.415455728769302,-0.0189688801765442,0.0292315240949392
813,-0.0393383093178272,0.0355633608996868,0.0098373387008905,-0.474995821714401,-0.0161449015140533,0.077919028699398
814,-0.0521570108830929,0.0537061244249344,0.0188766606152058,-0.492016673088074,-0.0164202265441418,0.105385713279247
815,-0.0524618327617645,0.0487969182431698,0.0355527587234974,-0.410422652959824,-0.0152908908203244,0.103794604539871
816,-0.031774464994669,0.0327720083296299,0.0483668930828571,-0.218255415558815,-0.009326584637165,0.0892823189496994
817,0.0076143350452184,0.0263752657920122,0.0512987300753593,0.0008704286883585,0.0014805542305111,0.0796258077025414
818,0.0404272712767124,0.0319240167737007,0.0496615953743458,0.145339921116829,0.0121775316074491,0.0825170576572418
819,0.0438509024679661,0.0344290882349014,0.0433903448283672,0.217886790633202,0.0114657860249281,0.0826381370425224
820,0.0241149961948395,0.0273871533572674,0.0322969853878021,0.283448755741119,-0.0038550053723156,0.0639451295137405
821,-0.0016402704641223,0.0157145261764526,0.0222089346498251,0.362619012594223,-0.024653622880578,0.0340243019163609
822,-0.0260598789900541,0.0015842376742512,0.0166373364627361,0.443226605653763,-0.0403766483068466,0.0147391092032194
823,-0.0425357669591904,-0.0103083429858088,0.0171427000313997,0.5,-0.0447570011019707,0.0260783098638058
824,-0.0480333752930164,-0.0127811776474118,0.0208649728447199,0.5,-0.0441108085215092,0.0645638033747673
825,-0.0520973652601242,-0.0101587185636163,0.0202251709997654,0.5,-0.0504089742898941,0.104660011827946
826,-0.0612654164433479,-0.0094667030498385,0.0126143572852016,0.481663316488266,-0.0633045360445976,0.125124663114548
827,-0.0695642828941345,-0.0065296432003378,0.0011576215038076,0.40220719575882,-0.0749216824769974,0.113060332834721
828,-0.0675338581204414,0.007690345402807,-0.0090196570381522,0.280438452959061,-0.0799166113138199,0.0679168999195099
829,-0.0550739578902721,0.0294122919440269,-0.0158482063561678,0.125635117292404,-0.0767870247364044,0.0197803303599358
830,-0.0431226752698421,0.0477912351489067,-0.0227347034960985,-0.0533748380839825,-0.0673622116446495,0.008591596968472
831,-0.0375001020729542,0.0664500296115875,-0.0271316953003407,-0.248804196715355,-0.0504541657865047,0.0344287380576134
832,-0.0306878220289946,0.0788818821310997,-0.0218058209866285,-0.44684761762619,-0.0247744433581829,0.0601579695940018
833,-0.0110663743689656,0.0662116780877113,-0.0046484577469527,-0.5,0.0081439167261123,0.0667399987578392
834,0.0235559344291687,0.0364350043237209,0.0200451202690601,-0.5,0.0439273603260517,0.0663812011480331
835,0.0519813522696495,0.0059289778582751,0.0346009843051434,-0.5,0.0606423132121563,0.0599659271538258
836,0.048113115131855,-0.0218560453504324,0.0248554758727551,-0.5,0.0382285118103027,0.0354953035712242
837,0.0176493786275387,-0.0421568639576435,0.0057999431155622,-0.5,-0.0073023531585931,0.0075394725427031
838,-0.0129512520506978,-0.0481013618409634,-0.0023249390069395,-0.5,-0.0490758940577507,0.0034417363349348
839,-0.0304504260420799,-0.0397801287472248,-0.0032619261182844,-0.5,-0.0793609246611595,0.0208427906036377
840,-0.0380608811974525,-0.0268762055784464,-0.0079263616353273,-0.5,-0.0976411923766136,0.0423324219882488
841,-0.0430681109428406,-0.0167513005435467,-0.0156606361269951,-0.231048092246056,-0.103032879531384,0.0610994361341
842,-0.0538245663046837,-0.0095367431640625,-0.02226522564888,0.217853158712387,-0.100731372833252,0.0693714022636414
843,-0.0728232935070992,-0.0066672749817371,-0.0267273057252169,0.5,-0.0978558585047722,0.0587961450219154
844,-0.0862332805991173,-0.010691000148654,-0.026466429233551,0.5,-0.0925628244876862,0.0372897386550903
845,-0.0826678276062012,-0.0182661525905132,-0.0234541911631823,0.5,-0.0804644227027893,0.0183721985667944
846,-0.0716304108500481,-0.0179656147956848,-0.0268589910119772,0.5,-0.0686784014105797,0.0029498916119337
847,-0.0603563115000725,-0.0037627960555255,-0.0299997683614492,0.5,-0.0611771531403065,-0.0027308475691825
848,-0.0423374697566032,0.0162589643150568,-0.0142487371340394,0.5,-0.0469350479543209,0.019997488707304
849,-0.0189007259905338,0.0322529263794422,0.0188122484833002,0.5,-0.0199477840214968,0.0656002759933472
850,0.0009512319229543,0.0452971570193768,0.0540712848305702,0.5,0.0164584144949913,0.102624036371708
851,0.0161524657160044,0.0639937296509743,0.0775302946567535,0.5,0.0520276725292206,0.118882529437542
852,0.0215158015489578,0.0831649601459503,0.0727576315402985,0.5,0.0601509660482407,0.114819899201393
853,0.0096680996939539,0.0808537676930428,0.0424812994897366,0.5,0.0261762794107199,0.0809839814901352
854,-0.0079293856397271,0.0427735559642315,0.0079001989215612,0.5,-0.0302307307720184,0.0222086943686008
855,-0.0181050598621368,-0.0201201736927032,-0.0210815481841564,0.5,-0.0821642354130745,-0.0337182097136974
856,-0.0239744056016207,-0.0767217501997948,-0.0404353700578213,0.5,-0.112409234046936,-0.0539119802415371
857,-0.032652385532856,-0.100036762654781,-0.0437649339437485,0.490866631269455,-0.117070287466049,-0.024978743866086
858,-0.0423908121883869,-0.0825945362448692,-0.0292887333780527,0.487582087516785,-0.104941211640835,0.0314867869019508
859,-0.043242484331131,-0.0360984839498997,-0.0024239944759756,0.499682724475861,-0.0838264673948288,0.0824760124087334
860,-0.0319554768502712,0.0153682874515653,0.025140767917037,0.495372503995895,-0.0599890574812889,0.115859299898148
861,-0.0183818861842155,0.0527698881924152,0.0424097813665867,0.461522370576859,-0.0425404198467731,0.132409602403641
862,-0.0118346130475402,0.0716710239648819,0.0442634299397469,0.376747459173203,-0.0360319316387177,0.124796770513058
863,-0.0114921126514673,0.0743629857897758,0.0357747301459312,0.208288341760635,-0.0345682539045811,0.0913869068026543
864,-0.0109006054699421,0.0680085867643356,0.0313421785831451,0.007467471063137,-0.0273000616580248,0.0530585423111916
865,-0.0060982233844697,0.0595457442104816,0.0354382544755936,-0.108648382127285,-0.0124821923673153,0.0316742695868015
866,0.0017514117062091,0.0440652966499329,0.0374606885015965,-0.107477843761444,0.0009516640566289,0.030056431889534
867,0.0090413065627217,0.0184065885841846,0.0297274999320507,-0.061909843236208,0.0058867405168712,0.0392883010208607
868,0.0111686494201422,-0.0055534825660288,0.0125787016004324,-0.0463170036673546,0.0014021936804056,0.0459733940660954
869,0.0048605697229504,-0.0164135415107012,-0.0082773696631193,-0.0632330402731895,-0.0084307286888361,0.0392715632915497
870,-0.0060086664743721,-0.0139047661796212,-0.0182521678507328,-0.0659644603729248,-0.0114103117957711,0.0237102042883635
871,-0.0136168235912919,-0.0035552966874092,-0.0085243135690689,-0.023398544639349,-0.0002284653892274,0.017243443056941
872,-0.0155107146129012,0.0061538028530776,0.0069779516197741,0.0587924718856812,0.0101199839264154,0.0282143633812666
873,-0.0144165046513081,0.0049540512263774,0.0109189944341779,0.153337046504021,0.0029543158598244,0.0429533384740353
874,-0.0131776677444577,-0.0076425322331488,0.0021352202165871,0.230651900172234,-0.0172261241823435,0.0465279743075371
875,-0.0093600982800126,-0.0163467675447464,-0.0087945982813835,0.243493244051933,-0.0341912545263767,0.0445957779884338
876,0.0017763696378096,-0.0130123654380441,-0.0119685912504792,0.113728433847427,-0.0362169109284878,0.0460366606712341
877,0.0143613331019878,-0.007343687582761,-0.0097695160657167,-0.186277717351913,-0.0280900225043297,0.0417427867650986
878,0.0161494575440884,-0.0075584864243865,-0.012394530698657,-0.5,-0.027353348210454,0.0276736561208963
879,0.0041500572115182,-0.0114931091666222,-0.0228250063955784,-0.5,-0.0393553376197815,0.0176985301077366
880,-0.0112974336370826,-0.0074477680027484,-0.0286376792937517,-0.5,-0.0443911626935005,0.0203582793474197
881,-0.0168629121035337,0.0154218785464764,-0.0147301107645035,-0.5,-0.0242599006742239,0.0300239250063896
882,-0.013275190256536,0.0481358021497726,0.0137394294142723,-0.5,0.0096596023067832,0.0372013971209526
883,-0.0096625918522477,0.0718023329973221,0.0386260263621807,-0.5,0.0360541306436062,0.0379334650933743
884,-0.009177210740745,0.079678051173687,0.0473415553569794,-0.5,0.0475999712944031,0.0309543963521719
885,-0.0128496726974845,0.0755800902843475,0.0342033877968788,-0.5,0.0424635894596577,0.0184303522109985
886,-0.0172941517084837,0.0646431595087051,0.0087688993662595,-0.5,0.027031360194087,0.0062607112340629
887,-0.0135391280055046,0.0488342605531216,-0.009980053640902,-0.5,0.0172234252095222,-0.0068301823921501
888,-0.0010601393878459,0.0232163928449154,-0.0197095666080713,-0.5,0.0172679331153631,-0.0228708740323782
889,0.0132435448467731,-0.0166579037904739,-0.029283732175827,-0.5,0.0211966037750244,-0.037379551678896
890,0.028356971219182,-0.0609807372093201,-0.0371315702795982,-0.5,0.0299388971179724,-0.0489477217197418
891,0.0417293086647987,-0.0979394242167473,-0.040642786771059,-0.5,0.0418975129723549,-0.064009428024292
892,0.0394949018955231,-0.126087814569473,-0.0444595701992512,-0.5,0.0438429303467274,-0.0823405385017395
893,0.0184512324631214,-0.139811813831329,-0.0453751087188721,-0.5,0.033412791788578,-0.09334447234869
894,0.0006110346294008,-0.130134731531143,-0.0363478809595108,-0.5,0.0261910166591406,-0.0944268107414246
895,0.00319942436181,-0.0972169265151024,-0.0213220790028572,-0.5,0.0291848424822092,-0.0874519050121307
896,0.0173052884638309,-0.0481419861316681,-0.0063603539019823,-0.5,0.0381364524364471,-0.0698965191841125
897,0.0299082640558481,0.0027859990950673,0.0138783352449536,-0.42847740650177,0.0570970959961414,-0.0418765507638454
898,0.0405536666512489,0.036901880055666,0.0423076972365379,-0.346131384372711,0.0874170586466789,-0.0114248665049672
899,0.0496262423694134,0.0448976270854473,0.0616210736334324,-0.376156210899353,0.109757356345654,0.0066086705774068
900,0.0533144474029541,0.0340103693306446,0.0564839094877243,-0.493206709623337,0.10638365149498,0.0056497673504054
901,0.0504684038460255,0.0204772334545851,0.0351430922746658,-0.5,0.0842889249324799,-0.008276280015707
902,0.0422346144914627,0.0113563807681203,0.0105952303856611,-0.5,0.0592520609498024,-0.0332920663058758
903,0.0337964184582233,0.0072358315810561,-0.0059223682619631,-0.5,0.0449320897459984,-0.0640198588371277
904,0.0298587288707495,0.0122316591441631,-0.0051954854279756,-0.5,0.0490037985146046,-0.0827027037739754
905,0.023654118180275,0.0192950237542391,-0.0005208557704463,-0.5,0.0559679754078388,-0.085370846092701
906,0.0085861450061202,0.0164246559143066,-0.0112721407786012,-0.467955589294434,0.0464316755533218,-0.0817442983388901
907,-0.0104776918888092,0.0020113280043005,-0.0350345894694328,-0.252636343240738,0.0264709107577801,-0.0778774544596672
908,-0.025882076472044,-0.0260371342301369,-0.0590488500893116,-0.141445085406303,0.0122470557689667,-0.0841829180717468
909,-0.0321164354681969,-0.0657813847064972,-0.0736416578292847,-0.147601827979088,0.0119295446202159,-0.100892193615437
910,-0.0243830848485231,-0.100331261754036,-0.0722177624702454,-0.172447621822357,0.026669142767787,-0.108209058642387
911,0.0026644587051123,-0.11120493710041,-0.0525113940238953,-0.166427284479141,0.053861953318119,-0.0979001373052597
912,0.0434219315648079,-0.101401746273041,-0.0255622062832117,-0.150401934981346,0.0835042223334312,-0.0877340659499168
913,0.0744325742125511,-0.0887321159243584,-0.0110544702038169,-0.140159770846367,0.0981820300221443,-0.092764288187027
914,0.0781450346112251,-0.0757475271821022,-0.0140947038307786,-0.126101523637772,0.0900975689291954,-0.102651104331017
915,0.0593983083963394,-0.0576422810554504,-0.0229448601603508,-0.109243787825108,0.0679599195718765,-0.0978909954428673
916,0.0362241491675377,-0.0376313105225563,-0.02510130032897,-0.110345460474491,0.0480547584593296,-0.0711762309074402
917,0.0230193082243204,-0.014636886306107,-0.0165751464664936,-0.136124730110168,0.0450573116540909,-0.0372623056173325
918,0.020439175888896,0.0150319933891296,-0.001628597965464,-0.177748024463654,0.0602782815694809,-0.0194912385195494
919,0.0207686331123114,0.0407000482082367,0.012072054669261,-0.213996231555939,0.0781315937638283,-0.0198597833514214
920,0.0198714192956686,0.0459712892770767,0.0208640992641449,-0.228545188903809,0.0845204964280128,-0.0225626993924379
921,0.01675695925951,0.0307998731732368,0.0274996049702168,-0.238147675991058,0.0820635557174683,-0.023514986038208
922,0.0089794024825096,0.0051597906276583,0.0306737311184406,-0.265233546495438,0.076212614774704,-0.0330410040915012
923,-0.0027510647196322,-0.0275410823523998,0.0205231085419655,-0.309006482362747,0.0593587197363377,-0.0527309514582157
924,-0.0201219264417887,-0.067642368376255,-0.0128114717081189,-0.337513864040375,0.0187956187874079,-0.0712912231683731
925,-0.0454332567751408,-0.10276272892952,-0.0575600489974022,-0.311877071857452,-0.0352764986455441,-0.0787032842636108
926,-0.0642639696598053,-0.114771641790867,-0.0778085589408875,-0.220920920372009,-0.0643139556050301,-0.0768766030669212
927,-0.0559851117432117,-0.103268250823021,-0.0579736046493053,-0.0915155932307243,-0.0460938066244125,-0.0733194649219513
928,-0.0232875812798738,-0.0791110321879387,-0.0210163965821266,0.0159950032830238,0.0006832969374954,-0.067709669470787
929,0.0095194801688194,-0.0566002875566483,0.0009567750385031,0.0588971003890038,0.0411171428859234,-0.0616798773407936
930,0.0294491816312075,-0.0469577126204968,-0.0046975915320217,0.0491875670850277,0.055938009172678,-0.0597666688263416
931,0.041521742939949,-0.0448221899569035,-0.0233426094055176,0.0148518150672317,0.0527971871197224,-0.0593672879040241
932,0.0485828407108784,-0.0432041324675083,-0.0326187014579773,-0.0403425507247448,0.048235796391964,-0.0589829906821251
933,0.0503059104084969,-0.0385317914187908,-0.0196445230394602,-0.115201346576214,0.0527057759463787,-0.0525133870542049
934,0.0464497171342373,-0.0245133619755507,0.0118283843621612,-0.185242429375649,0.066742792725563,-0.029686339199543
935,0.0356255918741226,-0.0068539464846253,0.039396908134222,-0.21677528321743,0.0782915726304054,0.0002478541573509
936,0.0207915622740984,0.0038327164947986,0.0433753989636898,-0.172179147601128,0.0743436813354492,0.0159873124212027
937,0.0049312720075249,0.0078877313062548,0.0245625525712967,-0.0585290789604187,0.0534332692623138,0.0095606101676821
938,-0.0102100614458323,0.0054779746569693,-0.0044150296598672,0.0410924181342125,0.0257686600089073,-0.0114268567413092
939,-0.0190586019307375,-0.0085292384028434,-0.0314902924001217,0.101506896317005,0.004853927064687,-0.0326612889766693
940,-0.0233295820653439,-0.0313325114548206,-0.049229808151722,0.173944398760796,-0.0053773149847984,-0.0445583686232567
941,-0.0322543196380138,-0.0471842810511589,-0.0541643276810646,0.253973454236984,-0.0104140238836408,-0.04471255838871
942,-0.0426474958658218,-0.046257384121418,-0.0443140789866447,0.342865645885468,-0.0108643770217896,-0.0344579443335533
943,-0.0391054935753345,-0.0380755588412285,-0.0239363946020603,0.5,-0.0024414351209998,-0.0239224284887314
944,-0.0193594619631767,-0.0343100838363171,-0.00682876072824,0.5,0.0108996769413352,-0.021364388987422
945,0.0031439166050404,-0.0359916426241398,-0.0004431287234183,0.5,0.0231360718607903,-0.0189368017017841
946,0.0197955332696438,-0.0406525060534477,0.0011738695902749,0.5,0.0349365435540676,-0.0143250515684485
947,0.0283463150262833,-0.0420082807540894,0.0061405603773891,0.5,0.0481171347200871,-0.0150384092703462
948,0.0288778431713581,-0.0282779019325972,0.016122579574585,0.5,0.0622286647558212,-0.0110269384458661
949,0.0249193552881479,0.0048589673824608,0.0233661253005266,0.5,0.0702105760574341,0.0084462100639939
950,0.0209776628762484,0.045253187417984,0.0213723108172417,0.5,0.063125878572464,0.0310837980359793
951,0.0179531890898943,0.0689499154686928,0.0138236489146948,0.5,0.0413551516830921,0.037087619304657
952,0.0075873215682804,0.060334350913763,0.0043018176220357,0.5,0.0114891324192286,0.0184870939701796
953,-0.0122976303100586,0.0293568354099989,-0.0076019368134439,0.5,-0.0153732532635331,-0.0056050834245979
954,-0.0268532074987888,-0.0085762115195393,-0.0195196531713009,0.5,-0.0258051957935095,-0.006914229132235
955,-0.0263560246676207,-0.0476444773375988,-0.0280133448541164,0.5,-0.0198818128556013,0.0116448700428009
956,-0.0159467849880457,-0.0775290727615356,-0.028297858312726,0.5,-0.007177266292274,0.0229405667632818
957,-0.001319677918218,-0.0879016071557999,-0.0155813600867987,0.5,0.0092725809663534,0.0117115350440145
958,0.0164713095873594,-0.0767727345228195,0.0064175361767411,0.5,0.0260850191116333,-0.0107375010848045
959,0.0293548721820116,-0.0433409102261066,0.0232455730438232,0.5,0.0315338186919689,-0.0254730898886919
960,0.0211964640766382,-0.0022071772255003,0.0178817491978407,0.5,0.0123072154819965,-0.0322634913027287
961,-0.0083151748403906,0.0191085916012526,-0.0070509146898984,0.5,-0.0273706745356321,-0.0374727882444859
962,-0.0393809527158737,0.0137884961441159,-0.0276928637176752,0.5,-0.0627307593822479,-0.0391084253787994
963,-0.0538891144096851,-0.0047701704315841,-0.0264528393745422,0.5,-0.0712405890226364,-0.0300384350121021
964,-0.0421237349510193,-0.0184354092925787,-0.0024905267637223,0.5,-0.0428125709295273,0.0029672144446522
965,-0.0083899237215519,-0.0187310539186001,0.0281329173594713,0.5,0.0098861837759614,0.0481007732450962
966,0.0252755209803581,-0.0134669905528426,0.044020552188158,0.5,0.0541080646216869,0.069721095263958
967,0.0381600148975849,-0.0075941639952361,0.0427768528461456,0.5,0.0710559040307999,0.0661720633506775
968,0.0280835554003716,0.0004696981923189,0.0342075526714325,0.5,0.0645380541682243,0.0589141584932804
969,0.0088954316452145,0.0045224311761558,0.0241467151790857,0.5,0.0450323633849621,0.0568106956779957
970,-0.0004634263168554,0.0034829343203455,0.0226902533322573,0.5,0.0298003423959017,0.0646462440490723
971,0.0094210747629404,0.011155522428453,0.0341332517564297,0.5,0.0330175496637821,0.0698853880167007
972,0.026776809245348,0.0271690543740988,0.0419693626463413,0.5,0.042486097663641,0.0485416427254677
973,0.0327729023993015,0.0311947595328093,0.0351365581154823,0.5,0.0359347574412823,0.0086346063762903
974,0.0215166490525007,0.0129904998466372,0.0188407879322767,0.5,0.0093747405335307,-0.0243691392242908
975,-0.0014396192273125,-0.015645157545805,0.0006470686057582,0.5,-0.0226483680307865,-0.0417030192911625
976,-0.0267396215349436,-0.0365125015377998,-0.0094228303059935,0.5,-0.0400059707462788,-0.0387996286153793
977,-0.0416963919997215,-0.0379972718656063,-0.0076851570047438,0.5,-0.0378679260611534,-0.0114868963137269
978,-0.0395270809531212,-0.0176678765565157,-0.0049992678686976,0.5,-0.0328427217900753,0.0201644841581583
979,-0.0317257903516293,0.0062684845179319,-0.0114085003733635,0.5,-0.0412026718258858,0.0273181032389402
980,-0.0316423438489437,0.0123548312112689,-0.0209640245884657,0.5,-0.0562871247529984,0.0168385021388531
981,-0.0422289781272411,0.0098840752616524,-0.0272800344973803,0.5,-0.0629440546035767,0.0171383935958147
982,-0.0624800845980644,0.0165873877704144,-0.0406899079680443,0.5,-0.0647401362657547,0.0290795583277941
983,-0.0793237164616585,0.0255139842629433,-0.0648121610283852,0.5,-0.066346064209938,0.0276161469519138
984,-0.0715891048312187,0.0210540927946568,-0.0755585506558418,0.5,-0.0511973910033703,0.0070476583205163
985,-0.0367032587528229,0.0062841651961207,-0.0500900410115719,0.41106653213501,-0.0105236703529954,-0.0085721304640173
986,0.0096662109717726,-0.0027176174335181,0.0007857453310862,0.273246735334396,0.0363844558596611,-0.0029945988208055
987,0.048217412084341,-0.0019364602630958,0.043480645865202,0.220438838005066,0.0625753253698349,0.0151201067492366
988,0.0586857758462429,0.0004221413400955,0.0547207109630108,0.226797327399254,0.0517524741590023,0.0290300864726305
989,0.0362229347229004,-0.0012965790228918,0.0388441272079945,0.232816755771637,0.0094685666263103,0.0279895793646574
990,0.0005665370845235,-0.0091011999174952,0.0164953228086233,0.23880098760128,-0.0372028425335884,0.0152136012911797
991,-0.022027300670743,-0.0213803071528673,0.0067483936436474,0.284161001443863,-0.0579331442713737,0.0087054800242185
992,-0.0207174681127071,-0.0290699359029531,0.0155227733775973,0.388737320899963,-0.0442725643515587,0.0203034412115812
993,-0.0043575456365943,-0.0223082304000854,0.0353646352887154,0.5,-0.0134459575638175,0.043384738266468
994,0.0134053900837898,-0.0067994939163327,0.0560533851385117,0.5,0.0172383990138769,0.0666504055261612
995,0.0254251137375832,-0.0009636152535676,0.0672070384025574,0.5,0.040591511875391,0.0789769068360329
996,0.0296476352959871,-0.0088135115802288,0.0612933114171028,0.5,0.0471048913896084,0.0723764896392822
997,0.0281972456723452,-0.0100628165528178,0.0469089820981026,0.5,0.0330469720065594,0.0553695894777775
998,0.0247680190950632,0.0111243845894933,0.0392182394862175,0.5,0.01159802172333,0.0409091711044312
999,0.0163931455463171,0.0436287969350815,0.0337430015206337,0.5,-0.007787181995809,0.0272735524922609
1000,0.0119187468662858,0.0271567348390818,0.0524365566670895,-0.0263662599027157,0.0831296145915985,0.141224920749664
1001,-0.0068166009150445,0.053940124809742,-0.0144289126619697,-0.0528000816702843,0.0525815449655056,0.0935573279857636
1002,-0.0324517413973808,0.0536311566829681,-0.0698959156870842,-0.0927473232150078,0.0127852605655789,0.0391280278563499
1003,-0.0453454405069351,0.0314811766147614,-0.0685214698314667,-0.116518683731556,-0.0026380897033959,0.0128327235579491
1004,-0.0325032919645309,0.0137231471017003,-0.0028980334755033,-0.136387944221497,0.0245747100561857,0.0326839797198772
1005,0.0018168573733419,0.0126570938155055,0.0849937722086906,-0.157113537192345,0.0732503458857536,0.0818066895008087
1006,0.040099810808897,0.0166737902909517,0.144725695252419,-0.183653473854065,0.105428293347359,0.12989154458046
1007,0.062137208878994,0.0109812272712588,0.160170793533325,-0.267951726913452,0.103462316095829,0.164081618189812
1008,0.0570193715393543,-0.003387585747987,0.1468845307827,-0.445709019899368,0.0770633220672607,0.179829195141792
1009,0.0294009279459715,-0.0152757624164224,0.126893728971481,-0.5,0.0481583476066589,0.177331656217575
1010,-0.0065966770052909,-0.0163018554449081,0.112320870161057,-0.5,0.0323854237794876,0.163134902715683
1011,-0.0321766622364521,-0.0081347608938813,0.108367569744587,-0.5,0.0353772006928921,0.142232835292816
1012,-0.0376951545476913,-0.0026384098455309,0.114398077130318,-0.5,0.0531257726252079,0.118880711495876
1013,-0.0326035656034946,-0.0086632948368787,0.116649329662323,-0.427038818597794,0.070289745926857,0.097860649228096
1014,-0.0283978562802076,-0.0167342908680439,0.107042722404003,-0.26798078417778,0.0779073461890221,0.0851381123065948
1015,-0.0284439977258444,-0.0147207509726286,0.09415253251791,-0.0441372841596603,0.0805031657218933,0.0836971178650856
1016,-0.0328763201832771,-0.0086593674495816,0.0807718113064766,0.156863242387772,0.080167219042778,0.0987677574157715
1017,-0.0376757010817528,-0.0013654070207849,0.0656636655330658,0.279760867357254,0.0775129050016403,0.134008318185806
1018,-0.0349693708121777,0.0110027743503451,0.0582268349826336,0.336393505334854,0.0791277065873146,0.163899064064026
1019,-0.0218136571347713,0.0204636640846729,0.0649723261594772,0.383380681276321,0.0883731991052628,0.160791635513306
1020,-0.0056694406084716,0.0226272344589233,0.0779213234782219,0.441303789615631,0.0994182303547859,0.138411283493042
1021,0.0055796657688915,0.0202546678483486,0.0865771993994713,0.470893114805222,0.106404691934586,0.122624330222607
1022,0.015532243065536,0.0156940557062626,0.0929630100727081,0.455673187971115,0.112985350191593,0.123251311480999
1023,0.0290629733353853,0.0125956106930971,0.104360997676849,0.419556587934494,0.12400133907795,0.137779071927071
1024,0.04240882396698,0.0154036618769169,0.119799219071865,0.365638881921768,0.135769546031952,0.154636085033417
1025,0.0502765513956547,0.0245085619390011,0.13141755759716,0.288931250572205,0.140281677246094,0.161915823817253
1026,0.0452748648822308,0.0251419022679329,0.125649869441986,0.240962415933609,0.125759169459343,0.1467674523592
1027,0.0273680780082941,0.0037026556674391,0.0960142612457275,0.265340387821198,0.0915155857801437,0.104143567383289
1028,0.0075542773120105,-0.0278143715113401,0.0566864497959614,0.32818078994751,0.0599044673144817,0.0528903864324093
1029,-0.0129249440506101,-0.0449468977749348,0.0260504055768251,0.391119390726089,0.0481792278587818,0.0234330855309963
1030,-0.0355641320347786,-0.0385529771447182,0.0113149294629693,0.44106462597847,0.0477288216352463,0.0356431417167187
1031,-0.0519828721880913,-0.0176703073084354,0.0082156034186482,0.458709746599197,0.0389745458960533,0.0837303698062897
1032,-0.0594639778137207,0.0022866292856633,0.0080968542024493,0.439130365848541,0.0141671495512128,0.127892062067986
1033,-0.061541672796011,0.0074867457151413,0.0141541492193937,0.390486389398575,-0.0092314565554261,0.13183619081974
1034,-0.0552951470017433,0.0008870119345374,0.0381013751029968,0.320963531732559,-0.0040482734329998,0.111311428248882
1035,-0.0439421869814396,-0.0043298322707414,0.0702193379402161,0.26903435587883,0.0245050191879272,0.0973888784646988
1036,-0.0366280190646648,-0.0080282660201191,0.0875790044665337,0.267318904399872,0.0480882972478867,0.0920828804373741
1037,-0.0267283301800489,-0.0120157925412059,0.0960104539990425,0.281946122646332,0.0658146813511848,0.0907017588615417
1038,-0.0056665376760065,-0.0084854364395141,0.116401597857475,0.275716066360474,0.0935564115643501,0.0972640588879585
1039,0.0161931999027729,0.0036713699810206,0.141844183206558,0.254367351531982,0.126793757081032,0.109588742256165
1040,0.0249355770647526,0.0161149073392153,0.148941993713379,0.211569234728813,0.148737534880638,0.115969605743885
1041,0.0239307750016451,0.0233012177050114,0.135930940508842,0.12485309690237,0.156519636511803,0.112869188189507
1042,0.0250079687684774,0.0251874700188637,0.119891986250877,0.0195779539644718,0.156528919935226,0.109407939016819
1043,0.0259528923779726,0.024245185777545,0.107507959008217,-0.0247549749910831,0.143597424030304,0.112781293690205
1044,0.01645228266716,0.018912747502327,0.092178113758564,0.0297766197472811,0.112126134335995,0.122180797159672
1045,-0.0033645790535956,0.004926171619445,0.0732282623648643,0.137427538633347,0.0733907669782639,0.127298563718796
1046,-0.0271646324545145,-0.014745214022696,0.0584324896335602,0.24173267185688,0.0423474162817001,0.114615485072136
1047,-0.0493013747036457,-0.030505882576108,0.0503770895302296,0.314097195863724,0.0214428137987852,0.0875012651085854
1048,-0.0659365803003311,-0.0387527383863926,0.0408547520637512,0.340808868408203,0.0015835002996027,0.0617182068526745
