,AF3,AF4,Fp1,Fp2,AF7,AF8
0,-0.001846007843771,-0.005259904878591,0.0007543329736527,0.0001725521415929,-0.0001007234904,-0.0055317818697604
1,-0.001937197844702,-0.0058610222181821,0.0018837899834173,0.0005090065169256,0.0008864232384346,-0.0054791986459474
2,-0.0015036298265284,-0.005838509175269,0.0035097616566858,0.0011638342289551,0.0025612328034096,-0.0039641808602867
3,-0.0006410152505974,-0.0052094256938226,0.00457275417232,0.0013581709243679,0.00399527378277,-0.0024462429131006
4,-7.480129982998546e-06,-0.0045077782637948,0.0040265033021791,0.0003788263584286,0.004184827853313,-0.0018865952670485
5,7.576568339893665e-05,-0.0040241987650378,0.0019336780095774,-0.0015853120313744,0.0028928773410627,-0.0019076251114167
6,-0.0004269800416318,-0.0042276182253003,-0.0003863618199251,-0.0041191950997418,0.0010200319091813,-0.0024246733762918
7,-0.0013375301558052,-0.0051707742842315,-0.001658354867942,-0.0065160326827923,-0.0004273277288874,-0.003389534206462
8,-0.002134721698239,-0.0061833184025919,-0.0019809516967088,-0.0074052348872714,-0.0014825598138354,-0.0043181795749136
9,-0.0023925403034687,-0.0067308912046018,-0.0020791177302563,-0.0061021588069831,-0.0026223358130654,-0.0052274356680688
10,-0.0021339063644227,-0.0067653656571132,-0.0021304037125983,-0.0039470477064063,-0.0037452729243963,-0.006669019954688
11,-0.0012902634669059,-0.0064286592497412,-0.0017957585159434,-0.0025925630347605,-0.0039150110501739,-0.0086470559652543
12,0.0001131494197487,-0.0058886144681658,-0.0009806744017143,-0.0024433944315872,-0.002423000867965,-0.010426230621435
13,0.001364121831176,-0.0052921050727317,-0.0002341791165248,-0.0032677349310941,7.409751898935936e-05,-0.0111047967374905
14,0.0017234586728332,-0.0047652789408558,-0.0001816702239624,-0.0045618276273704,0.0021641328434781,-0.0099761648315839
15,0.0012653163044513,-0.0045085520383634,-0.0008489947083833,-0.0058167425613812,0.0029882847459193,-0.0071488324105917
16,0.001055807508949,-0.0042001815265103,-0.0014209859031531,-0.0063009762308863,0.0033098723769491,-0.0034644118684229
17,0.0018607234337023,-0.0033824638133047,-0.0011123260015423,-0.0053155934645081,0.0043147259366914,0.0001186185593132
18,0.0030456108891038,-0.0024349379331012,-0.0001536499573442,-0.0032401147813737,0.0056669332920937,0.0026100563041219
19,0.0038563156048135,-0.0017692066711971,0.0008358963116887,-0.0010343947879451,0.0065199767637827,0.0033297575085228
20,0.0042137184181261,-0.001514875412298,0.0017514276399404,0.0008322348688633,0.0067752246921978,0.0026679407189148
21,0.0043424921242306,-0.0014752649872817,0.0030627254281076,0.0027611342858745,0.0070276307607577,0.0021807269601776
22,0.0047967187479383,-0.0010571640341619,0.0051514643768535,0.0052163517693334,0.0081236966501013,0.0028385215077203
23,0.005891999022031,-0.0003338053837225,0.0074965370160816,0.0075354222873925,0.0101345249126153,0.0036033138800047
24,0.0072005711856184,0.0002464241095455,0.0091145851143691,0.0089136954530087,0.0122634438788002,0.0034037000939568
25,0.0080380641667619,0.0007895629389798,0.0098158830477173,0.0098771395196763,0.0137775329095409,0.0030435514465665
26,0.0080771327556871,0.0015854940680497,0.0101751693577485,0.0112808600060261,0.0143475866829748,0.0037439279748641
27,0.0073199641476238,0.0023271813600847,0.0102138680322046,0.0127221242231058,0.013879063381979,0.0051758690636625
28,0.0059975637884188,0.0024003106660957,0.0094668373243498,0.0132765382408653,0.0125560184382329,0.0058703541913595
29,0.0045857273240204,0.0017829474317999,0.0081882164194181,0.0129818411887736,0.0109184094267787,0.0051639899212335
30,0.0034226874855153,0.0009243630158759,0.007251481482999,0.0126226146747448,0.009522464607737,0.0040352672576327
31,0.0027745681528869,0.000276208768493,0.0072363707216172,0.012769868486135,0.0087966138418727,0.0037553797768783
32,0.002542134406891,-3.85528458736013e-05,0.0076297413934931,0.0131117176806957,0.0086258884514169,0.0042557455381644
33,0.0023546070095884,-0.0002142849489342,0.0076534343186435,0.0128973282242918,0.0085104174197147,0.004732621232379
34,0.0022051100254099,-0.0005113823677738,0.007586722131675,0.0120783608383985,0.0084471770607941,0.0051432025137343
35,0.0021573487537559,-0.0009888755359734,0.007916480225579,0.0111834138147723,0.0086956104207368,0.00600985021474
36,0.0023692400168064,-0.0015316990947806,0.0082459991638892,0.0101050880509413,0.0094086221382499,0.0067752950503983
37,0.0030052984850991,-0.0019307855036142,0.0079446643648596,0.0083988070194447,0.010255270331658,0.0063425616353365
38,0.0039200705503681,-0.0018368615305645,0.0069912156065605,0.0065985373789208,0.0105666298735154,0.0050993471103957
39,0.0049526631291059,-0.0012473801906611,0.0058749371933423,0.0061566155229788,0.0103599317358023,0.0043020271613642
40,0.0060602614249293,-0.0005062122162207,0.0054445747324162,0.0079614839060164,0.0101518360719908,0.0045019942101077
41,0.0070045867658155,-0.0001283388867649,0.0059378624349291,0.0105823472920219,0.0101088178301842,0.0046919261166688
42,0.0075256488277444,-0.000510441370777,0.0065686403437973,0.0116502330948717,0.0102654533964434,0.0035549244441757
43,0.0078957191779202,-0.0011565502718916,0.0071179986953488,0.0110415450710789,0.0109980102298387,0.0017803216141683
44,0.0084671684606797,-0.0012783264512042,0.0080076576390664,0.0103397672525055,0.0122518700819954,0.0010695506351082
45,0.0089698335737715,-0.0005836057976561,0.0090383635675072,0.0102553502363333,0.0131218471039742,0.0020539041008398
46,0.0090257778163796,0.0006646867028238,0.009637442339233,0.0101412683800045,0.0131230245298099,0.0040307054054346
47,0.008586098871996,0.0016318554083465,0.0093570154115644,0.009531194492719,0.0123780850888143,0.0058748677205255
48,0.0077404300356639,0.0019078822952443,0.0083550700919066,0.009074252004394,0.0111868788559985,0.007206814645301
49,0.0066602692355697,0.0019425769536261,0.0072610342991709,0.0094377591125593,0.0098911663419458,0.0081958824338681
50,0.00571408072464,0.0023491336824417,0.0061836770412896,0.0107656893842429,0.0083797849215533,0.0089443106471982
51,0.0052637407951168,0.0031636385401651,0.0049353462103364,0.0126305521801692,0.0066790945393747,0.0091780342098819
52,0.0048304724057729,0.0034953416526585,0.0034989701586389,0.0136925188125526,0.0051729983592356,0.0081483143249244
53,0.0037870092419141,0.002832155628723,0.0022725017013143,0.0129644179737602,0.0040042548806696,0.0056558664106992
54,0.0025743345497042,0.0020778625264759,0.0017485687611836,0.0109070097329519,0.00280902396644,0.0030132562523696
55,0.0018122162728714,0.0021656364741689,0.0018278505134243,0.0088301926170662,0.0013055198101645,0.0019974354477305
56,0.0015640899304651,0.0030057245979493,0.0021050040089889,0.0077345072448906,-5.826672892269815e-05,0.0031402508575031
57,0.0015176838574651,0.0039877991589264,0.0022596538797481,0.0076931386052508,-0.0007238267132872,0.0057684765740012
58,0.0013693291162459,0.0044069596327414,0.0023859371054538,0.0082044370173637,-5.9904225000483e-05,0.0085752948724582
59,0.0009799164469146,0.0040513797917995,0.0026021569091556,0.0086910898004071,0.0017138726187452,0.010149476956682
60,0.0002257245846085,0.0033576122637951,0.0024231070224404,0.0087623058067948,0.0027977365190169,0.0100137876054509
61,-0.0008099837527819,0.0026618349839932,0.0015163582349832,0.0084395791891964,0.0019168091296476,0.008806902272799
62,-0.0017793965831339,0.0021812256750092,0.0006137722029054,0.0081177787424393,-0.0002200785227002,0.0076029818828255
63,-0.0023138554467529,0.0021825177285892,0.0005808222426811,0.0080035808791919,-0.0019568032445991,0.0071345567834917
64,-0.0023261845998546,0.0026503436638848,0.0012168884444407,0.0080600573328446,-0.0025446520416773,0.0074836154296815
65,-0.0021875978327667,0.0031180254571303,0.0017782993721709,0.0081889754969916,-0.0025879399482951,0.0081222202911685
66,-0.0026402728912185,0.0030803809444876,0.0015850754489904,0.0079168207136335,-0.0031054974109719,0.00821564496792
67,-0.0037750736104523,0.0026734845276784,0.0008179884597987,0.0070611312645672,-0.0041552842637689,0.0073797564405973
68,-0.0047210688545947,0.0023115505556922,0.0004995659460691,0.0063113791614588,-0.0048273750077866,0.0059621142997903
69,-0.004863274035533,0.0022951333681816,0.0009890662411326,0.0064272979172974,-0.0046262235865777,0.0049241426070357
70,-0.0043894883381325,0.0027418001086239,0.0017651124371561,0.0073490091805974,-0.0039128758347808,0.0047697052048703
71,-0.0040714748930522,0.0031820997083442,0.0019809686148703,0.0083050591800057,-0.0036468185030694,0.0048215532915752
72,-0.004183552774916,0.0034164522982798,0.0015898336849108,0.009128244342268,-0.0040800559277128,0.0047917485540586
73,-0.0041273415252806,0.0037786124490546,0.0017583260838779,0.0101569269544116,-0.0041184457972261,0.0051522126707888
74,-0.0036531311042462,0.0040732713258469,0.0029042467135668,0.0109451638744639,-0.003061123806791,0.0057070060788445
75,-0.0030410762849276,0.0039329548657648,0.0042350889303625,0.0110520694678579,-0.0012901061163018,0.0058152907884629
76,-0.0027423026514039,0.0033302893780694,0.0048253093201182,0.0106830409781445,0.000202657905226,0.0050765309431201
77,-0.0030836289134296,0.0026582997108577,0.0045286449469309,0.0103278875519036,0.0008846904455125,0.0039759300966328
78,-0.0037997114227766,0.0025886945514581,0.0044936179762264,0.0106093697133191,0.0015117515120073,0.0040654966190666
79,-0.0045829473123391,0.0030358450335996,0.0052893078406194,0.0110447568716726,0.0025298682067676,0.0057195451153064
80,-0.0051060185556663,0.0035577763820863,0.0061837712395836,0.0104246492970718,0.0037152735437433,0.0078157999332492
81,-0.0049691805058498,0.0040044596943059,0.0064593077998972,0.0085084820660979,0.0048972596818193,0.0094502175336446
82,-0.0043279076521979,0.004167247221948,0.005943514060457,0.0059816506950281,0.0057600602336721,0.0103289438394602
83,-0.0036429531835242,0.004039507184429,0.0053105890255055,0.0038314731510927,0.0063882010995235,0.0105601953047201
84,-0.0032165047108019,0.0035333089224018,0.0051692904323282,0.0024495509736766,0.0072363237521169,0.00991890616667
85,-0.0028387641135215,0.0025538046049613,0.0049653093963125,0.0014738630363264,0.0084762104150709,0.0082122678990161
86,-0.002294278752123,0.0012486627936345,0.0040513275686745,0.000497241313229,0.0097459143985086,0.0056234636097335
87,-0.0018371720943709,-0.0001725453892656,0.0028878278509257,-0.0004079853128643,0.0104025857717991,0.0026100332734931
88,-0.0016542637247139,-0.0012384184868769,0.0021363209879408,-0.0006009179923911,0.0103550248499128,0.0002169375816298
89,-0.0017628469124414,-0.0016792920327302,0.0016858719441832,8.113785085410455e-05,0.0098083582460408,-0.0009496499889149
90,-0.0021393410460856,-0.001872715574962,0.0012277629517093,0.0007656306756513,0.0087881754102506,-0.0011411532336865
91,-0.0021770258043259,-0.001759977429781,0.0013817019103889,0.0014283056863731,0.0082450809273883,-0.0003070069761535
92,-0.0016362150960998,-0.0012026477921753,0.0025723120570953,0.0029407245480961,0.0087455134183151,0.001102362428604
93,-0.0012324291755883,-0.0009629862448424,0.0039709950081196,0.0049991424851742,0.0092999405745066,0.0017353364906845
94,-0.0010121908890866,-0.0013487555806758,0.0050579109292539,0.0068980502009906,0.0096490740043237,0.0013898229937713
95,-0.0007170182017275,-0.0020363272660804,0.0056442382506975,0.0083281011987695,0.0101103639888185,0.0009591550005205
96,-0.000408345369933,-0.0024315237986135,0.0054725317410203,0.0091265450669521,0.0104183999643705,0.0013611946883946
97,-0.0001665218131961,-0.0021529939097531,0.004688488904426,0.0090585395212455,0.0102373158205267,0.0026681823694822
98,-0.0001814137348688,-0.0014228962004019,0.0035807598732701,0.0076545037639764,0.0095156116929388,0.0039036867482483
99,-0.0003726692163126,-0.0003674335995026,0.0024633926707241,0.0053803348446094,0.0086453994126259,0.0044473094470493
100,-0.0008245885824946,0.0004864160783043,0.0015542236695794,0.0034350752105366,0.0077819130396066,0.0042145883544971
101,-0.0017568762161172,0.0006604973861303,0.0010881866035085,0.0025341880024218,0.0069753971772187,0.0037057665643767
102,-0.002529482572186,0.0006857439862842,0.0013088030721754,0.0027685200222682,0.0066272282558835,0.0039560690628646
103,-0.0023331996572753,0.0011127334561243,0.0020100442443348,0.0036161257170183,0.0067968373108562,0.0049924942369599
104,-0.0013612373539604,0.0017365132830903,0.0028122139824622,0.0045386713410044,0.0072957363086336,0.0058935898821107
105,-0.0006868352940706,0.0019194239281657,0.0033077104876464,0.0052032015888084,0.0077911776084246,0.0059459085732513
106,-0.0007989846539013,0.0015317211220527,0.0033722908345042,0.0055037413454329,0.008212711189866,0.005155403409301
107,-0.0011316692723737,0.0010212264537238,0.0032825648222647,0.0057365963803907,0.0087132893619895,0.0041457611151574
108,-0.0013568249719022,0.0005241880040796,0.0029584932808427,0.0061359240833113,0.0087218341700343,0.0030622875249786
109,-0.0016339733563474,-1.868844458220559e-05,0.0021577516574322,0.0067622073523763,0.0075693054913918,0.0016414645723723
110,-0.001896210553077,-0.0004591091852939,0.0011837354070975,0.0073562250768529,0.005665096488467,4.869077830745368e-05
111,-0.0017967749081294,-0.0007345044312901,0.0006997547358313,0.0072648380675204,0.0041584068153862,-0.001550277658648
112,-0.0013846158085593,-0.0010863475205855,0.0009311625177701,0.0063363674689618,0.0036224954624935,-0.0029131697636419
113,-0.0010552496523934,-0.0014257635749645,0.0012506683664817,0.0053135379142069,0.0034144647050685,-0.0034488517866734
114,-0.0009766227640181,-0.0014298964299166,0.0008747173363566,0.0047066724368179,0.002521554556092,-0.002906610390954
115,-0.0009514786810299,-0.0012299755516973,-5.966188987606749e-05,0.0041163273593487,0.0009347992089788,-0.0015845913766408
116,-0.0009309834850304,-0.0011799225917481,-0.0010513931368399,0.0025690648147993,-0.0010420644883676,-0.000195655819266
117,-0.0012038806757317,-0.0011465314009037,-0.0019411735362694,-0.0002392451207785,-0.0034402871812797,0.0011590408421394
118,-0.0016457059426623,-0.000558513280601,-0.0022818368937469,-0.0029826047725689,-0.0053956468829235,0.0030294447391326
119,-0.0018154151414832,0.0004359821543686,-0.0015437916329125,-0.0042574978955899,-0.0054158371575291,0.0052047703552203
120,-0.0016978448945915,0.0012222244309222,1.4430200545102322e-05,-0.0040703929688883,-0.0035642242612176,0.0070256625648659
121,-0.0015835198245,0.0016615975215169,0.0015575384594523,-0.0031503400570932,-0.0016645049290405,0.007809866579881
122,-0.0012927174250776,0.0020630239571918,0.0026710107674309,-0.0018346053987626,-0.0007184789717152,0.0074938093186834
123,-0.0004711783453822,0.0029446523028389,0.0034758489220129,-7.868289148642902e-05,-0.000210827946308,0.0071461655982425
124,0.0003026218500666,0.0039644586767514,0.0039069675788887,0.0017169073683764,0.0001112149766274,0.0072256078477537
125,0.0002800703394571,0.004163452211362,0.004184033925199,0.0032209685054372,0.000186640466545,0.0071111634170529
126,-0.0003373360090732,0.003625130063928,0.0048451305664724,0.0048151115378219,0.0003135502864979,0.0064407309383676
127,-0.0012937925686297,0.0027211298798396,0.0054319015097516,0.006191001244091,0.0001714197255447,0.0049304740614484
128,-0.0025613744336095,0.0014012212431374,0.0053440643741902,0.0065172169359221,-0.0007062604151119,0.0026620906954388
129,-0.0035396247366981,0.0002693641611491,0.0051382261011921,0.0062456855813442,-0.001503646404065,0.000995128686502
130,-0.0037892389311911,-9.882722523198976e-06,0.0052146918140173,0.0059371945145899,-0.0013569627955875,0.0009262932315276
131,-0.0035263749572538,0.0004238413714858,0.0052290172634285,0.0051645027577854,-0.0006413535994455,0.0020413473954978
132,-0.0030497832216702,0.0014008680296745,0.0048554665615201,0.0037783383207239,-0.000384985808943,0.0039001359287161
133,-0.0026207949734683,0.0028514337258794,0.0039310358624768,0.0022242695308684,-0.0011150457655362,0.0062804152955503
134,-0.0021148414195089,0.0045783819176859,0.0028535002814238,0.0013417385728267,-0.002044141724285,0.00879782633354
135,-0.0016650670066509,0.0059681794868736,0.0019695340312953,0.0014068979135955,-0.0026301637380451,0.0105580827573555
136,-0.0018269499996165,0.0062949951316685,0.0009247503039487,0.0017828896826044,-0.0034382340656452,0.0105245758203869
137,-0.0023475098724566,0.0057554970017059,-0.0003784556355977,0.0022022848313177,-0.004545354803305,0.0087385982741475
138,-0.0028244797313106,0.0047892617259266,-0.0017235975220746,0.0026324068166327,-0.005628094932133,0.0058820022720325
139,-0.0032856923322032,0.0036682008555934,-0.0028788012887148,0.002928869300296,-0.0063415118299974,0.0026208451281375
140,-0.0036926618652882,0.0028265508042584,-0.0034384963569781,0.0030409191850587,-0.0063554349008161,-0.0003554575325561
141,-0.0039447134387261,0.0024330162721045,-0.0032466915133215,0.0028264793855624,-0.0061337355364601,-0.002501518205979
142,-0.0041452235222999,0.0024428726217622,-0.0030265079916813,0.0021693919212748,-0.006537027700641,-0.0034771638305937
143,-0.004649741384428,0.0027037648213202,-0.003781835453154,0.0011247208563923,-0.0079171355392695,-0.0032280001960182
144,-0.0053183922467186,0.0027998841391201,-0.0054595753505961,-0.0003359747561923,-0.0097816091032245,-0.0024022740229515
145,-0.0055211355308108,0.0025485616806105,-0.0071492219595922,-0.0017801769502943,-0.0110439949387531,-0.0017004965470502
146,-0.0050498798357992,0.0022130131980806,-0.0079419194437603,-0.0019166215916596,-0.0108546936365349,-0.0008995633146057
147,-0.0042221112006991,0.0020617206017702,-0.0072125711043326,-0.0003090924810721,-0.0090672097150456,0.0003926597748385
148,-0.0034010291474663,0.0019981017826719,-0.0050635638300705,0.001680148048132,-0.0060880177650941,0.0015652629628965
149,-0.0026779153912255,0.0018037144434862,-0.0025352623661333,0.0024174205686425,-0.0028128592873916,0.0016801918272509
150,-0.0021811122111863,0.0016142174644108,-0.0011000505140504,0.0011188548790354,-0.0005833978341361,0.0009691093342639
151,-0.0018670322675103,0.0019222489227793,-0.0011996867001499,-0.0015158273763212,-0.0001026536495202,0.0007658977115448
152,-0.0010006948084638,0.0032706244554817,-0.0014356335497691,-0.0031488164056467,-0.000302745106558,0.0024677951243639
153,0.000509526331938,0.0049342274551866,-0.000781017337914,-0.0027638059118038,0.000104513339188,0.0055084573080727
154,0.0018098362317058,0.0054284195772799,0.0001560733051399,-0.0016996062594421,0.0009050020491052,0.007570120068418
155,0.002525323163681,0.0045827536197151,0.0006942649427423,-0.0009780759912326,0.0012497521081358,0.0075770756258923
156,0.0029864954343865,0.0033880533831194,0.000977866334021,-0.0005661779083775,0.0011076842095342,0.0063863193182473
157,0.0035961820934126,0.0027920929756032,0.0015099258794159,6.091128668815853e-05,0.001219045785694,0.0055667498508784
158,0.004030068435394,0.0027503609469757,0.0020568115508013,0.0009612991925636,0.001411359418982,0.0056437221700123
159,0.0039774456017907,0.0029128275670473,0.0021403132414824,0.001733252383027,0.0009355492660638,0.0060992318647011
160,0.0036910077973557,0.0032178569149381,0.0020913338219492,0.0023615914142923,-0.0001515796143993,0.0065737492309355
161,0.0028274068787621,0.0031864632049542,0.0017630987828088,0.0023731831723734,-0.0018606704160478,0.0064410546839961
162,0.0010753330396765,0.0026501414741927,0.0006298108566728,0.0014810905831013,-0.0041266842094714,0.0055110673931428
163,-0.000741306125213,0.0023904392744728,-0.0007090049707258,0.0009490009731393,-0.0060495913811086,0.0047975610227335
164,-0.0018697113361579,0.0027209357469211,-0.0016006125926995,0.0016339218183303,-0.0070154495380613,0.0043798308029438
165,-0.0023562196976902,0.0027779612503753,-0.0016816789737241,0.002697267931887,-0.0067398806217226,0.0030151133959851
166,-0.0022736683726858,0.0019429222778043,-0.0004493434387341,0.0031239561079043,-0.0048452316796191,0.0005331966316565
167,-0.0015651754646514,0.0009757978055923,0.001674557954437,0.0030317706067952,-0.0020430283866897,-0.0015038882748443
168,-0.0005137151877847,0.0007693693741347,0.0033249758595801,0.0028968686667995,8.950628756756612e-05,-0.0019575185267543
169,-0.0001857412678341,0.0006615873265919,0.0031509650595542,0.0018381022482212,0.0004167200003844,-0.0017598933373605
170,-0.0011221979291244,4.1634900867216336e-05,0.0010721909488579,-0.0008428435801312,-0.0009312346249658,-0.0017512023853414
171,-0.0023334333120426,-0.0005297902190493,-0.001332867219415,-0.0038077919393916,-0.0024670300986024,-0.0016944867649169
172,-0.002819001266303,-0.0006214095719748,-0.0022929545047998,-0.0052330163340832,-0.0027282067287092,-0.0013065588843442
173,-0.0021713451091209,-8.639900766085363e-06,-0.0012108173921823,-0.0045269069322967,-0.0013343104148175,-0.000156935921915
174,-0.0008280868567294,0.0007828148811994,0.0007930618584157,-0.0028753753004243,0.000675962934163,0.0011160445697178
175,7.776926000567998e-05,0.0006354275713401,0.0019370709872112,-0.0020533443053013,0.0018820857177642,0.0010370381868306
176,0.0003935937933582,-0.0004786627504101,0.0017228250311151,-0.0024600912449512,0.0022476155247893,-0.0003608056656251
177,0.0007782714219417,-0.0016716024826171,0.0009959575898951,-0.0029171059132677,0.0026377631131069,-0.0017539492470197
178,0.0015021063066003,-0.0020653361737898,0.0007427926879764,-0.0022051616749832,0.0037137734556463,-0.0021290645240057
179,0.0022087747382753,-0.0017973871289424,0.0011371483429563,-0.0010488949539737,0.0050703561923848,-0.0019144419598303
180,0.0024556240646879,-0.0018486579536618,0.0016952228439585,-0.0010845661739348,0.0054317923624271,-0.0021789548743814
181,0.0022700580035149,-0.0024544597820292,0.0020902888480044,-0.0021411093690817,0.0044832656945071,-0.0027268167350731
182,0.0019723039513268,-0.0030363881256739,0.0022966439522953,-0.0025075393421841,0.0031573532636321,-0.0026957704610506
183,0.0019486299725229,-0.0030843896599745,0.002370239990117,-0.0013636111501853,0.0021907292860491,-0.0023456815529859
184,0.0023762186633181,-0.0024151406756581,0.0024564623683627,0.0005068806347633,0.0015541770773571,-0.0029600984606936
185,0.0029906426343144,-0.0012335099448518,0.0025234869429627,0.0019974119731687,0.0009563486511057,-0.0051243834763171
186,0.0033161698942205,-1.639177125337791e-05,0.0021778399649536,0.002533978187467,2.62827560802372e-05,-0.0075734706657049
187,0.0031158884068226,0.0009569164086303,0.0012536748609286,0.0021281951816532,-0.0014550497049379,-0.008349409257107
188,0.002428447348931,0.0014488132532066,6.485308155767993e-05,0.0005185250911932,-0.0030120063850895,-0.0072909232259613
189,0.0016030478893369,0.001516664521823,-0.0007989218278306,-0.0020414327316397,-0.0037899834640502,-0.0053571335023617
190,0.0010548616992819,0.0016628888655267,-0.0011338852848717,-0.0041699027653519,-0.0036906618938629,-0.002936553010729
191,0.0008606413776256,0.0017519141249235,-0.0013937811418725,-0.0054793867327093,-0.003214580006671,-0.0008012418974406
192,0.0010345515386227,0.0013881787315331,-0.0018612199860779,-0.0066210125410266,-0.0025777631857442,0.0002655875345662
193,0.0014058868566512,0.0008386560635884,-0.0025083220830922,-0.0077087024339981,-0.001921834163373,0.0005736562123183
194,0.0014418900421447,0.0005343103269506,-0.0030520127919835,-0.0081063194496561,-0.0014335555562269,0.0009552856618387
195,0.0011160323764987,0.0006845290966302,-0.0029924506808199,-0.0071792405466824,-0.0009382884036014,0.0019641755515736
196,0.0009677113729587,0.0010951701894055,-0.0024175684605818,-0.0056028052166403,-0.0001566075414541,0.002835229212618
197,0.0010360788634762,0.0012911608010944,-0.0020439127604926,-0.00491166525346,0.0005412390625101,0.0021654531487083
198,0.0011644636312964,0.001476491325352,-0.0021035865256819,-0.0053563491071189,0.0006752840131979,0.0002287982150661
199,0.0010031892440789,0.0019895422469847,-0.0024320583003256,-0.0059094691481238,-0.0002139013601703,-0.0014904658273309
200,-4.6579982278268736e-05,0.0024138278575576,-0.003100608952416,-0.0056165212424748,-0.0024562050386477,-0.0022749772263778
201,-0.0013587088413775,0.0023799090948907,-0.0036632891526497,-0.004266938522105,-0.0046587325831617,-0.0024864224642883
202,-0.0016190308309719,0.0018219825894918,-0.0033339128057882,-0.0028927508274945,-0.0048859670516817,-0.0029470502830441
203,-0.0004611063589757,0.0011669767167163,-0.001883207653613,-0.0026565166352061,-0.0029102817259946,-0.0038539862123279
204,0.0013450551270915,0.0008766800552858,0.0002271140885432,-0.003400191169644,2.7962282953555058e-05,-0.0047819853256272
205,0.0027582051335423,0.0006742580748813,0.0022097777228404,-0.0041575833895918,0.0024590467708019,-0.0053595398325102
206,0.0034534277266922,0.0005464965433765,0.0034697982078418,-0.0041677653340362,0.0035472706802066,-0.0047535727095416
207,0.0037140192103868,0.0008909829263158,0.0036765653408873,-0.0034896900728546,0.0032815457172903,-0.0025351395184985
208,0.0036404431913307,0.0012199636487378,0.0029120900559001,-0.0030893891106399,0.0023401445218788,-0.0001911836887293
209,0.003409681710106,0.0009603709815647,0.0019859375550364,-0.0031924054753307,0.0016713668579755,0.000877317245099
210,0.0034860312585765,0.0006180250671029,0.0016928500612287,-0.0027731462903789,0.0016792144380505,0.0012297079559786
211,0.0036434538923048,0.0005200294654399,0.0015270873198613,-0.0018524844367796,0.0014103658736527,0.0015983941900395
212,0.0034846701239756,0.0003638102556647,0.0008708944377869,-0.0013453990687553,0.0001218128267621,0.0019155659441562
213,0.0031151318087098,-5.385299086061642e-05,0.0002677223758407,-0.0012442313955492,-0.0013262363684091,0.0018090798658858
214,0.0028764172038424,-0.0005664866187219,0.0001761579254401,-0.0007724432439662,-0.0020913751016059,0.0011174527127874
215,0.0027678664953348,-0.0011634302075952,0.0002030265422012,0.0004215777519261,-0.0024697940109331,-0.0001030761367642
216,0.0022698101958214,-0.0022078884653063,-0.0002239153281464,0.0017574368746314,-0.002915965747129,-0.0021570521728708
217,0.0015942935402833,-0.0035972873488577,-0.0007342688434355,0.002299012788684,-0.0027698744623457,-0.0049735854792819
218,0.0014001213433235,-0.0050765273226706,-0.0005649330953444,0.00125018324547,-0.0010732892762426,-0.0078477427681824
219,0.0015462005667231,-0.0068474247859876,-4.0783180096569886e-05,-0.0014195852137932,0.0018251929006119,-0.0100080921550189
220,0.0014924908533256,-0.0088983395642933,-0.0001319912872193,-0.0049167016836964,0.0043497054090496,-0.0108240361683899
221,0.0013780973167953,-0.0106074838793093,-0.0011144599891296,-0.008216337276992,0.0053640023791624,-0.0102260647746743
222,0.001825030837196,-0.0114929201435098,-0.0024175371173922,-0.0105156599051592,0.0050979152105119,-0.0087626610492399
223,0.0028836359568325,-0.0116699204378847,-0.0036300504309878,-0.0114446887791487,0.0044560603473116,-0.007331872589265
224,0.0039894477913939,-0.0116684626774588,-0.0045377824066284,-0.0110286424340709,0.0043079060502128,-0.0068132900843921
225,0.0046857410745184,-0.0119383444214783,-0.0045092009220518,-0.0096899494540245,0.0047758028312842,-0.007181713209633
226,0.0050168465513694,-0.0120631643154485,-0.00333060502119,-0.0079425874711726,0.0051117615617379,-0.0073248842774815
227,0.0053641816277697,-0.0111732975289591,-0.0017665332555824,-0.0061795288109065,0.0047545199615348,-0.0064245809419633
228,0.0055945200199051,-0.0096044648456356,-0.0007884183462334,-0.0048696337250312,0.0037076386105221,-0.0051898595813115
229,0.0051404568607195,-0.0085296777068268,-0.0007177465495308,-0.0042647624799417,0.0022969719777563,-0.0049457948077956
230,0.004414358698107,-0.0079693464588869,-0.0009756243763505,-0.0039070069938324,0.0012805528443906,-0.0056050686782903
231,0.0040753176338763,-0.0073640679508353,-0.0012027967242496,-0.003378248580779,0.0008266348137013,-0.0059636083345668
232,0.0038411201589066,-0.0065942319009932,-0.0018165640397731,-0.002805779960784,0.0001235766520312,-0.0051959454679536
233,0.0031035405461365,-0.0056117568587505,-0.0031262758159548,-0.0020623566767149,-0.0013006192579147,-0.003334528932119
234,0.0018679569691942,-0.0041719479997165,-0.004493935201645,-0.0006030179698915,-0.0029626410818018,-0.0008386946848677
235,0.0008664152962958,-0.0022304766326618,-0.0046849904382781,0.0015101372022426,-0.003976361757414,0.0018262235733081
236,0.0004257841542801,-0.0003932860698821,-0.0035334785049193,0.0036117393508863,-0.0040024054211559,0.003886031280133
237,0.0001660969783299,0.0005794951538327,-0.0021064420858296,0.0050078811578779,-0.0035376438492347,0.0043926180191189
238,-0.000264612699667,0.0002767728289998,-0.0012106488166427,0.0046496402159588,-0.0031821612187713,0.002716378815771
239,-0.0008944268131315,-0.000845449379487,-0.0009158826483442,0.0022437227199052,-0.0030685351223151,-0.0003217533895346
240,-0.0016060780659251,-0.0019072490925943,-0.0011426343521334,-0.0009076081967538,-0.0031780312332556,-0.0027219441603935
241,-0.0020656364673081,-0.0024502262296725,-0.0017709035116927,-0.0033436222162811,-0.003415637287429,-0.0031029034968319
242,-0.0019507615937951,-0.0025097919173322,-0.0026210462233421,-0.0047876965526175,-0.0035607078754241,-0.0014783239351553
243,-0.0011585067325683,-0.0023231502005783,-0.0033975411401445,-0.0057894937266905,-0.0032138221280487,0.0007504082744453
244,0.0004152957349413,-0.0020889786342133,-0.003516827857963,-0.0063629672019176,-0.00171651802879,0.0019710729593618
245,0.0024556237249979,-0.0023125959866429,-0.0027123562253586,-0.0060465404215168,0.0009988496605156,0.001474703248425
246,0.0040928003048153,-0.0032414350075569,-0.0015372685177877,-0.0048150690487741,0.0037161070921306,-0.0001811074989985
247,0.0048054239380481,-0.004336740849792,-0.0008463275063852,-0.0033056932099786,0.0051321579904718,-0.0018941200656693
248,0.0049815118291588,-0.0049960184794369,-0.0006898111202143,-0.0025365790075418,0.0054140519118122,-0.0034439012005156
249,0.0052389912423327,-0.0050246413889804,-0.0004735480649456,-0.0030550759445521,0.005612948700012,-0.0052518594069369
250,-0.0002614590426348,-0.0004246565511076,-0.003661938266625,0.0035218643709254,-0.0040328703458963,0.0043588755244522
251,-0.0005272343650316,0.000542952647721,-0.0022343515120592,0.0049162785041802,-0.0035646691526771,0.0048625674606071
252,-0.0009671237088799,0.0002321694500283,-0.0013411046542767,0.0045524201172388,-0.003208882984756,0.0031811771990495
253,-0.0016068151884116,-0.0008988005452881,-0.0010496293133509,0.0021399387803174,-0.0030957245290042,0.0001372975390728
254,-0.0023263029245303,-0.00196751567533,-0.0012777255051495,-0.0010155350036669,-0.0032037541448117,-0.0022673389090924
255,-0.0027900380264043,-0.0025140871987297,-0.0019038019448591,-0.0034512803822318,-0.0034363608880799,-0.0026503197505334
256,-0.0026760013486041,-0.0025742216444857,-0.0027485309709366,-0.0048910705392827,-0.0035732182525993,-0.0010255611076783
257,-0.0018832699145238,-0.0023869861070093,-0.0035183814092796,-0.005887057278414,-0.0032169068711278,0.0012041458134322
258,-0.0003102704084356,-0.0021534450577489,-0.0036323449600864,-0.0064563883474745,-0.0017115303093811,0.0024247808274209
259,0.0017262040133505,-0.0023805470147918,-0.0028256135531427,-0.0061396635290985,0.0010088050747267,0.0019261482552207
260,0.0033564379830365,-0.003315761448528,-0.0016513687328728,-0.0049117890727555,0.0037278863752486,0.0002658140966849
261,0.0040606827519778,-0.0044188139907531,-0.0009627508216908,-0.0034078746411552,0.0051442483629294,-0.0014528367182451
262,0.0042293602233777,-0.0050849957838117,-0.0008076732632503,-0.0026431273350406,0.0054273187460803,-0.0030077029297202
263,0.0044822588159557,-0.0051179694089112,-0.0005901373544323,-0.0031626100612359,0.005630092802804,-0.0048189031359789
264,0.0049738784654473,-0.0045549307677408,-7.00645816076485e-05,-0.0040947309488033,0.006219329873394,-0.0062782226180294
265,0.0053501397244022,-0.0034882426485169,0.0004494767067703,-0.0039749958373,0.0066047264931394,-0.0056757041650238
266,0.0051171367445055,-0.0022412432822346,0.0004911208495587,-0.0026436325042472,0.0059332218592158,-0.0029684286437452
267,0.0038298469787706,-0.0015189666985734,-0.0003709936692379,-0.0010731474421923,0.003870194001019,-0.0006456319458752
268,0.0016501218096736,-0.0016866471272161,-0.0022054056370463,0.0003056228602072,0.0011464537015251,-0.0004359090178236
269,-0.0002530972769551,-0.0020888199830245,-0.0039531321597768,0.0017673492257663,-0.0007172647010547,-0.0014516393114836
270,-0.0011371091391764,-0.0021217700785662,-0.0044519926717574,0.0028926383932753,-0.001272480297503,-0.0024356949267314
271,-0.0014537133600599,-0.0020431398841549,-0.0043394669052873,0.0027809416242264,-0.0014620052887353,-0.0033033687657676
272,-0.0018959068979851,-0.0022210781759563,-0.0051140781971861,0.0013975845761985,-0.002079494394756,-0.0042878774551649
273,-0.00213735297649,-0.0022777685550559,-0.0063291262529342,6.687166942363808e-05,-0.0024920730857838,-0.0049199256353508
274,-0.0014153934699803,-0.0017310229240887,-0.0061217975779096,0.0001267112622893,-0.0018495762274298,-0.004333061020439
275,-0.0001991293295285,-0.0011724781184814,-0.0045300680324768,0.0009243371193216,-0.0008153009704819,-0.003058292020304
276,0.000547584941477,-0.0010814208672845,-0.0032359849280085,0.0012341932478368,-0.0003441596044664,-0.002053415389186
277,0.0007533962623763,-0.0009802216415426,-0.002800017562465,0.0011740231684157,-0.0004116018704531,-0.0007446385653486
278,0.0008563497086455,-0.000545047651779,-0.0026239025714976,0.00109910736311,-0.0005704889909921,0.0011409393219201
279,0.0009855526239114,0.0001829106310752,-0.0025727268263984,0.0007160744561129,-0.0007475862300796,0.0028279967337282
280,0.001275245491967,0.0008912444974192,-0.0026065977372972,-0.0002379253951861,-0.0006810150698745,0.0036988789396955
281,0.0018014749118231,0.0009252740715898,-0.0022747914381895,-0.0015294049619203,9.819780370627372e-05,0.003205598222022
282,0.0022826419575685,0.0002237263330453,-0.0015162830962766,-0.0025757177808625,0.0012054302366426,0.0016251914325623
283,0.0027246022007632,-0.0003421947813019,-0.0006314844145876,-0.0028284049609669,0.0021106319323885,0.0003410740570484
284,0.0030991003978256,-0.0003651881597713,-0.0002829113898131,-0.0022454289298334,0.0025771004363163,-0.0002132260232567
285,0.0031464486147234,-0.0003360374015734,-0.0010811294710463,-0.0013320864337426,0.0023539493419887,-0.0008800508147917
286,0.0028242341834991,-0.000797102741193,-0.0024471042681327,-0.0010472578813396,0.0020134665888129,-0.0023786659356576
287,0.0020770995554899,-0.0020554622865715,-0.0034648421530179,-0.0022762138059881,0.0024634010867879,-0.0045497917654893
288,0.0013621209231304,-0.0036316377398396,-0.0037951245742516,-0.0045752451199134,0.0040040363290754,-0.006158389137155
289,0.0015423820309128,-0.0045481174323051,-0.0033591787561227,-0.0066093109162973,0.0062654164573111,-0.0063302276666912
290,0.0024027491366202,-0.0047272072475578,-0.0026242943083968,-0.0078545808853707,0.0079055663160981,-0.0053067054695228
291,0.0028415630410509,-0.0047453395770763,-0.0022974648977625,-0.0083004123227111,0.0077668646361258,-0.0034932121111489
292,0.0023922110926788,-0.0047440792305773,-0.0024793664386828,-0.0077597495342458,0.0061831678413031,-0.0012254681540362
293,0.001535402673371,-0.0043864891106116,-0.0026410321190471,-0.0063029469293713,0.0043108559453805,0.001088823939452
294,0.000624962648356,-0.0037473139406151,-0.0025234685629273,-0.004698357706919,0.002933013901288,0.0025277651486801
295,-0.0004254239879728,-0.0033799363042873,-0.0026188199129936,-0.0039248190829844,0.0021004449336512,0.0022317449605931
296,-0.0013933993893988,-0.0031818720813463,-0.0031435164721521,-0.0038874017663871,0.0014247507689092,0.0010989928146008
297,-0.0021680252377625,-0.0029909156153353,-0.0038651648866854,-0.0039885812454742,0.0003819620039707,0.0003455324469829
298,-0.0027710539617802,-0.0029153135896193,-0.0047414731505316,-0.0036097026875554,-0.0010471450702998,-8.976471136263671e-05
299,-0.0028093028126306,-0.0026469965848515,-0.0056685057309875,-0.0020560273184263,-0.0023154756042102,-0.000675210045759
300,-0.0022057191443381,-0.0023433157112686,-0.0061769862615716,-0.0004563736617481,-0.0028306861339743,-0.0024696591063383
301,-0.0011676861172632,-0.0024502175135801,-0.0057736386738463,-0.0008927353579762,-0.0022314072022339,-0.0058729924302224
302,0.0001894275777125,-0.0028355477323084,-0.0045607332415588,-0.0033664769221618,-0.0008384305675353,-0.0090342854917757
303,0.0016762765246784,-0.0032171327937447,-0.0028514533836456,-0.0060758376025748,0.0007906924562875,-0.0099038899847501
304,0.0030037726119089,-0.0035610454733394,-0.0008474287147525,-0.0075150921835609,0.002455615186008,-0.0081957332799325
305,0.0035538969940829,-0.0037988581558722,0.0006616282323881,-0.0076684755590997,0.0034846621946326,-0.0048191753320142
306,0.0029900815439666,-0.0035988233979822,0.0008855169283821,-0.0073898255056053,0.0031639809210353,-0.0009447971413161
307,0.0019427606378183,-0.0026804658461621,0.0002651445032087,-0.0069178691641798,0.0021443457180409,0.0025250735932104
308,0.0010970086781104,-0.0014566530161896,-4.782206003967195e-05,-0.0059689799744637,0.0015497021712208,0.0051018237688817
309,0.0006764444287038,-0.000712041505763,0.0005702998569003,-0.0045591159465909,0.0016804047226563,0.0066108693715536
310,0.0008091748951167,-0.0001813728045024,0.0015839279807868,-0.0027881309402358,0.0020350890152203,0.0075592416283435
311,0.0012470465041029,0.0008624506334541,0.001797894825244,-0.0009263397003359,0.0017823173938717,0.0082890541367096
312,0.0013274755459251,0.0020428471826825,0.0005602086540159,0.0004920900470497,0.000385488204931,0.0080368576354702
313,0.0008675690682232,0.0026664897744175,-0.0013011710066027,0.0013651920222903,-0.0016203693476572,0.0065548265062396
314,0.0002900550544109,0.0027591666363513,-0.002094967471797,0.0019778970315134,-0.0031102327455475,0.0047814987260479
315,-0.0004467842812587,0.0026147731147237,-0.0016567423500496,0.00223305446925,-0.0040793939395966,0.0034653330752407
316,-0.0015774165953755,0.0026801680736219,-0.0013792522639081,0.0018900865227347,-0.0052351943079054,0.0032491772001783
317,-0.002806669864097,0.0031886477340453,-0.0019800459080521,0.0011659148087426,-0.0065153170979459,0.0043092745715417
318,-0.0037693280834863,0.0037259922533341,-0.0028260903381142,0.0008940262535838,-0.007155145447419,0.0056394796476741
319,-0.0044748899535048,0.0037218630351374,-0.0031513574241952,0.001768119138896,-0.0068921275493963,0.0059810319736248
320,-0.0049389427888047,0.0030063871189826,-0.0026158842190633,0.0033167083619347,-0.0060670456415253,0.0048520826040686
321,-0.004769971363763,0.0022992595240661,-0.0009971822493644,0.0048100034998307,-0.0046260042150564,0.0032212343173314
322,-0.0038333414322443,0.0024335590414009,0.0010988095560822,0.0062193009232992,-0.0027465085880764,0.0023774197107973
323,-0.002578163814854,0.0032178571808969,0.0028123050022083,0.0075870072307864,-0.0010857313469716,0.0024899654122224
324,-0.0014933888464674,0.0039034989523847,0.0040333965989902,0.008352520757438,0.0002393274920013,0.003225309946064
325,-0.0006912847826633,0.004187292567409,0.0046669865844191,0.0080511039227808,0.0013611206912113,0.0047474161977918
326,-5.497684575530317e-05,0.0044122988593647,0.0045052763171364,0.0069868192051254,0.0020997598755344,0.0072442052652733
327,0.0002247175314887,0.0048283999693684,0.0036777970792366,0.0055994300257248,0.0021769849737546,0.0098355556535113
328,0.0001239019378844,0.0054181379504288,0.0027688596323032,0.0044103704193949,0.0016859455030517,0.0116859743207363
329,5.7374938526189866e-05,0.0061359850412025,0.0025053534704674,0.0039274617134804,0.0012380079739642,0.0128522718475614
330,-0.0001009260458438,0.0065621673398794,0.0029251766938508,0.0039639685191669,0.0011335933493378,0.0130689351159042
331,-0.000700230120176,0.0063174209310463,0.0033760524144774,0.0039730617560559,0.0010442741587364,0.0121075633413742
332,-0.0016168503162966,0.00567937422768,0.0033888921007627,0.0036630767717562,0.0007595224436632,0.0106905602468441
333,-0.0028382557650371,0.0050512880471368,0.0028780418059075,0.0030532178392467,0.0002947932064128,0.0097495512338922
334,-0.0045224939479628,0.0043347139310865,0.0020110667414804,0.0025357238901337,-0.0004145640374902,0.0095545851349484
335,-0.0063494387849336,0.0034113448461285,0.0012910365709536,0.0025102288676617,-0.0012026152909968,0.0096837726326383
336,-0.0079149615639887,0.0026215500559016,0.000669699166732,0.0027593287602032,-0.0020925475407352,0.0094105078354994
337,-0.0090214619959315,0.002466350413076,-0.0002769567194198,0.0030830215516217,-0.0033498128454962,0.0085237792981053
338,-0.0093590301935298,0.0029793785948125,-0.001058707681228,0.0034423235092261,-0.0044324836434401,0.007431619703761
339,-0.0088799764157751,0.003650677591381,-0.0008150146505381,0.0036825343937299,-0.0044665162072949,0.0066776758747094
340,-0.0078643186452298,0.004385843079503,0.0005970369465776,0.004080701931047,-0.0031786878988049,0.006895294220867
341,-0.00672361788201,0.0055881748338525,0.0022939189482593,0.004580143952658,-0.0010051789028761,0.008138956278624
342,-0.005946539080382,0.0070568211893687,0.0030686893262302,0.0043193219332883,0.001066012674993,0.009655545654586
343,-0.005745780707846,0.0080015106437014,0.0027589913106221,0.0032403378506405,0.0021424635153919,0.0107707768948625
344,-0.0057188153523473,0.0085194657807765,0.0023334867610586,0.0026865338686657,0.0020045486892709,0.0118125963471626
345,-0.0056386454531283,0.0093330168725745,0.0023514447870193,0.0035611467834566,0.0008277825304101,0.0133888610620707
346,-0.0060130077923201,0.0102375255675177,0.0023269582110329,0.0050638383769023,-0.0011476690084637,0.0149797096821357
347,-0.0068815429165528,0.0107117266742514,0.0020786732295923,0.006047804855824,-0.0031137948261755,0.0157893672989459
348,-0.0077055053572804,0.0107215279959167,0.0022524456634509,0.0065324761399789,-0.0041241726175637,0.015757366657938
349,-0.0081283182003769,0.0103676090439566,0.0029147808300148,0.0069513099020476,-0.0041954760669534,0.015127109716927
350,-0.0078488030878536,0.009908377208427,0.0032649498616463,0.0074020548930069,-0.0039632610798531,0.0141263830256617
351,-0.0069551762426072,0.0095061036598283,0.0031929755507004,0.0083050195171828,-0.0039295083647847,0.0130267006697904
352,-0.0061043578671268,0.0089855440957083,0.0035851197168617,0.0100108958546249,-0.0039262694068406,0.012226603159745
353,-0.005523124492043,0.0084347638047183,0.0051101902640568,0.0122231205716263,-0.0031031893057099,0.0121412412240961
354,-0.0049750665832856,0.0081622660947066,0.0071880697645766,0.01433328958223,-0.0013063596491145,0.0128134028834791
355,-0.0045063934650597,0.0080116059331981,0.0085308983929271,0.0150273808942495,0.0005193080223141,0.0133691800865814
356,-0.0043016127805082,0.0074632850191316,0.0087777616936678,0.0130954250356206,0.0017652148255407,0.0127836737264459
357,-0.0046573557297564,0.0065303804886527,0.0085215885748239,0.0092977371929237,0.0025245855842991,0.0117936633855991
358,-0.0053976338522195,0.0059816385814205,0.0085992036440673,0.0057549821832941,0.00319743863897,0.012135367772617
359,-0.0058252630463536,0.0062693766054152,0.0094468794615699,0.0037861216415864,0.0040629234813192,0.0141460995691132
360,-0.0056881540481327,0.0074084501179564,0.010504214189929,0.0032800501667039,0.0046467441397493,0.0168485482608553
361,-0.0053124690336693,0.0089909259130391,0.0110201419228685,0.003550917830839,0.0044923959604271,0.0188855877222034
362,-0.005426873483211,0.0099818811651164,0.0107478171386749,0.0040943417950644,0.0037841675577011,0.0192194387000656
363,-0.0062144454936401,0.0100308676644582,0.0098442404788608,0.0048036501055683,0.0027635542987925,0.0181653325643225
364,-0.0067647964037866,0.0097792939017516,0.0089314373285543,0.0056853732085149,0.0017104408153022,0.0169906542399496
365,-0.0063345845842833,0.0097792387215618,0.0085219072255533,0.006604953280847,0.0009735473356961,0.0162726554302319
366,-0.0052492381368764,0.0099248416377977,0.008460405873367,0.0073979337705198,0.0007058148071459,0.0156583251987936
367,-0.0041170926249914,0.0099280335808666,0.0085742397324168,0.0079978277162319,0.0010316809951441,0.0147138111063689
368,-0.0034242099916826,0.0096051579394409,0.0086686801881357,0.0079948829561024,0.0016637928448967,0.0127836637741691
369,-0.0036045158815003,0.008788449746894,0.0081961447344054,0.0070613035264652,0.0017752072840337,0.009792178492718
370,-0.0045310814487682,0.007737888875707,0.0069936442656215,0.0059373691616162,0.0010042535020447,0.0069341330781322
371,-0.0055468993785802,0.0069771014656523,0.0055831215689438,0.0056017211765491,2.751633001778038e-05,0.0049722461836136
372,-0.0060800771633946,0.0068133376425528,0.0047346968931708,0.006174459586442,-0.0002446451173711,0.0037008239436494
373,-0.0059822552802973,0.0070633162295163,0.0049655537726007,0.0069716729750194,0.0003615944426849,0.002848347580744
374,-0.0053979652192221,0.0071498424793,0.0058864758445078,0.0069003008728582,0.001511910949454,0.0019392968591364
375,-0.0046713228362069,0.0069174566600348,0.0066758900400653,0.0057337781624844,0.002877316129929,0.0009407672616484
376,-0.0041490121858815,0.006752098761682,0.0072242650542652,0.0047812527471238,0.0042396363728813,0.0006575447971507
377,-0.0040038847030151,0.0067641677005685,0.0076955154572222,0.0049664362310017,0.0051101856551772,0.0013569269618291
378,-0.0042218664414479,0.0067557369022799,0.0078455620471606,0.0057560003001134,0.004998152662966,0.0027264530348899
379,-0.0046149098725158,0.0066625022537374,0.0073370467035695,0.0062768052528276,0.0040355137504196,0.0045432658115504
380,-0.0050220441435344,0.0065965177023425,0.0062472603530096,0.0060520518220468,0.0026349108938889,0.0063819315557477
381,-0.0056514011623562,0.006474011746968,0.0048305283546545,0.0049246453183376,0.0010928756210437,0.0072628139239349
382,-0.0062442428365511,0.0062766671924602,0.003591466006132,0.0031012968099767,9.32756270576002e-05,0.0063879803840134
383,-0.0060529210599949,0.0061680392655936,0.0028256300520916,0.0008444907136581,0.0003387634238879,0.0039881197822178
384,-0.0053183415540336,0.005973370979114,0.0020647676473567,-0.0014638392256659,0.00152368475977,0.001142932885182
385,-0.0044719121099104,0.0055804930413337,0.0016707164596531,-0.0028929002038578,0.0032300226943395,-0.0012434456190667
386,-0.0036052518848854,0.0051755970136161,0.0024956176240674,-0.0031345675258664,0.0050275622150361,-0.003337905743476
387,-0.0031714098900682,0.005042356016107,0.0038717201692056,-0.0028925115789866,0.0057547755650897,-0.0051582296280041
388,-0.003637847746238,0.005025185833008,0.0041846537034751,-0.002651891142107,0.0045176916075791,-0.00584027175661
389,-0.0048010151953923,0.0046776832956244,0.0034295015019477,-0.001970851133869,0.0020529705565578,-0.0047398504670124
390,-0.0060903944896759,0.0039549821946951,0.002784512598427,-0.000337312372779,-0.0002182742873005,-0.0025521208508518
391,-0.0072091543973879,0.0029635915386823,0.0025193553286987,0.0017253720412666,-0.0019009567536497,-0.0010278901717707
392,-0.0077440111447174,0.0020611994570612,0.0029291899264873,0.0032810839684058,-0.0028699269241432,-0.0009243044725372
393,-0.0076448232791961,0.0018006632571013,0.0040255557510442,0.00408341126918,-0.0031598589541644,-0.0012642105719187
394,-0.0075409475719017,0.0022453774065039,0.0048047238072624,0.0047083248626754,-0.0034046487466984,-0.0009640352815903
395,-0.0076192196482692,0.002781707786361,0.0049566598170665,0.0052395909810819,-0.0036152477192479,-0.0002896078996722
396,-0.0075636005608648,0.0028320099843256,0.0049811873278327,0.0047441604668329,-0.0032237264684947,6.4712707418490055e-06
397,-0.0073211116096389,0.0024436879419165,0.0050190654826406,0.0028289818638883,-0.0023535521956419,-1.1791051168231608e-05
398,-0.0070239010369484,0.0019671932199154,0.0050768510355291,0.0003856606968619,-0.001516557295096,9.418896805230057e-05
399,-0.0068934719371546,0.0016449175899226,0.0054573023276471,-0.0012662894273789,-0.0006717156564415,0.0006117922542742
400,-0.0081234480674959,0.0178108161245175,-0.0087876492911066,0.0033705260322054,-0.0326044679366528,0.0218544789024562
401,-0.0082129750376402,0.0198237683349414,-0.0079610831911291,0.0051606159383635,-0.032684944531073,0.0251659298006156
402,-0.00825873904927,0.0219702334984184,-0.0071595562498321,0.0066534955467699,-0.0323613504746577,0.027139922756467
403,-0.0089563594613618,0.0237666449984239,-0.0071550877729007,0.0073018475433858,-0.0328386743472123,0.0271751702901233
404,-0.010066486877178,0.025003636143036,-0.0078459446203641,0.0072060269419575,-0.0336886368193024,0.0257195456609827
405,-0.0108243913621397,0.0255945009430861,-0.008746810945673,0.0070342579154918,-0.0339372034717345,0.0238399757511413
406,-0.0107833653735801,0.0252352818610959,-0.0094845076277885,0.0073138218801095,-0.0332832278335631,0.0220972804608267
407,-0.0099809843982476,0.0235092157749636,-0.0099645158286091,0.0078004571174078,-0.0317517050849651,0.0203838711235055
408,-0.008850668560791,0.0208275765315434,-0.0100971517666555,0.0083426708274836,-0.0294569292745225,0.0195385669929418
409,-0.0077266809502434,0.0182520344783844,-0.0091947137998538,0.0094653468326921,-0.0265491266716639,0.0207847544112229
410,-0.0068731224859302,0.0163030888337932,-0.0070407685576489,0.0111660335020256,-0.0235146657345797,0.0235370569532566
411,-0.0063677177615214,0.0148593265235904,-0.0045508971498866,0.0125954479542983,-0.0209172071751383,0.0257932490050182
412,-0.0060690678808785,0.0136731467130883,-0.0026550116086898,0.0130351878105623,-0.0188732780784461,0.0262101812333182
413,-0.0060735824590944,0.0127988991075528,-0.0017059639400531,0.0126597281491591,-0.0170915159722032,0.025181618828263
414,-0.0064113543733438,0.0127809850349469,-0.0017072727120259,0.0122801923140911,-0.015479883693502,0.0242110758434345
415,-0.0071229836309875,0.0136359432920148,-0.0025599342468843,0.0122964333424027,-0.0148180880117449,0.024195797473286
416,-0.008421223303815,0.0143382101398947,-0.0035907813112569,0.0124327078541167,-0.0156201274273684,0.0245867853224496
417,-0.0096565921409774,0.0145175999824306,-0.0034439947460731,0.012848581834057,-0.0166698339881929,0.0249651018420167
418,-0.0099618721426411,0.0148021401068173,-0.0019452433882051,0.0143794428245458,-0.0167460496375347,0.0256753224177665
419,-0.0094122068000565,0.0155378029604822,-0.0001734978882086,0.0172701098406472,-0.0160436065324408,0.0268071713883482
420,-0.0083452402730007,0.0166604697859741,0.0014069923614424,0.0202292615606381,-0.0150660143036732,0.0282644026635579
421,-0.0072211619588646,0.0177340105382132,0.0024072809167627,0.0214927105461329,-0.0144131203702472,0.0296746029963263
422,-0.0067131407089354,0.0182833080732024,0.002508668132332,0.0209396605674054,-0.0145274530592943,0.0306491874439564
423,-0.0070183240061237,0.0184418644760103,0.0020479954902657,0.019516823289897,-0.0151659009348919,0.0311906481043157
424,-0.0074891403965297,0.0184693368514403,0.0014868271232828,0.017666213520996,-0.0154355202873937,0.030980550557761
425,-0.0073991428067067,0.0183825789848222,0.001498385983425,0.0159096118681581,-0.0143154948693825,0.0300840495933454
426,-0.0067981833909686,0.0182212750292911,0.002186392131785,0.014928053121214,-0.0120224920419938,0.0293761741785394
427,-0.0062512390168719,0.017758605521451,0.0025767934437629,0.014531697803746,-0.0098627417407731,0.02885801859697
428,-0.0060412540897569,0.0168462185761748,0.0022324349472893,0.0142247202933764,-0.0084791113693712,0.0279328497904084
429,-0.0060775775742149,0.0158581857699403,0.0017194614432619,0.0137304108416845,-0.007760749813791,0.026624377870175
430,-0.0059352899528475,0.0155176997734701,0.001705029843877,0.0131889009453504,-0.0072659199975973,0.0257406651659858
431,-0.0053920129020715,0.0159029471079612,0.0024586529895136,0.0131205288419931,-0.006454994368834,0.0258223612917347
432,-0.004957638588061,0.0161023865446743,0.0034248371400291,0.0134248260679428,-0.0056819194917343,0.0260412353881472
433,-0.0047339028228184,0.0159034828018908,0.003758171497731,0.0135279718994925,-0.0055817317547456,0.0254826818149354
434,-0.0045393410801099,0.0155894994097494,0.0030851733568498,0.0127268872425697,-0.0062475764815901,0.023678846446548
435,-0.0045427573473612,0.0150182660844556,0.001748803120592,0.010809061471794,-0.0071216603016,0.0206243958271725
436,-0.0045473905031527,0.0142538948307143,0.000617620473497,0.0087391625487311,-0.0071158294827544,0.0174097308409978
437,-0.0042764936749816,0.0134229101618106,0.0002042419301409,0.0074348172235607,-0.0059414324436571,0.0149985382899439
438,-0.0042765695224874,0.0121675199075754,-4.367783450042772e-05,0.0064967787823445,-0.0047736116562682,0.0129655321566469
439,-0.0047388914158235,0.0107867982927926,-0.0006464932780867,0.0053778821652246,-0.0044597565927256,0.0108270155416577
440,-0.004592256481412,0.0105001049396295,-0.0011722014946734,0.0043500250205252,-0.004417655986727,0.009140102073137
441,-0.003839720508285,0.0112389674721493,-0.0017485794559789,0.0033482892883172,-0.0046303609854715,0.0083332336621728
442,-0.0038614212090221,0.0116365082112886,-0.0029593755371908,0.0019432241100486,-0.005976127591601,0.0080353209139971
443,-0.0048182520479176,0.011129196150757,-0.0042281346957555,0.0004034951315119,-0.0079330920838105,0.0077136171366311
444,-0.0056782112197899,0.0103450566652725,-0.0044768195511936,-0.0003440981058102,-0.0089302222334818,0.0075939432771507
445,-0.0058620844957824,0.0099508254798868,-0.0035808822325803,0.0002332552729379,-0.0086180382033348,0.0083639648256042
446,-0.0055032222892746,0.0099915711156221,-0.002282585254794,0.0015972947891878,-0.0077319344399174,0.0097470556953673
447,-0.0048195288209359,0.0102521737772171,-0.0011318032317202,0.0028963288394523,-0.0066697483532543,0.0108692225552731
448,-0.0039285033186134,0.010380227336951,-0.0001547905515945,0.0038354829989832,-0.0054481548622074,0.0114350206535665
449,-0.002952336510816,0.0101892872784432,0.0010371495771023,0.0047751557199227,-0.0039431622882351,0.0115946987915855
450,-0.0019588061027388,0.0099864364042151,0.0026546040328237,0.0060964039539513,-0.002171477477719,0.0114698450731652
451,-0.001172738689687,0.0098309399594132,0.0040005718170376,0.0074289465879987,-0.0007049918448279,0.0109911747281792
452,-0.0009377957297861,0.0093218109528663,0.0042867170685616,0.007988283659365,-0.0001457731826922,0.0098596157317599
453,-0.0014060201911313,0.0082001886673652,0.0037054973673398,0.0073240764439308,-0.0005428337483772,0.0077265159989031
454,-0.0022995094757343,0.0068447985444249,0.003039957271239,0.0056147648342834,-0.0015096056624198,0.0048668079997455
455,-0.0031112299876441,0.0058139011997675,0.0025030433434799,0.0034118233676751,-0.0028058787507146,0.0019236680510418
456,-0.0036795425792662,0.0051203891158533,0.0019515233605279,0.0014180123906081,-0.0043128227057355,-0.0005011491995584
457,-0.0038777454732499,0.0048144695424143,0.0017291741066204,0.0004517996747751,-0.0056077079459327,-0.0014532705186871
458,-0.0035308384721697,0.0050214761933993,0.0020828532957959,0.0005324952446022,-0.0063528242929712,-0.0008454796131359
459,-0.0029347255156262,0.0053670620766269,0.0025045285552744,0.0004603394497283,-0.0067096196314883,-0.0001734976655706
460,-0.0025553229834873,0.0052598447197565,0.0023234197694259,-0.0007506442144704,-0.0069618653749323,-0.0006485842473319
461,-0.0026600507205879,0.0044039320756709,0.00139206530539,-0.0028418538297446,-0.0074659415351802,-0.0020486871251402
462,-0.0031817131895133,0.0031615758082169,0.00011493224302,-0.0047410320092644,-0.0085725972443672,-0.0033222428986717
463,-0.003838711795228,0.0021528471734377,-0.0008972682126186,-0.0055999771742352,-0.0099954982168391,-0.0039441768464751
464,-0.0045249612424006,0.0015727433452555,-0.0015390506418302,-0.0055889835951266,-0.0113218439085107,-0.0042693824490639
465,-0.0052597708773891,0.0015071870281989,-0.0019269215884376,-0.0053250004822884,-0.0122867733316504,-0.0043961283319346
466,-0.0059522843388042,0.0017435796137729,-0.0017891062279174,-0.0051743526359656,-0.0123019724085503,-0.0043205823737968
467,-0.0062142669568934,0.001764237452327,-0.00105699035588,-0.0052958946737551,-0.0111753795682213,-0.0040014019518749
468,-0.0055793884483956,0.0014125512915809,7.645050392301305e-07,-0.0058671962209971,-0.0093739407158437,-0.0032871915946865
469,-0.0041178734647447,0.0004727167208512,0.0010523428669706,-0.0068769652418477,-0.0074482558414781,-0.0029470812579575
470,-0.0023801088467272,-0.001093060806234,0.001831919916059,-0.0076561233966228,-0.0058276871225299,-0.0038507442930139
471,-0.000789788247636,-0.0028638105300863,0.0027190819900891,-0.0077264932946377,-0.0044350693778748,-0.0060012626648652
472,0.0004823444152806,-0.0045500193595539,0.0040213040025106,-0.0075340038432624,-0.0030835149521876,-0.0089690707083058
473,0.001296616771789,-0.0060039779628857,0.0051365628571447,-0.0075763208568728,-0.0022393904222463,-0.0118733716315072
474,0.001680932980894,-0.0070958692153159,0.0057326796068042,-0.0077558856685292,-0.0021964954080242,-0.0137047598772825
475,0.001898384780439,-0.0076375863174044,0.0061450519351368,-0.0076698498162115,-0.002359027776761,-0.0140575630767602
476,0.0021330304383458,-0.0075645813268997,0.0067147175685262,-0.0070591545962595,-0.0021004781926227,-0.0132762807058608
477,0.0023644865647204,-0.007149313814791,0.0075344841246421,-0.0062115455396211,-0.0015047326169608,-0.0121962589419653
478,0.0022591160340269,-0.0068320225679003,0.0080712079597318,-0.0057436506117025,-0.0014790240418801,-0.0116127362112846
479,0.0015665162478502,-0.006785990729617,0.0079372310094085,-0.0055400412829866,-0.0024676537790264,-0.0114827723832963
480,0.0005594499577813,-0.0065975349806514,0.0076321419669239,-0.0048075838148818,-0.0038326596196025,-0.0109682265113005
481,-0.000145830143039,-0.0057868006563843,0.0075660982996666,-0.0035229364271612,-0.0050486493798478,-0.0098876305162731
482,-0.0003723503612258,-0.0046318855999563,0.0072081149913692,-0.0028867294722767,-0.0061480543500861,-0.0094722158958539
483,-0.0007989127142912,-0.0038788461024009,0.0058578478349037,-0.0036035192753507,-0.0077862147733632,-0.0104144678966068
484,-0.001450052176003,-0.0034454993720145,0.0043490420264016,-0.0044333207591935,-0.0098804581911283,-0.0112679205447006
485,-0.001770021757381,-0.0029263534551865,0.0038178971763792,-0.0045252014636208,-0.0112650709725862,-0.0111458957028072
486,-0.0017916937246293,-0.0024035754595912,0.0039716389925201,-0.0047151074917132,-0.0111902363877461,-0.0110821183174402
487,-0.0015964836598225,-0.0018012217933958,0.0043500851144697,-0.0051322518018746,-0.0096211186083079,-0.0113976635384744
488,-0.0013234874346221,-0.0012230938511386,0.0046691718278973,-0.0053154289456682,-0.0075224301835995,-0.0115435818280759
489,-0.0009866864547897,-0.0009319253726444,0.00471768249868,-0.0054399138150863,-0.0060217383594392,-0.0114366972553557
490,-0.0004236209604728,-0.000844504954815,0.0045520318272545,-0.0057404646984066,-0.0054731948530025,-0.0111747308195199
491,0.0001075674757747,-0.0007892547292426,0.0041052407529585,-0.0062798314115743,-0.0058439476433077,-0.0107785694977516
492,0.0003757058579565,-0.0004462264193298,0.0034060161203908,-0.00671018444669,-0.0068409722054168,-0.0097696762962139
493,0.0002958026060755,0.0002552708038161,0.0024514752055648,-0.0066245886599157,-0.0082352416163163,-0.0080031645770014
494,-0.0001600993690806,0.0007664793449626,0.0014052845941833,-0.0062599336518202,-0.0096452913802675,-0.0065826666051033
495,-0.0009136594278118,0.0006723899059282,0.0004984398690334,-0.0061853211489748,-0.0108867713345125,-0.0062499054510501
496,-0.0016834397748729,0.0003985489056341,-0.0003937671799068,-0.0065805673087397,-0.0122204764094472,-0.0064815168655877
497,-0.0018571958149418,0.0005462631977437,-0.0009016922568604,-0.0069339990199951,-0.0129082685788646,-0.006367577736167
498,-0.0012174525455414,0.0009859567302427,-0.0001654838764981,-0.0064235485383471,-0.0114774998288003,-0.0054380314691573
499,-0.000309180756768,0.001367498646385,0.001959773117851,-0.004503681819024,-0.0081270141806933,-0.0036092715153926
500,0.0001519306618995,0.001604990446114,0.0041521347163456,-0.0019397884641547,-0.005473130089585,-0.0015548431425936
501,0.0002579602345902,0.0020013382975562,0.0045140678591431,-0.0006374183724125,-0.0056756269428382,-0.0007181864867864
502,0.0005362500286747,0.003047221355844,0.0021967571008106,-0.0017968849154977,-0.008488951642319,-0.0014324733393114
503,0.0010537214619119,0.0045155936002528,-0.0016166469243693,-0.0049931154392497,-0.0121025379258605,-0.002692496210594
504,0.0018510939092209,0.005699370860337,-0.0039941556181344,-0.0081737024117503,-0.0139596563750909,-0.003313307796072
505,0.0027826531922494,0.0062159007375482,-0.0030756847342406,-0.0093786895673779,-0.0127525648818905,-0.0026109364304688
506,0.0032442507007095,0.0060094746159803,-0.0001842038640687,-0.0087748133256094,-0.0099135607479162,-0.0012091633575984
507,0.0031779213729814,0.0055687530674205,0.0025624968828504,-0.0072087277791486,-0.0074543924062052,0.0002057567775915
508,0.0034692977807919,0.0054262623904831,0.0047281177024993,-0.0052707277057433,-0.0054391654416979,0.0013840217038599
509,0.0047032930867303,0.0053529631003017,0.006645307573352,-0.0039414101938638,-0.003002446037187,0.001644683505548
510,0.0060097199601507,0.0049045819125416,0.0077790077900562,-0.0038284472596267,-0.0009600502370221,0.0011223792475342
511,0.0061560046011083,0.0041612369338084,0.0072940772407351,-0.0045687842340361,-0.0008691528565913,0.0010613110975702
512,0.0051567740829992,0.0034293497118138,0.0054687122502646,-0.0056793278458023,-0.0023602168764777,0.0017527561189331
513,0.0040881471379554,0.0027820945892757,0.0031990155674279,-0.0073110686096102,-0.0035265752225348,0.00192147510494
514,0.0035092273752909,0.0022136199024778,0.0010673254762187,-0.0092857968893468,-0.00339011159062,0.0008522961782323
515,0.0029175235811031,0.0018309062533809,-0.0005119977617342,-0.0104620445182525,-0.0027107058428123,-0.0002928484028206
516,0.0021370946297104,0.0020026903453847,-0.001216616031384,-0.0100312407673223,-0.0022023219384157,-0.0002395689728443
517,0.0015812050335085,0.002744194874463,-0.0012045124787024,-0.0086684393250894,-0.0015673045398727,0.0004064350555345
518,0.0014586641841521,0.0033399915490317,-0.0004373837970088,-0.0073475526394708,-5.497229519956256e-05,0.0005763997210255
519,0.0016406407043746,0.0033842658222097,0.0014356959330057,-0.0057555670826779,0.0024590356128126,0.000805153929064
520,0.0020404371667162,0.0030694479613517,0.0040363245858864,-0.0032451869908157,0.0051723875042496,0.0018439328731329
521,0.0027292777031897,0.0027682697036573,0.0063381826235225,-0.0003782191154901,0.0071622151065094,0.0032886504794982
522,0.0034226903567265,0.0026936107939815,0.0070727740199007,0.0014941485593705,0.0075221340667829,0.0042616137974072
523,0.0035948939816979,0.0025781538224863,0.0056594515039479,0.0015443573986281,0.0059922502323014,0.004150101850212
524,0.0032679877215619,0.0023742032912703,0.0034927343949023,0.0004213079568018,0.0039920746154929,0.0035146433339495
525,0.002743240929462,0.0022924330582549,0.0025992920901973,-0.000348790566623,0.0032756246771673,0.0033068157861364
526,0.002273771233917,0.0022905087539979,0.0033604990179469,-0.0001977274323681,0.0040962029006103,0.0034911908577476
527,0.0020750971213616,0.0022959360453338,0.0044190593048713,2.755179329845194e-05,0.0051983520259655,0.0033907842104527
528,0.0020194850841885,0.002529735510759,0.0044245651207051,-0.0002487997783338,0.0051399093531919,0.0029330754842166
529,0.0020043123783447,0.0033242982975832,0.0036734421113235,-0.0005370050989784,0.0039444747367099,0.0031173494602611
530,0.0020699591892216,0.0043694455741873,0.0031270615968433,-0.0007530555268396,0.0025425425335839,0.0041370095891448
531,0.0021400916358903,0.0049359450176141,0.0027147954041291,-0.0014479582054687,0.0012268409464901,0.0047090578702165
532,0.0021657238685189,0.0047473682099695,0.00202560576674,-0.002556202900725,3.598872725648158e-05,0.0041772761771915
533,0.0022144932526973,0.0040973245937985,0.0014412302055332,-0.0034728186980891,-0.0006052401557837,0.0031230814358676
534,0.0021018191434671,0.003213360704047,0.0010214480120831,-0.003928338521814,-0.0009951859812412,0.0020513102645789
535,0.0014163338116913,0.0020074041361259,-1.284662048244238e-05,-0.0041983746527077,-0.0020889065829472,0.0007784050631487
536,0.0005450756978412,0.000644806005579,-0.0015006042751835,-0.0042361711439503,-0.0033818656895722,-0.0008817156282078
537,0.0002767137474931,-0.0004120833407629,-0.0025237499937359,-0.0034335507773117,-0.0035578160751289,-0.0025910748862562
538,0.0004497305981331,-0.0010887673848837,-0.0027327188639256,-0.001987231402843,-0.0026066482388758,-0.0042170176941359
539,0.0003336900916449,-0.0018074544400422,-0.0024024885760581,-0.0010927724668861,-0.0015709955202319,-0.0060016324268319
540,-0.0003590013552968,-0.0028800731094198,-0.0022727504987222,-0.0018825685541312,-0.0011846576963572,-0.0080159278916367
541,-0.0011773913943234,-0.0041919794809255,-0.0027114735071126,-0.0044567456161229,-0.0010811138158727,-0.0099349377831998
542,-0.0011220931324859,-0.0049713600269116,-0.0028386872988977,-0.0070782231762285,-0.0001865955948349,-0.0107483438559818
543,0.0001749400368757,-0.0047306760243707,-0.0019063909218047,-0.0081575182658588,0.0017412778160544,-0.0099078550891915
544,0.0018218178252111,-0.0041014990143562,-0.0009652606910704,-0.0084021265160662,0.0033820551162361,-0.0084285292251298
545,0.0031940711565711,-0.003506387300426,-0.0011524625298504,-0.0087767280447738,0.0039006473788034,-0.0073449575190567
546,0.0042443460414361,-0.0029604467183806,-0.0022328012793891,-0.0090706555931127,0.0037798503080371,-0.0065676103940461
547,0.0049284220082408,-0.0024701050337742,-0.0033221930291411,-0.0086421784220861,0.0035873631965399,-0.005142559090266
548,0.0053526615375095,-0.0020882401837602,-0.0036338035100525,-0.0073670788008987,0.0036195263741491,-0.0028585170029203
549,0.0054327918635456,-0.0020742627523325,-0.003450729307132,-0.0062066263539139,0.0034814488593403,-0.0012931957264552
550,0.0050923716771423,-0.0023537104575017,-0.0036625673219405,-0.005950933162745,0.0026444947914324,-0.001632775526703
551,0.0044619023035224,-0.0029805888069992,-0.0039807969922154,-0.0062310850199922,0.0017613013585553,-0.0034596702640534
552,0.0036658016326646,-0.0041167383441695,-0.0035298863055962,-0.0061749341180696,0.001688743417281,-0.0054717310048288
553,0.0030035165571815,-0.0052917163222585,-0.0025905136873431,-0.0055381581770593,0.0020729974554179,-0.0065701893437941
554,0.002727394621478,-0.0063436378604536,-0.0021217904385624,-0.0051366681780862,0.0024728842537292,-0.007571524918724
555,0.0028508790682866,-0.0074098205748452,-0.0026021038301192,-0.005382233587704,0.0032476584152803,-0.0097070758694199
556,0.0031942623879137,-0.0081720698668505,-0.0035944004042527,-0.0055053988786317,0.0044720271107371,-0.0122073547836353
557,0.0034181827310902,-0.0084230762502077,-0.0039729883994338,-0.0050827586329725,0.0057371781312441,-0.0139570489567941
558,0.003266198980203,-0.0082489080085444,-0.0036473564635622,-0.0044848780065067,0.0064875922305452,-0.0146256068797957
559,0.0027383287407227,-0.0079491679788095,-0.003614150533423,-0.004143551787321,0.0063167417663878,-0.0141386577276778
560,0.002117554712497,-0.0079446966892456,-0.0040519060087342,-0.0045574800782323,0.0057142111727335,-0.0131246503811423
561,0.0017185794699939,-0.0084389108740571,-0.0046960701647535,-0.0061831870227546,0.0052390075437571,-0.0125139171933622
562,0.0019074381839152,-0.0089238458114143,-0.005555236709006,-0.0083946200996703,0.0047013155196319,-0.0118768042905499
563,0.0024326856119033,-0.0090478881230997,-0.0067703000923897,-0.0099990893823422,0.0037107268380213,-0.010584160033755
564,0.0023848402595776,-0.0093678168899733,-0.0083890766387727,-0.0107775244346538,0.0023025664057282,-0.0097251293635522
565,0.0018737661861506,-0.0100015924615216,-0.009895470400465,-0.010894683148493,0.0010036529843813,-0.010113253632977
566,0.0018353951644066,-0.0107253285554171,-0.0107878170840803,-0.0103810085074772,0.0003553430544703,-0.0111700662955734
567,0.0022825464229406,-0.0116268227276767,-0.0113258338295014,-0.0093244149123915,0.0002502305363822,-0.0124214693730624
568,0.0024206523231868,-0.0125242807000794,-0.0115750865841936,-0.0076016605235428,0.0003741864762942,-0.0137200867179867
569,0.0022934067453265,-0.0127460790595119,-0.0106064098506408,-0.005128442557559,0.0013092512611811,-0.0142044151083309
570,0.0024359419580724,-0.0120693875380784,-0.0084096209083538,-0.0027946751588654,0.0031317540943413,-0.0134627716414979
571,0.0026068198944109,-0.0113767626032374,-0.0067278264570799,-0.0022760040868731,0.0046244809183911,-0.0130384590931958
572,0.002661995034115,-0.0112864783548393,-0.0065660749789403,-0.0038712779668243,0.0053351129050698,-0.0141955267842648
573,0.0030426556034447,-0.0112765822526214,-0.0070470952600821,-0.0057287143697201,0.0060596261767002,-0.0158575860830508
574,0.0038984737090627,-0.0107560781263309,-0.006962667923502,-0.0059875481036479,0.0075036762570657,-0.0162342758730862
575,0.0050502248434933,-0.0099721805802407,-0.0058328231909613,-0.0047462517584842,0.0099736765095145,-0.0152571646847787
576,0.0065437553159569,-0.0095240891712756,-0.0035393850943607,-0.0032730706423741,0.0134933582782034,-0.0139893871761351
577,0.0083271024942943,-0.0096209897431924,-0.0005973986583215,-0.0022355590086532,0.0170324472022595,-0.0127631181909687
578,0.0098935947645726,-0.0099028847262524,0.0018431917989265,-0.0014266413566672,0.0188837613129497,-0.0112149015476172
579,0.0108744632608619,-0.0100507118683103,0.0030862545067086,-0.0007253430000304,0.0184922754836188,-0.0096044950037289
580,0.0113139629353661,-0.0103000757360526,0.0029890139573983,-0.0006190675873566,0.0169700021825323,-0.0090944337336063
581,0.0112985506425541,-0.0108159158281363,0.0019763963014609,-0.0012715590963526,0.0157945780697125,-0.0101023986886966
582,0.0108760249189715,-0.0113524229604586,0.0010737569546445,-0.0018082294527698,0.015605980328181,-0.0114424542943532
583,0.0102586139088702,-0.0114626883588766,0.0006760111563496,-0.0013396678363224,0.0161201315928176,-0.0118985076933905
584,0.0094633889239103,-0.0111470634265818,2.6027204536394627e-05,-0.0004220050010271,0.0164128993177342,-0.0119393178451337
585,0.0084458626662283,-0.0109735555379023,-0.0010104878519796,9.049673599973852e-06,0.016192416522486,-0.012573668180234
586,0.0078425941842176,-0.0107320361836397,-0.00113112031614,0.0005674505801617,0.0166105655019202,-0.0130853314242456
587,0.0079591662652609,-0.0097702668119158,0.0005483009928126,0.0024077909717718,0.0181723858877293,-0.0119002631607873
588,0.0079418801761548,-0.0084550508148097,0.003328891679612,0.0052721071824126,0.0195048606157394,-0.0091167687092523
589,0.0074076279104679,-0.0074112573025533,0.0059209228211175,0.007833360637869,0.0195262008943559,-0.0063587769769079
590,0.0068500671088333,-0.0070884105850043,0.007250775190565,0.0088478582730605,0.0185878264938647,-0.0051817794254226
591,0.0065955367407702,-0.0075224550624471,0.0071059672197371,0.0082742622176627,0.0175405826164737,-0.0055324597838457
592,0.0069121084587275,-0.0078218188319961,0.0067324890007618,0.00765757688843,0.0172891989008186,-0.0057900354562121
593,0.0076500765263334,-0.007953287122411,0.0068966948632143,0.0076844635532436,0.0178951426594678,-0.0058581599921637
594,0.0083502585264661,-0.0087304799705922,0.0072099846120399,0.0075656030329349,0.0187971467503009,-0.00715725830073
595,0.0087846430168261,-0.0100512767510698,0.0072415486716108,0.0068017170655382,0.0195017219345972,-0.0098073550231312
596,0.0088092750219405,-0.0110894646661422,0.0067502608881277,0.0055763927184903,0.0194625729543252,-0.0122557932333595
597,0.0086790821787997,-0.0113637508433135,0.006090883253022,0.0044417223706096,0.0190016448924414,-0.0131871376874637
598,0.0088354875549192,-0.0112531655607466,0.0058866473452347,0.0037461889956705,0.0191446758195846,-0.0131261523364929
599,0.0095150949107316,-0.0111674540670804,0.0065617508884331,0.0036555999663549,0.020416495652552,-0.0129878139642331
600,0.0103419659208701,-0.0113162249977058,0.0076543425087119,0.0038549548664066,0.021827981885417,-0.0132384587671121
601,0.0105323248759818,-0.0118408209941886,0.0078589798000209,0.0035378149098663,0.0217426831839109,-0.0144182710811234
602,0.0100340914573386,-0.012412569428127,0.0065565771793167,0.0023913944939634,0.0200002497557458,-0.016532231944427
603,0.0094956181005873,-0.0126569784129646,0.0046710550177155,0.0011705082942429,0.0178041940782648,-0.0185203846783685
604,0.0094555678782948,-0.0124421115255005,0.0038490288546961,0.0012950210522613,0.0165419517615989,-0.0188436256098822
605,0.009851135202316,-0.0118863550356807,0.0044695432543915,0.00298131227746,0.0166160773045405,-0.0174163884024954
606,0.0100597774570064,-0.0114291322978972,0.0054812049082731,0.0047840823049778,0.017195083639961,-0.0158934318035626
607,0.0096213764933969,-0.0111049359409739,0.0061673779160282,0.0057826748811077,0.0175545727183987,-0.0149928069191696
608,0.0087473787108878,-0.0103623737541194,0.0064917640659485,0.0065539609398258,0.0174837280086801,-0.0133736135106777
609,0.0078452068026184,-0.0090781191312542,0.0063526080996411,0.0075713266455077,0.0168214711514163,-0.0102909287077439
610,0.0072317309148179,-0.0077337347685753,0.005838786274896,0.0083276129318191,0.0159668881963367,-0.0072737811345661
611,0.0071306879519745,-0.0067884175969207,0.0055779394012461,0.0083346979681242,0.0156473265550882,-0.0061547359053269
612,0.0072342009389006,-0.0064105934780172,0.0061224760814633,0.007746785724531,0.0159753899154286,-0.0072627544368342
613,0.007028390813283,-0.0062567788497077,0.0071302211879957,0.0068559895589376,0.0164020852643418,-0.0094942524974179
614,0.0064770128303116,-0.0057178806219729,0.0072799896094824,0.0056048230340878,0.0160443001188759,-0.0112858545280497
615,0.0056296230785735,-0.0048748304613397,0.0059180546671568,0.0041547718843451,0.0144389670572008,-0.0117925697837759
616,0.0042664540065576,-0.0046835151858743,0.0038349693971523,0.002888950613959,0.0121433178810013,-0.0115269646037964
617,0.0027027087891328,-0.0054382770559604,0.0020793712557398,0.0020327587477219,0.0101571628012867,-0.0112974621261987
618,0.0015402767828505,-0.0062130191807146,0.0009137008271617,0.0018312356162549,0.0086786360274031,-0.0110362802776296
619,0.0007431118173629,-0.0063150391722046,-6.538678166850679e-05,0.0022051876567136,0.0073639462890013,-0.0106029694393655
620,0.0003715432583859,-0.0058314733525885,-0.0005703242993171,0.0027641635994807,0.0067937246713066,-0.0102085851758692
621,0.0006734580758197,-0.0053008854056721,3.175571566973998e-06,0.0032669494768948,0.0075695532414247,-0.0100924429322788
622,0.0012856135050612,-0.0051815677995384,0.0009806304740152,0.0037942081223001,0.0085543446643041,-0.0102050809282094
623,0.0018857011507891,-0.0054006061058756,0.0012644025956371,0.0044145096893107,0.0084418237686457,-0.0104787292713275
624,0.0028007534824289,-0.005588388817994,0.0011130863741722,0.0049803165948186,0.0079014258342315,-0.0113231628593031
625,0.0042710707091722,-0.005640881713492,0.0016520107078981,0.0052749252670435,0.0084926445528644,-0.013037951153
626,0.0059813208185983,-0.0057967893263332,0.0031077875621264,0.0052193450205061,0.0103912144811134,-0.0149806027149536
627,0.0074919342470269,-0.0061172147796604,0.0046526567681935,0.0050606086871597,0.0126446938938929,-0.0160252359889416
628,0.0083862742669298,-0.0066085585095385,0.0054078752707344,0.0045794313100869,0.0144136979837424,-0.0161626995161305
629,0.0085208665991376,-0.0070633645500043,0.0051503362455999,0.0034733371590756,0.0151931270873079,-0.0154539590758703
630,0.0083662932776963,-0.0070256040869523,0.0046204750537404,0.0025434038082313,0.0155087782755037,-0.0131894449512504
631,0.0081876259904709,-0.0066345729198783,0.0045047653356663,0.0024408926393134,0.0160923490827694,-0.0099844718422554
632,0.0077159411567427,-0.006454379336847,0.0045528224172443,0.0026637753107408,0.0163372283094189,-0.0073660352534517
633,0.0070617694905493,-0.0066118998321128,0.0046067415321898,0.0028170630287777,0.0158101703955131,-0.0059502569873104
634,0.0067358421426208,-0.0065360246176018,0.00483986331932,0.0030708479868064,0.0149983111201514,-0.0053851944872599
635,0.0068875119098097,-0.0057904793309873,0.0049836107763548,0.0032048050540881,0.0139674372448196,-0.0051564572162135
636,0.007324749662374,-0.0048887979466365,0.0050214070005383,0.0029026405840173,0.0130260679374471,-0.0051988788342536
637,0.0077182353045941,-0.0048373488652076,0.005363200848652,0.0024230467667748,0.0128943147306546,-0.0058609537145986
638,0.0079453156909776,-0.0058275470742688,0.0061288882564703,0.0023381513261764,0.0136002996607096,-0.0070378817972422
639,0.0080698545313469,-0.0069846978702982,0.0066033004059253,0.0025912446874436,0.0141234494078558,-0.0078858220591141
640,0.0078330662324247,-0.00765345344528,0.0056359511233269,0.0022152050745238,0.0131496768320443,-0.0082136442056693
641,0.007071781248328,-0.0079338979931178,0.0035410243390127,0.0008363005314894,0.0109894714799889,-0.0085881336628027
642,0.0059590793450916,-0.0082498419777279,0.0020331882672899,-0.0007113841343308,0.0092358834765187,-0.0091125713334138
643,0.0049272263832583,-0.0086237637599813,0.002155157274877,-0.0015125490910972,0.0085891346665589,-0.0093476326458313
644,0.0045423182996935,-0.0086409248075989,0.0032670439064483,-0.0015830966788858,0.0084451249111278,-0.0092705082446398
645,0.0048861930488252,-0.0083418011704037,0.0043806782419144,-0.0014144759607619,0.0083553258575914,-0.0095313064087316
646,0.0055247777426753,-0.0082547235426365,0.0055159097260865,-0.0012027226902269,0.0088199799943144,-0.010289443725483
647,0.0060519456445628,-0.0087730552912361,0.0064689391177858,-0.0013378832064045,0.0101450884546076,-0.0112551410994796
648,0.0064803810781914,-0.0095337013440926,0.0065941585054839,-0.0021563088223498,0.0118848319163846,-0.0123501598664225
649,0.0071251417544824,-0.009769117389686,0.0060819105132853,-0.0031545213172635,0.0134638607885535,-0.0131507088435274
650,0.0078713719387581,-0.0095834946819157,0.0054476606631476,-0.0037529214289636,0.0144109994350685,-0.0132774244819499
651,0.0084067158623005,-0.0095640287915276,0.0053065162637484,-0.0036712328067179,0.0149174399478027,-0.0127757379076234
652,0.0086405646869342,-0.0096096138305875,0.0059885906532498,-0.0026216881497535,0.0153695069239467,-0.0116113998345632
653,0.008373806726535,-0.0093820505448809,0.006508536680417,-0.0011260186642559,0.0151457649538009,-0.0099955065557318
654,0.0078344245408747,-0.0090021074930953,0.005995038381418,-0.0004061258150722,0.0138971550270889,-0.0086822083801723
655,0.00755536222496,-0.0087596655220728,0.0049837134908417,-0.000886893848426,0.0126584181296053,-0.0086123595392438
656,0.0075674142579735,-0.0085910055213907,0.004413608711337,-0.0018286624297559,0.0123817595143777,-0.0097423241700301
657,0.007513679460224,-0.0080231395479604,0.0045703423069144,-0.0021361933388546,0.0127023247496004,-0.010340175846072
658,0.0068209895399295,-0.007064128199192,0.0049728147657313,-0.001553054360522,0.0125596321570872,-0.0093870495064753
659,0.0052821794179279,-0.0061501926668241,0.0047460055855625,-0.0008926512531195,0.0112995658365949,-0.0079830604270386
660,0.0034958768400101,-0.0054111731719527,0.0034009387009533,-0.0010069327012702,0.0090368082276307,-0.0074730529295479
661,0.0019908849999559,-0.005223318273383,0.0014345738965966,-0.0021645394805514,0.0065779445297645,-0.0085286963032934
662,0.0008090524720908,-0.0058772641790577,-0.0003052676438632,-0.0039118259835163,0.0048240304469078,-0.0107963610533372
663,8.739475724300651e-05,-0.0065783274833372,-0.0015178457976095,-0.0052764065890172,0.0039732105627762,-0.0127682629722644
664,-0.0001209089423795,-0.0065549923039137,-0.002539673900199,-0.005589416405098,0.003345920269561,-0.0132776922210591
665,-0.0002466265690533,-0.0063397433177836,-0.0036577458790339,-0.0051472259698737,0.0022613292285859,-0.0124868299316788
666,-0.0004617564942706,-0.0066032599113439,-0.0045227452890086,-0.0046977262804167,0.0011461218736685,-0.0113770111481879
667,-0.0005468529340397,-0.0072251131790648,-0.004948571656221,-0.0048532272325906,0.0007415800814073,-0.0112659029903244
668,-0.0004808169351943,-0.007802616364169,-0.0050003093663298,-0.0056422674795108,0.0013876322016946,-0.0125070169868371
669,-0.000576462249945,-0.0079645399368738,-0.0046228413671778,-0.0060801299039284,0.0026086538620502,-0.0136457352458281
670,-0.0010630823547145,-0.0073174934914422,-0.0042418595655445,-0.0053030239446774,0.0030972406032322,-0.0132942434747423
671,-0.0015326439043651,-0.0057746104378486,-0.0042781624090365,-0.0038266013494915,0.0025501301243398,-0.0116034732717666
672,-0.0017900844750898,-0.0041579302373451,-0.0048597027513916,-0.0028504796336822,0.0014640321602518,-0.0097277853612803
673,-0.0022910440692132,-0.0033304262523617,-0.0059351496016296,-0.0028601445892335,-3.645401684624097e-05,-0.0086400441576655
674,-0.0031692915565151,-0.0031530967579702,-0.0070170165519891,-0.0032969487033387,-0.0017576967737038,-0.0081431585515472
675,-0.004012546191337,-0.0032294805065423,-0.0076675770026334,-0.0035979630809498,-0.0028957874822833,-0.0076280779035242
676,-0.0043760422617331,-0.00344155836401,-0.0077940480155403,-0.0037777627827972,-0.0027435398493696,-0.0070137703316492
677,-0.0041653372423974,-0.0035869323869215,-0.0074406096851651,-0.0038366367546621,-0.0015797555932755,-0.0062556781080074
678,-0.0038023022896561,-0.0035961136240414,-0.006895862068148,-0.0038296225789231,-0.0001781375843156,-0.0054829275518919
679,-0.0035826593453838,-0.0032773900227275,-0.0063310990294038,-0.0037003212743944,0.0010074097233306,-0.004700278798499
680,-0.0034164994312548,-0.0023685008623957,-0.0055818851584368,-0.0032405514711346,0.0020454907993546,-0.0035582493114299
681,-0.0034922094366827,-0.001514320334489,-0.0046977963927681,-0.0025119146693968,0.0029613635066077,-0.0021451059445034
682,-0.0039434971657353,-0.0015057909794796,-0.003638741104646,-0.0015784129942043,0.003817868704854,-0.0008418626744954
683,-0.0041542923155595,-0.0017791269278058,-0.0020477774629046,-9.139877081171748e-05,0.0051519509207173,0.0007314727067962
684,-0.0033367066100097,-0.0013610415866336,-7.022688751068136e-05,0.0021535781617677,0.0071285070855119,0.0032088041598436
685,-0.0021684459686812,-0.0006931738722168,0.0010663210685959,0.004296516179166,0.0084235202897411,0.0057845845605344
686,-0.0021010610233417,-0.0004939202889061,0.0005362044215017,0.0058272592529453,0.0076113513713641,0.007487924818638
687,-0.0030657737986389,-0.0006738827831247,-0.0008861017705356,0.0066941604088345,0.0053103971633594,0.0078931322323359
688,-0.0040530270021713,-0.0015025430523253,-0.002179312475381,0.0059594100208393,0.0033119406710582,0.0060412361517252
689,-0.0043916571516904,-0.0029135734374175,-0.0028298159637997,0.0034738515906305,0.0025941187207085,0.0024338872113112
690,-0.0039648926685222,-0.0037428753588389,-0.002781690658009,0.0008490718326401,0.0026744935143843,-0.0003453459729299
691,-0.003248625675908,-0.0034204904537877,-0.0025386673746996,-0.0005386450545714,0.0025216870458139,-0.0006937766105139
692,-0.0028110320241016,-0.0025679732278304,-0.0029274139019145,-0.0008687058476455,0.0015206764603232,0.0008047435848618
693,-0.0030206054460759,-0.0019200920415189,-0.0044740271080287,-0.0008232508630284,-0.0004456006667456,0.0027363604509376
694,-0.003718979439866,-0.0018451483920583,-0.0064167662855749,-0.0006331360700645,-0.0025385189792647,0.00376926622958
695,-0.0041177743142447,-0.0024272338847623,-0.0071700927729623,-0.0003848233500238,-0.0031755015271744,0.0032596790341902
696,-0.0038883687864103,-0.0033047691671332,-0.0062087436718491,-0.0002087970649033,-0.0019289762510782,0.0021448591942189
697,-0.003541158704443,-0.0040123011769328,-0.004651962605251,-0.0003312498994321,-0.0001336369502724,0.0017817858592371
698,-0.0033867552048567,-0.0043465615761584,-0.0037550896286916,-0.0008589556120846,0.000963077669282,0.0023295754140563
699,-0.0031866442463197,-0.0039943509961422,-0.0034396017251741,-0.0012895225821116,0.0015563605557289,0.0037572488715728
700,-0.0028059866320804,-0.0028880812098578,-0.0029667502976472,-0.0011928701281008,0.0023157206732533,0.0060642294758712
701,-0.0026251688875006,-0.0018550650589996,-0.0023733301922685,-0.0011027759255388,0.0029593977587793,0.0081106031769465
702,-0.0028149620300049,-0.001344782898447,-0.0021598596289757,-0.0013238891583513,0.0029487964810326,0.0092247734783788
703,-0.0028774194550311,-0.0007148252388585,-0.0023693906492198,-0.0013435842480336,0.0024346007465148,0.0100472878208044
704,-0.0028191981803681,-0.0003105436233662,-0.0028716416635554,-0.0012811236929575,0.0018307187679034,0.0102367884460558
705,-0.0030789639388172,-0.001004589729696,-0.0033187628888988,-0.0014069894494321,0.0015076451069459,0.0092986790991735
706,-0.0036437751361313,-0.0021183398229741,-0.0031134047898335,-0.0012313712184116,0.0013163201461377,0.0084192033077556
707,-0.0044633124305466,-0.0027603105354974,-0.0023543634630401,-0.0006472580369282,0.000640719081146,0.0084048578830188
708,-0.0050684267588856,-0.0028255118784732,-0.0015225463484931,-0.0002071639012854,-0.000254483334916,0.0085478230215591
709,-0.0046604486888033,-0.0023690854301594,-0.000359102685849,9.069602695127662e-05,-0.0001886911024199,0.0085134890453292
710,-0.0033500023220273,-0.001603696866096,0.0016607394084387,0.0009540143456449,0.0014153362648879,0.0089502966665247
711,-0.0019285469148452,-0.0010048264005619,0.0040345722334499,0.0023671367859967,0.0039310721838607,0.0099680517380392
712,-0.0009786290154878,-0.0008459107656051,0.0054015966342123,0.0035399789942961,0.0060408704451134,0.0108348137762558
713,-0.000272255989224,-0.0005092989661454,0.0051224173836997,0.0042750794903128,0.0069817954217371,0.0111238522482019
714,0.0009068638067157,0.00064653890422,0.00400418613163,0.0047905263453286,0.0074172086833132,0.0107281487758575
715,0.0024355900065802,0.0019920221162936,0.0033040966687927,0.0049848262348463,0.0084195300518083,0.0096249800553242
716,0.0032217601929663,0.002888328808296,0.0033985827099104,0.0051618124026069,0.009654503171097,0.0088726120058903
717,0.0027026341361625,0.003448765577741,0.0036993929239567,0.00546080050735,0.0099047207978303,0.0093268936193992
718,0.0013352870515818,0.0033990584533136,0.0034297619199002,0.0049375359898177,0.0089065095689354,0.0097491189189234
719,4.5187706664914525e-05,0.0028505588399637,0.0027114517019849,0.003732167972486,0.0075919546624143,0.0093680927623717
720,-0.0004838679863774,0.0026244346363869,0.00243151363536,0.003160017819842,0.0067964466505669,0.0091751025100989
721,-0.0006851007713576,0.0028660493227738,0.0027032118839831,0.0034610597895731,0.0060222073592123,0.0094420269717361
722,-0.0008565205846253,0.0034550705543852,0.0032693247352499,0.0041808228846789,0.0050587902169006,0.0095382376569266
723,-0.0005453975368872,0.0043211661619551,0.0040546082943957,0.0048650881100808,0.0047456853639431,0.0092152669411339
724,2.3295313104973704e-05,0.004920750108547,0.0044407464932513,0.0049505274531061,0.005235878025981,0.008376786140014
725,0.0002798870559719,0.0049530631451752,0.0041732042118564,0.0045214414262165,0.0061967152362732,0.0074686936660853
726,0.0002673545223499,0.0046231359300435,0.0039825321256583,0.0041807657675993,0.0075429246891893,0.007310908818605
727,0.0003105598115351,0.0042040655551736,0.0043617522736489,0.0043144830688534,0.0091477855335137,0.0081214989262021
728,0.0006545767582111,0.0044764566101194,0.0053664682940554,0.0051449188729043,0.0109284365896876,0.0099446992369753
729,0.0012877154295268,0.0064899197144964,0.006809869470176,0.0064055531670304,0.0127772052805015,0.0125112640070604
730,0.0016708690753422,0.0100005278382931,0.0078125643222707,0.0073450551044974,0.0141055669067188,0.0149161164308493
731,0.0014719644244308,0.0135831035357238,0.0078906335954671,0.0078825637448913,0.0145606381128199,0.0163559128118143
732,0.0010943966750866,0.0159719397471125,0.0077820537816907,0.0089003352178247,0.0145485373338382,0.0164095456861245
733,0.0008520800244725,0.016626079073409,0.0080158038026356,0.0103769019648901,0.0143704713494377,0.0148069674971329
734,0.0008159726938685,0.0161576914262042,0.0081602536986028,0.0111276439883095,0.0140161847014148,0.0119634789459362
735,0.0009708124650047,0.0156050212267094,0.0077460410385037,0.0106958239712318,0.0133819525068392,0.0090656462910463
736,0.0011300734254388,0.0151944585377527,0.0072610223839042,0.0094464082475931,0.0125362923772749,0.0068517088237481
737,0.0011158416112323,0.0144599327545369,0.0075464842908464,0.0078135395347215,0.0114227309571958,0.0056283820210023
738,0.0008015350068881,0.0131394540057198,0.0082690841772406,0.0061053284614046,0.0092781687625012,0.0058643547286567
739,0.0004138469393805,0.0117054920457695,0.0084840690466292,0.0043390627897273,0.0061002450214755,0.0073733687366637
740,0.0002229257918275,0.0108934653299039,0.0080972344662827,0.0024725012593805,0.0030972735811753,0.0092705562794677
741,-1.4877667482335812e-05,0.0109538740848509,0.0076262983029267,0.0007781153481352,0.0009215742755532,0.0111889069220146
742,-0.0003059896648511,0.0114771520595165,0.0073831710966431,-0.0004454672042824,-0.000290606397291,0.0131233299328046
743,-0.0004369865447221,0.0117104884943697,0.0070851069996315,-0.0014899360665513,-0.0005456749688095,0.0142476954490951
744,-0.0004863418555167,0.0113950200601382,0.0065489786782869,-0.0023263793314438,-0.0001395750047731,0.0139063831194175
745,-0.0002425220345982,0.0108759923478902,0.0062982863587043,-0.0021732384048873,0.0007942461395514,0.0127412130342247
746,0.0004577351142885,0.0103834808175504,0.0066203404029015,-0.001037039674471,0.0021372119818638,0.0114715400439756
747,0.0015531606394213,0.0101637547777182,0.0072189198977089,0.0001831804222624,0.0039279630498489,0.0103102253288386
748,0.0027663761588732,0.0103920478500314,0.0075311854284635,0.0008661541858438,0.0058484153666845,0.00928517970665
749,0.0034588706380569,0.0108890717587054,0.0072045153055759,0.0010738326764161,0.0069515860859671,0.0083647676417909
750,0.0035936752408746,0.0112542150158278,0.0066399755929965,0.0009631830331027,0.0071833857552459,0.0073622726101538
751,0.0036343283350949,0.011283300700072,0.0063614179814523,0.000643467235878,0.007201338240257,0.0061836353631509
752,0.0036368560060782,0.0114918342121155,0.0064006657934894,0.0005479778697125,0.0069962186586175,0.0054282137389184
753,0.0030714279752229,0.0119782095190034,0.0063413843986613,0.0005534572608405,0.0058832952230665,0.0054133502330539
754,0.0018226548563078,0.0121750199490532,0.0057891022542792,-0.0001517803744763,0.0035686246722601,0.0053885577186581
755,0.0007250811741196,0.0119412695345656,0.0049165752439471,-0.0017628143792785,0.0010483950915473,0.0043892191928403
756,0.0001669856766526,0.0110520482871714,0.0039990697509664,-0.0037768206174378,-0.0004949614207722,0.0021033394270271
757,-0.0002060449028734,0.0095497972700215,0.0032703173236379,-0.005403035160733,-0.0010201562756353,-0.0003892405587412
758,-0.0005706904435108,0.0085552735614883,0.0028406848899608,-0.0060131928184686,-0.0012725820892767,-0.0014484763726216
759,-0.0010337725299054,0.0085149557686607,0.0022578006898708,-0.0060798227578769,-0.00191269300721,-0.0011802386275626
760,-0.0017669811470569,0.0083368092737682,0.0013307117144615,-0.0065491508312493,-0.0029291168819646,-0.0010906260269487
761,-0.002814317305589,0.0073045070956514,0.0002167433308572,-0.0077542517201507,-0.0041411752803969,-0.0020327245867179
762,-0.004268181896642,0.005756362649057,-0.0014799997246541,-0.0096088557670737,-0.0057615337509577,-0.0039720503215613
763,-0.005761120540769,0.0045249943947335,-0.0037282037046967,-0.0113814380593826,-0.0077030032967226,-0.0060693354418077
764,-0.0067282012547154,0.0041972885391287,-0.0055737814841052,-0.0120583494839359,-0.0095872674493059,-0.0072344101048408
765,-0.0073288400673513,0.0043986105799674,-0.0066148410091343,-0.0117898379830734,-0.0112662024193439,-0.0076851479312642
766,-0.0078094429356022,0.0045568129857676,-0.0071071566481843,-0.0115747828254836,-0.0126361498376066,-0.0085392244815132
767,-0.0083474394807443,0.0049071573989624,-0.0074460916734922,-0.0118252759938448,-0.0140337747161775,-0.0098161285866918
768,-0.0090531835845159,0.0062925417520993,-0.0080749784720224,-0.012061275041125,-0.0159331331062065,-0.0102096430394625
769,-0.0095011055811958,0.0085784576974645,-0.0088453087847709,-0.0118154341954724,-0.0178307285668433,-0.0091343309587602
770,-0.0093580485899242,0.0104964953520104,-0.0093529765469693,-0.0112321422169956,-0.0188084803627971,-0.0074045314158728
771,-0.0089258048922,0.011328184290566,-0.0095558565142825,-0.0104931096430185,-0.0185779628468845,-0.005670036465528
772,-0.0085510988660723,0.0110798377171125,-0.0093916369761662,-0.0094109731450605,-0.017457591781606,-0.0042189618237065
773,-0.0082433330855769,0.0100418641260797,-0.0089047795124213,-0.0079155437025917,-0.0163167002805566,-0.0034791336908005
774,-0.0078696398637642,0.0089607211140199,-0.0083169362936066,-0.0062995556230611,-0.0156950766903114,-0.0034745241954694
775,-0.0074741977698828,0.0084873814937444,-0.0077905543351247,-0.0047845831444132,-0.015275384321131,-0.0035943886374686
776,-0.0074630647011352,0.0083992263211901,-0.0077500141479667,-0.0037213865482933,-0.0151554793997644,-0.0032565767102329
777,-0.0077461969604519,0.0083105993158138,-0.0082094215940239,-0.003255868872403,-0.0154469607477722,-0.002345918145816
778,-0.0077520463405103,0.0082439115579262,-0.0085545955165018,-0.0028995764827481,-0.0156825766772905,-0.0011384684728797
779,-0.0079118815537156,0.0079140160157818,-0.009041431652617,-0.0027828869638411,-0.016265577120744,-0.00030876914369
780,-0.0087729693721367,0.0072914388418773,-0.0098325351124354,-0.0030220748473901,-0.0176709499229936,0.0001411855320236
781,-0.0097417780957992,0.0069381574821468,-0.0101527035880775,-0.002975952751625,-0.01926506447235,0.0009844846723708
782,-0.010320012109588,0.0069570618263482,-0.0100739653934254,-0.002589660427053,-0.0204739571965526,0.0022933238085627
783,-0.0106032708603854,0.0072695931085653,-0.0102725228992262,-0.0024643342052899,-0.0210589853491809,0.0033470970819601
784,-0.0106985987872804,0.0078068121834517,-0.0109989928882653,-0.0032956310134434,-0.0211804829070934,0.0031225148275205
785,-0.0105729619323522,0.008251683942872,-0.0121766759887946,-0.0051952771089753,-0.0214327419771264,0.0011549118765589
786,-0.0105100057838795,0.0083415797351936,-0.0136901558459287,-0.0072922324477593,-0.0222290828512996,-0.0017442911030882
787,-0.0107860043801933,0.0080280620506053,-0.0149967224731774,-0.0085471488075696,-0.0232619039111914,-0.0040946048037351
788,-0.0107857101545208,0.0076049683829863,-0.0150190289444877,-0.0084133114923428,-0.0234615795682569,-0.0047477424660566
789,-0.0100552681220379,0.0073215854667262,-0.0135885687424151,-0.0070819159389093,-0.0225903340994392,-0.0034492756127664
790,-0.0092487250657977,0.0069034432990685,-0.0119250125868033,-0.0055165611122143,-0.0218470276254868,-0.0010721818124533
791,-0.0088356639333393,0.0061094369603801,-0.0109325447063477,-0.0044571492557162,-0.0217743522820683,0.0011198533612291
792,-0.0085371078066089,0.0052101124441455,-0.0102139321655209,-0.0037375596258782,-0.0216493877650032,0.0027307201813089
793,-0.0083047734583143,0.0044183212269601,-0.0094860336645372,-0.0032614468430329,-0.0210986124630697,0.0034263194932622
794,-0.0080361881580401,0.004199454062221,-0.0091275233847202,-0.003211858088075,-0.020263048370467,0.003123749601992
795,-0.0075181048407139,0.0050251671603155,-0.0095246769274327,-0.0036665891967785,-0.0193654680353875,0.0026231865180341
796,-0.0072400258795151,0.0061675881406055,-0.0107232243099683,-0.0045884346448123,-0.0188986446542541,0.0023884586053798
797,-0.0075280740226174,0.0068283639761275,-0.0121443543230363,-0.0055049387773324,-0.0190947282404628,0.0026348890413865
798,-0.0079376401548625,0.0069695185420165,-0.0131097578774997,-0.0062220629438607,-0.0193764703161574,0.0031013301676905
799,-0.0080196810999206,0.0067521407740644,-0.0131371413146711,-0.0068539773443519,-0.0188480998265413,0.0030957968976568
800,-0.0040674767939958,0.0021521140873957,0.0011220966135036,-0.0038263920609468,-0.020907682143811,0.0121738129484102
801,-0.0040396319037996,0.0015641481161254,0.0001564587425137,-0.0059551509860415,-0.0209840154906161,0.0122135286869944
802,-0.0036114563552715,0.0016475327481462,-0.0009404506755482,-0.0081037150342388,-0.0209766454517732,0.0100539949235081
803,-0.0030786526567181,0.0017434192559193,-0.0018960197953882,-0.0098548308889353,-0.0210097763681967,0.0072286263090454
804,-0.0026303389304543,0.0016342291956854,-0.0027203977362152,-0.0109542553421745,-0.0212009105098006,0.0047801444081161
805,-0.002225716657621,0.0014418142852221,-0.0025613757325359,-0.0102884594994083,-0.020638043545599,0.0038076880741762
806,-0.0018833022163805,0.0009047151626546,-0.000364153972258,-0.0070460727786758,-0.0184292427321835,0.0045074674511529
807,-0.0011706068139526,-6.47181884509135e-05,0.0038780835741027,-0.002500544009035,-0.0145025151682546,0.0050807752196964
808,0.0001169111962431,-0.0013692478900525,0.0080035140562021,0.0002658966741959,-0.0104078478934504,0.002938693329186
809,0.0012922505753594,-0.0028524261915898,0.0081018698647889,-0.0015259710305377,-0.0094097794884008,-0.0036057702490547
810,0.0017036244309821,-0.0041458450621851,0.0022402274222787,-0.0080594710674105,-0.0132940849550109,-0.0137252156894686
811,0.0014091745519291,-0.0051556603755117,-0.0071088311367101,-0.0168096502763793,-0.0196696652988164,-0.0238625616599707
812,0.0007422109387785,-0.0061478945733318,-0.0152611128994325,-0.0237420160698188,-0.0246070030082598,-0.0296997732309902
813,-1.0241167224872103e-05,-0.0073135661088761,-0.0187585264962449,-0.0257981736054986,-0.0259125488023538,-0.0294619140383607
814,-0.0008337619825908,-0.0086280998562538,-0.0180333482530883,-0.0237418316523427,-0.024192530428515,-0.0257383890180464
815,-0.001748608477737,-0.009804568276514,-0.0167610133035849,-0.0212554117751053,-0.0223926651056082,-0.022797819882104
816,-0.0019130323451352,-0.0099829402795921,-0.0169450288020292,-0.0204374110208541,-0.0221439738405607,-0.0220788876136602
817,-0.0010770130706126,-0.008933906338034,-0.0176006817103041,-0.0202488496920405,-0.0224753807050598,-0.0221795458849554
818,-0.0002085234699793,-0.0074773270733581,-0.0179502817524951,-0.019515680236723,-0.0223722422117915,-0.0219889578233451
819,0.0006594790219126,-0.0060704957296182,-0.0181115540821948,-0.0189912402039139,-0.0214339877112952,-0.0220845010568469
820,0.0018655179091649,-0.0049054847221763,-0.0183519423338707,-0.0199424282051783,-0.0199991550349023,-0.0234783912280895
821,0.002875770701941,-0.0041551582049639,-0.018781696854692,-0.022032897107824,-0.018928910149614,-0.0257300457310859
822,0.0031998118616871,-0.0038649934948964,-0.0192832785890891,-0.0238983226743437,-0.0185234458914203,-0.0278348779020812
823,0.0025951377580542,-0.0041604129822368,-0.0207112527305171,-0.0252856459267064,-0.0195027987463396,-0.0297708761957498
824,0.0013079610521471,-0.0046961031823762,-0.0239168931670184,-0.026726240388299,-0.0225250421545269,-0.0315798048682915
825,0.0002034715256495,-0.0046498897166844,-0.0276238114725239,-0.0278551467812858,-0.0262811805018443,-0.0323298750036009
826,0.0001233315379834,-0.0040588111048186,-0.0291670489125268,-0.0276535633463617,-0.0279559824306173,-0.0311596770214961
827,0.0011193656513321,-0.0039661911649718,-0.0272539729017075,-0.0257595333532758,-0.025881214546314,-0.0283969226030534
828,0.0021349090775869,-0.0042039522116443,-0.0237075657130597,-0.0230150766226923,-0.021823174551547,-0.025149918176383
829,0.002316369236915,-0.0031069688742905,-0.0211329957656129,-0.0208000908553994,-0.0188668269392178,-0.0226272230614166
830,0.0020108971497291,-0.0005010103465564,-0.0200862368085507,-0.0200356557992798,-0.0176997253368476,-0.021482922245101
831,0.0018905144113183,0.001467060366082,-0.0199822173259661,-0.020867288577437,-0.0171088023195556,-0.0218564073552201
832,0.0021531753273656,0.001534801979604,-0.0203791516186121,-0.0225121956084938,-0.0164603696675404,-0.0231247682514739
833,0.0026211434489304,0.0006622302088411,-0.0203184667902508,-0.0233603434560975,-0.0155510154845687,-0.0238919477697634
834,0.0028412721964157,-0.0001478606438942,-0.0187871895032629,-0.0222162433701452,-0.0142465881778893,-0.0232677605371695
835,0.0023461546944779,-0.0011345687031248,-0.0165005905172043,-0.0199403179160139,-0.0132661819390436,-0.0218962165136327
836,0.0014057029524365,-0.002816526768663,-0.0149295654070843,-0.018301841249273,-0.013014906436004,-0.0212099767774872
837,0.0009603264009017,-0.0046382206006455,-0.0139741041574848,-0.0172574841659573,-0.0126068512015533,-0.0209234417664475
838,0.0014155615959968,-0.0057840676136256,-0.0127871838140698,-0.0158596441839294,-0.011387073474115,-0.0198924109039907
839,0.0025591807849261,-0.0061754667543327,-0.0113765548348121,-0.0143042767339748,-0.0095458743539315,-0.0187276859651847
840,0.0037519700757381,-0.0061086482889071,-0.0104153678188622,-0.0135552443351787,-0.0077619476578382,-0.0187569004197738
841,0.0039575368819507,-0.0059591886786521,-0.0103051940771728,-0.0136715355208754,-0.0068317936287572,-0.0197643261989934
842,0.0030990569239092,-0.0058915855496063,-0.0103500263264185,-0.0133581736411056,-0.0064357034863162,-0.020008188840402
843,0.0021177421942896,-0.0059651621060118,-0.0094597680954772,-0.0116663713668181,-0.005528013388484,-0.018306114096304
844,0.0015957236035898,-0.0062290645922747,-0.0075878227845445,-0.0091038162089668,-0.004030807666367,-0.0154668857462982
845,0.0013426392174606,-0.006897985631534,-0.0059601412751015,-0.0070531927483496,-0.0027871533930958,-0.0137829951339447
846,0.0003168676498384,-0.0089125025999549,-0.0063486962567611,-0.0071475185063514,-0.0031438585578714,-0.0155679435578124
847,-0.0021008887820669,-0.012581965079405,-0.009153348412021,-0.0098549378241117,-0.0057619458962202,-0.0206940863246183
848,-0.0048408060534162,-0.0164015431240409,-0.0126271224715961,-0.0136390917192685,-0.0089766534415375,-0.0262487943291242
849,-0.0068896765209958,-0.0191928116602836,-0.0151123956024494,-0.0168986055281119,-0.0108836362086203,-0.0300261510385332
850,-0.0080228898171647,-0.0208421970857401,-0.0161202155201022,-0.0187564388029073,-0.0113054724373121,-0.0314438677642723
851,-0.0082419140149892,-0.0213769567274162,-0.0159504517277127,-0.0190868182280741,-0.0109764620427221,-0.0307837467913501
852,-0.0079026756514049,-0.0212769362777818,-0.0153654293510014,-0.0186938746018798,-0.0105517496882433,-0.0294948059170914
853,-0.0073216410120342,-0.0209709263770793,-0.0148586388189099,-0.0183037199100586,-0.0101813657806362,-0.0286554991004796
854,-0.0068263599388849,-0.0203772374601513,-0.0144755344978313,-0.0180848515888304,-0.0099866724738345,-0.0280577756066349
855,-0.0066467488211916,-0.0191342933614438,-0.0141668971016329,-0.0176577302449634,-0.0101259995598441,-0.0269013996080923
856,-0.0069089410727393,-0.016650123657438,-0.014334373583645,-0.0170837920746711,-0.0106710449257518,-0.024845660167475
857,-0.0077062473930898,-0.0131753087380687,-0.0152124505436194,-0.017058526933229,-0.0113424161966604,-0.0226595871269306
858,-0.008758345722297,-0.010130412333033,-0.016501703121947,-0.0173304390540274,-0.0118276047530276,-0.0209434650007659
859,-0.009800099102913,-0.008691379818893,-0.0179743781894048,-0.0166829663508785,-0.0123410943042241,-0.019759706993746
860,-0.0106573662692307,-0.0091588670588127,-0.0188855293266199,-0.0147829266220609,-0.0125438851423072,-0.0194259087651303
861,-0.0109908842143359,-0.011268379199979,-0.0184952121844859,-0.0129831201680563,-0.0116753303044413,-0.0203216222729706
862,-0.0105613412216708,-0.0144070713912719,-0.0173044901692662,-0.0125695276195574,-0.0100049910997206,-0.0226581300351695
863,-0.0095658860633771,-0.0174542029798569,-0.0165230885951951,-0.0136418741714567,-0.0088795143011298,-0.0262420875627147
864,-0.0085652873994967,-0.0189595584255586,-0.0168982453699417,-0.0156723150930536,-0.0091871177774737,-0.0302487612094061
865,-0.0079536573308598,-0.0186930795875503,-0.018270611686482,-0.0181333930113786,-0.0103726535423625,-0.0335069299874726
866,-0.0078092889133263,-0.0176437686245398,-0.0201549484111262,-0.0208289172630718,-0.0117142293508583,-0.0346688994303922
867,-0.0078932815261179,-0.0160189444697079,-0.0218923712464048,-0.0229931691413504,-0.0129872081692256,-0.0325057112867828
868,-0.0076676178434575,-0.0140469199536295,-0.0225152754291204,-0.0233555710718736,-0.0138000261693234,-0.027876577836851
869,-0.0075595105985424,-0.0126282626403716,-0.022077586603514,-0.0217094789995314,-0.0146341149677471,-0.0236465799806837
870,-0.0086772560665246,-0.0118268650589674,-0.0219057578420797,-0.0193316742894043,-0.0167680677556544,-0.0213283021972461
871,-0.0102594234895354,-0.0113877311820943,-0.0224411262072195,-0.0182438957045924,-0.0194794768998708,-0.0207928990243908
872,-0.0107173663913633,-0.0115134414751468,-0.0231852515657516,-0.0198391907617244,-0.0208084955213611,-0.0219055300917443
873,-0.0102810280560878,-0.0113447103585001,-0.0240526421385201,-0.0226258016941348,-0.0206955861855961,-0.0228567048027418
874,-0.0099801435498729,-0.0098934969196732,-0.0245844761026446,-0.0224814966075159,-0.0202107732429078,-0.019846859206689
875,-0.0103552296736201,-0.0088104085215904,-0.0243456486185805,-0.0191634900611534,-0.0199085788490609,-0.0124194536459795
876,-0.0118816384835122,-0.0102920692670539,-0.024396140425209,-0.0181227283602273,-0.0203137710198714,-0.006085797976941
877,-0.0139574480715781,-0.01362244034326,-0.0251228355553489,-0.0215081609876681,-0.0209942469114003,-0.0062497007067468
878,-0.0142080030216405,-0.0159238785910667,-0.0247598397536685,-0.025198129407592,-0.0200292774342671,-0.0121304580478602
879,-0.0114437855936886,-0.0161756276372731,-0.0226098898712118,-0.0262986146133769,-0.0170548352172296,-0.019908607203294
880,-0.0072805603077954,-0.0164037268369288,-0.0200738899926518,-0.0261969712058235,-0.0138863271741616,-0.0283422596979544
881,-0.0036946382165589,-0.0176276886732409,-0.0178886254430145,-0.0258206349454816,-0.0117281844346477,-0.0367517262496126
882,-0.0017638200544927,-0.0184827299412632,-0.0159001943562639,-0.0242303227499885,-0.0106306665919358,-0.0431903584245366
883,-0.0016730493667245,-0.0182327418360674,-0.0140984481472903,-0.021477285648723,-0.0101090738706875,-0.0470387616346907
884,-0.0026081290461426,-0.0175410599643435,-0.0124398362623745,-0.0184240142852687,-0.0096373182915136,-0.0478836876446557
885,-0.0039953144748714,-0.0169597101150356,-0.0112062540797179,-0.0156549491322416,-0.0093745098810648,-0.0450099235971846
886,-0.0055733373562878,-0.0160891504043556,-0.0108158968817975,-0.0135096411621585,-0.0095559648428684,-0.0397099235653128
887,-0.0068181277614013,-0.0144831386996351,-0.0113372845594041,-0.0121550504182045,-0.00999377265323,-0.0344165255764796
888,-0.0074270348131598,-0.0128799773828472,-0.0125193992095195,-0.0119177608831103,-0.0102910226075781,-0.0309923541827156
889,-0.0071716060085663,-0.0122581103487395,-0.0133275325899622,-0.0127349574388526,-0.0094563405851765,-0.0301616335922976
890,-0.0058129327913682,-0.0126987490341918,-0.0125033471935818,-0.013290361545092,-0.0066899606948606,-0.0309829398791649
891,-0.0035296901334078,-0.0135872057307244,-0.0100396041241652,-0.0122937436588506,-0.0026541125992839,-0.031771424531945
892,-0.0010739663599069,-0.0143912473558913,-0.0071479281589241,-0.0100822690710286,0.001160942797574,-0.0318465586078562
893,0.0005889444819283,-0.0150528628118968,-0.0051792507500897,-0.0077753385018462,0.0033961113384108,-0.0312163622218682
894,0.0010272421378388,-0.0154690823135717,-0.0046934136500769,-0.0060130408924531,0.0037377785090895,-0.029705397902912
895,0.0006911773981386,-0.0153005365809457,-0.0052557871528002,-0.0048810860109094,0.0033044498654855,-0.0274397028039784
896,0.0004090897030443,-0.0143874115764812,-0.0060407070512368,-0.0041126676883948,0.0033569698478029,-0.025034221091657
897,0.0004690686009026,-0.0127516743644138,-0.0066146754783609,-0.0034037113879448,0.0041234907119281,-0.0232510364970657
898,0.0003923774004449,-0.0104058120486153,-0.0074845406337494,-0.0031061334990512,0.0045087038400157,-0.0226539000656103
899,-4.4726195687391786e-06,-0.0079395612677212,-0.0091021583543915,-0.0037051039459152,0.0037539133794179,-0.0229897462819612
900,-0.0001893544003365,-0.006557270061278,-0.0105921835912807,-0.0046660213421862,0.0029437336264044,-0.0231122687358112
901,-0.0003298210959311,-0.0067010044968322,-0.0111674227460911,-0.0051422394504999,0.0026174654802705,-0.0221381943474267
902,-0.0011137519727611,-0.0077596472682266,-0.011280466188389,-0.0049050519118214,0.0017860021096284,-0.020417188770179
903,-0.002000366799558,-0.0087001397532281,-0.0115056960404268,-0.0043425457869837,0.0003684505298231,-0.0188404685845117
904,-0.002083547905105,-0.0088345109025472,-0.011772504086749,-0.0039528726687771,-0.0006370675650511,-0.017778849552727
905,-0.0016490664719333,-0.0087352956173278,-0.0116486261781134,-0.0036601596542739,-0.0008309736310944,-0.0172353065663299
906,-0.0013542643002917,-0.009589233202439,-0.0109636403431656,-0.0032885003809314,-0.0004262011848212,-0.017656913701526
907,-0.0012043272712481,-0.0112715986858041,-0.0100489956240019,-0.0031968050291272,0.0003470450476229,-0.0195792503555385
908,-0.0007235956159646,-0.0121330687143969,-0.0090913063367183,-0.0032880696115616,0.0015078057086744,-0.0220570202594007
909,-1.6890740768520918e-05,-0.0115947224531034,-0.0080763106665726,-0.0027235921904062,0.0032106602362478,-0.0230580474896853
910,0.0001259144762368,-0.0106675100323237,-0.007660259840743,-0.0014750834149614,0.0045407644842271,-0.021413793761871
911,-0.0001690807162801,-0.0097966533621983,-0.0081973705597518,-0.0006998628591474,0.0046691619611889,-0.0181439803874745
912,-0.0002966082698553,-0.008652119972312,-0.0089706373010119,-0.0013651540175762,0.0042866452692713,-0.0161008919650679
913,-0.0004441241418536,-0.0070143117100631,-0.0094467215014151,-0.003407182908215,0.0040221924868071,-0.0170416819072753
914,-0.000866419303871,-0.0054548578160187,-0.0095020459446646,-0.00594449285134,0.0040152693800492,-0.0200435780651773
915,-0.001169758645744,-0.0053827945523926,-0.0089555092472772,-0.0078625002592359,0.0044864661083686,-0.0236870891044894
916,-0.0010015970548838,-0.0071963387885441,-0.008134327652494,-0.0087198521777682,0.0050208198199318,-0.027484517358728
917,-0.000729277018238,-0.0095571921362561,-0.0075303341593251,-0.0087583104127782,0.0049358859029209,-0.0307922448394179
918,-0.0004744799440655,-0.010729020057503,-0.0065966613273065,-0.0080408823364008,0.0047769507645708,-0.0319858645539269
919,0.0001710395638553,-0.0098000558174983,-0.0048789117057409,-0.0064838369631628,0.005477093884053,-0.0296935887299507
920,0.0010671381603329,-0.0077900192728306,-0.003128276437494,-0.0047336718138231,0.0070348773914207,-0.0254100261072294
921,0.0016234344468921,-0.00653817732072,-0.0020093643022499,-0.00363912659004,0.0088581884381267,-0.0220741343194986
922,0.0017573726104428,-0.0062797100764288,-0.0012936768325621,-0.002934263251551,0.0104390399665199,-0.0206386075062604
923,0.0021107456076156,-0.0061169014214286,-0.0004639044169949,-0.0019116925626977,0.0117580013763777,-0.0200606115128948
924,0.0032557149620125,-0.0059326371579219,0.0006119437704416,-0.000667349577721,0.0130445169527653,-0.0186022063625286
925,0.0049660768091405,-0.0064070393601127,0.0016414051299884,0.0001420642014565,0.0144603597388746,-0.0162625361350043
926,0.006480575505406,-0.0073097169317204,0.0024883257997979,0.000276188148851,0.0159955963401573,-0.0148366065944202
927,0.0071058670148502,-0.0076944250613867,0.0033534549296852,6.583163271344023e-05,0.0174519053039588,-0.015444285230251
928,0.0069919545419271,-0.0075194351848358,0.0046002396438361,4.6923265388639326e-05,0.0188934692573584,-0.0174936740365156
929,0.0064358811366276,-0.0073641353868913,0.0057524592446696,0.0001586426320906,0.0198376499986363,-0.0189032094540644
930,0.0053293066169665,-0.0074812513558116,0.0055994732492574,-0.0003238803381281,0.0194738465050762,-0.0189867600057329
931,0.0042985900411921,-0.0078597246257749,0.0042635475497783,-0.0013492233225112,0.0183718222566193,-0.0196377768703573
932,0.004058728610076,-0.0088458432657339,0.0032630959164277,-0.0021411667582517,0.0178312499887012,-0.0219385663155494
933,0.0046727489451689,-0.0108197507073059,0.0038805091145688,-0.0022486119652978,0.0187740841630455,-0.0246838845067675
934,0.0056879551093046,-0.0133329851602332,0.0056286955563856,-0.0017530346470649,0.0205994700565642,-0.0263473673791718
935,0.0063633498366132,-0.0148921436217733,0.0067383129210151,-0.0009287430720813,0.0213086713682258,-0.0261704814182391
936,0.0062888391881155,-0.0140674993974632,0.0063685298948774,0.0001513028084656,0.019940620309412,-0.0242152383777745
937,0.0054193317043359,-0.0112741509360943,0.0051783135540484,0.0013568411953916,0.0173352314454195,-0.0212960895203628
938,0.004344718399414,-0.0083138129846216,0.0043273393059588,0.0021966241730642,0.0150276410023357,-0.0181786212598381
939,0.0037379049365923,-0.0062416129167725,0.0041620235498785,0.0024769875665597,0.0136337116831892,-0.0147951785229133
940,0.0033839784489684,-0.0050348071850711,0.0040748637580734,0.0025106581191665,0.0125113790964685,-0.0109301579744368
941,0.0027647109995319,-0.0046066442202995,0.0037894694185975,0.0021589147667309,0.0112897898224179,-0.0079479094143954
942,0.0018377504956929,-0.0048859161422175,0.0035351729396127,0.0011549736375134,0.0102533944391581,-0.0077955305109603
943,0.00116246611673,-0.0055377100665267,0.0034287569552147,-0.0001694383133066,0.0102617438819018,-0.0103029971135699
944,0.0009272512670251,-0.0060937373850378,0.0033998445602222,-0.0013989235455593,0.0117937575988477,-0.0133622528567407
945,0.0007092269838781,-0.0062398851976111,0.0031845631730797,-0.0022078881308492,0.0136222703819604,-0.0149923555000361
946,0.0004423408096664,-0.0064472907323742,0.0027093296463677,-0.002557240340382,0.0143831192822796,-0.0154418286736135
947,0.0004658127940774,-0.0077812311585696,0.0025253879174167,-0.0026444996950956,0.0142728803988907,-0.016771303634388
948,0.0009741052279908,-0.0101499754437783,0.003099264489859,-0.0022376098213145,0.0139775319636409,-0.0194450574550597
949,0.0014718905527853,-0.0120216930240422,0.0038398345987794,-0.001372481830154,0.0131731898368154,-0.0218847958877491
950,0.0014280654194965,-0.0121772932267581,0.004083646942299,-0.0009588392105827,0.0118026741508464,-0.0231458087804315
951,0.0010944083764963,-0.0107333098920894,0.004039039950356,-0.0015543672850684,0.0109735589856879,-0.0233135588924975
952,0.0009126780312949,-0.0087683665139507,0.0040819323475724,-0.0026635157870689,0.0111002457621345,-0.0223139657328242
953,0.0009574849422488,-0.0072024282408811,0.0041423868170717,-0.0037626261085537,0.0113699899060601,-0.0200739525315359
954,0.000962072256123,-0.0063752945912446,0.0037016241798094,-0.0050395774447757,0.0110175498989694,-0.0173115970745738
955,0.0007720332479251,-0.0063900404843674,0.00268413670621,-0.0065955613920158,0.0102531319423806,-0.0153504799975329
956,0.0008685786336259,-0.0067917742128338,0.0021120194076717,-0.007726276009212,0.0102526986118688,-0.0147894730255987
957,0.0016368287856293,-0.0069045005423122,0.002891318652736,-0.0076118113976145,0.0116364732172756,-0.0151764761851596
958,0.0026977595179097,-0.0068304857127874,0.0044453916090071,-0.0062865895665741,0.0135384470332783,-0.016300069081184
959,0.0036653315985571,-0.0064781699428633,0.0056681860856811,-0.0046019410991594,0.0150911277378969,-0.0180722760102157
960,0.0045976449551955,-0.0051666496328337,0.0063357034632409,-0.0033162318684015,0.0162885704278091,-0.019673440472257
961,0.0056368289906289,-0.0035422693734146,0.006794900951514,-0.0025369682194686,0.017254921521661,-0.0207503530353395
962,0.0064850480504827,-0.0031225607309181,0.0073085533060433,-0.0019469910093253,0.0178128164017859,-0.0213860839335119
963,0.0068525343737764,-0.003667828286315,0.0080751938407894,-0.0008472335581398,0.0177600418203319,-0.0204311480069023
964,0.0069640384702714,-0.0040209017797637,0.0090667860960163,0.0011438527681749,0.0172103943704713,-0.0171555815410342
965,0.0066576560030758,-0.0041026605015763,0.0094653787739557,0.0030442144568708,0.0161270515517839,-0.0132809074470197
966,0.0058064616150442,-0.0038473984097556,0.0088038946923865,0.0040986205305864,0.0148704008512155,-0.0107781720444983
967,0.0050976092721941,-0.0033695010679968,0.0080025716211848,0.0046900650626796,0.0143703437294811,-0.0096440678244423
968,0.0049467310976502,-0.0035438570495439,0.0079689290368037,0.0049336146766406,0.0147847617707976,-0.0087831566967337
969,0.0052707886095088,-0.0045244915928945,0.0087819972999589,0.0050751573324535,0.0158371946875672,-0.0073105071491306
970,0.0060613603213298,-0.0057988096220314,0.009730603627503,0.0052471224681008,0.0170172516221248,-0.0053969737910442
971,0.0072938297573654,-0.0070565588236222,0.0098975974948817,0.0048263527100365,0.0177079220082969,-0.0044248120417616
972,0.008593191637862,-0.008175960390789,0.0092189099219284,0.0037789150436859,0.0179720188092885,-0.0056550877732524
973,0.0095064731606933,-0.0089541917201639,0.0082807842913975,0.0027272209977638,0.0180610101646654,-0.0085356318294746
974,0.0099587884624027,-0.0090640594226571,0.0076634661121676,0.0020209485562499,0.0179862496498515,-0.0105745924971366
975,0.0096392866772088,-0.0084410756115196,0.0071939231724086,0.001347882034841,0.0171970655565324,-0.0103509897442595
976,0.0082484893256719,-0.0073807811110086,0.0063043626604874,0.0003114566407716,0.0153052646601404,-0.0095007643352852
977,0.0065215532856394,-0.0058913868596954,0.0052867845906333,-0.0004803473228637,0.0131862283775966,-0.0099245405040686
978,0.0051145200521589,-0.0042715496716013,0.0042954550273063,-0.0005588548441082,0.0112652065839078,-0.0118784984944859
979,0.0039431352653506,-0.0034894791970543,0.0030397434137875,-0.0004273656399397,0.0091643854690054,-0.0144729394738847
980,0.0036024751185392,-0.0034954680301675,0.0024638549338028,-0.0002941177340579,0.0080388089304036,-0.0165272228923993
981,0.0045026175406721,-0.0034468005223714,0.003459350669482,-0.0002510962698201,0.0091858911490037,-0.0181183268188504
982,0.0056658138280324,-0.0029890505478012,0.0050779424902731,-0.0005464858767411,0.0115166345835947,-0.0195063196188304
983,0.0064607876463447,-0.0020887964108508,0.0060170576234918,-0.000979444177023,0.0133043566712284,-0.0197208097265768
984,0.0070387348571996,-0.0010886526968535,0.0060268354554869,-0.0011627165917165,0.0139312730887103,-0.0184785872546725
985,0.0075236856873602,-0.0005349439305718,0.0058556948113555,-0.0008330871339525,0.0138644523978977,-0.016769057089577
986,0.0080905552638407,-0.0005670195999932,0.0062920508424467,8.971078067390286e-05,0.0141097350512858,-0.0149548791437365
987,0.0086827973419074,-0.0011268380569916,0.0071367961130922,0.0015242960087569,0.01487653346692,-0.0128061255422505
988,0.0088817697819977,-0.0021474252280442,0.0076471750506491,0.0031072641398922,0.0155105933297322,-0.0108646868210957
989,0.0086137634480525,-0.0028810185087273,0.0078513528600731,0.0045117049385196,0.0158794318447869,-0.0094664409657817
990,0.008210666230716,-0.0025172740319726,0.0083705546518918,0.0057504075038558,0.0163552665917906,-0.008026627248149
991,0.0076192506227151,-0.0014471701218656,0.009138737677255,0.0067496919336766,0.0167881681226475,-0.0059472896902547
992,0.0063786613229319,-0.0004751707940035,0.009484965470035,0.007291855931094,0.0166900026865532,-0.0031584090079605
993,0.0045366422352512,0.0001416234701426,0.0089891071439439,0.007344541950637,0.0158899715611898,-0.000710205142099
994,0.0029551887949506,0.0006356499046721,0.0079801329204884,0.0072419417493311,0.0148115724139765,0.0001951346077635
