,AF3,AF4,Fp1,Fp2,AF7,AF8
0,0.0094778081520317,-0.0002541798304137,0.0090147541683461,0.0095362794376215,0.0087585196061306,-0.0018283714000886
1,0.0101726843352675,-0.0008023992894108,0.0103111675458407,0.0111493759312891,0.010929278794283,-0.004521291184063
2,0.0111145473575958,-0.0026886731204322,0.012190941387327,0.0125241243538788,0.0136907574159161,-0.0086933910383728
3,0.0125068725881741,-0.0059768358067726,0.0151693863237116,0.0136269464418579,0.0163473312023742,-0.0122600084361499
4,0.0129072630458781,-0.0077150590330351,0.0174096052379667,0.0141325947615854,0.016559794511948,-0.0107858895977012
5,0.0115463625164255,-0.0054567157474615,0.0160078124824716,0.0125074099903117,0.0139125006474056,-0.0038142164942222
6,0.0095719097283602,-0.000658933630545,0.0121083819083106,0.0095278173240693,0.010390133822529,0.0045958188617824
7,0.0087905317993631,0.0026506841487811,0.0098903499753534,0.0082978192774411,0.0083275266137167,0.0099660472436819
8,0.0105839045515935,0.0018558512426022,0.0114408998839264,0.0093356928472858,0.0101400343920811,0.0098910066091737
9,0.0134966968926916,-0.0006122796607693,0.014225028455134,0.0101270987997403,0.0142464612063221,0.0064277235109096
10,0.0142009888694667,-0.0004971035360451,0.0132975043014693,0.0081325697632615,0.0148413011226194,0.0040834696028372
11,0.0127641301732058,0.0010706715220612,0.0087933085649206,0.0041252993233207,0.0116181279794804,0.0030598620029764
12,0.0116632956163361,0.00175126589226,0.005151890593976,0.0012863656342271,0.0094069614281689,0.0024612949422035
13,0.012086167557978,0.001426664503659,0.0042784304811126,0.0004751738701343,0.0102532240813219,0.002162539783084
14,0.0132032861258706,-0.0001885621251625,0.0054317126566228,0.0013086192740278,0.012610606147739,0.0023254002458339
15,0.013145289719255,-0.0020425244264743,0.0066818520063892,0.0034159090529695,0.0134414465019329,0.0032664422516154
16,0.0120216611614428,-0.0034238465245665,0.0066982627836405,0.0052286941440553,0.0117929815689659,0.0026599435215834
17,0.010902070350811,-0.0047818931452255,0.0054171808633859,0.005548211532008,0.0086142463755656,-0.0003594023073105
18,0.0091340544185665,-0.0054354702133716,0.0024849822155993,0.0043586942850173,0.0039565773319008,-0.0038439780606957
19,0.0067503878639746,-0.0057938245357343,-0.001336925954504,0.0031777853992184,-0.0010720816180141,-0.0072485682551011
20,0.0048076020121254,-0.0070731375679635,-0.004319712150709,0.003728766804187,-0.0045458606735273,-0.0105558402149425
21,0.0037496284329671,-0.0086791201531419,-0.0051529122782865,0.0055912042945222,-0.0052060548796308,-0.0126889317519354
22,0.0031243644199337,-0.0091336645140501,-0.0038210102414546,0.0069990881682092,-0.0035146187606057,-0.0124775036893549
23,0.002114700549167,-0.0077312405680298,-0.0021933455780369,0.0063920495497357,-0.0018009923502767,-0.0106042776169984
24,0.0012006497501561,-0.0054327728152064,-0.001347650238875,0.0037335343682741,-0.0007427128102183,-0.0087309700966929
25,0.0003494067487687,-0.0042449836920681,-0.0015355943088886,7.511309349886909e-05,-0.0002946117258824,-0.00626062516835
26,-0.0015552297348607,-0.0049381061120129,-0.0033234265896991,-0.0040219640682259,-0.0012951267553401,-0.0032594461436508
27,-0.0033999892694229,-0.0060235664846142,-0.0053566155527823,-0.0074291476535003,-0.0024318752639219,-0.0027483883749933
28,-0.003368146221573,-0.0061216311494056,-0.0055237175728178,-0.0087013229229318,-0.0018796127797665,-0.0055765637580065
29,-0.0018441008947779,-0.0060097162686729,-0.0038526136489304,-0.0081204107534696,-0.0002135841642877,-0.0091188252261677
30,-0.00011945305862,-0.006966132608699,-0.0015994747608819,-0.0068816818148771,0.0012471819016431,-0.0111936107852251
31,0.0008491223230277,-0.0085898654465662,0.0003728912240844,-0.0055884123946535,0.0017407170489254,-0.0104900079987596
32,0.0010395119629144,-0.0090225394737118,0.0012691248461755,-0.0048031994222697,0.0008767006327914,-0.0073518381887815
33,0.0010616978611628,-0.0077534962671525,0.0007367814743709,-0.0046164582310125,-0.0013173485300093,-0.0043212740789074
34,0.0010236560911547,-0.0064223652438336,-2.967053167683409e-05,-0.003679837316506,-0.0033424394584322,-0.0022148006016459
35,0.0010137170789559,-0.0060410411109711,-0.0002622201445786,-0.0017241890810284,-0.0031487420940063,-0.0012438287861124
36,0.0011692076859414,-0.0061675271682725,-0.0007712768063054,-0.0001858567907421,-0.0008845234826845,-0.0026576959284475
37,0.0012722984224358,-0.0063355126663969,-0.0018056874279901,0.0005220516736588,0.0018506348614308,-0.0057792509355114
38,0.0011789836640936,-0.006365757716202,-0.0028735359567947,0.0014204194476774,0.0035643022571216,-0.0081477508726754
39,0.0006891203596348,-0.0059620278142723,-0.0041832262931548,0.0024710253317562,0.0028271832705513,-0.0083740072674985
40,-0.0001030957847685,-0.0056132357533623,-0.0056636212791694,0.0020655659774109,0.0003663471580125,-0.0076687553724691
41,-0.0006953417498942,-0.0055208602310143,-0.006245807427696,0.0008492500774973,-0.0014082211408704,-0.0056355664842591
42,-0.0011209559673157,-0.0046524133807158,-0.0060464545045026,0.0006295770188296,-0.0024234738473591,-0.0010405543866521
43,-0.0015785248470072,-0.0030798399515828,-0.0062993391048489,0.000269635297695,-0.0039601597960237,0.0031296445758405
44,-0.0018429132170206,-0.001738032582916,-0.0067246345175726,-0.0016641960620895,-0.005304243174887,0.0048233184371254
45,-0.0016529968160322,-0.0012320513602089,-0.0063935468783311,-0.0047776581069389,-0.0050831721406474,0.0044866044322694
46,-0.0010236027070315,-0.0016804551022388,-0.0053508122739979,-0.0079700239848638,-0.0032633128874276,0.0027363057359122
47,-0.0003280446300491,-0.002782166829875,-0.0036134099569292,-0.0094261631458416,-0.0006479481529135,0.0022772762598742
48,0.0003176155520049,-0.0047508992750934,-0.0009723971576954,-0.0084285034509264,0.0017980119744734,0.0032720515187857
49,0.0007362188271107,-0.0068126063041256,0.0012931052209037,-0.0066901323592198,0.0027507024758331,0.0024138024557537
50,-3.923256694522047e-05,-0.0063475506576132,0.0009451676229402,-0.0054479864356843,0.0009816313078648,0.000717626898859
51,-0.0016358941889451,-0.003121129879996,-0.0013482368941309,-0.0039073666316789,-0.0020118237342914,0.0002082556551914
52,-0.0025033544621274,-0.0004795429329867,-0.0028823852617377,-0.0012536760713222,-0.003710997496373,-0.0020135395853448
53,-0.0023344439687875,-0.0009451032225598,-0.0023935527676814,0.0024587452409172,-0.0034581739639006,-0.0075560542242436
54,-0.001540999735627,-0.0035658294773751,-0.0002468272923393,0.006566205167306,-0.001472248732609,-0.0127944950097899
55,-0.0007129853004003,-0.0055693174810326,0.0009588007515925,0.0088673212852297,0.0004174600483713,-0.0159497403409173
56,4.314715490891409e-05,-0.0066004347382857,-0.0004958670924703,0.0068211059119345,0.0011238796483679,-0.020019073642783
57,0.0009249641392836,-0.0076526845153573,-0.0025768317442604,0.0017164586209625,0.0018107639737819,-0.0231956633854367
58,0.0016100973144201,-0.0081314317904796,-0.0036414433959624,-0.0026482964320023,0.0026212379237348,-0.020839134549985
59,0.0018681432936448,-0.0083946709128251,-0.0042805373091929,-0.0049323684696842,0.0023643457593182,-0.0160823176122567
60,0.0014207397591872,-0.0091597768481949,-0.0055018260367939,-0.0057907391851423,-0.0003444055210291,-0.0134304584777017
61,0.0007476038755522,-0.0097611254395691,-0.0071081895198438,-0.0061082098308562,-0.0042582595974463,-0.0122094610269699
62,0.0006919970384978,-0.0095749023940227,-0.0085256464686032,-0.007365892484653,-0.0043584176051627,-0.0115135848601615
63,0.0008098790101848,-0.0082835327704471,-0.0105257833109713,-0.0100688674605646,-0.0020829278015503,-0.0117221581267989
64,0.0007771976802301,-0.0055904112874431,-0.0134881297864692,-0.0127404359536795,-6.796238789858025e-05,-0.0115369007181165
65,0.0007245304961663,-0.0021018806344006,-0.0169130423159448,-0.0149347203953885,0.0018912083182038,-0.0109681765755044
66,0.0003702227986818,7.726798085944307e-05,-0.0200079212717281,-0.0170658543056786,0.002335833530852,-0.0133628331133124
67,-0.0003123773466711,0.0007542648342114,-0.0215904297992032,-0.0175999264531357,0.0014050108400814,-0.0170794738034138
68,-0.0011131005816479,0.0017508957600553,-0.0220583975252214,-0.0160504765398451,0.0003568610241976,-0.0166927104188757
69,-0.001863322970454,0.0030451923878596,-0.0233855821100013,-0.0147651500169443,0.0002696113381982,-0.0131041187199892
70,-0.002756533007117,0.0043269300453308,-0.0262813514623523,-0.0148738004103199,-4.378381758929277e-05,-0.0095685085464814
71,-0.0041009141539181,0.0056711825083658,-0.0296233630064038,-0.0160088969709991,-0.0008873179549294,-0.0081102196968071
72,-0.0052815923601247,0.006121552947289,-0.0319273341290438,-0.0176408307687824,-0.0011166833691543,-0.0105975859892436
73,-0.005367402207287,0.0056897885702743,-0.0324126316685168,-0.018043714501302,-0.0002038741995345,-0.0149877737239233
74,-0.0044689566216244,0.0050774620892291,-0.0316898785482064,-0.0169404652663772,0.0020849974949438,-0.0190995750213143
75,-0.0036028970628093,0.0044648118567725,-0.0319141209510009,-0.0165386159421628,0.0040634292422098,-0.0240120730500184
76,-0.0035217349050011,0.0041639375263528,-0.0344657606038212,-0.0181817355575097,0.0047126233354031,-0.0299003085723342
77,-0.0046129552088367,0.0036841517242736,-0.0386665738727636,-0.0217670192699856,0.0048681567711241,-0.0358321119254558
78,-0.0064002501763235,0.002361031404894,-0.040320507929751,-0.0263406959269989,0.0022262148753799,-0.0392481508269151
79,-0.0071080657770014,0.0011831919462988,-0.0396590220098319,-0.0305140610364267,-0.0003462206524941,-0.0408309015880416
80,-0.0059592159834775,0.0011411687567975,-0.0379171299171022,-0.0338687736145353,-0.0010703370787134,-0.040125020275176
81,-0.0042540048417547,0.0015670870534206,-0.0355715397172308,-0.0367695560410698,-0.0023830057620286,-0.0362326438655109
82,-0.0031223267006036,0.001836677498893,-0.0347335436644767,-0.0393094377166241,-0.0037732064284324,-0.0314130435247586
83,-0.0021985160748366,0.001963063493206,-0.0333540852930566,-0.0409699489835318,-0.0049342705401889,-0.0249971944398349
84,-0.0011861819123221,0.0014928854802365,-0.0296043278627108,-0.0414941876115681,-0.0054078749048831,-0.017267780269038
85,-0.000842251175511,0.000108080616823,-0.024841007076298,-0.0416828090273959,-0.0055031774101507,-0.0119274693318924
86,-0.0012557754096774,-0.0018234257236502,-0.0210478326253885,-0.0422170953513856,-0.0045003910510687,-0.0119754778723597
87,-0.0013513715487493,-0.0034855524960721,-0.016853062927535,-0.0429264739188012,-0.0027460696386942,-0.0139341134107116
88,-0.0008382486886491,-0.0039410769991078,-0.0114863012770075,-0.0433403184555302,-0.0004865201345206,-0.0126024768795477
89,-0.0008059068608129,-0.0027972322604419,-0.0063003154970232,-0.043156292575275,0.0015442579077892,-0.0066994820633134
90,-0.0017632909025124,-0.0006044135874115,-0.0011780702152286,-0.0418847410191307,0.0012221900490422,0.0030662490843569
91,-0.0022806556685235,0.0012445161384538,0.0045401562541739,-0.0390119765808533,0.0006134853627782,0.0134489811634558
92,-0.0014760922406518,0.0015750666836206,0.0109897118951179,-0.0357464838581562,0.0010615429343096,0.0208449981292466
93,-0.0003133720033195,0.000213816395699,0.0171075264597843,-0.034427931750125,0.0011566594041125,0.0241979159450995
94,0.0003058266831202,-0.0016879717632916,0.015897776918675,-0.0362759693549464,0.0003483324153199,0.0172172451162818
95,0.0003036874738962,-0.0032757768025581,0.0117331675532873,-0.0403474054576398,-0.0003825139088185,0.0052512493231345
96,8.203228211388118e-05,-0.004502802057149,0.0093934447652539,-0.0434871650842734,-0.0001852327656384,-0.0059871112616084
97,-0.0008327821530931,-0.0042215194458773,0.0072754296539334,-0.042781095141293,0.000184608894174,-0.0139612375485507
98,-0.002781087991878,-0.0024426175804107,0.0073373715802398,-0.0386147071483628,7.62800808451829e-05,-0.0138265718057617
99,-0.0039120204844909,-0.0018271036976611,0.0078764784153013,-0.033921670702215,0.0008749706518063,-0.0142016938071724
100,-0.0032284387993888,-0.0029580570053761,0.0074920662705363,-0.0306880159628017,0.0035592459969298,-0.0202450927904164
101,-0.0024494649727399,-0.0031642354409616,0.0060057649146129,-0.0290495908099613,0.0058121738467148,-0.0264520877258466
102,-0.0032837664639744,-0.0017257830636455,0.0055005313532264,-0.02839737496517,0.0054481904676511,-0.0262328372446234
103,-0.0057349507029993,-0.0001363813525669,0.004301149694801,-0.0284313310904791,0.0028567426954336,-0.0235365369637767
104,-0.0082567795434727,0.0012328022135593,0.0019851822859432,-0.0289676172914122,-0.0002268009314271,-0.0230715201268075
105,-0.00963342269528,0.0021030320401007,0.0007482531824131,-0.0292045670935757,-0.0025450242181441,-0.0239704313582923
106,-0.0103400841502909,0.001165532656041,-0.0013922269833919,-0.0292323260843719,-0.004324914152882,-0.0312876998591761
107,-0.0107557571417621,-0.0013885867988652,-0.002925581474412,-0.029681337246906,-0.0046078320441845,-0.0376803035447591
108,-0.0105992622251059,-0.0036638698250487,-0.0041731338561024,-0.0303246455688121,-0.0037853175540118,-0.0438936771051282
109,-0.009979309755646,-0.0047410961049652,-0.0060681378542883,-0.030755757454107,-0.0023838765611613,-0.0498923856004176
110,-0.0089127472100348,-0.0048242556972674,-0.0062276899623467,-0.030470841117497,-0.000668791957351,-0.0489235090391682
111,-0.0074370582968247,-0.004193727055165,-0.0045396184576847,-0.0289134505582959,0.0014947054429649,-0.0443464424033406
112,-0.0062115717254269,-0.0034286690428392,-0.0022931418685077,-0.0260616406259445,0.0031818051622552,-0.0396313777476385
113,-0.0059144661608018,-0.0032290227237056,-0.0005457504944399,-0.0229225402865927,0.0030689220223043,-0.0336670790991206
114,-0.0066224795866208,-0.0032395854103211,-0.001361978594259,-0.0206665113399891,0.0007811969728292,-0.0297037184967576
115,-0.0080828941471183,-0.0026409963056934,-0.0043261125810577,-0.0187503117781552,-0.0031461641800767,-0.0252612345784623
116,-0.0097684911640939,-0.0015909812818116,-0.007206837311865,-0.0162704807136111,-0.0070423910329154,-0.0194400213381061
117,-0.010401724463885,-0.0007919244564032,-0.0080764780436836,-0.0136425744500209,-0.0088187127199882,-0.0148464676771169
118,-0.0094668017398571,-0.0004544036947448,-0.0072555784554601,-0.0110740507809005,-0.0080219231784819,-0.0138775364567544
119,-0.0081134311314322,-0.0006073119761346,-0.0059370399202748,-0.0088261308219172,-0.006532278855322,-0.0133821951878045
120,-0.0071105569818946,-0.0014675441877301,-0.0055498645501937,-0.0080585467716533,-0.0055725309310027,-0.0123397219568308
121,-0.0063928425319841,-0.0026054454996585,-0.006809431311054,-0.008406479923733,-0.0054899393087414,-0.0108674291242507
122,-0.0056737842510033,-0.0036485991457972,-0.0090235644332701,-0.0082627523396393,-0.006430774079653,-0.0071295456683237
123,-0.004516441129939,-0.0047677277957594,-0.0113208903351133,-0.0072630639344414,-0.0072598235597929,-0.0038140108706213
124,-0.0032556754641853,-0.0053251367563944,-0.01284627926912,-0.0063672615487098,-0.0078816946114236,-0.0022516572653976
125,-0.0021737852262363,-0.0048024148079388,-0.0134973083343667,-0.0063726519602717,-0.0092269607557409,-0.001905936716672
126,-0.0007557736280102,-0.0047044949192991,-0.0102260989093102,-0.0069682619719104,-0.0069501698716498,-0.0047641207423245
127,0.0005749793682657,-0.0065003719791238,-0.0063976725245021,-0.0081947950475969,-0.0033425230112647,-0.0093678745681867
128,0.0001207581471324,-0.009111913942671,-0.005275013642279,-0.0110506643336629,-0.0018257520770459,-0.0131195755501387
129,-0.0032249450188043,-0.010145126155201,-0.0058619106675718,-0.014485639617243,-0.0023764216038531,-0.0128733224831099
130,-0.0073409761628857,-0.0082999233684779,-0.007621237134559,-0.0150134390227873,-0.0050640706662585,-0.0057329686100656
131,-0.0086804770882158,-0.0045625825928446,-0.0068620637169521,-0.0118404763314812,-0.005123045619056,0.0035186258679873
132,-0.0072596121202107,-0.0008916516014417,-0.0032679897030669,-0.0076950808008512,-0.0014238995426501,0.0089855037336972
133,-0.0055464340931784,0.0017465514761639,-1.882082336411962e-05,-0.0044322131747922,0.002820971122977,0.0102707031787076
134,-0.0049007391977925,0.0032194857247175,0.0005254061609056,-0.0015010957806215,0.0045366284005407,0.0099912794742702
135,-0.0052123296517878,0.0036229870240344,0.0013397949159453,0.0025556258504112,0.0056911349084303,0.0097420067312985
136,-0.0054200472215837,0.0031981125842413,0.0048626347004528,0.0080185274789106,0.0083646266027694,0.0100952065656221
137,-0.0043971038287466,0.0015467291518269,0.0102595668948184,0.0129191215648862,0.0127547577472747,0.0097722955177303
138,-0.0024551081363912,-0.0009122181605042,0.0164748647301619,0.0146656664153326,0.0192002153806001,0.0068725190365886
139,-0.0011611242844543,-0.0024709037950808,0.0203653529466192,0.0127408068342903,0.0242452219253979,0.0031003704482801
140,-0.0013945371871671,-0.0023988001956375,0.0211703151878574,0.0098391106060418,0.0258791910554863,0.0027838464863397
141,-0.0022465239554603,-0.0017002556803947,0.0216380369071936,0.0091580653281906,0.0266317852323058,0.0069468168800596
142,-0.0024001371647571,-0.00151787387411,0.0218411777783211,0.0106287672875019,0.0268022870934765,0.0123861345631697
143,-0.0016581638114403,-0.0012065524484482,0.0222489406135918,0.0116902277034813,0.0269203525787325,0.016953830110436
144,-0.0004382269309373,-0.000371737888708,0.0226497389577722,0.0109779651905336,0.0269058651421763,0.0199037081982318
145,0.0006747728867281,0.0002042700282131,0.022193767783242,0.0093151928147721,0.0262435447989504,0.0216542580145808
146,0.0016861915281541,0.0002645605897345,0.0215371586805699,0.0073458328980507,0.0262787699630053,0.022903100134557
147,0.0029933825962752,-0.0003007719912065,0.0203698233370547,0.0051187792756801,0.0270600911430418,0.0229394537617139
148,0.0044955884660662,-0.0015902887480008,0.0193144188217965,0.0036819094323383,0.028656821378617,0.021297735690497
149,0.0057689894544607,-0.0028152005837047,0.0191358980062976,0.0041252059687509,0.0308933747800157,0.018858936662868
150,0.0061587759996699,-0.0025246595913923,0.0201522606804959,0.0065343104480609,0.0333446537584742,0.0180990244477488
151,0.0059337795715673,-0.0006129244943428,0.0215785416919267,0.0097155923135876,0.0348605392269279,0.0195339733566965
152,0.006124225103097,0.0012434082704399,0.0229823319622604,0.0114375686533197,0.0354744288830552,0.0197496858590601
153,0.0069183367089322,0.0025011362940879,0.0247759210535524,0.0119572663231392,0.0360364867385306,0.0182845213139169
154,0.0075783784894897,0.0037422298127417,0.0269045828610199,0.0134706000651581,0.036426830200824,0.018302019520041
155,0.0076562484200616,0.0039126216542461,0.0296705570404915,0.015737458634819,0.0374104863677124,0.0197274689968943
156,0.0073457716035375,0.0025592540737885,0.0321229075368702,0.0170970913434508,0.038685840949688,0.0210264437234041
157,0.0063668142413233,0.0019047720832311,0.0320716459849778,0.0169650853933607,0.038540224638101,0.0227073414918564
158,0.0048681366079503,0.0032476375996685,0.0296002288364575,0.015940753888331,0.0375137878740542,0.0246260568743089
159,0.00376886852643,0.0055180662957436,0.0273138104165458,0.0152279835757542,0.0374407377411161,0.0254537024295398
160,0.0033845771368112,0.007347716467137,0.0266366274184101,0.0155650539371729,0.0381750487789116,0.0246598303213882
161,0.0034674408921965,0.0082503913870424,0.0272765271265296,0.017031626171012,0.038493511411099,0.0241181665458628
162,0.0034918531302,0.0084411187198982,0.0283932279384401,0.0189261904533706,0.0375848828076894,0.026258362164293
163,0.0034250747394105,0.0077036445752519,0.0289087093062131,0.0194501464179387,0.0360483335938345,0.0289826335234266
164,0.0038638712880566,0.0050203613065963,0.0288663110745295,0.0178527638409494,0.0358723562321343,0.0280238896388365
165,0.0045990734557693,0.0006983702656461,0.0291407786644462,0.0161339383291888,0.0374294264704217,0.0238623110520434
166,0.0044406346069735,-0.0025488019286674,0.0292524046414585,0.0158955536063866,0.037967839427201,0.0195252678840853
167,0.0030061817785034,-0.0034725121756161,0.0284634507120135,0.0163136402267366,0.035701265496684,0.0149481690948407
168,0.0012033406558525,-0.0029004953046402,0.0278067478604133,0.017068150617616,0.0323761062473677,0.011457963907948
169,-0.000430075814122,-0.0004624931885088,0.0275918440754685,0.0182957596499008,0.0293641511084987,0.0139225085825193
170,-0.0018488717054236,0.00350838828741,0.0265866229768059,0.019065319384045,0.0264055738864742,0.0224935386957486
171,-0.0028219918759132,0.0068902407212637,0.0247407904069464,0.0191935357576325,0.0239639619093895,0.0324471186827789
172,-0.0034876972658914,0.0082365364514453,0.0232079480836787,0.0192872841562857,0.0228792898445836,0.0396483828636123
173,-0.0039780582264779,0.0073077902589223,0.0228744045348348,0.0190895414040125,0.0234209534153485,0.0408805689128249
174,-0.0037052701274385,0.0049897268463522,0.0236515858448262,0.0178701146972216,0.0254194569535848,0.0355919182373023
175,-0.0025736836573473,0.0031251366006183,0.0239531464556971,0.0155668824234321,0.0274957886704742,0.0272772650740897
176,-0.0012921658169275,0.0030365004317166,0.0226617250022636,0.0131926945804841,0.0281332313765248,0.0207739525689581
177,-0.0001691359129539,0.0042130293676501,0.0207222137178136,0.0117340968690019,0.0277355257645316,0.0187317011215532
178,0.000562971726457,0.0045578678335159,0.0193210283866309,0.0106910681165752,0.0271425582901947,0.0196202840163374
179,-1.838283142919544e-05,0.0026088346587895,0.018539985868493,0.0086857653072593,0.0259185567500925,0.0201849035093246
180,-0.0018222451324412,-0.0006332694041278,0.0183452401483871,0.0061013813917111,0.0240903368097186,0.0193397040586753
181,-0.0023731251626053,-0.0036393483084652,0.0200950488793311,0.0060535324260972,0.0241445046360491,0.0178623022436459
182,-0.000684222827218,-0.0055213085610686,0.0236555921640317,0.0097105953950763,0.0268157703437398,0.0169081931457695
183,0.0009810976487822,-0.0051038101215914,0.0263321085351924,0.0143906790515554,0.0292176047717214,0.0175863205727248
184,0.00135711512528,-0.0025593444014596,0.0270988819937211,0.0175492752334751,0.0299571003136878,0.019588788624854
185,0.0014675376617296,0.0002575175600375,0.0267418423941271,0.0182694150285467,0.0298815786963633,0.021435955992652
186,0.002080853674382,0.0017288025217395,0.026130813055076,0.0168529243332582,0.0300514370085182,0.0216389817104565
187,0.0027895428553344,0.0016432211327829,0.0259618622298597,0.0147579851920015,0.0309626460859079,0.0199719410110508
188,0.0032758974522752,0.0011848785566237,0.0265328431881542,0.0140167946908309,0.0323742174142471,0.0184314209892062
189,0.0041071065528917,0.0002408956463249,0.0277175481500543,0.0150154297738342,0.0343025985917411,0.0166526570584154
190,0.0049249582490411,-0.0013759493826356,0.0282646645294018,0.0163119878825096,0.0353767266922049,0.0136298552451447
191,0.0041703059901958,-0.0013721824053467,0.0270807574601556,0.0173604354014998,0.0327740575779638,0.0125803633344229
192,0.0023835349251339,0.0001128789079469,0.0256632345367534,0.0186158173057409,0.0276152109330422,0.0129438667567337
193,0.0015154709736684,0.000722296229556,0.0258086701552743,0.0207041153315478,0.0237651085131225,0.0110060338472122
194,0.0018963922058476,0.0007270587625544,0.026909738596379,0.0230566887995619,0.0224013034479595,0.0077489989038083
195,0.0027813105257763,0.001143611863647,0.0278600667118558,0.0239753479842537,0.0227887623903375,0.0058108556811037
196,0.0034874823119592,0.0019437113981588,0.0281827174865331,0.023509626778002,0.0234807351935149,0.0069485363236577
197,0.0038133934467811,0.0025776004826621,0.0277230696537647,0.0225564582556411,0.0233097491838505,0.0111847291992057
198,0.0039875857019679,0.002381507349112,0.0268444215114209,0.0208660118751323,0.0228737913716628,0.0168398213986586
199,0.0039919156133249,0.0015875086804088,0.0254998087653042,0.0182588445368751,0.0227570688245401,0.0233679613073485
200,0.0036406100301153,0.0009816923159282,0.0234109413963856,0.0155216894754317,0.0226946495688798,0.0302083979361517
201,0.0030352279027731,0.000801328830759,0.0215209066880704,0.0139335006120025,0.0230115645820141,0.0350512409392895
202,0.0025087136401744,0.0004930149792598,0.0209767775428982,0.0139607608956466,0.0239989408746129,0.0360068331266125
203,0.0026307605961503,-0.0006485081695073,0.0219159576051774,0.0150423225728136,0.0252916954697429,0.0332679023500231
204,0.0032792170369924,-0.0017683005191238,0.0230814668049851,0.0161538072926804,0.0260237160936875,0.0285597384561698
205,0.0033002456024623,-0.0015465295397781,0.0222932539092901,0.0159845648455876,0.0247100339672622,0.0229371981634097
206,0.0023038810988311,-0.0005432678664959,0.01978394811352,0.0154359031272998,0.021220251636131,0.0170316191638927
207,0.0009368573723899,9.717943044514644e-05,0.0180798229764852,0.0166107335294118,0.0171537188176165,0.0122761873104884
208,1.8779603980421875e-06,-0.0001008380824618,0.0183600757981247,0.0184818592583691,0.0141811523673452,0.008297490210939
209,-8.003054061749451e-06,-0.0006583873658747,0.0198147607965709,0.018568274012119,0.0130973731856953,0.0045177729656375
210,0.0009569196276975,0.0002265668472314,0.0208802946726908,0.0166414607473738,0.013385028155991,0.0044241413372861
211,0.0025431156308121,0.0033230940532298,0.0206603847739683,0.0141834196819405,0.0140982625292044,0.0099105656984232
212,0.0039658703236781,0.006709072545809,0.0193510642270486,0.0122357881206415,0.0145691597600857,0.017014943797131
213,0.0048820746998964,0.0089221696370936,0.0175118034991956,0.0110540794976907,0.0145424182003711,0.0224933487193376
214,0.0053940170833362,0.0103045012562076,0.015800293942062,0.0106043819189209,0.0138390486528051,0.0263764031839578
215,0.0054752558226619,0.0107108626943477,0.0146200390534008,0.0101994811174652,0.0121876392081004,0.0282951365475182
216,0.0052033188511615,0.0098573175222194,0.0137666046342928,0.0092032774577638,0.0098481718676275,0.0276072870450665
217,0.0046767470595651,0.0083615212275021,0.0127910841864001,0.0080780116034298,0.007764059089504,0.0250235195266148
218,0.0042894605293737,0.0068316092714703,0.0121183789042264,0.0075674825109711,0.0073301457457755,0.021599840600846
219,0.0042869479356298,0.0054455829433489,0.0125285478573552,0.0078267423151639,0.0086937457767929,0.018474090224538
220,0.0039313442405128,0.0043851250035637,0.0131244032237364,0.0082715871492974,0.0096167168777878,0.0159979155341151
221,0.0029033039986156,0.0036372303037191,0.0129870274344775,0.0088486762448806,0.0086678293922107,0.0126780154018709
222,0.001696372229311,0.0028444090698006,0.0124399094572554,0.0105737814306503,0.0067005368176121,0.0074418983158175
223,0.0006065612396699,0.0019980365356186,0.0115031169593659,0.0129988924083822,0.0046861253118538,0.0009687106726054
224,-2.017310247948252e-05,0.0013495122198555,0.0107578914813844,0.0140075306763841,0.0033309345256002,-0.0052723854469519
225,5.577186492983264e-05,0.0009148470735415,0.0112768793367083,0.0122831436440225,0.0030567383595793,-0.0097608812330762
226,0.0002113579999988,0.0009491029483869,0.0123870519454128,0.0083131560478083,0.0028795238529995,-0.0105389077316297
227,-0.0002063128551017,0.0016407139014461,0.0128596436482679,0.0040460467338649,0.0016647743144115,-0.0071081015111856
228,-0.0007583125684301,0.0020175640123108,0.0128639081424145,0.0011795675202421,0.0002484046785059,-0.0027369316627286
229,-0.0011504136833513,0.001506378535341,0.012235683643377,-0.0001696296814818,-0.000649729819179,0.0003238309264198
230,-0.0022626790686719,0.0007081812596389,0.0099992872645353,-0.0010242325767487,-0.0022047640691618,0.0031599575378538
231,-0.0044529788031161,0.0003865387260688,0.0060806326007564,-0.0024075310637587,-0.0052546701206077,0.0063200478408108
232,-0.0059885247400557,0.0011925374114807,0.0018042831047975,-0.0042724647258027,-0.0081833260458418,0.008871675439935
233,-0.0051951786953036,0.0027839835412663,-0.0010081361523729,-0.0053171809155313,-0.008527713744049,0.0106374584512974
234,-0.0029707148613908,0.004233432738915,-0.0020349809297816,-0.0046784222716957,-0.0064954935731116,0.012617510215192
235,-0.0008886926223828,0.005118221143372,-0.0022377153859634,-0.0025601829620717,-0.004338874321187,0.0143479188322124
236,0.0008017611794267,0.0053711944239248,-0.0016717126396077,0.0010800303062509,-0.0032040071455538,0.0138491621361919
237,0.0022412706210749,0.004935036696595,0.0003267058543367,0.0057237211247326,-0.0028012252047843,0.0101669661557038
238,0.0031415950359352,0.0038352503582446,0.0031150534860302,0.0090258575412455,-0.0027280162480455,0.0040238257900409
239,0.0033092797412917,0.0023228221323344,0.0057357351632213,0.0093956325717609,-0.0020215500587077,-0.0022393905141072
240,0.0032534810971943,0.0010678138330692,0.0089105919507069,0.0083723677389115,0.0007233835104089,-0.0062396075963629
241,0.0029588897588812,0.0009804539020254,0.0121221445026921,0.007823799537511,0.0042171939543628,-0.0070860334983032
242,0.0019200592267605,0.0020442619341971,0.0131166486495288,0.0081450571053544,0.0060113574559942,-0.0041269664527986
243,0.0006321070690851,0.0030726968834249,0.0115515178150681,0.0091099823252828,0.005931624866282,0.0017776934466583
244,-0.0002052129082031,0.0031183761748573,0.0089092613595637,0.0096126449691603,0.004473092137052,0.0070106207891759
245,-0.0003056765443556,0.0021695750714838,0.0069697579288392,0.0087102619306026,0.0028138479211041,0.0082923657138339
246,0.0002631179409536,0.0005370792814931,0.0067633780993351,0.0071254186744931,0.002493726887759,0.0054545049434141
247,0.0011857272387612,-0.0012772134809008,0.0078749027094272,0.0062108073370721,0.0033551499216168,0.0016479418563603
248,0.0023311620515017,-0.0023512313319499,0.0090587694528604,0.0059356756539907,0.0044210819128428,0.0003090105092207
249,0.0033390450011021,-0.0022103837188949,0.0091448939781342,0.0050726064959758,0.0048117754074201,0.0018438862452576
250,0.0005741565314337,9.112089567286373e-05,0.0188446456977297,0.0142272785492973,0.0102739975055438,0.0018066169893121
251,0.0021601784852907,0.0031998157546505,0.0186658074269798,0.0117966836975917,0.0110330838011888,0.0073277875738202
252,0.0035797606990731,0.00659510943493,0.0173951701717278,0.0098734295438121,0.0115475006848315,0.0144652473931771
253,0.004492131015059,0.0088168206633364,0.0155942626190534,0.0087155980784009,0.0115640473053634,0.0199765874711361
254,0.0050022504585999,0.0102095255232215,0.0139231267412754,0.0082922147318237,0.0109061332401812,0.0238941710105833
255,0.0050852583316398,0.0106294703783493,0.0127866517731933,0.0079177992583986,0.0093037599706294,0.0258500469692191
256,0.0048183678084167,0.0097924301680296,0.0119801258783914,0.0069559017098023,0.0070166222499479,0.0252017549750398
257,0.0042981426046699,0.0083142378671254,0.0110528896746612,0.0058665888739148,0.0049863476786786,0.022658658547611
258,0.0039159686909506,0.0068006951351172,0.0104276052918473,0.0053908618126803,0.004605497040645,0.0192751071633132
259,0.0039156029607767,0.0054282080056067,0.0108827986479923,0.0056818697352652,0.0060198228535495,0.016187808876759
260,0.0035591422000179,0.0043784202310408,0.0115212425825361,0.0061553610125442,0.0069911375433858,0.0137483834358261
261,0.0025288528529287,0.003639812703635,0.0114254367492172,0.006759765024576,0.006089658124395,0.0104645714484659
262,0.0013206289656476,0.0028570545786728,0.0109209336498598,0.0085134339692585,0.0041709478288625,0.0052654092554654
263,0.0002322976374736,0.0020231901519651,0.01002940066193,0.0109703520862765,0.002207914499636,-0.0011687763094874
264,-0.0003898454582031,0.001389932472814,0.0093323714349596,0.0120144074313132,0.0009072025465341,-0.0073686069118045
265,-0.0003074592673718,0.00097212848848,0.0099013724829753,0.0103276574687402,0.0006894414568133,-0.0118144022297467
266,-0.0001457178816243,0.0010228732559677,0.0110614879945919,0.006395175837866,0.0005686952368498,-0.0125496906323376
267,-0.000559368652716,0.0017288966799622,0.0115823127896503,0.0021634003914025,-0.000591230001154,-0.00907731907731
268,-0.0011100798069509,0.0021175321403098,0.0116325748859029,-0.0006705750579289,-0.0019549538177204,-0.004666150535887
269,-0.001502701583061,0.001616353047992,0.011048914866231,-0.0019890867677545,-0.0028018004288272,-0.0015663591085272
270,-0.0026154026704646,0.0008281263598309,0.0088573164604878,-0.0028127452042579,-0.0043052078316028,0.0013090544506735
271,-0.0048042263768889,0.0005180984648205,0.0049852965328568,-0.004162831968124,-0.0073015098837681,0.0045098788669803
272,-0.0063355871546427,0.00133808900913,0.0007581212002702,-0.0059914150475106,-0.0101738731597754,0.0071042001705111
273,-0.0055359593281792,0.0029453391346269,-0.0020031325835509,-0.0069973180805417,-0.0104598370145426,0.0089142343202015
274,-0.0033047609256582,0.0044108899089756,-0.0029782758172656,-0.0063190952954534,-0.0083685459532323,0.0109390144734002
275,-0.0012173160821998,0.0053104530305326,-0.0031303359456542,-0.0041626875123783,-0.0061538028319193,0.0127134777451264
276,0.0004762946127132,0.005575992469286,-0.0025155322674608,-0.0004866535758331,-0.0049626246051105,0.012257470640388
277,0.0019170218503587,0.0051504943647193,-0.0004699036659217,0.0041908642455956,-0.0045050540141844,0.0086169278915115
278,0.0028180047262641,0.0040607289306681,0.0023652734079234,0.0075263504112957,-0.0043773459142146,0.0025152403980835
279,0.0029874497361511,0.0025592110244581,0.0050338636058708,0.007930819804244,-0.0036151811013106,-0.0037056462693271
280,0.002935569987039,0.0013169741413817,0.0082586359433622,0.0069447508321425,-0.0008124062155951,-0.0076619735608735
281,0.002646975500414,0.0012441725415393,0.0115220341209644,0.0064357916796706,0.0027413116339362,-0.0084630067798686
282,0.0016150962915407,0.0023232895951433,0.012569316862446,0.0067978301809173,0.0045964295100935,-0.0054577817681261
283,0.0003335184049752,0.0033663736527143,0.0110565409892991,0.0078030161393627,0.0045773168428117,0.0004927964671359
284,-0.0004991226636136,0.0034250115290505,0.008465220608292,0.0083441891686744,0.0031780532257867,0.0057706679033337
285,-0.0005967390740799,0.0024873526702512,0.0065751145516698,0.007478410736385,0.0015766012835288,0.0070962913654401
286,-2.605837675085734e-05,0.00086498225039,0.0064173490231693,0.0059292210043606,0.0013135748890618,0.0043018032439834
287,0.0008988497586579,-0.0009389380392874,0.0075779168351421,0.0050508172047167,0.0022326174276736,0.0005389990555445
288,0.0020481287499118,-0.0020012940949617,0.0088122460001128,0.0048136904552796,0.0033577113876758,-0.0007550561349101
289,0.003061710089818,-0.001847212506507,0.008950519779574,0.0039907589580758,0.0038093818445455,0.0008260112977273
290,0.003957269808984,-0.0016562781235356,0.0083564575245073,0.0020423863108388,0.0040589346494185,0.0023394457241713
291,0.0053811506425471,-0.0032333026057933,0.0086228746394714,6.568792062193442e-05,0.0056666001863227,0.0006039805914805
292,0.0066451536006495,-0.0058612345851783,0.0092924734461617,-0.0006254555942979,0.0074649995387061,-0.003858577663906
293,0.0061824494725334,-0.0068472094248456,0.0084327188069422,0.0004848008534255,0.006581496395432,-0.0074913242015984
294,0.0044489238522829,-0.0058344579864333,0.0066083629024637,0.0032565812916421,0.0036351707325432,-0.0081261055273088
295,0.0031837042206071,-0.0040466840958933,0.0053867525937298,0.0062939572259301,0.001234476291452,-0.0070646603683922
296,0.0025818925495046,-0.0018387216584324,0.0046275410321831,0.0081109886488867,-0.0003195241521095,-0.0061430580892428
297,0.0022047754926026,-0.0002466042024875,0.0042389608703746,0.0080377658636313,-0.0011848997782916,-0.005756454547001
298,0.0024057814595479,-0.0001689840245506,0.0049264530130489,0.0062931066615278,-0.000408581325958,-0.0054429754661505
299,0.0031952428682046,-0.0008752304910816,0.0066583406158007,0.0043590588247736,0.0019822385824343,-0.0042628033759213
300,0.0040998588696583,-0.0013185585466375,0.0081347703272564,0.0031478905930384,0.0044779530728502,-0.0023041222549515
301,0.0049507397654984,-0.0010267316538939,0.0083047995109158,0.0022953481460526,0.0057591302402434,-0.0007923472334003
302,0.0058429752680635,-0.0003607231340622,0.0078622139220526,0.0019780338193515,0.006251751999452,-0.0001470653269277
303,0.0070287789720222,8.483647803584872e-05,0.0081332137673257,0.0029374109439044,0.0073268466409465,0.0003273638928579
304,0.0078966382063326,0.0006792150025485,0.0086069839592585,0.004632631690421,0.0086326706128815,0.0016644300861826
305,0.0073798335593347,0.0015790371767825,0.0077072147763339,0.0054722585081163,0.0088096103563623,0.0036295591025464
306,0.0058144008724313,0.0016918739700908,0.0054493942745087,0.0049050218377445,0.0077277201817776,0.004751820789578
307,0.0042567660908431,0.0010093916654896,0.0026881934769527,0.0039021762877059,0.0054598590371232,0.0049932205643146
308,0.0035000185647219,0.0005886422881486,0.0001894164677774,0.0035939484589252,0.0025848117922522,0.0048557789941429
309,0.0036640774279361,0.0004395860537711,-0.0011044301810107,0.0043736875161357,0.0006212557569404,0.0040100000500489
310,0.0042708702846209,0.0005791981149902,-0.0011426233094202,0.0062177242012093,3.144280315731594e-05,0.0028501686309042
311,0.0045544221826933,0.0014265705226483,-0.0008599766182278,0.0085537451514241,-0.0001370878793139,0.0022100485156465
312,0.0037798852840841,0.0023842471748701,-0.0009046139843012,0.0102329817451383,-0.0005769685099805,0.0013484577120013
313,0.0024727233116197,0.0026761077296235,-0.0011645791263486,0.0104944539985049,-0.0003434481065775,-0.0015202837320301
314,0.0017598504204362,0.0027534877416384,-0.001129664668793,0.009545537501138,0.0020848916391218,-0.0051612755100194
315,0.0015866537101149,0.0029880513641584,-0.0010278575811986,0.0078240467383588,0.0060410228741932,-0.0066739030191171
316,0.0011359840751607,0.0028462092773439,-0.001760207133073,0.0055916494578919,0.0093027271638818,-0.0063752163363616
317,0.0003624043251844,0.0023326649541795,-0.0032521315474255,0.0035554117988524,0.011355657358529,-0.0055216735222965
318,-0.0002062843286565,0.0019006272485845,-0.0047691908349633,0.0017898240770732,0.0131167040560437,-0.0041692831157734
319,-0.0003548326039833,0.0018832915152056,-0.0055583983119563,-0.0001328690019924,0.0149349713009304,-0.0018762001699741
320,0.0001372964674213,0.0025383801120968,-0.0049920410191481,-0.0017267711819999,0.0166382700706705,0.0017727545040919
321,0.0012573896348425,0.0032055744023544,-0.0034351335901791,-0.0028903505924084,0.018262662364794,0.0056173868531161
322,0.0018784378957915,0.0031386025806529,-0.0024850172810286,-0.0042899905148098,0.0189298133093143,0.008197203784798
323,0.0012324782152927,0.0027725759827546,-0.0034280951329068,-0.0058143787775817,0.0172565998644193,0.0091995252428888
324,-4.922172013101819e-05,0.0024850008392962,-0.0058252144476562,-0.0066622728008011,0.0137453707021939,0.0085616790014848
325,-0.0020063527814545,0.0017141319821986,-0.0089033504918429,-0.0070731218537187,0.0096638482723105,0.0063869497347763
326,-0.00505234129574,-4.228573295547055e-06,-0.012244882698733,-0.0081420129093621,0.005698088045397,0.0031130394391125
327,-0.007595691702295,-0.0017560158225838,-0.0144213242521899,-0.0091732002888474,0.0035248043396486,-0.0004670374129007
328,-0.0077855550827979,-0.002023875076087,-0.014065421867175,-0.0080629622721767,0.0043210809763788,-0.0030299942157207
329,-0.0063301031826965,-0.0007309039467071,-0.0120295291500958,-0.0046907383860469,0.0061309412172438,-0.0036077267021806
330,-0.0046304382997281,0.001201065682387,-0.0097041853545703,-0.0007470563234912,0.0071490607781391,-0.0021336663461123
331,-0.0030617282748471,0.0026647838629069,-0.0075048423325501,0.0018434102447186,0.0077856049730024,-0.0001629250766374
332,-0.0020785471555212,0.002683138419012,-0.0060270987079878,0.0017321903032263,0.0082263423832453,0.0001682700383488
333,-0.0020030310913399,0.0015409449395057,-0.0059407948783629,3.664804188044005e-05,0.0082810292689001,-0.000762142362208
334,-0.0024162173547681,0.0002576627867123,-0.0070711594512003,-0.0009487873759526,0.0082042400340003,-0.0017500661282661
335,-0.002788772659452,-0.0007451946773518,-0.0081620834589975,-0.0009243833329227,0.0080010904626214,-0.0034916548537431
336,-0.0030141266725296,-0.0014413575574253,-0.0080694279310252,-0.0005696706467156,0.0073675511187611,-0.0066596688230054
337,-0.0032729267449928,-0.0010225501227463,-0.0068344946969842,0.000772452062549,0.0064926606734909,-0.009058163423424
338,-0.0036388120925979,0.0012551127603228,-0.0054322703361198,0.0031394306015578,0.0056962879906263,-0.007773890754226
339,-0.0038221123098782,0.0040248155188425,-0.0050100480851927,0.0042290849484254,0.0047705343306497,-0.0035891405354599
340,-0.0037589000509691,0.0052141125843225,-0.0054667134104843,0.0030115147537099,0.0036747439989786,0.0009216557344944
341,-0.0035831989669426,0.0049342999285621,-0.0057585167656003,0.0011391878430149,0.0029077744692376,0.0053701217898472
342,-0.0031108740715607,0.0045421027972608,-0.0059483839559389,-0.0006389217780865,0.0025330636988768,0.0098821989072618
343,-0.0024963737617289,0.0043084542343853,-0.0068863523537537,-0.002971916501842,0.0019237960594927,0.012740592332614
344,-0.0018501000121942,0.0040208163163338,-0.0078576554331102,-0.0051625004364666,0.0012784789538924,0.0130125803483425
345,-0.001073366373734,0.0037015944703157,-0.0076677913335032,-0.005769567230064,0.0009678342353373,0.0118291709295589
346,-0.0005997577217416,0.0028159260876072,-0.0070087562428417,-0.0053778970617408,0.0003197929152083,0.0094071037491814
347,-0.0008138359288921,0.001146145389888,-0.0068797064100048,-0.0050278133680626,-0.0007526209619501,0.0059138868006821
348,-0.0014996144198938,-0.0006862590451461,-0.0070185303685241,-0.0041172367162482,-0.0014950015205931,0.0028715994049683
349,-0.0021961317753114,-0.0020462865420833,-0.0071212787095227,-0.0025582155431081,-0.0017648591970349,0.0009026668977961
350,-0.0025481654322602,-0.0026544815029392,-0.0074544501163448,-0.0020197500530299,-0.0018648841950792,-0.0015714237829271
351,-0.0023978432957702,-0.0028851892282889,-0.0077905967625859,-0.0030338025442779,-0.0013965740771433,-0.0061859636484059
352,-0.0020193447109381,-0.002640830115607,-0.0082588930691319,-0.0041478080679397,-0.000628121245097,-0.011249826862971
353,-0.0019077298793695,-0.0015047982181753,-0.0098142659921453,-0.0049877221975059,-0.0011229765144917,-0.0137814932309954
354,-0.0020478437218004,-0.0003216809458093,-0.0120500102054196,-0.0060940258328531,-0.0028956346739432,-0.0128818175329161
355,-0.001896991182673,0.0001405711166951,-0.013253810062327,-0.0074632673536703,-0.0039941896289247,-0.0094777855473402
356,-0.0011192025999008,0.0001289700103484,-0.0124654897217958,-0.0089389484820604,-0.0030190013086712,-0.0055186114210723
357,-0.0003054708537327,-0.0002319547107557,-0.010510203028132,-0.0101302326848123,-0.0010013735322857,-0.00221760972901
358,-0.0001681419146158,-0.0005925481370599,-0.0091313960578852,-0.0107846879409122,-3.515243537660285e-05,0.0005963880453527
359,-0.0004861116426024,-0.0004725558682754,-0.0092862939650102,-0.0115673077481481,-0.000602899357075,0.0024295772770001
360,-0.0007091118495835,0.0002333391925002,-0.0104963239728539,-0.0125780015799762,-0.0019356532987624,0.0034039104415444
361,-0.0006423590878182,0.0012079796903957,-0.0116758865263041,-0.0130446621051428,-0.0032853969564931,0.0044023864648428
362,-0.0004090415731927,0.0015309492064127,-0.0125867152004548,-0.0131726526106925,-0.0042839916996015,0.0043622412891442
363,0.0001468357183602,0.0007885198248396,-0.0135619152848393,-0.0133313717036147,-0.0044019557533241,0.0023332676217302
364,0.0011320447086197,-0.0010070770315601,-0.0142535771795339,-0.0129511315226331,-0.0031078032454783,-0.0014518998479115
365,0.0020783395048386,-0.0036188816734364,-0.013999097693057,-0.0112976821447621,-0.0012722989024292,-0.0065163204058749
366,0.0031806452080088,-0.0059292365976798,-0.0126238220083553,-0.0089206042196079,0.0001815811027749,-0.0124403379094142
367,0.0047984675550332,-0.0073436462451747,-0.0106246029371491,-0.0072901204746588,0.0011832264702885,-0.0192511373026185
368,0.005969399062144,-0.0080610473061913,-0.0089432721855668,-0.0064561072291357,0.001197705682591,-0.0248973078068315
369,0.0056732778941283,-0.0075143417522691,-0.0083875154541655,-0.005631284740309,-0.0003027659106379,-0.0252303231625718
370,0.0042471932837968,-0.0053642390947448,-0.0091821914881346,-0.0053511869746073,-0.0027795789103829,-0.0196155428511563
371,0.0026717625188689,-0.0027007429484742,-0.0109580528282646,-0.0065038023807793,-0.0051981668065675,-0.0115581935770679
372,0.0009093118854308,-0.0014005519008014,-0.0136558175364532,-0.0092953426909646,-0.0078096598224141,-0.0043942442549223
373,-0.0014416884303396,-0.0026258459264847,-0.0171864319159649,-0.0136044778056422,-0.0112469045140993,-0.0004427997870024
374,-0.0031675871541151,-0.0049954797959658,-0.0200339318158004,-0.0178782323331721,-0.0142220802892965,-0.000263670728954
375,-0.0029629074110889,-0.0061299128828689,-0.0206418843854073,-0.019609245305563,-0.0150374618989679,-0.0018405428546207
376,-0.0015953580890152,-0.0058516658381726,-0.0191634228191338,-0.0179789263048246,-0.0137707796153124,-0.0033145800417981
377,-0.0005453350474002,-0.005462961829751,-0.0167468432434136,-0.0142879649100617,-0.0116899058678931,-0.0044431294410447
378,-0.000250199428615,-0.0051050312307476,-0.0145511306301682,-0.0103686366513577,-0.0099938481731311,-0.004772345860325
379,-0.0007091631971925,-0.0042934921799854,-0.0134659855344236,-0.0075126255781957,-0.0094576226657805,-0.0037192374408508
380,-0.0017902925033242,-0.0032165888719506,-0.0134676711089638,-0.0058891607767078,-0.0101087885670573,-0.001832696910927
381,-0.0026346959065041,-0.0023233282339353,-0.0136894178300213,-0.0047807504395899,-0.0109587287040869,-0.0007722350665072
382,-0.0029245921982872,-0.0022150149553012,-0.0139400506589804,-0.0037954564626211,-0.0115393276384818,-0.0020579865021979
383,-0.0031223253879361,-0.0032390437373797,-0.0143511016043118,-0.0028813516550537,-0.0122588258734605,-0.0058194717937909
384,-0.0034420247999549,-0.0048762617992366,-0.0146192290972274,-0.0019072771691573,-0.0133014674692819,-0.011196441061393
385,-0.0040740943270409,-0.0058216219942378,-0.0148039204555745,-0.000982731692873,-0.0147313367464096,-0.0164161397485489
386,-0.0049644854873803,-0.005586239827899,-0.0149081112735794,-0.0004757561018938,-0.0161372967912814,-0.0197606901430047
387,-0.0057355089287127,-0.0049440576268519,-0.0139402765326782,-0.0004064860004137,-0.0166951598934307,-0.0200061785372015
388,-0.0060612899064761,-0.0041692478808842,-0.0113151327675155,-0.0005297535132527,-0.0161023638113463,-0.0163093530836842
389,-0.0058301460044456,-0.0033197569614626,-0.0086344343950661,-0.0010738533292484,-0.014958955812965,-0.0105199948354239
390,-0.0054910319146796,-0.0027197933120359,-0.0079802145007994,-0.0021059171461822,-0.0145067101290634,-0.0056882269838705
391,-0.0055829845156847,-0.0021245904707328,-0.0091114133166738,-0.0027767174653805,-0.0154788127901183,-0.0018468906590013
392,-0.0061596749516462,-0.001357208717407,-0.0102415647002793,-0.0026237177921099,-0.0176213061766091,0.0017833076640381
393,-0.0072247507132597,-0.0007580506613135,-0.0111370106443812,-0.0026220573543526,-0.0205308187958161,0.0041915691340572
394,-0.0084098690417253,-7.995166326785831e-05,-0.0127391440336889,-0.0031006856418047,-0.0237134844718388,0.0055361696442463
395,-0.0090507985558898,0.0008834881394133,-0.0147664073806614,-0.0032815799672968,-0.0260641854104182,0.0062466411228307
396,-0.0088597968981581,0.0013978965728393,-0.0159781388379287,-0.0034101035964704,-0.0261628194127621,0.0047809809992903
397,-0.0079779529257751,0.0012735902722541,-0.0157546936583276,-0.0037386540031803,-0.0240807033844804,0.0014026201968134
398,-0.0071879315204547,0.0010697480648244,-0.0147218894606592,-0.0032846530620526,-0.0219097908680192,-0.0014747658590115
399,-0.0071370363569022,0.0011092078920345,-0.0136533056698283,-0.0011791113323414,-0.0212075280219038,-0.00297918791197
400,-0.0141896009267458,0.0036193349926314,0.008758004568481,0.0145536555029964,-0.0199647674504793,0.0081017539845409
401,-0.0126979411285761,0.003765772233073,0.0076942706158982,0.0137517303047047,-0.0191345242739203,0.0108228840344976
402,-0.0120122666388254,0.005493732518927,0.0064105135858302,0.0140540367075701,-0.018458415174764,0.0158537956172611
403,-0.0118807687524917,0.0078813430459088,0.0055483126904697,0.0148520339254801,-0.0175829826874196,0.0217267996526954
404,-0.0114188692625871,0.0088073253377458,0.005841641186016,0.0154356799070408,-0.0153054879666907,0.025284378770037
405,-0.0098681412547541,0.0073830803531164,0.0072898263154403,0.0151390641097321,-0.011369857403841,0.0240807903842071
406,-0.0079899541761765,0.0048965932271825,0.0082924274712014,0.0136297992267084,-0.00775711154011,0.0211705574349875
407,-0.0077483463901638,0.0036791771443407,0.006787142415501,0.0112961142396387,-0.0076028175877181,0.0232023779070297
408,-0.0086868469458665,0.0037287789410401,0.0036869012054869,0.0085056371339089,-0.0102782682694989,0.0294655339626147
409,-0.0090257607654786,0.0034585687396443,0.0017194671367768,0.0060609420233938,-0.0127708005903305,0.0341321168046982
410,-0.0090351396112095,0.0030902076944231,0.0013254835075939,0.004970017717674,-0.0146304341971389,0.0332672592407149
411,-0.0098080654089231,0.0036891011800455,0.0009879037761646,0.0052809661837072,-0.0171543601590809,0.0320204913206772
412,-0.0108550682508155,0.0057163896274385,2.8742717272238796e-05,0.006609948359322,-0.0203193394910695,0.0340003912829164
413,-0.0111150090621523,0.0090695071552601,-0.0014343374117958,0.0086113558364803,-0.0230586021146815,0.0376586953433425
414,-0.010608464948446,0.012547163758161,-0.0030157241367095,0.0104163067029066,-0.0245867491424463,0.0415531315727554
415,-0.0098467966385369,0.0143809819499733,-0.0037471169207092,0.0111004311769655,-0.0244808375421621,0.0412197394633678
416,-0.0093881320638392,0.0140522034946723,-0.0035264709674929,0.0107640348973245,-0.0233801088599222,0.035118252807507
417,-0.0095596189568521,0.0128410686759586,-0.0032813932260482,0.0107003311710135,-0.022619791316825,0.0270208881239233
418,-0.0101725928788656,0.0121037931648395,-0.0033550637434151,0.0116542896488695,-0.0227735054695976,0.0229447652789216
419,-0.0107372722177751,0.0122222466334471,-0.0034729820929356,0.012541357187191,-0.0235102689382016,0.0230440241144917
420,-0.0109845996457321,0.0131207781097244,-0.0036378864113163,0.012394117607322,-0.0246863678121639,0.0253522670095672
421,-0.0112249419387767,0.014193918336388,-0.0044838459660104,0.0110956383748907,-0.0264963203103654,0.0285848735885278
422,-0.0115106503043946,0.0146130158650979,-0.0063509139454417,0.0086153586125069,-0.0282021895692088,0.0292814722393379
423,-0.011389818691526,0.0143166520475661,-0.0086779656755014,0.0058517139103236,-0.0289317103210161,0.0268766033328936
424,-0.0107032509753562,0.0136626951955388,-0.0106037369554606,0.0042236568488158,-0.0290302693822762,0.0225236453590217
425,-0.009818741668998,0.0124919842536964,-0.0114334092164083,0.0037699594071485,-0.0288609859190076,0.016514515151072
426,-0.0092350468299192,0.0108659148575057,-0.0111290016129832,0.0034565251994472,-0.0285007761829827,0.0115081131812588
427,-0.0089441367114096,0.0097770859542911,-0.0104323633443187,0.0028630067422419,-0.0284098570920529,0.008406593916382
428,-0.0087850629495197,0.0095147048180844,-0.0103167354840555,0.0017748861678638,-0.0288341891730176,0.0071041009745082
429,-0.0092788762115524,0.0093177224751847,-0.0113589389812691,-1.7202553957847268e-05,-0.0297934438698171,0.0075360783018988
430,-0.0107534074235515,0.0090823568332688,-0.0128178719501173,-0.0014251156661337,-0.0308005711363214,0.0095185730750567
431,-0.0122375820508528,0.0092751956278124,-0.0131623032104073,-0.0011496654337307,-0.0307259567214936,0.0143869756738099
432,-0.0125063118716695,0.0100549415383577,-0.0118761079183576,0.0004344668434079,-0.0290546722507795,0.0213257604853438
433,-0.0116439574047945,0.0110735999638173,-0.0095992223059231,0.0021646065528411,-0.0265823575871547,0.0274391373291416
434,-0.0106804015053515,0.0116531984116177,-0.0072865355289751,0.0037449052688034,-0.0247116774024798,0.0294641777252878
435,-0.0103249517138625,0.0114205005267329,-0.0058674176907389,0.0052555440884644,-0.0242032741772494,0.0274521428262215
436,-0.0107189362759675,0.0106186238305006,-0.0060392297934428,0.0062787672578042,-0.0248781175017544,0.0239315112846548
437,-0.0119197245906901,0.009492287658291,-0.0077591354671929,0.0061194957269926,-0.0258344463526465,0.0209418418037236
438,-0.0135023772612785,0.0083075851371137,-0.0102619851562643,0.0044974497675422,-0.0260353945180329,0.0196807103761772
439,-0.0142640135754676,0.0080499880342366,-0.0121810602271275,0.0022579450727607,-0.0252792014736034,0.0198994482716598
440,-0.0139263334322493,0.0088368152271974,-0.0122304818887264,0.0002144646211085,-0.0243630525087156,0.0201903601676998
441,-0.0133170464291249,0.0094669326504353,-0.0103257133205159,-0.0012692205084585,-0.0240309971376062,0.0190209057949271
442,-0.0127467526336797,0.0098191631753992,-0.0072845483141582,-0.0013264056500526,-0.0241902746766351,0.0173441449775539
443,-0.0124670303548981,0.0103696789770963,-0.0046756330525545,7.62124897147918e-05,-0.0248005577985347,0.0170585647137056
444,-0.0131257634743927,0.0108229340657839,-0.0040723393562917,0.0015274836904864,-0.0263885529545988,0.0182458596071436
445,-0.01443712712741,0.0108663745732822,-0.0048988120763998,0.0019511611109061,-0.0284056875164154,0.019570460550366
446,-0.0150843427241354,0.0103950113588301,-0.0048971707879614,0.0017741794560397,-0.0288073438208836,0.0199337273726352
447,-0.0140038637459509,0.0096881310165261,-0.002511470665476,0.0023005939798956,-0.0260934781971336,0.0195861460774523
448,-0.0114051795518796,0.0093058687776309,0.0019253384221735,0.0043231283546388,-0.0210985484454907,0.0189218463143036
449,-0.0089770819077725,0.009248837966786,0.0062872884288422,0.0077443363974246,-0.0169205936198095,0.0178991246207497
450,-0.0082139367580479,0.0093563467706485,0.0083112760553461,0.0112592473853163,-0.0161709583673205,0.016565728645088
451,-0.0090206039864875,0.0096505945719238,0.0069087335067337,0.0122906375080254,-0.0191636621416526,0.0145972498237814
452,-0.0101966823136015,0.0104208849300984,0.0021621351026263,0.0091859371680555,-0.0247814807649495,0.0124110371905414
453,-0.0108798581210325,0.011713506679294,-0.0046769184519893,0.0026384248073009,-0.0312691613117838,0.011413791372882
454,-0.0110220105896671,0.0127551567785357,-0.0110352530373346,-0.0047378561884923,-0.0364764917097671,0.0118526139093754
455,-0.0105578163114619,0.0133864515759912,-0.0140311604959342,-0.009349602445338,-0.0386107162441906,0.0133878262569775
456,-0.0098616757018247,0.0140655459281279,-0.0132348786728682,-0.0093244490411964,-0.0382367016579159,0.0158500049147133
457,-0.00962586713538,0.0149119713203585,-0.0110467508712827,-0.0061214630246805,-0.0377815871597185,0.018381064678166
458,-0.0101009202067924,0.0157054055895852,-0.0099186589429124,-0.0028525783620701,-0.0387209832516182,0.0205098641057628
459,-0.0111173313788122,0.0160229284509605,-0.0103578981920914,-0.0012640891913086,-0.0407193982421766,0.0232070829347194
460,-0.0118831037673804,0.0157592843647964,-0.0110960261571241,-0.0011121142150894,-0.0422450713300313,0.0266680857582852
461,-0.0119871168302392,0.0149856847207419,-0.0112373036478948,-0.0021508397198482,-0.0425368849001382,0.0289742724853506
462,-0.0119020750158095,0.0139148404001261,-0.0112092761385771,-0.0041401497835774,-0.0424893668357036,0.0291110999248034
463,-0.0122158080796138,0.0130924733620138,-0.0118224788299003,-0.0063282714035123,-0.0433899772914188,0.0281999570569825
464,-0.013037233499015,0.0128405580380244,-0.0132190544860283,-0.0083336403479323,-0.0452614923433597,0.0267855949037526
465,-0.0137786840355092,0.0131544679296165,-0.0145596353329409,-0.01044343363721,-0.0466146819630877,0.024024277739999
466,-0.0140846319191054,0.0140101174110876,-0.0152875827183693,-0.0125282433501822,-0.0467133759231419,0.0203161477253255
467,-0.0139795009165601,0.0151731206953322,-0.0152996724612225,-0.0132500750155828,-0.0460953189825136,0.0177106650120896
468,-0.0133623698177359,0.0159584798757736,-0.014182964475859,-0.0121455392584918,-0.0447578390244443,0.0164689694637225
469,-0.0122396801444966,0.0157487411417575,-0.0117965943950309,-0.0104643550401886,-0.0421338263817767,0.0151491041220315
470,-0.0106871227055096,0.0146195483192979,-0.008944329096975,-0.009454917044398,-0.038406172713683,0.0134577118933482
471,-0.0092300027741054,0.0127930375447188,-0.0073337272776975,-0.0100804089970739,-0.0349813559827238,0.0120947952524508
472,-0.0086251047834235,0.0104793205744122,-0.0078363683441227,-0.0120470048796617,-0.0331819566896778,0.0114232269511093
473,-0.0088553063239699,0.0079623760091919,-0.0091387729899315,-0.0133116500455411,-0.0329345286714155,0.0107582104996323
474,-0.0091935395153402,0.0056908793222753,-0.0096269632947823,-0.0125654365888097,-0.0335155847553024,0.0096544219830737
475,-0.0091379506298104,0.004543870539876,-0.0093311369017496,-0.0108178649983672,-0.0345737530846355,0.0092399117213117
476,-0.009070183102455,0.0046567182933918,-0.0093871250804163,-0.0099791644440096,-0.0361435718661406,0.0105289985254422
477,-0.0092025173605596,0.0053754314621733,-0.0100430653237662,-0.0103720279606768,-0.0376662707355591,0.0131293648603736
478,-0.0090997521655968,0.0061189106750441,-0.0104249464764275,-0.0110940692229158,-0.0380142794401412,0.0153299718347853
479,-0.0087886230725269,0.0063112108911478,-0.0102603974117822,-0.0118110608774966,-0.0371755880424398,0.0153869791223399
480,-0.0086120318205075,0.0057511018391081,-0.0103731895152238,-0.0126036602663034,-0.0366661179276172,0.0132927661167802
481,-0.0086705768884934,0.0047012533294565,-0.011501829782327,-0.0136323698536583,-0.037821314846207,0.0100819829941753
482,-0.0088048928253896,0.0037612871401995,-0.0129363159782885,-0.0146739043578288,-0.0399871851959019,0.0068873833390885
483,-0.008968312459186,0.0033245793999521,-0.0137718756357437,-0.015395463384852,-0.0419605640293208,0.0044615415755103
484,-0.0094014861545909,0.0032337694899451,-0.0144010351560392,-0.0158868323352368,-0.0435284795090573,0.0029964185330684
485,-0.0097415754959088,0.0037629929016194,-0.0150283912691648,-0.015741103691123,-0.0439990325223853,0.0029149837746605
486,-0.0095233299781225,0.0050383690243143,-0.015348178774963,-0.0144765922178553,-0.0428890405648905,0.0043148993716297
487,-0.0091879365981647,0.0063534078068789,-0.0156423268653979,-0.012601874969455,-0.0411295454044136,0.0063184548859727
488,-0.0089462735976501,0.0075517904848144,-0.0160255495331096,-0.0109444455463009,-0.0393052595105706,0.007941282718175
489,-0.0084633755809278,0.0087476654716005,-0.0161786967408714,-0.0102366685657892,-0.037283631447328,0.0086364758728617
490,-0.0080282482436047,0.009490674364227,-0.0162678375533701,-0.0107856742366436,-0.0356083801143353,0.0087250750571597
491,-0.0080222955243318,0.0095789802528782,-0.0161069191846784,-0.0116933384480091,-0.0348303730029533,0.009094985132929
492,-0.0081171630897531,0.0090089139034952,-0.0150704722691318,-0.012096191626824,-0.034304975826371,0.0094633581626547
493,-0.0077806914307488,0.0080878453974255,-0.013236852160946,-0.0118887229630531,-0.0330075856195459,0.0091743233508323
494,-0.0069990754943988,0.0074785998365626,-0.010873921628762,-0.0109522453161465,-0.0307126888423925,0.0086665539833735
495,-0.0062433352090856,0.0072953126243511,-0.0084092056908602,-0.0095543795124051,-0.0281962750266357,0.0082716117141364
496,-0.0058658612974395,0.007201436265866,-0.0070740669493681,-0.0086383957780605,-0.0268796319665937,0.0074081197095072
497,-0.0057421345510391,0.0069638055881474,-0.0074807443462062,-0.0090457372703293,-0.0274051672366676,0.0053802767635332
498,-0.0052291040937305,0.0065248496989594,-0.0084638642471629,-0.0104428691801255,-0.0285336403052571,0.0019534193079832
499,-0.0044983104551303,0.0053581866146536,-0.0090633118833744,-0.0116938142794173,-0.028963490007099,-0.0029943640087056
500,-0.0044495854961151,0.0032171011366748,-0.0095317873337351,-0.0121057242198689,-0.0286135302228761,-0.0085669949255724
501,-0.0050490364944686,0.0009830439786247,-0.0100116569151414,-0.0114287668410681,-0.0277149513459652,-0.0128853040862167
502,-0.0057430013347552,-0.0003102196686053,-0.0101823889131314,-0.0095864179451487,-0.0265978276195807,-0.0143487680011413
503,-0.0061905141560867,-0.0001540180885013,-0.0097495025886294,-0.0075225569186684,-0.0255445604900548,-0.0121354813621605
504,-0.006215033041062,0.0011643562144021,-0.0088664377449325,-0.0068241171753899,-0.0247214040448252,-0.0073340444129242
505,-0.0057702604779261,0.0030991509569434,-0.0080941874805007,-0.0075964581024409,-0.0242589871612556,-0.001985410248944
506,-0.0049975538100269,0.0049429957930097,-0.0077283636105561,-0.0091502582982138,-0.0236745209804145,0.0019843034041566
507,-0.004185106299381,0.00564864461203,-0.0075633047645983,-0.0115747960019829,-0.022450381193035,0.0029660574677949
508,-0.0038665979367574,0.0048823081233787,-0.0074934444098254,-0.0145202560017597,-0.0213435643424084,0.0014662313414498
509,-0.004320651933727,0.0034720651873938,-0.0075608036443079,-0.0164969894889348,-0.0212039326086852,-0.0003020838155933
510,-0.0048880029815395,0.002358787074506,-0.0076469702237587,-0.0164785213731738,-0.0213210417324108,-0.0010362030303827
511,-0.0047521346278996,0.001961432283535,-0.0075030433747649,-0.0146978431892197,-0.0207586629333508,-0.0008749099973724
512,-0.0039147404888081,0.0022504850524639,-0.0072356072259443,-0.0122307086416845,-0.0198226832605717,-0.0007895434752376
513,-0.0029180574086624,0.0025727624067683,-0.0075672785412434,-0.0104706424114532,-0.019270384786357,-0.0020532803209984
514,-0.0019596726905691,0.0022968658732685,-0.0088327409830091,-0.0101464311593795,-0.0192428080711325,-0.0049173512513669
515,-0.0011201081351136,0.0013514710276056,-0.0106611613185904,-0.0111828172252405,-0.0195841343388165,-0.0082323739286629
516,-0.0007821154341505,-5.508255658313172e-05,-0.0123459440387534,-0.0129579338808402,-0.0198562141085851,-0.010631460355064
517,-0.0009806628403561,-0.0012801274984875,-0.0130854139804881,-0.014357775591791,-0.019397534814661,-0.0114306454627645
518,-0.0012960216648635,-0.001516530501446,-0.0126709668506333,-0.0142258005080356,-0.0185073639320281,-0.0103029038373038
519,-0.001603358016161,-0.0008463116673079,-0.0116013276031601,-0.0124593299631911,-0.0181155597332318,-0.0080019114247766
520,-0.0021806917138705,2.2949711487017983e-05,-0.0106106101736126,-0.0099564211766665,-0.0185819567911218,-0.0061445104797591
521,-0.0027997443146282,0.0009389278689685,-0.0097216094541121,-0.0072134100073654,-0.0192052814477649,-0.0051055771149062
522,-0.0030260950656208,0.0019158891667393,-0.0085468969489707,-0.0046961244888021,-0.0192922151351133,-0.0051240245027687
523,-0.0032520497714429,0.0026132384150336,-0.0076465857102416,-0.003089981726044,-0.0196100750521446,-0.0064320443764237
524,-0.003943553803484,0.0030230404064329,-0.0078969746557719,-0.0027490132680448,-0.0209859410998822,-0.007363500539155
525,-0.0050125598480695,0.0034100825567189,-0.0092803321349771,-0.0036679226348765,-0.022790224311409,-0.0064877688579826
526,-0.0061550179083318,0.0035477231032143,-0.0107891466535376,-0.0053105822640623,-0.0239083194193709,-0.0048305900268298
527,-0.0070755401125735,0.0029160453499911,-0.0112298414900879,-0.0070202703929452,-0.0238183685923924,-0.0042858260380159
528,-0.0075338597419604,0.0019043874304575,-0.0102211822971366,-0.008006180384005,-0.0229285510815626,-0.0050491251548961
529,-0.0075445682588831,0.0012289504461872,-0.0086555108794743,-0.0080303027870878,-0.0224006814118446,-0.0063637836998758
530,-0.007410741640924,0.0008127009980456,-0.0080363420116061,-0.0079249598956312,-0.0231197810473226,-0.0081521552139916
531,-0.007132816905336,0.0003565115078345,-0.0088792872323879,-0.0082910570670828,-0.0246880972740822,-0.0103867821030665
532,-0.00624231470901,-0.0001101311639414,-0.010144681024024,-0.0085718451680627,-0.025592368735027,-0.0125802604347381
533,-0.0047918277958419,-0.0004013242346324,-0.0106819140436636,-0.0078101882715401,-0.0248946583283638,-0.013979213938545
534,-0.0035614709982824,-0.0009308046974746,-0.0105862592858952,-0.0068418031728895,-0.0229257657057561,-0.0148728303926512
535,-0.0027977084223383,-0.0022447737030685,-0.0103628303254493,-0.0073850731796635,-0.020262445096152,-0.0166076321639207
536,-0.0021103654701361,-0.0037968365902454,-0.0098031054737072,-0.0089831361180913,-0.0174050559368681,-0.0190350427997078
537,-0.0011931553985219,-0.0042718395770216,-0.0087845771724466,-0.0096584103865233,-0.0151173354264977,-0.0201722945707703
538,-0.000423446168868,-0.0034190834859266,-0.008098449098255,-0.0091079804026632,-0.0141679341594174,-0.0190179595691939
539,-0.0006712669101548,-0.0022516396672302,-0.0083969184829994,-0.0088809269396467,-0.0147272990777974,-0.0159377128288631
540,-0.002107232254152,-0.0013993651348705,-0.0097526130373102,-0.00995567771132,-0.0165380328603924,-0.0116819294984294
541,-0.0038311667498152,-0.0008849370652195,-0.0119593066267623,-0.0118833750041046,-0.0189828935098485,-0.0080232257520239
542,-0.0050056778732304,-0.0006377594451739,-0.0143127706869155,-0.0132431163946731,-0.0211810856572257,-0.0063599042929676
543,-0.0054366766308139,-0.0006398740485427,-0.0158627360940583,-0.0132900287645947,-0.0222392389582758,-0.0065001452675112
544,-0.0049888902229598,-0.001025974089722,-0.0161266895188123,-0.0130087636316185,-0.0218772326501757,-0.0081811602040039
545,-0.0039371881197683,-0.0019347016500023,-0.0156401835523548,-0.0135155757843646,-0.0210128146723144,-0.0111940268659557
546,-0.0031457866864803,-0.0031190549983834,-0.0152143770355061,-0.014658677699198,-0.0205041988449855,-0.0146088286630385
547,-0.0030587029644722,-0.0039831156748635,-0.0148206198122438,-0.0155181325188192,-0.0202836480287528,-0.0170404302455482
548,-0.0031490058921946,-0.0040969859088567,-0.0140329799630786,-0.0155129432724887,-0.0197195704799706,-0.0176451005148439
549,-0.0030850948028736,-0.0038904804691485,-0.0133851714818748,-0.0151257932011932,-0.0186133386179785,-0.0173664228637502
550,-0.0031092108062416,-0.0040835173054647,-0.0136402334634249,-0.0152193432279471,-0.017397571327767,-0.0174874627286793
551,-0.0031656369036464,-0.0045692437347989,-0.0141736013758717,-0.0156721852488369,-0.016177905477463,-0.0178132114883337
552,-0.0030987893696933,-0.004871260643871,-0.0136612315076392,-0.015199910850861,-0.0148365664405305,-0.0174198131200489
553,-0.0030745243376279,-0.0049120064532036,-0.0117290030482811,-0.0129647403308516,-0.0136775269095378,-0.016234916160242
554,-0.0032295903119179,-0.004902183049659,-0.0092504088290946,-0.0097614865559615,-0.0131734907684262,-0.0154036201431119
555,-0.0033821866176083,-0.004999085430783,-0.0074898056086063,-0.0073206127523265,-0.0133513263654811,-0.0158890824040298
556,-0.0032940305892747,-0.00534940854913,-0.007143664047056,-0.0069823392881071,-0.0134924488666915,-0.0176715257141564
557,-0.0025780504667458,-0.0055936428391933,-0.0078905247662753,-0.008200318425392,-0.0126336371091264,-0.0194838246224602
558,-0.0010999127845153,-0.0052663345402233,-0.0090747520998541,-0.0096761798614084,-0.0109452308254451,-0.0201634449668243
559,0.0006544210446573,-0.0048752454841723,-0.0097595198273371,-0.0110764434515273,-0.0091442726262631,-0.020305762164272
560,0.0020875436989831,-0.0052002911792414,-0.0091216407220934,-0.0122591182086029,-0.0075290487295238,-0.0211557640609491
561,0.0030862498024783,-0.0064300750956954,-0.007403340968657,-0.0130727908768808,-0.0061383572296247,-0.0235941843032434
562,0.0041482046121583,-0.0081158734135821,-0.0053828321490576,-0.0136532130554446,-0.0045510874810709,-0.027607254758103
563,0.0053776431505738,-0.009475377963347,-0.0039602964479025,-0.0141464534547159,-0.0028155133229464,-0.0316793220724427
564,0.0064254352747908,-0.0098305724345933,-0.0034359365674331,-0.0142665215351722,-0.0015702020339449,-0.0337507399463596
565,0.0071761944720978,-0.0089262814829827,-0.0031418444019171,-0.0135897865118928,-0.0009494774783701,-0.0326577981384956
566,0.0074283424771578,-0.0072934181984425,-0.0025831990161534,-0.0125446491501703,-0.0007479112324367,-0.0285401723640287
567,0.007276041398791,-0.0056651798917917,-0.0016797688326881,-0.0116469259308203,-0.00061471195922,-0.0226371192472783
568,0.0069371418845888,-0.0045071686137977,-0.0004882582943719,-0.010372056526957,-0.0002023225839655,-0.0173295255328573
569,0.0063054442037847,-0.0041826953233697,0.0006245131694537,-0.0083464264948371,0.0005476911475691,-0.0149377596972454
570,0.0058949331422559,-0.0042837412649827,0.0014776493795707,-0.0062348934722054,0.0017120343930932,-0.0154872260608976
571,0.0060846742304259,-0.0044330010947055,0.002204315752492,-0.0049869262567678,0.0031098729626185,-0.0177234579627445
572,0.006547604270136,-0.0049099842707216,0.0029470326738204,-0.0050035637707135,0.0043852956439701,-0.0205308452072216
573,0.007279627876975,-0.0052070117405429,0.0035324124868936,-0.006082042344897,0.0053637988709018,-0.0218932212572916
574,0.0081895542865699,-0.0046782870058483,0.0031615250055397,-0.0081066014437886,0.0056044525775767,-0.0206343151335787
575,0.0090227377495685,-0.0037601561698993,0.0018831410960261,-0.0107744587609159,0.0054358983061598,-0.0182400973014719
576,0.0097875794971879,-0.0030809155937469,0.0010516409375662,-0.0128218411117221,0.006113740740705,-0.016077969669626
577,0.0102027309810366,-0.0030299194409018,0.0013646125846039,-0.0129838548383141,0.007741059053602,-0.0140318462299872
578,0.0103275326650975,-0.0034488129481976,0.0024469247027474,-0.0115358852056904,0.0095625412152012,-0.0121488142544678
579,0.0110739778760101,-0.0035988215821325,0.0038986896132028,-0.0098165245495397,0.0113337688067231,-0.0112074878630041
580,0.0125215032292856,-0.0036091737083661,0.005435919428564,-0.0087475889457775,0.0130801979534251,-0.0120688380019012
581,0.0136379960494508,-0.0040912452662844,0.0067509513295245,-0.0082238970325345,0.0148572183218313,-0.0143564710997949
582,0.0139223083887836,-0.0046076612660376,0.0080958552384143,-0.0071342769214971,0.0166355227335042,-0.0160708044738428
583,0.0137508356834703,-0.0045318890617452,0.0097248976188121,-0.005090123247501,0.0181038877331595,-0.0158134753482925
584,0.0135002602469464,-0.004077922326136,0.0107780717991598,-0.0035575492111997,0.0188193023196611,-0.0145888279100323
585,0.0131611744032202,-0.0035650302823645,0.0107452790001088,-0.003320472267119,0.0186708322440265,-0.0138439775437716
586,0.012595377904418,-0.0030962323212726,0.0105439585139452,-0.0032013913441032,0.0180032619263535,-0.0133992053148225
587,0.011721221366215,-0.0028246153950927,0.0108114316290527,-0.0023980342062746,0.017038592260287,-0.0129399385934874
588,0.010579272889785,-0.0028884689126682,0.0112315670506226,-0.0015096982127849,0.0158529270469012,-0.0133511118529717
589,0.0093355283292534,-0.0033387389009887,0.0117044219378045,-0.0010628903132275,0.0148979614799368,-0.0149476919590893
590,0.0084524896592581,-0.0038891571843669,0.0127180314640234,-0.0008227783816422,0.0149151086139841,-0.0161890711723097
591,0.0084041066911762,-0.0040117283737655,0.0142899607115098,-0.0005237127273204,0.0159721532606164,-0.0156230428320774
592,0.0090358150392317,-0.0034192638079275,0.0153268485728009,-0.0002676333189063,0.0170389050992736,-0.013699167431968
593,0.0095940329676265,-0.0024632417415014,0.0146372443342502,9.3307676048954e-05,0.0168906514212709,-0.0119740853086549
594,0.0095346760437277,-0.0018329115722577,0.0123387750851768,0.0009873901295086,0.0154104375905006,-0.0117391597401871
595,0.0088736100961593,-0.0020110008715542,0.009819258809944,0.0021763236318748,0.0137291286428316,-0.0137255652682189
596,0.0077478208637656,-0.0029057140947682,0.008358596339652,0.0030133400280357,0.0130810266465041,-0.0173467489819024
597,0.0065904989129105,-0.0039085117165801,0.0079953667968971,0.0028975526399372,0.0138512874274905,-0.0206993637005397
598,0.0060782420279655,-0.0046047511476795,0.0081819583704938,0.0013943122474043,0.015467025674815,-0.0226133585522186
599,0.0064204551541262,-0.0048891321997241,0.0091466390482184,-0.0010825059933654,0.0174072038849043,-0.02281176598542
600,0.0070345269680411,-0.005161448633266,0.0107934186710572,-0.0038441658233154,0.0190259767646557,-0.0213974545522672
601,0.0075535134515445,-0.0055537238319659,0.0122500848402622,-0.0062604847589332,0.0195701605119432,-0.0192434964884988
602,0.0082231770019456,-0.0055337283881494,0.0131911452962302,-0.0075662668439147,0.0190711027006273,-0.0174188061780997
603,0.0088827404856998,-0.0053384420065274,0.0134656251429938,-0.0077265269320962,0.0176617611290058,-0.0164447938620857
604,0.0092365111911818,-0.005586131574037,0.0128676099209776,-0.0075629866445923,0.0156005130787092,-0.0165090128973761
605,0.0095191487567212,-0.0062466902337764,0.0116137738069189,-0.008030053955522,0.0137964277633068,-0.018079378168261
606,0.0097859987643368,-0.0068510988161657,0.0097906701670004,-0.0092908711040491,0.012788142834332,-0.0207673751230395
607,0.009468964560289,-0.0072426497189588,0.0070788894684475,-0.0106069556630758,0.0120833266364472,-0.0228142900854896
608,0.008779651814454,-0.007606015812324,0.0041072155164799,-0.0113377937150269,0.0117715198219942,-0.0233976734494624
609,0.0084499923879524,-0.008020573695784,0.0019511139525398,-0.0114762897961419,0.0124285299636601,-0.0235909148528692
610,0.0085893513452455,-0.008273763859526,0.0007259812635731,-0.0110018087687293,0.0138281609739056,-0.0239588234701865
611,0.0092331858452879,-0.0079258241218332,0.0004710169956154,-0.0099891014467405,0.015714924923074,-0.0235535337523105
612,0.0099007498049415,-0.0075100451005394,0.0009146668457987,-0.0095473385212129,0.0174428867836888,-0.0221712695233932
613,0.0095588803506391,-0.0078986205640291,0.0010024621407036,-0.0101937847889843,0.017860473329346,-0.0204827868811511
614,0.0080908658118915,-0.0086338361204094,0.0002497183787678,-0.0108821111949941,0.0168964214128927,-0.0187644714012318
615,0.0068061222434645,-0.0087018809296318,-0.0006748137595499,-0.0108952446352179,0.0156826352436861,-0.0173464141895898
616,0.0067809854467023,-0.0077788865270791,-0.0009751350379746,-0.0101161164676052,0.0151524872366533,-0.0165126337050849
617,0.0075757908386173,-0.0065479676536903,-0.0005365956722344,-0.0086149562263635,0.015420573938577,-0.0161384317854255
618,0.0085989043258502,-0.0057658712600573,0.0004518109221475,-0.0069057964854748,0.0163935611887307,-0.0159855297690772
619,0.0099973600513168,-0.0052530819707665,0.0016888959207223,-0.0053927187004126,0.017919322387854,-0.0157967281197892
620,0.0117982880812213,-0.0046669697635579,0.0027722237184424,-0.0042361655778968,0.0196523372375751,-0.0154777639211693
621,0.0133799716101692,-0.0045201739745005,0.0035802005202011,-0.0035550855721062,0.0212702354120423,-0.0155146532842797
622,0.0141715039754006,-0.0053937377015714,0.0037109566806897,-0.003588916888844,0.0225182830405052,-0.0166582114115583
623,0.0142886649758322,-0.0069257781009385,0.0023985183595524,-0.0046332181945747,0.0229921079417852,-0.0187720382351541
624,0.0138369460643188,-0.0086864341428108,-7.160917347197903e-05,-0.0062723444967377,0.0222934232751666,-0.0212516005351876
625,0.0131462911326666,-0.0102952402635243,-0.0022026829296948,-0.0072368327867108,0.0210392254432165,-0.0237123116825585
626,0.0131465340606483,-0.0107462751261518,-0.0028841201621488,-0.0066068980490766,0.020589030195935,-0.0250763791660243
627,0.013862073166431,-0.0098834361826829,-0.0024668560299273,-0.0052257990878026,0.0212640590680266,-0.024666875785024
628,0.0146154788092727,-0.0087865185153601,-0.0018208032431356,-0.0045748911945837,0.022574847162717,-0.0233626653222052
629,0.01554971499082,-0.0078644948459653,-0.0010771409727361,-0.0045740191790929,0.0244306027649598,-0.0215838791697295
630,0.0167121985029453,-0.0068667510107268,-0.0003967053347092,-0.0045067612013726,0.0263680610709494,-0.0190969793369255
631,0.0173046698154548,-0.0059611411999091,-0.0004731289604309,-0.0041484811333801,0.0272366431383631,-0.0163568874109921
632,0.0171448181741015,-0.0052103266939103,-0.0012601477203034,-0.0031737866783347,0.0267825722530199,-0.0136939827886543
633,0.0169653087890393,-0.0044182212591958,-0.0017643339535028,-0.0017983261088951,0.0262569102206382,-0.0115124874215617
634,0.017120753197531,-0.0038388701193354,-0.0012726708909993,-0.0008454756203994,0.0269197042975744,-0.0108898752683829
635,0.017275103390061,-0.0039008096716315,-8.314355045611466e-05,-0.0006104741047764,0.0286471868270922,-0.0121667502638767
636,0.017035333002205,-0.0043931981927567,0.0009570105305109,-0.000592525418306,0.0303250634465908,-0.0140696615241285
637,0.0164669653367589,-0.0046338576299465,0.0014403118517566,2.689343584060735e-05,0.031061486232435,-0.0149391788196728
638,0.0158717834278823,-0.0042391085658999,0.0016075415858443,0.0015273794513814,0.0307981316912697,-0.014031934618847
639,0.0151556929798427,-0.0035746304615128,0.0017789614611723,0.0033586430794297,0.0300005881552373,-0.011717519648593
640,0.0142254769585934,-0.0032722156008287,0.0022370709598882,0.0051543457500135,0.0292020580090566,-0.0092226616204477
641,0.0133589963141168,-0.0032779162082174,0.0029656199986731,0.0071615107083432,0.0285649934646052,-0.0077181155989522
642,0.0123865378785072,-0.0031315993122354,0.0031646930126852,0.0090051494633798,0.0272335088564793,-0.0074174697111147
643,0.0108493114972903,-0.0028778905848026,0.002088144435575,0.0098713699337166,0.0243570736494502,-0.0079350011879149
644,0.0092122657825067,-0.0029662478522137,0.0002602957402243,0.0097274760751157,0.0211213283648948,-0.0091743546084079
645,0.0080252821903184,-0.0035649074423184,-0.0010431418550493,0.0087946880793224,0.0191228465916156,-0.0107901182411952
646,0.0068379709477058,-0.0042963417738747,-0.0012111950498318,0.0072905106679945,0.0180636943784295,-0.0113311171707665
647,0.0055422023451048,-0.0045611803324337,-0.000598437737219,0.0057349087064649,0.0175965050489924,-0.0095521410959319
648,0.004792100620287,-0.0041727595539869,-4.004621720131589e-05,0.0043506585161938,0.0183303485578751,-0.005886634471503
649,0.0050378703607112,-0.0035846623917758,0.0003531031092608,0.0032613841901139,0.0206082961028825,-0.002148988070471
650,0.0062446171787749,-0.00341762554004,0.0012579508708601,0.0027865806185222,0.0241874810156725,-0.0005111682104646
651,0.0077803366135004,-0.0039055151917037,0.0023747150964204,0.0029978449756242,0.0278197037146428,-0.0017888238422118
652,0.0088815670350085,-0.0047778392981634,0.0026800954708784,0.0037712326473354,0.029850905417105,-0.0047398623485776
653,0.0095170823668165,-0.0054193473871459,0.0020755457226392,0.0050253426291727,0.0300424010962723,-0.0077783745849813
654,0.0096593333359736,-0.0056743696321601,0.0007925137976184,0.0065328392570005,0.0287467986984831,-0.0104242552297842
655,0.0089509529653933,-0.0056443370798149,-0.0010986319618512,0.0080707341423762,0.025859408152667,-0.0119922428595032
656,0.0077957897932669,-0.0052508088226973,-0.0029898212451047,0.0091921880432014,0.0221397396723506,-0.0116123340732451
657,0.0071601766732918,-0.0048307929464473,-0.0042968078187267,0.0091754883558617,0.0191604803144999,-0.0100265412943661
658,0.0072891519648093,-0.0046759881897606,-0.0051051660640039,0.0080265336687975,0.0175548454743629,-0.0084739031389207
659,0.0075731742330227,-0.0046465402579344,-0.0058561991794114,0.0064879943962332,0.0166738167851983,-0.0072821188599138
660,0.0076852289275528,-0.0045026420191621,-0.0063768717246654,0.0056232682242552,0.0160823230077278,-0.0059791822584228
661,0.0077136023844767,-0.0043917041520086,-0.0062660859035232,0.0056481001425884,0.015945740758724,-0.0046470189983563
662,0.0075978840502133,-0.0046233369008275,-0.0061947501363888,0.0054615436861976,0.0160741731450795,-0.0044484885232761
663,0.0072023286225872,-0.0051353674297054,-0.0068937238574487,0.0045441498061726,0.0161652995732281,-0.0056216886905198
664,0.0065291717604828,-0.0057509132580679,-0.0080715489715965,0.0035222798970427,0.0162108961878475,-0.0071126440099437
665,0.0058393974753052,-0.0062130116276553,-0.0090222793958802,0.0030538910255782,0.0164341969756807,-0.0081530377967169
666,0.0053423050330532,-0.006362558924644,-0.0093810742406478,0.0031959213342617,0.0170792136955592,-0.0086596061317468
667,0.0049890766483129,-0.0065297660465568,-0.0093032771713105,0.0033812842774932,0.0178325838601787,-0.0090280249996684
668,0.0047916474319278,-0.007212515906284,-0.0091387254539326,0.0032087116548541,0.0180630435699539,-0.009862782038379
669,0.0046641737990011,-0.0085450746366314,-0.0094605389991833,0.0028811127107339,0.0174450466945338,-0.0112681588000265
670,0.0045728432235903,-0.0100188889984253,-0.0105693661805353,0.0024801851409951,0.0163189333870747,-0.0127260617180374
671,0.0046707791069341,-0.010881520733396,-0.0117869421343545,0.0020205114296151,0.0155774502888234,-0.0135914950297905
672,0.0048615717955833,-0.0110771543074369,-0.0122294720649363,0.00187596209473,0.0157199551993676,-0.0137854144804977
673,0.0051137983213949,-0.0110893216732219,-0.0118751709221001,0.0020034588110028,0.0164340390341355,-0.0138054021423699
674,0.0054294189006508,-0.0112409975226691,-0.011701423002625,0.0016392840870847,0.0168902596146553,-0.0142647679108053
675,0.0058459227006491,-0.011507677258059,-0.0124324473859185,0.0005746672291313,0.0164675357811406,-0.0154911979033837
676,0.0065002109797816,-0.0118859637332127,-0.0136338009349979,-0.0003567665467309,0.0153530942169436,-0.0168729417980112
677,0.0071949490818123,-0.0124935568388689,-0.0143244230040456,-0.0003514368773027,0.0143048965081267,-0.0172588698953699
678,0.0079164711937526,-0.0128786331099322,-0.0134757163056085,0.0008561627329848,0.0145131347106089,-0.0162507539716859
679,0.0089418656775696,-0.0124513162982395,-0.0110540265604191,0.0028687007481815,0.0162886609420238,-0.0141658653641381
680,0.0101257673106721,-0.0112282362431803,-0.0083721385388621,0.004837173817891,0.018161485753783,-0.0112418937130736
681,0.0109189185442848,-0.0094506102474905,-0.0064546969097606,0.0065672886001876,0.0189016233186287,-0.007690414191082
682,0.010918762752424,-0.0073630837679505,-0.0054164226939383,0.0085994367003302,0.0186512388151869,-0.0038635085622718
683,0.0099873999607527,-0.0055882669108974,-0.0052226107902285,0.010532528239773,0.0178035446622931,-0.0007654021399226
684,0.0082376794060773,-0.0046941174010524,-0.0057576455153295,0.0109319919696557,0.0165180620179936,0.0002412967738102
685,0.0061316198429043,-0.0045232733093351,-0.0066690692658296,0.0093229610522535,0.0150797275863966,-0.0013673220530718
686,0.0042689657909217,-0.0043305954271801,-0.0077287512759936,0.0069211108717953,0.0137575058103035,-0.0044994040973691
687,0.0028499615579557,-0.0034345426570192,-0.0089295030223659,0.0056997897067689,0.0124798602048533,-0.0068495981032262
688,0.0017223522959026,-0.0020755550325718,-0.0099035771727097,0.0067307439874677,0.0114697337435281,-0.007135970903377
689,0.0007242257260963,-0.0010781689573627,-0.0100860904841958,0.0092723904563872,0.0111598758016788,-0.0061037393929166
690,-0.0001947990454233,-0.0009755995958768,-0.0094283600856227,0.0116655303799734,0.0114323949206753,-0.0054742310946644
691,-0.0005773380106359,-0.0016984139394642,-0.0082676840931366,0.0126959666170788,0.0121221591466727,-0.0062394527801474
692,6.937044113038542e-05,-0.0027629408555849,-0.0071028146394111,0.0119387825491758,0.0132850309000514,-0.0077729828850353
693,0.0014743651424334,-0.0037602862199457,-0.0062631576838449,0.0096222847570306,0.0148886241066211,-0.0089010325172366
694,0.0026721202991008,-0.0044774295312069,-0.0054575202175808,0.0066547449579518,0.0163886399686533,-0.0085615983227528
695,0.0029945553717668,-0.0046638002476449,-0.0040342687062488,0.0042804135089676,0.0170244408085727,-0.0055470244374314
696,0.0025701373625317,-0.0042273137385044,-0.0023902981428925,0.0031468334914126,0.0164817810739073,0.0001487248556774
697,0.0017156596525301,-0.0035805061664026,-0.0019589481383617,0.0028385765076989,0.0148251486131219,0.0058780135570169
698,0.0007915964299139,-0.0032542800910332,-0.0030266708141579,0.0024747889648927,0.0125753065914394,0.0083472704833847
699,0.0002768706628315,-0.0031998586417197,-0.0043788041246372,0.0016992331979027,0.0104873472123986,0.0070312600264474
700,0.0003741898600077,-0.0028118082771322,-0.0052080753306366,0.0011054331970075,0.008707827091007,0.0042286337974794
701,0.0002736595552744,-0.0021979990956159,-0.0057325596055914,0.0013038281556864,0.0064795538284035,0.0017250392112022
702,-0.0007270065331148,-0.0019419999992175,-0.0058048596672461,0.0023721273065051,0.0037177805498827,-0.0001013195141143
703,-0.0018406049676749,-0.0018416178660578,-0.0052001200786636,0.0037293029070911,0.0016372067194442,-0.0007342269236817
704,-0.0022084503624721,-0.001514616015898,-0.0046867008265618,0.0041448690059405,0.0009638695285833,-0.0001920414249754
705,-0.001938482240209,-0.0010474499997749,-0.0047720331974821,0.003308333904126,0.0014174403019472,0.0005557883851636
706,-0.0015362381152098,-0.0007971804107156,-0.0048309707666809,0.0025358432532476,0.0025056277507799,0.0008891382782695
707,-0.0010765263481845,-0.0008552403955771,-0.0042488062514369,0.0027484710630371,0.0039662618964141,0.0007911549138569
708,-0.0002648214916637,-0.0008254439764239,-0.0031747394144652,0.0034402120750092,0.0056297423811239,0.0006037976326149
709,0.0005968813239666,-0.0004962307502853,-0.0021107372636531,0.0040600046246901,0.0071459914515879,0.0007984537054483
710,0.0006639187212051,-0.0002891752415311,-0.0015551206289305,0.0045505086662451,0.0078725350610142,0.0013692077522931
711,-0.0003130834821553,-0.0005917750694945,-0.0012611876216059,0.0052905241921336,0.0076164959448257,0.001940863052699
712,-0.0015003383394284,-0.0010755130435523,-0.0004242278648586,0.0067191005206335,0.0071739513932316,0.0021881968909893
713,-0.0019341166748183,-0.0011400638052296,0.0010874320431683,0.0084152671367173,0.0072879444076763,0.0022270447904978
714,-0.0015280413658418,-0.000732201111571,0.0028818122037687,0.0096740523669368,0.0080394574090267,0.0026239457548661
715,-0.000977397208509,-0.0003264605518252,0.0043848154283084,0.0108712246490434,0.0087007578017592,0.0040045760724819
716,-0.0010987282170974,-0.0002035664164264,0.0050091370217152,0.0126316164513969,0.0081679712315526,0.0063845293187078
717,-0.0022813337969185,-0.0002246856243124,0.0045501581336647,0.0140508617937335,0.006260169473521,0.0086241201196901
718,-0.0040399237781408,-0.0002624619714017,0.0032989293886249,0.0137321430227758,0.0040405565786123,0.009484038915384
719,-0.005440912348668,-0.0003951524169098,0.0019152935509579,0.0115447653193089,0.0027068417969073,0.0090227215189362
720,-0.0060673979572458,-0.000735300749861,0.0011339647760513,0.0082821508333383,0.0026781802375114,0.0080212301554962
721,-0.0059844994290488,-0.0013454270520609,0.0011614821083253,0.004727613408781,0.0037201796399783,0.006638536615342
722,-0.0056830512005236,-0.0022412922167341,0.0013760551575334,0.0015049350930589,0.0047626833861664,0.0050653720364681
723,-0.0055369866731165,-0.0028576403300036,0.0017749818711251,-0.0001563758832889,0.0047016718321705,0.0047441820163522
724,-0.0054969401584419,-0.0026978741651478,0.0029324782471189,0.0004924269918647,0.0034939770456731,0.0061496582556223
725,-0.005884040873658,-0.0023660108868972,0.0042659373086433,0.0021969369423015,0.0013766072446573,0.0079402149829329
726,-0.0067989022130452,-0.0020696096511193,0.0046898060260073,0.0034930315397804,-0.0011795888300115,0.0098375677444996
727,-0.0076769108821105,-0.0012784332667055,0.0038763574303634,0.0039371640267073,-0.0031360707122626,0.0121541708611426
728,-0.0081424652414195,-0.0001598244338714,0.0022586601347787,0.0036370118948883,-0.0037386867394862,0.0141027429308864
729,-0.0079643981917789,0.000903296994476,0.0008645903406126,0.0034393979894143,-0.0026279179662668,0.01489112118904
730,-0.0071374967995387,0.0018143313149587,0.0005124541167953,0.0041797808347933,-0.00031355651778,0.0144665907280393
731,-0.0063034576264022,0.0024116743542263,0.001106374117446,0.0056654691122395,0.0016772988703022,0.0130129189126014
732,-0.0059874296936796,0.0025379772510292,0.0021071052730038,0.0070143551604518,0.0025698418900495,0.010389639263721
733,-0.0061925216681504,0.0022065457439552,0.0029058811748856,0.0076340624476617,0.0026974128252379,0.0068595291445344
734,-0.0066639742387158,0.001872250383009,0.0032988572680407,0.0079062595414139,0.0024439719881684,0.0044608272507223
735,-0.007333213737587,0.0019780349505358,0.0032899826900526,0.0083127133335604,0.0014790917983111,0.0053739743160059
736,-0.0082225704920426,0.0026252202950861,0.0028473981824452,0.0088161343974376,-0.0005120604772842,0.0090148124264981
737,-0.0089595323287324,0.0035967364638014,0.0023192534584838,0.008979019800914,-0.0027762467246897,0.0124049481130045
738,-0.0092599549103381,0.0042828432075467,0.0017452945098018,0.007948526564065,-0.0046359534219255,0.0130183379362988
739,-0.0092293374069179,0.0045066079192563,0.0008818572765294,0.0057749362376319,-0.0061062089091252,0.0112779725722233
740,-0.0090756040689023,0.0049538363229192,-0.000221176854555,0.0040720052735711,-0.0072040390158443,0.0105442861515801
741,-0.0089636758785681,0.0058039779389688,-0.0015064353828114,0.0038187130119671,-0.0080840558124099,0.0127336733036272
742,-0.0087860722955295,0.0063035969921963,-0.0023334437925532,0.0041909030746117,-0.008439623947145,0.015749029077417
743,-0.0083509415590493,0.0061696641211624,-0.0018534996541142,0.0042332025556621,-0.007703778416648,0.0174382150538784
744,-0.0078180372322115,0.0060056198486502,-0.0004063007215236,0.004175806377764,-0.0066396369092773,0.0184452692968369
745,-0.0073964109521757,0.0065070220834401,0.0007530755388948,0.0045388448600797,-0.0066716742829901,0.0198067803659175
746,-0.007163249612765,0.0075194064664977,0.0008064472036151,0.004844359037703,-0.0081578720402161,0.0206413246690275
747,-0.0070893420016675,0.0081959061971415,0.0003789998154189,0.0046097773755404,-0.0100056861259284,0.0196523002556447
748,-0.0070028407186551,0.0078833540068842,0.0006547567135828,0.0040753432212213,-0.0107832835618413,0.0166906404606911
749,-0.0065306480503048,0.0070307586924644,0.002058596936682,0.0037135023372239,-0.0098202939308948,0.0131737942760657
750,-0.005613487179239,0.006621861446662,0.0038856964046788,0.0036067778774773,-0.007537142938911,0.0107761294738793
751,-0.0047531836651179,0.006665942061289,0.0050717390213255,0.0031782199054306,-0.0049116287374308,0.0092731718943027
752,-0.0043148606257138,0.0067934495390631,0.0054411468995338,0.0026541496799883,-0.0030304375428865,0.0082163280912911
753,-0.0046966967812547,0.0070349141941949,0.0051950984642845,0.0028275684466693,-0.0031953137410612,0.0081743224904832
754,-0.0058551839858965,0.0074582580451848,0.0045560831374636,0.0035889635952335,-0.0052090470398917,0.0090139054253946
755,-0.0065014181681445,0.0080463426597055,0.0044676836152894,0.0048173609979257,-0.0065187593107523,0.0100329217421912
756,-0.0058242913515409,0.0086038168733394,0.005379390130115,0.0065232429112876,-0.0057166807212935,0.0108137880040467
757,-0.0048253802820766,0.0086227632632727,0.0060747988318698,0.0084132305888317,-0.0044903457261902,0.0107031273805551
758,-0.0045079013804825,0.0079903184370996,0.0055111933439548,0.0102868271001673,-0.004481686729715,0.0095730849745238
759,-0.0047446874248318,0.0072372448902556,0.0042977231307076,0.0113279553070876,-0.0051549072572811,0.0082688979920108
760,-0.0050158764908925,0.0069841847635615,0.0037947070572498,0.0107448792296537,-0.0050359468067128,0.0079489712890719
761,-0.0049375520073181,0.0076188774083179,0.004569073519325,0.0091539879230004,-0.0036021227107599,0.0096599396321203
762,-0.0047795181762979,0.0085422356009766,0.0057358849977042,0.0071389293244933,-0.0019817512968085,0.012658011462562
763,-0.004816674778142,0.0087388486062522,0.006344870820965,0.0045555592094189,-0.0012406070162892,0.0149678252023095
764,-0.0048493567082971,0.0080815308761374,0.0064452464192357,0.001718336836047,-0.0013407075316295,0.0158923121642309
765,-0.0050036541570754,0.0071035708391764,0.0062677969963403,-0.0006515483257993,-0.0021359580845431,0.0158655879652467
766,-0.0054778230182316,0.0066294959581672,0.005842742044912,-0.0018036078747956,-0.0034619645198714,0.015625106363672
767,-0.006213570191155,0.006749929184639,0.0050554853115918,-0.0018039765198686,-0.0046965761559096,0.0151950924948243
768,-0.0068152013495482,0.0067397340860435,0.0040169220540909,-0.0014832928251938,-0.0050769489669895,0.0141726344540407
769,-0.0069385702210165,0.0063925567882734,0.0028133927096559,-0.0014667190663145,-0.005016183315536,0.0129259031288709
770,-0.0070125289287246,0.0057768590419136,0.0010168127714669,-0.0021491093773204,-0.0058083051747613,0.0119872933273566
771,-0.0075678454945374,0.0048349687194659,-0.0010865857184348,-0.0029595359327539,-0.0074827918176244,0.0117746158326326
772,-0.0085290867033478,0.0036127237055713,-0.0025420679647605,-0.0029918185459892,-0.0089955825843261,0.0118877237101444
773,-0.0092981166866029,0.0022761030913327,-0.0029923018681042,-0.0024437798668065,-0.0097467496933426,0.0110404819858197
774,-0.009378132639755,0.0011529610917949,-0.0027026241087897,-0.0021386629256529,-0.0099081934023873,0.0086765767464216
775,-0.0089658663333936,0.0006234306056544,-0.0020546972934045,-0.0023158120310965,-0.0100984312665261,0.0055892785880522
776,-0.0084988048793074,0.0007880365491753,-0.0013073826400971,-0.0023086759068539,-0.0108033847636967,0.0032934589036939
777,-0.0081974116912964,0.0013193362132855,-0.0010649814959515,-0.0020930141263975,-0.0120169423317495,0.0025437123580003
778,-0.007994726181447,0.0019257211212834,-0.001761398115516,-0.0025281110577131,-0.0130764860553115,0.0024547784185674
779,-0.0075144512528478,0.0024089135372264,-0.0027118772607393,-0.0037571515769061,-0.0128678283831748,0.0014598931800234
780,-0.0068800480512653,0.0024651802021497,-0.0030526625791455,-0.0051355855993453,-0.0112504088939482,-0.0003942401942393
781,-0.0066162623975792,0.0025919197664727,-0.0024796569439487,-0.0058710170042096,-0.0096157078609248,-0.0008178536646426
782,-0.006556360005473,0.0035825394439202,-0.0014729559457314,-0.0060272881144797,-0.0095130054035355,0.0012356253767432
783,-0.006310976791332,0.0051012016382182,-0.0011616161301563,-0.0064263630019773,-0.011236755014715,0.0043145638497723
784,-0.0059111834326823,0.0061907349113952,-0.0017483410246231,-0.0070798601320163,-0.0136793875619696,0.006970769041247
785,-0.0052855137487302,0.0061666132293769,-0.0022571574482888,-0.0076856726766455,-0.0152940324709021,0.0084337733649416
786,-0.0040506577509983,0.0052615225692112,-0.0018242458307673,-0.0081200998530755,-0.0148516282627787,0.0086560407285224
787,-0.0022545663115746,0.0042375673953718,-0.000488508281561,-0.0080752914281812,-0.0122785408354845,0.0079621569048186
788,-0.000771816512969,0.0032124561334914,0.0010650447717194,-0.0075332853219377,-0.0089466294377857,0.0065760434504482
789,-0.0001134258096377,0.0023034098709456,0.002631604904995,-0.0066594531298977,-0.006226187862217,0.0051598945784324
790,-0.0001499220957,0.0020063052717478,0.0039429665635538,-0.005828697296772,-0.0049181454179984,0.0039561036552991
791,-0.001011093512378,0.0023445583929234,0.0043224409353826,-0.0051655062879573,-0.0053741400508869,0.0027472576851704
792,-0.002605978040372,0.0029550107498594,0.003968340374163,-0.0040041153226706,-0.0068553559227426,0.0019456106794114
793,-0.0043667344244348,0.0031730347878149,0.003551538605403,-0.0023079006518452,-0.0082726100707899,0.0013628654399705
794,-0.0056397621474474,0.0025383977122464,0.0035718313078523,-0.0010547263814235,-0.0090078988256615,-4.51629616928065e-05
795,-0.0059190007615635,0.001595630508364,0.0043088196153625,-0.0008606320143146,-0.0087856135938933,-0.0022673689551109
796,-0.0054695718307041,0.0012190546987025,0.005245589546187,-0.0016099677024428,-0.0083524037756711,-0.0036671081257703
797,-0.0051229351699492,0.0018850024267731,0.0053860375849808,-0.0028357855025995,-0.0089859138850065,-0.0023344338230285
798,-0.0051887470319863,0.0032780780539841,0.0044765274813953,-0.0041200123894361,-0.0105685531660095,0.0014638134021271
799,-0.0051114335101221,0.0046642320709572,0.0032136003583194,-0.0054401199506895,-0.0117639922504916,0.0053164728644531
800,-0.0049236534775201,0.0015732456708199,0.0040434700500442,0.0074762783839048,-0.0130953642896998,0.0077860320695508
801,-0.0043750331032269,0.0004692921476095,0.0039787672863333,0.0079255734061045,-0.0134840573547232,0.0059602101446589
802,-0.002524955985272,-0.0006231842465881,0.0050124087293574,0.0067705168658348,-0.0114823765356166,0.0049893034168588
803,0.0002508809545605,-0.0020402655964947,0.0059294169274077,0.0032088270555788,-0.00715153359614,0.0062776573839244
804,0.0026724051674404,-0.0030427942589484,0.0057849577954004,-0.0008431386217277,-0.0030531847926357,0.0116836525547085
805,0.0038791808373658,-0.002267160076436,0.0040646645669689,-0.0036856083299814,-0.0015500296413028,0.0189308436767147
806,0.0041910671442108,-0.0004464908787101,0.0009367193282167,-0.0048460420857194,-0.0026010050697423,0.0230467878719761
807,0.0038948706852815,0.0016231066440856,-0.0036993834295355,-0.0048848922105019,-0.0060257839140937,0.0248335980648226
808,0.0034044714917239,0.0028987594526879,-0.0084429052289573,-0.0048709831535503,-0.0103412149502734,0.0226323500548348
809,0.0024874616109752,0.0036298542539097,-0.0116378289134574,-0.0046711908424139,-0.0150740692556711,0.0170204238679424
810,0.0007467203693972,0.0054087734216795,-0.0128521893513982,-0.0033412169612795,-0.0205019162308581,0.0156570913134909
811,-0.0006385741163047,0.0073850010640449,-0.0119947884786394,-0.001850103525597,-0.0231425786577851,0.0172987424888214
812,-0.0003186649552013,0.008454821185824,-0.0106442419714004,-0.0026216771193098,-0.0209958070680585,0.0158698529662572
813,0.0015306018022464,0.0080331107590294,-0.0106915849744787,-0.0058545302439157,-0.0168841368436668,0.0105790803026545
814,0.0036831090730461,0.0060913050868779,-0.011643769146328,-0.0090705451206789,-0.0132679174181802,0.0043765433072686
815,0.0047648214806184,0.0047005471551317,-0.0117314075305038,-0.0099498759283173,-0.0109713868579347,-0.0009721190363305
816,0.0040535536106235,0.0051869754000692,-0.0103443376867333,-0.0084365143108158,-0.0110411688979212,-0.0045934668766993
817,0.0016599627751678,0.0070876482373581,-0.0093482100618424,-0.0066278381279459,-0.0153117990149012,-0.0061770132619657
818,-0.0014956052373071,0.0094090826316142,-0.0107581820330701,-0.0068329743182254,-0.0229769765474328,-0.0072225426469745
819,-0.0030367081543266,0.0095854966871868,-0.0129120780577096,-0.0095181542657778,-0.027780439694678,-0.0097384536465774
820,-0.0019575909665928,0.0065179047326007,-0.0138390523423876,-0.0132637158002349,-0.0269040909336242,-0.0142601549105596
821,-0.0007117341354557,0.0032134715265176,-0.0151002495184792,-0.01577083845171,-0.0258703663594871,-0.017445779059989
822,-0.0010155438167002,0.0012905658760107,-0.0177737966535764,-0.0161987301635402,-0.0259277549555103,-0.0165616068030069
823,-0.0021174863229732,0.000108388583625,-0.0209517417474331,-0.0168429654492821,-0.025731285644252,-0.014396778863247
824,-0.0029141330773486,0.0002718022772439,-0.0241300733267381,-0.0196572325971786,-0.0243471555575931,-0.0116900126694552
825,-0.0029330116355982,0.0014783951092154,-0.0270097899423589,-0.0236103524268426,-0.0217823028661323,-0.009269936892433
826,-0.002728179652298,0.0018178076673225,-0.0287756280874181,-0.0264272331046816,-0.0201485005041591,-0.0108041406753596
827,-0.002886413325771,0.0007335079129373,-0.0292441128474943,-0.0270618780305941,-0.018017681350143,-0.0147660041604435
828,-0.0035824779634628,-0.0004631123555224,-0.0297267784425701,-0.0263986018865686,-0.0145705317491622,-0.0166975624748919
829,-0.0052161222380658,-0.000173554662419,-0.0310998960196805,-0.0253895326355379,-0.0122868250947528,-0.0159540037813257
830,-0.0078464597940103,0.0022801408605446,-0.0333287280041119,-0.0247481784537842,-0.0135323001360605,-0.0160777743715799
831,-0.0103162893544978,0.0058865933450576,-0.0362242202400762,-0.0255636759462353,-0.0162157082692829,-0.0181005382013995
832,-0.0108023111341415,0.008490898613015,-0.038636469189925,-0.0282069592323158,-0.0157439072574064,-0.020750740206344
833,-0.0092024851798865,0.0089235189602233,-0.0394284234106472,-0.0318580578591455,-0.0106430015447444,-0.0234682899166442
834,-0.0073034549969908,0.0081671388394544,-0.038747661592158,-0.0347335574384109,-0.0040947868345609,-0.024722473777011
835,-0.0058332464104222,0.0071843335342494,-0.0375708862748121,-0.0349807512735813,0.0005372147092715,-0.0245180307633482
836,-0.0048112278543598,0.0057742505574944,-0.0358589397572541,-0.0327706574604065,0.0035654955530062,-0.0245496854285673
837,-0.005144984230762,0.0059056585459611,-0.0355786539569737,-0.0305021145030808,0.0057871463743588,-0.023514109601466
838,-0.0062819015882688,0.0088521245145373,-0.0364962128702494,-0.0292402864415084,0.004632715707383,-0.019733076863749
839,-0.0065053975497806,0.011052419122077,-0.0360635343275103,-0.027907850172699,0.004459876277781,-0.0161871497299916
840,-0.0059850707305477,0.0106227581090096,-0.0339778664474987,-0.0265640965535826,0.0069282013902529,-0.0154103503502618
841,-0.0054963540853707,0.0094829176711977,-0.0321685965232537,-0.0262535830313387,0.0089716184020077,-0.0166873233153597
842,-0.0053045201475437,0.0088973599955063,-0.0318822328502889,-0.026710971113946,0.0109170299511659,-0.0187609845072046
843,-0.0057817874737157,0.0094739387210387,-0.0320397192553802,-0.0264934623022536,0.0112508449164358,-0.0193000368949881
844,-0.0064216269914521,0.0114155357791698,-0.0309872087155916,-0.0245850608287351,0.0099974458467111,-0.0163493963830644
845,-0.006288238762603,0.0130852760792818,-0.0285384623302461,-0.0209691666081958,0.0086936077446647,-0.011502992841575
846,-0.0055058350344233,0.0120433549608994,-0.0250708474135388,-0.0156574535236193,0.0093292524937139,-0.0084466962974856
847,-0.0050744781851582,0.0093806842300408,-0.0210755312443376,-0.0094584901792108,0.0100399620321097,-0.0083749610411969
848,-0.0061790770920558,0.0089849708545508,-0.0200047778737927,-0.0058353319255699,0.006498245623207,-0.009743851561523
849,-0.0087612114136048,0.0115595817817103,-0.0244480999609467,-0.0078822388164014,-0.0020914063045405,-0.011472272630294
850,-0.0104987894777944,0.0139125229243811,-0.0311615280213171,-0.0145564898722709,-0.0102443961837945,-0.0138085153087913
851,-0.0091833199341996,0.0128270446518251,-0.0363401366294138,-0.0220819630341134,-0.0115552289691946,-0.0172859648055208
852,-0.0060799713318339,0.0096135386148645,-0.0401117742067325,-0.0276253531433858,-0.0103578910551482,-0.0218146838616815
853,-0.0043422874053919,0.0081811738189147,-0.0436062440668363,-0.0314055958033938,-0.0130705180622452,-0.0275799333009073
854,-0.0037716361119547,0.0080984053666658,-0.042509132548694,-0.0337458061649679,-0.0128328086329603,-0.033321746508128
855,-0.002338666617588,0.0064500894136309,-0.0356944266482912,-0.0339232166182713,-0.0053364949981821,-0.0393501158478915
856,-0.0005905073346596,0.0034215452450287,-0.0270346665752345,-0.0319226411335063,0.0041670286212015,-0.0427553837267913
857,-0.0004338756750795,0.0019742315021892,-0.0198282040183712,-0.0280381653591174,0.0101100518327686,-0.0370604818205418
858,-0.0026929906542344,0.0040246511963043,-0.0165718620386695,-0.0245230311284302,0.0102264026222101,-0.0240736048678111
859,-0.0056072551361995,0.0079617162735244,-0.015646802055773,-0.0238417768173403,0.0084083239000908,-0.0116270620556141
860,-0.0068952830606321,0.0114963134336907,-0.0143798758242974,-0.0249476348424173,0.0083096071534871,-0.0035504680651039
861,-0.0069362180643019,0.0141779258539431,-0.0126657619614577,-0.0261555928853602,0.0090974695848594,0.0010669752227174
862,-0.0071532803403965,0.0160221407820533,-0.011966946435059,-0.02754366200233,0.0078259004693512,0.0033301963337569
863,-0.0081061532773297,0.0172355317254701,-0.0125699107081569,-0.029120540436262,0.003067840131036,0.0059613956506299
864,-0.0095913274126381,0.0181540058280752,-0.0134159009417811,-0.0304978104220367,-0.0039153941712539,0.0097680231082588
865,-0.010455341851527,0.0180678445159662,-0.0121869664070007,-0.0314575345919366,-0.0088451914631463,0.0121102112602877
866,-0.0097089729604446,0.0156664584555046,-0.0067176219996813,-0.0314001251123084,-0.0081708726664981,0.0112264954140534
867,-0.0075618150039778,0.0111848765401328,0.0022663339960869,-0.0293114493699802,-0.0031456955975389,0.007814702177807
868,-0.004222311054473,0.0055571447989688,0.0125888249804991,-0.0254636466480534,0.0040030165228958,0.0040208769276622
869,-0.0004644875425691,0.0001026178380569,0.0211958990069532,-0.0232465367157729,0.0104974524978072,0.0001150349485602
870,0.0016785111944391,-0.0019185484074578,0.0201608057756721,-0.0256687750259589,0.0116130664876851,-0.0053214188092639
871,0.001419644760381,0.0005440589169811,0.0133936084937197,-0.0307434306170359,0.0072179351239731,-0.0063441561733919
872,7.996981045383084e-05,0.0041974218600171,0.0065600440143029,-0.034871041442207,0.000769777855384,-0.0012906177287701
873,-0.0009435470578487,0.0067056430844311,-0.000182965946859,-0.0372016629505676,-0.0050889269728598,0.0031158171728918
874,-0.0015883821023642,0.0092021206420209,-0.0041445676660466,-0.0382751129136712,-0.0092836249208002,0.0035944717826147
875,-0.0022871956013237,0.0121061981919273,-0.00675517303859,-0.0383176643928555,-0.0111537047919393,0.0007207541089208
876,-0.0033595153182536,0.014515995767379,-0.009363478251944,-0.0370755364387034,-0.0110071502680907,-0.0005879914171799
877,-0.0046341806297076,0.0160370337112906,-0.0116228048524077,-0.0353092142004816,-0.010666102099675,0.0017278177704335
878,-0.004944034545212,0.0147427209882369,-0.0116881619473875,-0.035117370368143,-0.0088310598016409,0.0032703253391175
879,-0.0044734725490722,0.0102003917301263,-0.0114514266717851,-0.0368045013909866,-0.0055760287912311,0.0006968960579109
880,-0.0040923483553052,0.004413990877597,-0.0110451338838265,-0.0383452176942335,-0.0022405010598639,-0.0030070187947284
881,-0.003450067661001,-0.0017509115978815,-0.0081251591735219,-0.0385002795130144,0.0015962515335048,-0.0063569882469747
882,-0.0034212326128789,-0.0050014674666715,-0.0063249129487356,-0.0377978458076164,0.0026418337769492,-0.0086790130264389
883,-0.0048486513283462,-0.0020426969957179,-0.0079191401103541,-0.0373403028965062,-0.0005005957624265,-0.0058722617306381
884,-0.0063131311585812,0.0031299640211662,-0.0104909125235215,-0.0379594077322784,-0.0020650010525976,-0.0015761480233422
885,-0.006803065256133,0.0052791049637953,-0.0114956427095352,-0.0386238585469812,0.0011099382197386,-0.0016443326529963
886,-0.0067425221265815,0.0051146687023182,-0.0095773138578038,-0.0368212134762915,0.0041289857063242,-0.002937081221865
887,-0.0061976457086088,0.0054210839237014,-0.0067081469899386,-0.0317329908713037,0.0044807109352108,-0.0010102531210068
888,-0.0049386730759963,0.0057933202768958,-0.0046031620176646,-0.0259224586345476,0.0030721405209082,0.0029273079667479
889,-0.0034164159130065,0.0042602250643833,-0.0039923904972685,-0.0231434221919161,0.0003994380841491,0.004074990711007
890,-0.0022746980130362,0.0012171585421837,-0.0055212988724268,-0.023957172724929,-0.0030827671526506,0.0013479932398178
891,-0.0013144813845083,-0.0020281344981083,-0.007107528200681,-0.0258174666306079,-0.0058558918700367,-0.0026126265303544
892,-0.0007499708682684,-0.0048568443146202,-0.0067375643728548,-0.0257823729462331,-0.0064955920398383,-0.0051029560460285
893,-0.0018989819676006,-0.0061526542938662,-0.0058861190099173,-0.0227804642957152,-0.0077505801081935,-0.0026649171626757
894,-0.0044466106999708,-0.0058972561262877,-0.0071007269440781,-0.0196125289886015,-0.0106898683213618,0.0032500491175505
895,-0.0067048788807698,-0.0057164820204313,-0.0099811127380504,-0.0193768886207532,-0.0139480663707945,0.0079792405746543
896,-0.0070921151789497,-0.0070973325117554,-0.0120509301823066,-0.0212295138695103,-0.0153858963043262,0.009452393551124
897,-0.0052650976730029,-0.0095562688595911,-0.0120778284009039,-0.0227109423286172,-0.0138076264751742,0.0078659055173678
898,-0.0031135182340459,-0.010789212326456,-0.0123516434505962,-0.0234324178686587,-0.0130048785202565,0.0072597660111725
899,-0.001240046876567,-0.0117593017773711,-0.0143027560785605,-0.0235765246222463,-0.0137989431610551,0.0043445121574992
900,0.0012251303051053,-0.015066339354683,-0.0153561112375864,-0.0227584542158266,-0.0136644733370851,-0.0001500686331275
901,0.003357784982902,-0.0181655912293166,-0.0159346875080648,-0.0221892753271601,-0.0134853944304176,-0.0064134574848466
902,0.0041252778230238,-0.0178817479322073,-0.0149046142416689,-0.0223052232010768,-0.0125141486434678,-0.0128043345252157
903,0.0041537823026264,-0.0156132256815141,-0.0137770701626351,-0.0211689801424778,-0.0123718096311614,-0.014613462193407
904,0.003453915935984,-0.0127409561027435,-0.0133629214054816,-0.0179778130558398,-0.0143581734355515,-0.0098404565485128
905,0.0011184489732442,-0.009263466405818,-0.0129235352871779,-0.0139001493151782,-0.0179968250393172,-0.001192201302913
906,-0.0015697310151458,-0.0063388078204757,-0.0136645595710441,-0.0103070294214685,-0.0218286876712651,0.0069225788316145
907,-0.0026540186949314,-0.0053595340588726,-0.0140638073674425,-0.0084023399268381,-0.022012950147225,0.0099015183139513
908,-0.0027934548977831,-0.0056721447766848,-0.0137518421113851,-0.008154241852676,-0.0205918386359487,0.0072867214491227
909,-0.0028147825457031,-0.0054594706385908,-0.0126283808100821,-0.0080603901481082,-0.0187354404161985,0.001916142512281
910,-0.0017723095852946,-0.0054485907251218,-0.0103951441255332,-0.0082367320063077,-0.013307982625817,-0.005625709164704
911,0.0006561604570619,-0.0066861868967737,-0.0065981554551666,-0.0095566357000315,-0.0039999481006594,-0.0154806212444625
912,0.002886169897229,-0.006779001371786,-0.0038055903454476,-0.0112191781196666,0.0029047045694787,-0.0227390947608805
913,0.0034654920916004,-0.0042840612200922,-0.0045922915278356,-0.0123362246699855,0.0036082260235684,-0.0243644387622611
914,0.002865759222972,-0.001584765774995,-0.0061800858333498,-0.0126615639845569,0.0014565291937743,-0.0234153936444583
915,0.0021407854073342,-0.0008419003306089,-0.0055469440055952,-0.0117271992542935,-0.0003406474922404,-0.020945151280482
916,0.001612392047324,-0.0019588364218227,-0.0021583165172572,-0.0096638524967611,5.965963006955443e-05,-0.0175104868527073
917,0.0015202640021202,-0.0039608102250995,0.0032119830474776,-0.0067703336294309,0.0034865776942414,-0.0153656298890104
918,0.0017184163092175,-0.0056703501400049,0.0080772613664128,-0.0022814968050194,0.0071519482870174,-0.0097275397141959
919,0.0017767497881551,-0.006330936019618,0.0112005153912518,0.0020814064770198,0.0099665964674838,-0.0019350696958402
920,0.0019130751330933,-0.0064082369358669,0.0120890147788839,0.003071554825615,0.0124907106161815,0.0017233755120715
921,0.0025450507110089,-0.0066908291279098,0.0116223610964678,0.0017830208937225,0.0145742011336487,0.0012130952945084
922,0.0032909401443301,-0.0071677595155758,0.0112754665165244,0.000956402142019,0.0162275335226031,-0.0018903762507858
923,0.0033121402966512,-0.0081703716226822,0.0105278603063058,0.0001494378485643,0.0170260550789234,-0.0062838150957217
924,0.0032725292529653,-0.0104440872640883,0.0099383245207543,-0.0021871133857068,0.0182577936222327,-0.0122659303917419
925,0.0040539539769069,-0.0128914200930406,0.0098257331027172,-0.0054090741182914,0.020337561191454,-0.0190746753837749
926,0.0042174067873163,-0.0130435327420601,0.0090574549315093,-0.0068077298971264,0.0206687327635718,-0.0231620378762326
927,0.0028169576104713,-0.010948140931978,0.0076112495361421,-0.0049284151242959,0.0178690854431564,-0.0202885830901641
928,0.0014655820493099,-0.0097144882847708,0.007619503113073,-0.0008649481752037,0.0148480640253421,-0.014720030544217
929,0.0019852908703411,-0.0121471903076079,0.0096989548756588,0.003668007609066,0.0144926304485106,-0.0141348161084094
930,0.0038204555919614,-0.016681934294916,0.0108795807678744,0.0066783429850258,0.015199641252083,-0.0165763297428554
931,0.0045215371960409,-0.0175932080342639,0.0085130665308691,0.0064701167778375,0.0133696871773032,-0.0144235734287276
932,0.0039178562007163,-0.0138367536321622,0.00392566377807,0.0028839122400466,0.009944017793807,-0.0071962194679166
933,0.0040383145238692,-0.0104159844373427,0.0009452219093882,-0.0021572896426347,0.0090645502746096,-0.0015098116406958
934,0.0045179160352057,-0.0092198244723921,0.0006453413893098,-0.0055151402699064,0.0099364722451643,0.0004941184743195
935,0.0037045801053918,-0.0078252071147925,0.0007586775809238,-0.006224665412776,0.0091688577219042,0.0027373684013749
936,0.0023393831322272,-0.0059703377161812,-3.62610649922766e-05,-0.0064294092384673,0.0072293145223697,0.0032891632141293
937,0.001494320834672,-0.0055179022274719,-0.0015622461208282,-0.0079757096192445,0.0057655387339266,-0.0007218526967818
938,0.0007753294642236,-0.0059438138722154,-0.0037418446288508,-0.0102388396387285,0.0043487717402856,-0.0054715063204138
939,0.0002636270996467,-0.0060858540512897,-0.0054046223304907,-0.0107852292316459,0.0029206458845659,-0.0081410427331684
940,0.0007587778659231,-0.0067314216741783,-0.0042564172476739,-0.0076396809859218,0.0037431365857752,-0.0082167708579516
941,0.0022463044502036,-0.0088579605636289,-0.0002224482324776,-0.0023383747970073,0.0079428423438743,-0.0072904884534058
942,0.0034790465255408,-0.0114833144489167,0.0037567175134056,0.0017405585397454,0.0124326229501673,-0.0064374714438205
943,0.0036372537457356,-0.0130074982998005,0.0055024229393776,0.0036500333103965,0.0141169201075415,-0.005087386897741
944,0.0028141635105285,-0.0132426920138209,0.0049540904829311,0.0042420788076772,0.0131204093260728,-0.0027691299611456
945,0.0011484049812695,-0.011984852822364,0.0024143754692866,0.0036464841592109,0.0109417967938048,0.00031946251934
946,-0.0009333544856364,-0.0092248796454764,-0.0012263166045809,0.0021351527543843,0.0086283712273631,0.0028114630334101
947,-0.0024840924367906,-0.0063732089119329,-0.0037686960652583,0.0011311874589369,0.0072526872848856,0.0041346141730611
948,-0.0028257537473824,-0.0051006626264004,-0.0037207787150031,0.001326368246973,0.0075974510385881,0.0035639921371152
949,-0.0017693765124307,-0.0066080102583464,-0.001793592256961,0.0025342332697957,0.0086536106733837,-0.0010049495146941
950,-5.761410176202658e-05,-0.009643221768344,-0.0002150071406041,0.004299363121676,0.0090197715285607,-0.0080722343673652
951,0.0002815558303044,-0.0109575910821763,-0.0004945262963917,0.0058239088008756,0.0082687010281271,-0.0117714150633507
952,-0.0010473246348645,-0.0095584692401335,-0.0012647118444074,0.0071011919584609,0.0075708114226034,-0.0089025064378731
953,-0.0027501402294202,-0.0068127091051941,-0.001042042924374,0.0083465168612015,0.0075510971345098,-0.0005912164902309
954,-0.0040253154436961,-0.004388036590628,0.000909538924059,0.0099203567671769,0.008357617697885,0.0096386459594219
955,-0.0036092451224082,-0.0038471462300201,0.0055887050503858,0.0116343509685374,0.0126683946903228,0.0160870270767409
956,-0.0009763145751026,-0.005162738916498,0.0113571991352372,0.0117976174354881,0.0206286425624765,0.0157964539736739
957,0.0022533413916507,-0.0058497885123559,0.0150457274443337,0.010491292300766,0.0276510415241195,0.0138820775177719
958,0.0040570284638663,-0.0044633872399669,0.0157790521108319,0.0098820335262502,0.0303106620547637,0.0159740773988155
959,0.0039697342878531,-0.0019375838589157,0.014636935000481,0.0106324243025163,0.0287484933298469,0.0205173253176246
960,0.0025995137198635,0.0010730281294654,0.0124477786505257,0.0115686883289757,0.0243180767529759,0.0242840932621414
961,0.0010981144799757,0.0040798012146064,0.0100209502714046,0.0121190003465251,0.0187580090811914,0.0262778235960476
962,0.0014501302842356,0.0051586740120213,0.0093321039246696,0.0125997299923845,0.0158704911748481,0.0239980277299818
963,0.0042075148506254,0.00293435505675,0.011514297237979,0.0135390427021335,0.017816139362221,0.0162316034503038
964,0.0071036704139051,-0.0009838088230143,0.0145371076070178,0.0153296896142578,0.0214463644941297,0.007883598819287
965,0.0084009403850999,-0.0036944366625813,0.0162211352399142,0.0181656590075018,0.0237819459036063,0.0058495209410445
966,0.0084375711298342,-0.0037781514795177,0.0170883158944035,0.0224474580818954,0.0251497258338252,0.0123730230273139
967,0.0077730172279756,-0.0023994693386272,0.0178845450849103,0.0267526195065093,0.0261666181343878,0.0214573527416748
968,0.0066331474927592,-0.0008768495332833,0.0179009793839202,0.0280312959228052,0.0266722231804787,0.025156089738715
969,0.0047958482897394,0.000668176120267,0.0167394198270292,0.0264661358311399,0.0259412103947095,0.0227450162007739
970,0.0023247491460791,0.0022060665812152,0.0153507198174173,0.0253205059496525,0.0239022481305803,0.0181782567224816
971,0.0002113781049606,0.003677237943004,0.014515628503536,0.0252971798060473,0.0219004495212909,0.0141245150883144
972,-0.0008934503215694,0.0046036052954833,0.0142593520930825,0.0249239760628713,0.0205953867387167,0.0118367673429078
973,-0.0010530526650749,0.0045338657434507,0.0144033848278142,0.0237589312339579,0.0196461735746932,0.0110611337394445
974,-0.0005008604849721,0.0033467477476414,0.0144361128853011,0.0218692358786731,0.0190415281846918,0.0108271934882138
975,0.0001797463054921,0.0023536113718838,0.0139912496843029,0.0203529130783144,0.018208644529563,0.0130122791839282
976,0.0003944337250792,0.0029859432954211,0.0136228545893328,0.0209126098345835,0.016682112948801,0.01928005186459
977,0.0002441667440036,0.0038842044952771,0.0141783237102488,0.0232358295069076,0.015668689231569,0.0268555691899627
978,0.0003569415291516,0.0035668247256222,0.0157379916044031,0.0254730690958345,0.016543758135729,0.0321236662751414
979,0.0011082107644624,0.002269410469237,0.0180613726233097,0.0265782403225007,0.0192943259525842,0.033761749742629
980,0.0019058501787095,0.000846201066802,0.0205990818392989,0.0267180212893158,0.0224068669138936,0.0332624932038358
981,0.0020474127147486,-0.0005477545883467,0.0222439614369061,0.0256484550605175,0.0249063701467134,0.0318389983266528
982,0.0024520629619961,-0.002982782033046,0.0229990924802522,0.0234708334143592,0.0280078595796649,0.0286509717825459
983,0.0042708183777681,-0.0060359398111365,0.0235109545690999,0.0213888881721948,0.0319862578819814,0.0245766412781394
984,0.0059211695472489,-0.0077787960970219,0.0229085618857638,0.0196428811709407,0.0341173756715065,0.0221510833740812
985,0.0053207272255298,-0.0075876892089874,0.0206731789431025,0.0183770846740987,0.0325459512089149,0.0228226403122466
986,0.0031797658011083,-0.0059582335303992,0.0178990500889222,0.0178893180786547,0.0286314265799351,0.0253291889089916
987,0.0015305254841776,-0.0044682134932765,0.0159796982317742,0.0174575131349348,0.0251616002135668,0.0254895876281564
988,0.0013563210281173,-0.0042373912040205,0.0156314796854253,0.0166565724010543,0.0231436953434627,0.0208849061722255
989,0.0021109874292386,-0.0040998292549661,0.0166133715557417,0.0165465431319452,0.0215640378023655,0.0157443877150749
990,0.0027664924431043,-0.0030376470320743,0.0181053811391331,0.0177059806503624,0.0198039831460138,0.0138271101827715
991,0.0026190291011655,-0.0009472644709768,0.0186702555241017,0.0186464778332983,0.0169152620053337,0.0135264146341197
992,0.0026864364785775,0.0005940140796131,0.018978276260081,0.0184959190697336,0.0157174771740778,0.0135994203659753
993,0.0042120611765851,-8.188547268752335e-05,0.0206782523884075,0.0180434819302903,0.0197754142334846,0.0140226700779305
994,0.005092539318042,-0.001115153216214,0.0216127128774326,0.0175555721073441,0.0236161852189858,0.0154793809154817
