,AF3,AF4,Fp1,Fp2,AF7,AF8
0,0.0273632928729057,0.0061603928916156,0.0040466310456395,0.0037437919527292,0.009382021613419,-6.65817278786562e-05
1,0.0268239788711071,0.0060281860642135,0.0027910626959055,0.0027980597224086,0.0082102445885539,-0.000493356201332
2,0.0264786798506975,0.0051061101257801,0.001283258316107,0.0015546310460194,0.0069363536313176,-0.0017981040291488
3,0.0262339524924755,0.0039156954735517,-2.01299135369482e-05,0.0004208777099847,0.0055183353833854,-0.0036577295977622
4,0.0257351063191891,0.0030303467065095,-0.0008659798768348,-0.0002636686258483,0.0042066159658134,-0.0053256656974554
5,0.0247011352330446,0.0026404783129692,-0.0016412645345553,-0.0003178434562869,0.0031505515798926,-0.0060517555102706
6,0.0233726669102907,0.0027282193768769,-0.0024964741896838,0.0004154116031713,0.002298321109265,-0.00557796144858
7,0.0220571272075176,0.0031541597563773,-0.0031323316507041,0.0013856327859684,0.0012756453361362,-0.0043148039840161
8,0.0209668893367052,0.0035229499917477,-0.0033350209705531,0.0018664804520085,-4.72419851575978e-05,-0.0030057763215154
9,0.0202206876128912,0.0036351939197629,-0.0033720391802489,0.0019199065864086,-0.001454628421925,-0.0024762926623225
10,0.0196235869079828,0.0035266787745058,-0.0038176474627107,0.0017995503731071,-0.003149222349748,-0.0037021599709987
11,0.0190054345875978,0.0034890274982899,-0.0046200547367334,0.0020637121051549,-0.0049347300082445,-0.0064208037219941
12,0.0184329003095627,0.0039941724389791,-0.004940700251609,0.0032505844719708,-0.0058199656195938,-0.0087191797792911
13,0.0179441962391138,0.0050539881922304,-0.0041384138166904,0.0046292403712868,-0.0054805371910333,-0.0091095604002475
14,0.0172841120511293,0.0059632710181176,-0.0028595190960913,0.0048498399555683,-0.0047927424311637,-0.0077249826863408
15,0.0162495207041502,0.0061458148993551,-0.0025510361883789,0.0037975900340825,-0.0047565549612045,-0.0054994984529912
16,0.0151436701416969,0.0059720729477703,-0.0033638274762779,0.0030407588928937,-0.0054409257136285,-0.0028981745708733
17,0.0142166744917631,0.0056848265230655,-0.0039950213395059,0.0036426645237952,-0.0062241540290415,-0.0003666218544822
18,0.0136710489168763,0.0049189892597496,-0.003592935623601,0.0048345415852963,-0.0064533473923802,0.001306218211539
19,0.0139351328834891,0.0038918834179639,-0.0023629125207662,0.0056161805987358,-0.0055436845868825,0.0022265673615038
20,0.0145602934062481,0.0029580767732113,-0.00098703650292,0.0055667920969426,-0.003558071097359,0.0029429802671074
21,0.0147078642621636,0.0020617367699742,8.40911234263331e-05,0.0047482359223067,-0.0011625799816101,0.0036251067649573
22,0.0146268242970109,0.0015112133696675,0.0008061400731094,0.0036114456597715,0.0011045279679819,0.0045264414511621
23,0.014443033374846,0.0015337879303842,0.000861684908159,0.0025082097854465,0.0024132374674081,0.005591619759798
24,0.0136758228763938,0.0016908115940168,-0.0001093707905965,0.001648194505833,0.0019969064742326,0.0061629526317119
25,0.0126138757914305,0.001625012489967,-0.0016372217796742,0.0009225330431945,0.0003834473027382,0.0056625884026289
26,0.0118967844173312,0.0013947989791631,-0.0029158953111618,1.64364664669847e-05,-0.0011962000280618,0.0039491457864642
27,0.0116540230810642,0.0010618545347824,-0.0036284434609115,-0.0006365312146954,-0.002201483817771,0.0015157075831666
28,0.0116923972964287,0.0005019781528972,-0.0040124496445059,-0.0004941335064359,-0.0027991805691272,-0.0010929111158475
29,0.011884561739862,-0.0002736175665631,-0.0041022710502147,-9.51216570683755e-05,-0.0027267723344266,-0.00371446297504
30,0.0120798498392105,-0.0010676758829504,-0.0033930200152099,-3.19696955557447e-05,-0.0015148653183132,-0.0057915323413908
31,0.0123451147228479,-0.0015907494816929,-0.0018729964504018,-0.000109309592517,0.0004495011817198,-0.0066607841290533
32,0.0129833128303289,-0.0017203703755512,-0.0003606591490097,-0.0002065458102151,0.0024951070081442,-0.0065165921114385
33,0.0134713593870401,-0.0019700855482369,2.76566679531243e-05,-0.000586055975873,0.0038499077782034,-0.0061686900444328
34,0.0129882087931037,-0.0026879750657826,-0.0010139246005564,-0.0013044197112321,0.0037290337495505,-0.0061190538108348
35,0.0117095680907369,-0.0034211499150842,-0.0023494067136198,-0.0022740925196558,0.0024399061221629,-0.0061692027375102
36,0.0103188259527087,-0.003626664634794,-0.0030493144877255,-0.0036913333460688,0.0008383187814615,-0.0057592997327446
37,0.0092816445976495,-0.0029606313910335,-0.0032089336309582,-0.0051882262341678,-0.0005132012884132,-0.0042735477909445
38,0.0087394993752241,-0.0014523189747706,-0.0030116606503725,-0.0054596373811364,-0.001133567537181,-0.001501596183516
39,0.0081798369064927,-9.57267329795286e-05,-0.0029191363137215,-0.0045021194964647,-0.0013531593140214,0.0015155797591432
40,0.0071953143924474,0.0001092702514142,-0.0033272514119744,-0.0040096109732985,-0.0018333754269406,0.0033408966846764
41,0.0063208835199475,-0.0003368303878232,-0.0036628905218094,-0.0045743566006422,-0.0021715848706662,0.0041343080811202
42,0.0062572178430855,-1.87786154128844e-05,-0.0032597945537418,-0.0046718171797692,-0.0017015602206811,0.0051941969431936
43,0.0066896541975438,0.0013013862771913,-0.0026442741509527,-0.0031969365663826,-0.0010402337647974,0.0063960747793316
44,0.0066171828657388,0.0026240178849548,-0.0028484500944614,-0.0010101699735969,-0.0015988593222573,0.006582616828382
45,0.0059433677233755,0.0036086775362491,-0.0036931817885488,0.0007854732684791,-0.0033151493407785,0.0060123275034129
46,0.0052179549820721,0.0044781267642974,-0.0043170941062271,0.0018926082411781,-0.0046543520875275,0.0061892429366707
47,0.0046438835561275,0.0051879431121051,-0.0046899449080228,0.0021354043856263,-0.0048240087926387,0.0080537348985672
48,0.0043891719542443,0.0056297569535672,-0.0049687195569276,0.001545492443256,-0.0038503357209265,0.0106313256546855
49,0.0046499385498464,0.0058751944452524,-0.0045243217609822,0.0010692450450733,-0.0018631812417879,0.0123504297807813
50,0.0052136741578578,0.0060224710032343,-0.0031170805450528,0.0015940319281071,0.0002990389475598,0.0130155403167009
51,0.0056635159999132,0.0059322728775441,-0.0015222197398543,0.0026967299636453,0.0015507460338994,0.013193123973906
52,0.0059504606761038,0.0055393273942172,-0.0004106927663087,0.0033991308882832,0.0018041434232145,0.0133854551240802
53,0.0063027450814843,0.0050049968995153,2.76422942988575e-05,0.0033621292095631,0.0019050494302064,0.0138122513890266
54,0.0067855576053261,0.0043061217293143,-1.28098245113506e-05,0.0027650380507111,0.0025091092102229,0.014232225716114
55,0.0072824363596737,0.0034683523699641,-0.0001133609330281,0.0019840924069285,0.0034020124003291,0.0144307231530547
56,0.0075007616542279,0.0027058061677962,-0.0002226270298706,0.0016300800489261,0.0040843375027179,0.0143266143277287
57,0.0069350944831967,0.0018883222946897,-0.0007349328952841,0.0022107961121946,0.0042006387375295,0.0138844698667526
58,0.0055448082275688,0.0009233793243765,-0.0017319390317425,0.0041577732190489,0.0037369513884186,0.0132662523537874
59,0.0040583182126283,2.15918589674402e-05,-0.0027891071513295,0.0073643433861434,0.0031820556614548,0.012403842061758
60,0.0029942670371383,-0.0008918540552258,-0.0033748021814972,0.0102460626512766,0.0028368118219077,0.0110893230885267
61,0.0023550800979137,-0.0018187306122854,-0.0028496636077761,0.0110059818252921,0.002628018381074,0.0098805259913206
62,0.0018049230566248,-0.0024073892273008,-0.0015604178188368,0.0093302996829152,0.0020411508157849,0.009773563593626
63,0.0008023143745958,-0.0025227617006748,-0.0011055138893425,0.0060717444866895,0.0004826952063012,0.0108571872115135
64,-0.0006358023965731,-0.00216841022484,-0.0022340016439557,0.0022828157525509,-0.00168240244966,0.0122540490701795
65,-0.0019484654767438,-0.001293406356126,-0.0041736364364624,-0.0007894884329289,-0.0035043887328356,0.013493474572897
66,-0.0024678595364093,-1.61370608111611e-05,-0.0055274935439229,-0.0018010119674727,-0.0042158719152212,0.0148097770288587
67,-0.0020061435643583,0.001219481579028,-0.005487305112183,-0.0006801021518185,-0.0037062761839479,0.0158398132771254
68,-0.0013490557903423,0.0017894527409225,-0.0046553844586014,0.001222941908054,-0.0026570572517812,0.0156542062759399
69,-0.0009479442960582,0.0018913524691015,-0.0038549187593162,0.0029188578482717,-0.0015625576488673,0.0145439133048058
70,-0.0006028090137988,0.0022245019208639,-0.0033320845104754,0.0044326954521238,-0.000629018060863,0.0140275778248906
71,-0.0006935308920219,0.0025063906796276,-0.0032394381705671,0.0057870768941938,-0.000324826396536,0.0144723653793335
72,-0.0013474987354129,0.0024453168734908,-0.0032718633301556,0.0069881612434983,-0.000488140649395,0.0149603094905615
73,-0.0019835550338029,0.0022566809784621,-0.0028646939899772,0.0084460349753499,-0.0004116299387533,0.0144966691732407
74,-0.0024795073550194,0.001765655586496,-0.0021626339294016,0.0102441729977727,-0.0002858869265764,0.0120219280943275
75,-0.0027631523553282,0.0008747691172175,-0.0014772946015,0.0117306346073747,-0.0005258987657725,0.0077544040977954
76,-0.0025679338723421,-0.0001618010137462,-0.0007873649010434,0.0118754403665662,-0.0007781272870488,0.0040722149424254
77,-0.0023021497763693,-0.0011222372995689,-0.0004713587113656,0.0100187165662646,-0.0008940975531004,0.0032975526992231
78,-0.0023949656169861,-0.001856031245552,-0.000948749599047,0.0067431251518428,-0.0010767562780529,0.0054385149851441
79,-0.0025170221924781,-0.0022751979995518,-0.0019066407112404,0.0031484379433095,-0.0010870606638491,0.0087024169042706
80,-0.0021751937456429,-0.00258609210141,-0.0026640642900019,8.47491173772141e-06,-0.0004244603042025,0.0112575395032763
81,-0.001391839236021,-0.003217164427042,-0.002658981597051,-0.0017317620804533,0.0011780194472521,0.0124759692698717
82,-0.0007466966635547,-0.0041123875416815,-0.0017914426280185,-0.0014173439703881,0.0034589730203151,0.0130319893360138
83,-0.0006633994635194,-0.0046093305572867,-0.0004722666344605,0.000341419770848,0.0056487997062504,0.0138264149427414
84,-0.0008974676020443,-0.0044700102880597,0.0008636328857392,0.0022087174002081,0.0072504971176385,0.0146278208121657
85,-0.0009141108603216,-0.0042567383497953,0.0020513094495981,0.0036876953672617,0.0086678816005587,0.0140698198229074
86,-0.000530902587343,-0.0044560539536178,0.0033343434333801,0.0053131375461816,0.0106143904849887,0.011630984954536
87,8.26978794066235e-06,-0.0049838139675557,0.0051485183648765,0.0074868244118988,0.0130615895614028,0.0088015170767903
88,0.0005202067550271,-0.005417434964329,0.0072669582441449,0.0100851953029633,0.0151425376534462,0.0075358171015977
89,0.0008000829839147,-0.0055806064046919,0.0086966305971145,0.0122775807976723,0.01582863740623,0.0076901768334209
90,0.0007944903918541,-0.00570162339136,0.0091163143515586,0.0127699123695493,0.0149789210408926,0.0075781419873237
91,0.0009249612339772,-0.0059441202320158,0.0093434741720557,0.01121233869344,0.0135823590680957,0.0068765492178499
92,0.0012732042232528,-0.0063117728568613,0.0097367670387029,0.0084735816344618,0.0124383298680186,0.0066465148702263
93,0.0012828320031985,-0.0066258739680051,0.009667981415987,0.005471437703818,0.0113607132807374,0.0076479921117425
94,0.0003378621186129,-0.0071176812052726,0.00849349796772,0.0023916598875075,0.0098125850781798,0.0092899464070797
95,-0.001280783675611,-0.0080522755160927,0.0065817148424685,-0.0001911147701321,0.0082505829632282,0.0101967984810472
96,-0.0026451656594872,-0.0087023172527551,0.0049212994053959,-0.0009121361654251,0.0076017794199287,0.0100568681955338
97,-0.0036612907424569,-0.0084492741152644,0.0039165639318525,0.0002526763419155,0.0074012381955981,0.0097457207739353
98,-0.0048894020728766,-0.0073893833905458,0.0034337621182203,0.0020045244600623,0.0065152370370924,0.0100919883698225
99,-0.006590848788619,-0.0062824813649058,0.003012288827449,0.0031357733532786,0.0048070293851196,0.0109803220257163
100,-0.0083121601492166,-0.0059084012173116,0.0023197645787149,0.0030004396103322,0.0031277951784431,0.0117628322914243
101,-0.0092768063768744,-0.0059638866223394,0.0015843241708353,0.0020199688151478,0.0025008840020746,0.0121110109612346
102,-0.0091295037418603,-0.0059831570833921,0.0012780902907252,0.0012720440281555,0.0036107930354774,0.0119406310841441
103,-0.0080780647695064,-0.0061207702383399,0.0015790306497365,0.0013180933892726,0.0061589921824634,0.0110628809779882
104,-0.0066488063894212,-0.0063309669494628,0.002304368186742,0.0022255491930991,0.0089436499401927,0.009684219956398
105,-0.0055402964353561,-0.0064534312114119,0.0030852688942104,0.0040082912892103,0.010712050832808,0.0085077239200472
106,-0.0054071540944278,-0.0068343239836394,0.0031869818922132,0.006165275350213,0.0105635896325111,0.0075664441101253
107,-0.0061415866948664,-0.0075063481926918,0.0024319991935044,0.007945105433464,0.0088066300377249,0.0065279519185423
108,-0.0068699968978762,-0.0080682355910539,0.0017191233346238,0.0085190776735544,0.0068278750404715,0.0052570784464478
109,-0.006851031910628,-0.0083747925236821,0.0018095832783728,0.0074746101163327,0.005668566096574,0.0036983052268624
110,-0.006167855579406,-0.0082979407161474,0.002350983209908,0.0056302440352737,0.005292585119605,0.0023904314730316
111,-0.0056730154901742,-0.0077036079019308,0.0022636994253844,0.0039827562868595,0.0049990080296993,0.001985668670386
112,-0.0058316080830991,-0.0065601053647697,0.0012446547625586,0.0027054231613874,0.0045590978115797,0.0030712340958416
113,-0.0064015444368124,-0.0050875195302069,-0.0003233905590604,0.0013373743277043,0.0041207824833691,0.0062432559207081
114,-0.0073907533660531,-0.0037747742608189,-0.0023012119345367,-0.0002019184757955,0.0032532007899135,0.0108305402100086
115,-0.0084430761635303,-0.0024860722478479,-0.0039597195573151,-0.0010523978853598,0.0021152980625629,0.0154692148789763
116,-0.0087327854707837,-0.0009853404480963,-0.0043500652536749,-0.0009545860229991,0.0018759681843221,0.0191957149654627
117,-0.0082034105435013,0.0001853026333265,-0.0037508809473365,-0.0010202905395999,0.0027714660391211,0.0209704767912626
118,-0.0074178418144583,0.0009002753067761,-0.0029486832208931,-0.0016862520715221,0.0039723445661366,0.0210324730724096
119,-0.0070933639071881,0.001646764576435,-0.0025066761299967,-0.0019183674594387,0.0043750992044806,0.0209525190293789
120,-0.0076027843169868,0.0023910186719149,-0.0028086400125175,-0.0009063589968718,0.0030856342054903,0.020953506231308
121,-0.0086210453882813,0.0027021274436265,-0.0036219395697116,0.0008472425397485,0.0005430813762359,0.0199280939996243
122,-0.0098182233050465,0.0024896743707358,-0.0044193598441779,0.002061900217086,-0.0017273975536227,0.0171546172350645
123,-0.0111578656360507,0.0020614978857338,-0.0047903563827276,0.0024010026827454,-0.0028835486155003,0.0131324278190732
124,-0.0123821636661887,0.0018529006047174,-0.0047938586212694,0.0025819784495979,-0.0034191478043794,0.0096035255119204
125,-0.0128407320007682,0.002378178294748,-0.0047039943747222,0.0029553335625678,-0.0038354217540472,0.0088147157803177
126,-0.012355868704617,0.0037547496613115,-0.0045190025120973,0.0031226775608956,-0.0039464212022721,0.0116624599322677
127,-0.0117525141686201,0.0052717751823365,-0.0044544567354023,0.0025211693719029,-0.003911932464689,0.0160937458276749
128,-0.0116957575082779,0.0062084235250949,-0.0045761875808239,0.0013775138650089,-0.0040627997368574,0.0190213453024626
129,-0.0121127245947719,0.006371681112796,-0.0047398530878126,0.0004459803458303,-0.0044329059310257,0.0195351038128138
130,-0.0126559277996421,0.0062201833352446,-0.0049636238254606,0.0002448637969791,-0.0050787501968443,0.0192410368472338
131,-0.0129321618005633,0.006466194987297,-0.0051727136597037,0.0006917431601323,-0.0056206942535936,0.0195393785834312
132,-0.0127494120970368,0.0069764433428645,-0.0052567282691597,0.0011590525973588,-0.005284153856337,0.0201979018747807
133,-0.0124565567821264,0.0069924728013575,-0.0053207357414066,0.0012136867735534,-0.0040625371038913,0.0209058709442616
134,-0.0124782016500831,0.0061149001121521,-0.0054939272813499,0.0008346521644853,-0.0025767087936401,0.021689597517252
135,-0.01260538212955,0.0047070402652025,-0.0056064678356051,0.0002873853081837,-0.0011596024269238,0.0222030449658632
136,-0.0124802757054567,0.0036624078638851,-0.0053651737980544,0.0001768475776771,-2.08610690606292e-05,0.0220538079738617
137,-0.0123232901096344,0.0037264700513333,-0.0047471881844103,0.0012813666835427,0.0003490211383905,0.02143126539886
138,-0.012612160295248,0.0047662016004324,-0.0040795393288135,0.0037312137428671,-0.0006290253950282,0.0210363883525133
139,-0.01299789827317,0.0062599601224064,-0.0034063621424138,0.0064181787893176,-0.0024715489707887,0.021391648799181
140,-0.0130489859730005,0.0078380480408668,-0.0026642014272511,0.0076298653148114,-0.0040459930896759,0.0220090802758932
141,-0.0129867047071457,0.0088251447305083,-0.0019298995612189,0.0067271371372044,-0.0047006704844534,0.0219997614622116
142,-0.0130085153505206,0.0088397366926074,-0.0012086025672033,0.0049046413041651,-0.0047420407645404,0.0216145906597376
143,-0.0136264786124229,0.0081366254016757,-0.0010714133968576,0.0039923493750393,-0.0057921330444514,0.0215386636555195
144,-0.0148735400289297,0.0071882396005094,-0.0018625971861183,0.0050215604715049,-0.0084713995456695,0.0216911155730486
145,-0.0156510192900896,0.0064511494711041,-0.0028248105663806,0.0068346811458468,-0.0111430706456304,0.0214198362082243
146,-0.0153598599135876,0.0059153083711862,-0.0033015252556651,0.007167081348598,-0.0121190575882792,0.0203360170125961
147,-0.0143732819706202,0.0054737506434321,-0.0033559028524905,0.0057788183912634,-0.0107815805822611,0.0192766357213259
148,-0.0134250381961465,0.0050393948331475,-0.0036273014266043,0.0038231692742556,-0.0077909147366881,0.0191774684935808
149,-0.0134620415046811,0.0041945138946175,-0.0048387302085757,0.0016277331160381,-0.0052919946610927,0.0197550356388092
150,-0.0144923850893974,0.0031107782851904,-0.0064841913990676,-0.0006710219895467,-0.0047230077907443,0.0203052721917629
151,-0.0152031369507313,0.0027116159908473,-0.0072678299620747,-0.0024715326726436,-0.0051333578303456,0.0204864200204611
152,-0.0148979080840945,0.0030883052386343,-0.0069062006659805,-0.0032370490953326,-0.0051649110391736,0.0201851911842823
153,-0.0140256993472576,0.0033529899083077,-0.0058245966210961,-0.0026152085047215,-0.0045190784148871,0.0190614759922028
154,-0.0129738505929708,0.0029713814146816,-0.0041840355843305,-0.001077669323422,-0.0035037917550653,0.0165130328387022
155,-0.0118238683789968,0.0022538888733834,-0.0023277157451957,0.0002567720075603,-0.00259639788419,0.0129087325185537
156,-0.0107912700623274,0.0020044001284986,-0.0011182347079739,0.0008413149625994,-0.0021294453181326,0.010214114561677
157,-0.0099620902910828,0.0029820608906447,-0.0007017362513579,0.0008327083778567,-0.0020024988334626,0.0103110484778881
158,-0.009307250380516,0.0050268834456801,-0.0003860502038151,0.0007302915910258,-0.0019284520531073,0.013253509066999
159,-0.0094079729169607,0.0066861496306955,-0.0001717108098091,0.0010648451279848,-0.0020862005185335,0.0169675089418888
160,-0.0102604348212481,0.0071338848210871,0.0002680104225873,0.0024874787777662,-0.002273836871609,0.0194161478430033
161,-0.0110052516683936,0.0069924816489219,0.0015480029396712,0.0044726878404617,-0.0019712834618985,0.0203379895538092
162,-0.0113866254687309,0.0067895976826548,0.0029444424435496,0.0046417620033025,-0.0014774405863136,0.0201856642961502
163,-0.0113359447568655,0.0068575977347791,0.0039024031721055,0.0020981898996979,-0.0010277533438056,0.0199542474001646
164,-0.0106036681681871,0.0074599790386855,0.0047914059832692,-0.0009282427490688,-0.0003722720430232,0.0208707228302956
165,-0.0095156533643603,0.0081091821193695,0.005606613587588,-0.0020680702291429,0.0005002456018701,0.0224998332560062
166,-0.0087597360834479,0.0081266155466437,0.0060389419086277,-0.0010713099036365,0.0015077622374519,0.0231302510946989
167,-0.0082709034904837,0.0074320309795439,0.006381913088262,0.0007905604434199,0.0029975236393511,0.021728727966547
168,-0.0078467205166816,0.0062330039218068,0.006752616725862,0.0019259266555309,0.0047376207076013,0.0185589753091335
169,-0.0077950549311935,0.005208486225456,0.0063760867342352,0.0018379675457254,0.0056972252205014,0.0154514377936721
170,-0.0079976497218012,0.0052084825001657,0.0050072013400495,0.0011746099917218,0.0055484822951257,0.0142988180741668
171,-0.0082370787858963,0.0058265109546482,0.0035771233960986,0.0002995634858962,0.0045602642931044,0.0148283606395125
172,-0.008673963136971,0.0060965023003518,0.0030098930001258,-0.0005193239194341,0.0030590069945901,0.015512939542532
173,-0.0090037332847714,0.0061320005916059,0.0034073258284479,-0.0004958388162776,0.001801871927455,0.0151924984529614
174,-0.0087531311437487,0.0065049803815782,0.0044341217726469,0.0010156659409403,0.0014862885000184,0.013778823427856
175,-0.0083801848813891,0.0070965010672807,0.0055315238423645,0.0036213379353284,0.0016407276270911,0.0124470070004463
176,-0.0083256587386131,0.0075014824979007,0.0065084481611847,0.0064853015355765,0.0018295065965503,0.0125853437930346
177,-0.0081045236438512,0.0075923237018287,0.0080712810158729,0.0091618821024894,0.0029482727404683,0.0144235296174884
178,-0.0075441016815602,0.0073499288409948,0.010260546579957,0.0107787195593119,0.0052065728232264,0.0170357711613178
179,-0.0069671394303441,0.0070390361361205,0.0123777939006686,0.0107738962396979,0.007624895311892,0.0195764433592558
180,-0.006656615063548,0.0068399189040064,0.0139021091163158,0.0099021466448903,0.0094323214143514,0.0212482903152704
181,-0.0065817222930491,0.0067541552707552,0.0147662106901407,0.0094121461734175,0.0104817561805248,0.0216028746217489
182,-0.0061885439790785,0.0069055147469043,0.0158909875899553,0.0096967685967683,0.0115923369303346,0.0210767965763807
183,-0.005410264711827,0.0069963922724127,0.0175746120512486,0.009739039465785,0.0131231788545847,0.0200584065169096
184,-0.0049388515762984,0.0067696683108806,0.0185869112610817,0.0089037511497736,0.0138624338433146,0.0189437139779329
185,-0.0049621872603893,0.0067048263736069,0.0180335864424706,0.008114063180983,0.0132073173299432,0.0182477980852127
186,-0.005086665507406,0.0073731974698603,0.0165105555206537,0.0085442401468753,0.0120855141431093,0.0182754211127758
187,-0.0055417288094759,0.0083279097452759,0.0150816738605499,0.0095677813515067,0.0108841732144356,0.0187001060694456
188,-0.0065066958777606,0.0087886322289705,0.014134275726974,0.0094381486997008,0.0092022167518734,0.0188115462660789
189,-0.0071656815707683,0.0089483186602592,0.0134780537337065,0.0078866658732295,0.0075195250101387,0.0185429286211729
190,-0.0070563699118793,0.009149495512247,0.0125764394178987,0.0059776403941214,0.0066624470055103,0.0179470274597406
191,-0.0066168620251119,0.0092638712376356,0.0111532788723707,0.0045748180709779,0.0064321989193558,0.0167570207268
192,-0.0062551843002438,0.0090644657611846,0.0097597204148769,0.0038490975275635,0.0060950731858611,0.0150908902287483
193,-0.0064255711622536,0.0083498498424887,0.0085216341540217,0.0030800900422036,0.005104265641421,0.0135899493470788
194,-0.0074494932778179,0.0072091007605195,0.0065386304631829,0.0009468974894844,0.0032951321918517,0.0126419430598617
195,-0.0085566332563757,0.0062422291375696,0.0038842493668198,-0.0026441779918968,0.0013025060761719,0.0123346066102386
196,-0.0085099386051297,0.0061515569686889,0.0022435074206441,-0.0059569641016423,0.0003558977041393,0.0130250919610262
197,-0.0073706521652638,0.0068490146659314,0.0025662728585302,-0.0074114040471613,0.0006763833807781,0.0148444995284081
198,-0.0063510341569781,0.0075587560422718,0.0039045705925673,-0.0068833106197416,0.0012280835071578,0.0169691015034914
199,-0.0060907760635018,0.007930614054203,0.0050063356757164,-0.0052771922200918,0.0016500242054462,0.0180472154170275
200,-0.0063517754897475,0.0080601805821061,0.0053394669666886,-0.0034781128633767,0.0021755846682936,0.0172763597220182
201,-0.0068378983996808,0.0080838073045015,0.0049000247381627,-0.0014741002814844,0.0023566274903714,0.0150315295904875
202,-0.0075719733722508,0.0080361338332295,0.0040798392146825,0.0008612896781414,0.0017643219325691,0.0122484434396029
203,-0.0087981922551989,0.0075009344145655,0.0031487643718719,0.002451466396451,0.000475920329336,0.0094492631033062
204,-0.0103914337232709,0.0063647623173892,0.002297869650647,0.0028203632682561,-0.0011383045930415,0.0072624897584319
205,-0.0115190567448735,0.005268027074635,0.0021033918019384,0.0032448370475322,-0.0021650220733135,0.0062453667633235
206,-0.0115834046155214,0.0045223142951726,0.0029872916638851,0.0039237225428223,-0.0017552020726725,0.0056931874714791
207,-0.0108655206859112,0.0039788861759007,0.0045987726189196,0.0034970256965607,-0.0002313121949555,0.0050379261374473
208,-0.0099034626036882,0.003972724545747,0.0060394322499632,0.0017616733675822,0.0011562044965103,0.0053486148826777
209,-0.0093130124732852,0.004688543267548,0.0065968628041446,-0.0003680968657135,0.0012865462340414,0.0071406881324946
210,-0.0095104593783617,0.0057393154129385,0.0066214692778885,-0.0022684449795633,2.99589955830015e-05,0.0095556024461984
211,-0.0101419817656279,0.0069791488349437,0.007176708895713,-0.0035797113087028,-0.001457538222894,0.0121877770870924
212,-0.0107501801103354,0.0082155633717775,0.0081704370677471,-0.0042582745663821,-0.0024572040420025,0.0146194221451879
213,-0.0116374660283327,0.0090362941846251,0.008161867968738,-0.0045389863662421,-0.0040626600384712,0.0159666556864977
214,-0.0133605403825641,0.0093679009005427,0.0064930929802358,-0.0044516352936625,-0.0072753829881548,0.0159437377005816
215,-0.0156774949282408,0.009662365540862,0.0040730396285653,-0.0036825572606176,-0.0110712889581919,0.0148317515850067
216,-0.0176522601395845,0.0103084929287434,0.0022466732189059,-0.0022506366949528,-0.0133636686950922,0.012962831184268
217,-0.018541032448411,0.0109825991094112,0.0015789282042533,-0.0011061652330681,-0.0133177386596799,0.010751380585134
218,-0.0179624762386084,0.0114924535155296,0.0018127502407878,-0.0005847394349984,-0.0118387769907713,0.0089183440431952
219,-0.0162802152335644,0.0120261721313,0.0026081032119691,0.0003069137746933,-0.0103977648541331,0.0079692509025335
220,-0.0147619666531682,0.0123489098623395,0.0034999649506062,0.0019030213588848,-0.0099137127399444,0.007551756221801
221,-0.0140319149941206,0.0121479257941246,0.0041931848973035,0.0034099088516086,-0.0099735371768474,0.0072806300595402
222,-0.0137773733586073,0.0113008553162217,0.0049320538528263,0.0040093041025102,-0.0096699967980384,0.0074332859367132
223,-0.0136908702552319,0.0101164914667606,0.0059227785095572,0.0037167898844927,-0.0088162049651145,0.0086455615237355
224,-0.0135228568688035,0.0095230992883443,0.0070423665456473,0.0033516865223646,-0.0077831991948187,0.0115683302283287
225,-0.0132207628339529,0.0100049506872892,0.0081521393731236,0.0033859417308121,-0.0068846018984913,0.015922786667943
226,-0.0130278244614601,0.010847358033061,0.0091412039473652,0.003460912965238,-0.0061130924150347,0.0201740823686123
227,-0.0131019046530128,0.0109542831778526,0.0098895253613591,0.0031256172806024,-0.0051457812078297,0.0226677246391773
228,-0.0131727512925863,0.0101288370788097,0.0106864366680384,0.0026647238992154,-0.0034639898221939,0.0228439010679722
229,-0.0128295300528407,0.0091386623680591,0.0119816120713949,0.0029800597112625,-0.0009680530056357,0.0217273626476526
230,-0.0122893080115318,0.0086030643433332,0.0134125771000981,0.0043316730298101,0.0013707652688026,0.0204125139862299
231,-0.0119128804653883,0.0085282558575272,0.0144389634951949,0.0061277393251657,0.0026095570065081,0.0189225152134895
232,-0.0114074889570475,0.0087252715602517,0.0151835903525352,0.0082328980788588,0.0031763308215886,0.0174524076282978
233,-0.0107569601386786,0.0088764065876603,0.015796821564436,0.0105313556268811,0.0038179706316441,0.0163414366543293
234,-0.0103641469031572,0.0086502656340599,0.0167190115898848,0.011946490034461,0.0047574681229889,0.0153985498473048
235,-0.0101288827136159,0.0082792360335588,0.0183942429721355,0.0120193818584085,0.0059009864926338,0.0149660613387823
236,-0.009928629733622,0.0081684337928891,0.019976906478405,0.0115830283612013,0.0066278097219765,0.0155400652438402
237,-0.0098000187426805,0.0082786558195948,0.0202283728867769,0.0115151116624475,0.0064606284722685,0.0163954123854637
238,-0.0093677453696727,0.0083914417773485,0.0193462241441011,0.0122454380616546,0.005888327024877,0.0163007099181414
239,-0.0085923317819833,0.0080326367169618,0.0184645429253578,0.0130515219643712,0.0056470888666808,0.014467241242528
240,-0.0080278357490897,0.0070683029480278,0.0182623490691185,0.012840561568737,0.0060708131641149,0.0114989038556814
241,-0.0079653300344944,0.0060724345967173,0.0185788553208113,0.0116183524951339,0.0071596908383071,0.0090061156079173
242,-0.0082264402881264,0.0052642812952399,0.0188406314700842,0.0099338926374912,0.0087689394131302,0.0077967438846826
243,-0.0084279319271445,0.0045627374202013,0.0187241826206446,0.0083836112171411,0.0106150917708874,0.0082460036501288
244,-0.0084334183484315,0.003832904389128,0.0180467255413532,0.0070900339633226,0.0119359921664,0.0099919540807604
245,-0.0085160434246063,0.0027973288670182,0.0166337452828884,0.0057727759703993,0.0118464231491089,0.0117759127169847
246,-0.0085094198584556,0.0020013384055346,0.0147790648043156,0.0048773232847452,0.0104672713205218,0.0134745370596647
247,-0.0078381495550274,0.0024912075605243,0.0133797582238913,0.0050347810611128,0.0090648159384727,0.01569714397192
248,-0.0068969507701695,0.0042106015607714,0.0127634964883327,0.0057546193711459,0.0082573536783456,0.0181053392589092
249,-0.0066007506102323,0.0062717539258301,0.0123657146468759,0.0062612215988338,0.0076216119341552,0.0198669731616974
250,-0.0077958274632692,0.0079057477414608,0.0120194451883435,0.0067892796359956,0.0070266784168779,0.0202641692012548
251,-0.0113051943480968,0.0085018435493111,0.0118357390165329,0.0073708184063434,0.0062418789602816,0.0187056288123131
252,-0.0165077820420265,0.0081279221922159,0.0115088988095522,0.0070063802413642,0.0048076170496642,0.0154862012714148
253,-0.0214921142905951,0.0077242469415068,0.0108064245432615,0.0055945133790373,0.0029236350674182,0.0120652923360467
254,-0.0251123681664467,0.007690938655287,0.00990776065737,0.0043825227767229,0.0010735645191744,0.0098136477172374
255,-0.0272247195243835,0.0076891337521374,0.0093201892450451,0.0042907781898975,-0.0002325637324247,0.0092079238966107
256,-0.0280006844550371,0.0078919390216469,0.0091296322643756,0.0051379795186221,-0.0009357524104416,0.010072766803205
257,-0.028073089197278,0.0083088111132383,0.008574710227549,0.0060438071377575,-0.0016230498440563,0.0112729957327247
258,-0.0278523173183203,0.0085966615006327,0.007337877061218,0.0066487328149378,-0.0020112351048737,0.0112533271312714
259,-0.0271352455019951,0.0088503221049904,0.0062331305816769,0.0072338213212788,-0.0013926114188507,0.0097005357965827
260,-0.0262000821530819,0.0088525973260402,0.0060843881219625,0.0076405364088714,-0.0002883108681999,0.0077315848320722
261,-0.0258762147277594,0.0080246292054653,0.0064511890523135,0.007166476920247,0.0001793314149836,0.0064976373687386
262,-0.0259609967470169,0.0065547227859497,0.0067666345275938,0.0056590209715068,0.000290196534479,0.0061194626614451
263,-0.0255532991141081,0.0050779148004949,0.0073175635188818,0.0040863431058824,0.0011383412638679,0.0060172411613166
264,-0.0248718224465847,0.0037790092173963,0.0079749608412385,0.0034640303347259,0.0023118946701288,0.0060745649971067
265,-0.0244580395519733,0.0028983971569687,0.0083876335993409,0.0039841118268668,0.002846299437806,0.0067418287508189
266,-0.0240594949573278,0.0024723378010094,0.0087565435096621,0.0048129572533071,0.0029498354997485,0.0076639871113002
267,-0.0231348499655724,0.0020555322989821,0.0095603894442319,0.0045949718914926,0.0035371808335185,0.0078291911631822
268,-0.0215208902955055,0.0015022029401734,0.0108736623078585,0.0030264428351074,0.0051164031028747,0.0068522724322974
269,-0.0197258908301592,0.0009627763065509,0.0120777804404497,0.0011554341763258,0.0073618763126432,0.0053349849767983
270,-0.0183731708675623,0.0006150724366307,0.0124750202521682,-0.0002878802479244,0.0093244034796953,0.004286375362426
271,-0.0177198126912117,0.0003339396498631,0.0117416670545936,-0.0015793541679158,0.0099961543455719,0.0038927900604903
272,-0.0177761185914278,-0.0003251179878134,0.0103009706363082,-0.0030997181311249,0.0094044934958219,0.0032562394626438
273,-0.0182228498160839,-0.0013252277858555,0.0092679904773831,-0.0044616805389523,0.0083598727360367,0.0020513653289526
274,-0.0185341406613588,-0.0020035186316818,0.0091732582077384,-0.0047153630293905,0.0070415325462818,0.0014208144275471
275,-0.018620990216732,-0.0020983791910111,0.0091568399220705,-0.0039173918776214,0.0052749766036868,0.0018180557526648
276,-0.0186425447463989,-0.0019227212760597,0.0084460116922855,-0.0030336226336658,0.0036398957017809,0.0020346932578831
277,-0.0183943267911673,-0.0014699925668537,0.0074833403341472,-0.0022703767754137,0.0030364822596311,0.0011749761179089
278,-0.0177933666855097,-0.0005948692560195,0.0068851429969072,-0.0010183471022173,0.0035343968775123,-0.0004383824707474
279,-0.0171476285904646,0.0001419698091922,0.0067461351864039,0.0010312473168596,0.004593089222908,-0.0021933780517429
280,-0.0166418273001909,-8.33479934954084e-05,0.0068537187762558,0.0032418854534626,0.0058320192620158,-0.0039365566335618
281,-0.0162203796207905,-0.0012265021214261,0.0069699599407613,0.0046067610383033,0.0069277421571314,-0.0058171469718217
282,-0.0156055856496096,-0.0024154707789421,0.0070268767885863,0.0045882482081651,0.0078063504770398,-0.0076730535365641
283,-0.0146858068183064,-0.002963351085782,0.0068092057481408,0.0031848277430981,0.0085060764104127,-0.0089492127299308
284,-0.0137789417058229,-0.0028272836934775,0.0061083757318556,0.0008946710731834,0.0087763648480176,-0.0090846652165055
285,-0.0128358863294125,-0.0021139285527169,0.00531592592597,-0.001149300369434,0.0089212851598858,-0.0074852155521512
286,-0.0115514658391476,-0.0008212464163079,0.0051626646891236,-0.0019006833899766,0.0094943856820464,-0.004044281784445
287,-0.0099563160911202,0.001084369723685,0.0061858594417572,-0.0011384550016373,0.0104191079735756,0.0008021164685487
288,-0.0083603831008076,0.0035933298058807,0.0079987347126007,0.0007823129999451,0.0111375423148274,0.0065576094202697
289,-0.0073544578626751,0.0060045928694307,0.0094478335231542,0.0030109076760709,0.0111409397795796,0.0117706945165992
290,-0.0070195877924561,0.0073352926410734,0.010246186517179,0.004735879600048,0.0108422609046102,0.014761564321816
291,-0.0069083156995475,0.0073629203252494,0.0108920857310295,0.0057550990022718,0.0107884025201201,0.0154932625591755
292,-0.0069085485301911,0.0066551635973155,0.0114291524514556,0.0060713673010468,0.0106212329119444,0.0149527443572879
293,-0.006901585496962,0.0062121953815221,0.0116099109873176,0.0060720252804458,0.0098921665921807,0.0138991326093674
294,-0.0066185686737299,0.006436897907406,0.011416969820857,0.0065108714625239,0.00866674259305,0.0127108208835125
295,-0.0061913332901895,0.0065185967832803,0.0111409118399024,0.0073298830538988,0.0072794174775481,0.0113758901134133
296,-0.0061645419336855,0.0053490991704165,0.0109661128371954,0.0075481189414858,0.0060691614635288,0.0094747766852378
297,-0.0066934167407453,0.0030693849548697,0.0108959311619401,0.0069492706097662,0.0053224684670567,0.0069618206471204
298,-0.0071552968584001,0.0009791746269911,0.0107278758659959,0.0067460904829204,0.0048880246467888,0.0043280879035592
299,-0.0070237121544778,-0.0001576830691192,0.0100381337106228,0.0077423313632607,0.0040181959047913,0.0019061390776187
300,-0.0064931809902191,-0.0005688918172381,0.0089819738641381,0.0088460082188248,0.0024409322068095,-0.0001976142521016
301,-0.0059163942933082,-0.000531387689989,0.0081176031380891,0.0087670991197228,0.0008355904137715,-0.0019541792571544
302,-0.0054581244476139,-8.1215075624641e-05,0.0074701537378132,0.0074442997574806,-0.0003941192990168,-0.0032263321336358
303,-0.0049968850798904,0.0007568132714368,0.0068265972658991,0.005205272231251,-0.00136638735421,-0.0034214318729937
304,-0.0042390022426843,0.0020377906039357,0.0060350261628627,0.0025427921209484,-0.0021105555351823,-0.0018358713714405
305,-0.0034286475274711,0.0033469703048467,0.0047349934466183,-0.0001361659524263,-0.0028372113592922,0.0010420286562293
306,-0.0030142550822347,0.0038444050587713,0.0029913298785686,-0.0024848610628396,-0.0035955859348177,0.0036521463189274
307,-0.0032104956917464,0.0032210177741944,0.0015288565773516,-0.0041117016226053,-0.0040411497466266,0.0049530547112226
308,-0.003851291257888,0.002076742472127,0.0010518132476136,-0.0047531016170978,-0.0038235709071159,0.0053955134935677
309,-0.0042704329825937,0.0012797196395695,0.0015858862316235,-0.0041401074267923,-0.0029043518006801,0.0058399052359163
310,-0.004219988361001,0.0008703850326128,0.0023456872440874,-0.0023891360033303,-0.0018991961842402,0.0059207095764577
311,-0.0038179082330316,0.0005874951602891,0.0027799224480986,0.0001196458906633,-0.0012731049209833,0.005143045913428
312,-0.0032266585621982,0.0004488287959247,0.00290337507613,0.0024025922175496,-0.0008021515677683,0.0035640054848045
313,-0.0029716382268816,0.0001308930659433,0.0026709341909736,0.0033294856548309,-7.51363986637443e-05,0.0009622101206332
314,-0.0030554181430488,-0.0004584930720739,0.0020022098906338,0.0031042185146361,0.0008710364345461,-0.0021366802975535
315,-0.0030732164159417,-0.0010686981258913,0.0011422832030803,0.0023034040350467,0.0011233870172873,-0.004500416573137
316,-0.0028740905690938,-0.001714356476441,0.0010940380161628,0.0011837633792311,0.0003799729456659,-0.005512299016118
317,-0.0023192092776298,-0.0023754825815558,0.0021834019571542,-0.0002614663098938,-0.0008091024355962,-0.0050050597637891
318,-0.0017623738385736,-0.0029983001295477,0.0029310467652976,-0.002504430245608,-0.0024956492707133,-0.0034046070650219
319,-0.0016328961355611,-0.0035737534053623,0.0023346475791186,-0.0055793044157326,-0.0044791349209845,-0.002078725490719
320,-0.0017293505370616,-0.0040325303561985,0.0010043068323284,-0.0086610065773129,-0.0059240302070975,-0.0024502940941602
321,-0.0014787524705752,-0.0043528014793992,0.0001699154672678,-0.0105507997795939,-0.0059015918523073,-0.0044986144639551
322,-0.0008103404543362,-0.0050199660472571,0.0003797879908233,-0.0110238064080477,-0.0042323912493884,-0.0074338200502097
323,-0.0003731428587343,-0.0061577185988426,0.0006005548057146,-0.0110554462298751,-0.0025957331527024,-0.0106016807258129
324,-0.0002397630742052,-0.0066947205923497,-0.0005461586988531,-0.0114021664485335,-0.0028742142021656,-0.0129589764401317
325,-0.0001618730893824,-0.0061387498863041,-0.0031948087271302,-0.0121736042201519,-0.0051840906962752,-0.0138856526464224
326,-3.69014014722779e-05,-0.0048932125791907,-0.0058757332153618,-0.012765989638865,-0.0079378811642527,-0.0132116554304957
327,0.0003630310238804,-0.0034202928654849,-0.0071022282354533,-0.0126718580722809,-0.00946656614542,-0.0112316887825727
328,0.0009949568193405,-0.0024398814421147,-0.0071743382140994,-0.0124720130115747,-0.0096797458827495,-0.0096356272697448
329,0.001717873616144,-0.002087572356686,-0.0070560337044298,-0.0126077150925994,-0.0095252729952335,-0.0096068084239959
330,0.0022905101068317,-0.0016857354203239,-0.0071860854513943,-0.0122290253639221,-0.0098280357196927,-0.010395142249763
331,0.0023776476737111,-0.0009928889339789,-0.0076376409269869,-0.0101675968617201,-0.0108747398480773,-0.0113452719524503
332,0.0020101750269532,-0.0005008717998862,-0.0080997785553336,-0.0068105566315352,-0.0122330952435732,-0.0127894170582294
333,0.0014665975468233,-0.0006670326692983,-0.0082143638283014,-0.0041312188841402,-0.0129545852541924,-0.0150568122044206
334,0.0011461199028417,-0.0012853073421865,-0.0080622164532542,-0.0037264092825353,-0.0123970126733184,-0.0175877902656794
335,0.0013245850568637,-0.0015418891562148,-0.0078581133857369,-0.0053347591310739,-0.0108067393302917,-0.0189440809190273
336,0.0016205899883061,-0.0010710842907428,-0.0075027327984571,-0.0074303266592323,-0.0090934867039322,-0.018183920532465
337,0.0014981037238612,-0.0004264594463165,-0.0068678385578095,-0.0089849401265382,-0.0079562654718756,-0.0152742434293032
338,0.0010597461368888,-0.0001409057294949,-0.0063607008196413,-0.0098265493288636,-0.0071996664628386,-0.0109468260779977
339,0.0007684383890591,-0.0003155175654683,-0.0063636936247348,-0.0101418746635318,-0.006188818719238,-0.0068027079105377
340,0.0010950510622933,-0.0007526421104557,-0.0060659819282591,-0.009845239110291,-0.0045205932110548,-0.0040476722642779
341,0.0021441094577312,-0.0012113298289477,-0.0048370622098445,-0.0083866473287344,-0.0027697847690433,-0.0027631211560219
342,0.0032773441635072,-0.0017358522163704,-0.0034405712503939,-0.0058849873021245,-0.0020994842052459,-0.0024515723343938
343,0.0038686445914208,-0.0024807082954794,-0.0022983755916357,-0.0032007077243179,-0.0024713459424674,-0.002714542672038
344,0.0039580562151968,-0.0035189762711525,-0.0012145881773904,-0.0009609660482965,-0.0028453888371586,-0.004075423348695
345,0.0040302006527781,-0.0048417681828141,-0.0004606584261637,4.03562262363266e-05,-0.0024364497512579,-0.0076081100851297
346,0.0043766545131802,-0.0061915754340589,-0.000280187377939,-0.0008744216756895,-0.001008553430438,-0.0126042095944285
347,0.0046747415326535,-0.0070657869800925,-0.0005617156275548,-0.0032170780468732,0.0009273685864172,-0.0159773007035255
348,0.0046156425960362,-0.0072471899911761,-0.0014001583913341,-0.0059766289778053,0.0021463222801685,-0.0154103552922606
349,0.0043469769880175,-0.0070063681341707,-0.002989639295265,-0.0083686858415603,0.0017754602013155,-0.0115444594994187
350,0.0089257443323731,0.0011642761528492,0.0082364343106746,0.0149423712864518,0.0136928427964449,0.0067698997445404
351,0.0095542483031749,0.0028657563962042,0.0081961350515484,0.0146781010553241,0.0137493470683694,0.0083227409049868
352,0.0099122077226638,0.0031322750728577,0.0082301581278443,0.0128755820915103,0.0143600478768349,0.0079505741596221
353,0.0099053615704178,0.001746907364577,0.0085033662617206,0.0106511767953634,0.0151210222393274,0.0061061796732246
354,0.0094935642555356,-0.0005315957241691,0.008784344419837,0.0093553634360432,0.0151678211987019,0.0048147891648113
355,0.0086944540962576,-0.0027083915192633,0.0086930710822343,0.009347703307867,0.0141883855685592,0.005436694715172
356,0.0079169170930981,-0.0042058122344315,0.0082145268097519,0.0098054865375161,0.0128159793093801,0.0073672789148986
357,0.0075427466072142,-0.0050253258086741,0.0076030036434531,0.0094261169433593,0.0119440415874124,0.0085479039698839
358,0.0076237549073994,-0.004977086558938,0.0073981010355055,0.0087100882083177,0.0120501611381769,0.008228875696659
359,0.0078416764736175,-0.0036796410568058,0.0079148262739181,0.0094708325341343,0.0127727789804339,0.0076107033528387
360,0.007457916624844,-0.0015869172057136,0.0086065847426652,0.0115954792127013,0.0131495539098978,0.0076784878037869
361,0.006245088763535,0.0003481357416603,0.0085418727248907,0.0131294634193182,0.0126579497009516,0.0085105393081903
362,0.0048661846667528,0.0015596374869346,0.0073031513020396,0.0128456773236394,0.0116458749398589,0.0098508084192872
363,0.0037299280520528,0.0021601521875709,0.0051482231356203,0.0116626145318151,0.0101863732561469,0.0116259139031172
364,0.0028478049207478,0.0027084904722869,0.0030340410303324,0.0115031562745571,0.0081014055758714,0.0135674569755793
365,0.0021290271542966,0.002980297897011,0.0020810491405427,0.012837334536016,0.0060673877596855,0.0143673662096262
366,0.001763459527865,0.0027127952780574,0.0024995021522045,0.0143498182296753,0.0051407855935394,0.0132678346708417
367,0.0019850193057209,0.0025113222654908,0.0033149858936667,0.014278145506978,0.0052949758246541,0.0111397290602326
368,0.0023742313496768,0.002975549781695,0.0034389430657029,0.0123074827715755,0.0054124351590871,0.0098390011116862
369,0.0024549860972911,0.0042202044278383,0.0027097100391984,0.0099225891754031,0.0047723562456667,0.0107856476679444
370,0.0020882785320282,0.0053999270312488,0.0017156819812953,0.0081624370068311,0.0036390752065926,0.0128450747579336
371,0.0016400414751842,0.0058070188388228,0.0011895309435203,0.0070667252875864,0.0027208600658923,0.0137500371783972
372,0.0012895545223727,0.0055235582403838,0.0009799224790185,0.0064129009842872,0.0021069454960525,0.0125271566212177
373,0.0006618694751523,0.0046767755411565,0.0002748970873653,0.0062179029919207,0.001267316751182,0.009930744767189
374,9.75090079009533e-05,0.0039941905997693,-0.0006150805857032,0.0072439522482454,0.0005336787435226,0.0079673463478684
375,0.0001728699280647,0.0040846872143447,-0.0005069971666671,0.0093398010358214,0.0009504963527433,0.0075304880738258
376,0.0006601229542866,0.0043278676457703,0.0010088593699038,0.0107702184468508,0.0026224311441183,0.0076301856897771
377,0.001325819408521,0.0041071772575378,0.0033733008895069,0.0108505375683308,0.0049283951520919,0.0075336298905313
378,0.0022782334126532,0.0038478286005556,0.005755643825978,0.0109796160832047,0.0072821122594177,0.0077935312874615
379,0.0032780608162283,0.0042099519632756,0.0076060956344008,0.0120567074045539,0.0091191558167338,0.0090090679004788
380,0.0037687609437853,0.0049136132001876,0.0086454600095748,0.0128936041146517,0.0102559737861156,0.0106077361851931
381,0.0034769193734973,0.0049608522094786,0.0088146328926086,0.0122733330354095,0.0108192153275013,0.0116211622953415
382,0.0030285811517387,0.004146690480411,0.0085882153362035,0.010854265652597,0.0112716248258948,0.0120912715792656
383,0.0031660974491387,0.0033202234189957,0.0082860151305794,0.0099658844992518,0.0118076028302312,0.0128847910091281
384,0.0033713369630277,0.0026905259583145,0.0076624075882136,0.0097476290538907,0.0119193755090237,0.013905300758779
385,0.0033406445290893,0.0019102966180071,0.0071045169606804,0.0098051279783248,0.0119629530236125,0.0139685664325953
386,0.0038264538161456,0.0012809879845008,0.0073293140158057,0.0104823587462306,0.0127811748534441,0.0125938151031733
387,0.0044743870384991,0.0008891944307833,0.007638871204108,0.0118868183344603,0.0133145302534103,0.0102885318920016
388,0.0042437659576535,0.0006170496344566,0.0068876380100846,0.0131827658042312,0.0119061432778835,0.0080332234501838
389,0.0035554282367229,0.0009639309719204,0.0053096250630915,0.0135385533794761,0.009103549644351,0.0067560449242591
390,0.0032827968243509,0.0019379012519493,0.0034408567007631,0.0123930396512151,0.0064098793081939,0.0062597184441983
391,0.0031397142447531,0.0027283593080937,0.0011018071090802,0.0097134616225957,0.0040463707409799,0.0057466942816972
392,0.0022969681303948,0.0028968064580112,-0.0015808285679668,0.0066073755733668,0.0014907032018527,0.0054384027607739
393,0.0008228374063037,0.0027728010900318,-0.0036707606632262,0.004680837970227,-0.0010186152067035,0.006187951657921
394,-0.0004332275129854,0.002697056857869,-0.0043303631246089,0.0045023183338344,-0.0025253971107304,0.007848834618926
395,-0.0007385196513496,0.0026893094182014,-0.0033279163762927,0.0052887648344039,-0.0022158317733556,0.0093697616830468
396,-0.0001225136511493,0.0026958079542964,-0.0013976754853501,0.0061240112408995,-0.0003580474003683,0.009575673379004
397,0.0006928479997441,0.0024531777016818,0.0004043773224111,0.0070865373127162,0.0019596703350544,0.0076945857144892
398,0.0016137773636728,0.00185768364463,0.0019333848031237,0.0087456610053777,0.0042074201628565,0.0040359892882406
399,0.0027632827404886,0.0009243247332051,0.0030872963834554,0.0104094604030252,0.0062574581243097,-0.0005950445192866
400,0.0037442131433636,-0.0003727638395503,0.0039738621562719,0.0110776545479894,0.0083486139774322,-0.004607755690813
401,0.0043330113403499,-0.0016231479821726,0.0051589477807283,0.0110001284629107,0.0108583103865385,-0.0060465834103524
402,0.004576782695949,-0.0022264386061579,0.0064902850426733,0.0106630185618997,0.0133560849353671,-0.0045336401090025
403,0.0046048779040575,-0.0020762076601386,0.0072187450714409,0.0098856640979647,0.0149458916857839,-0.001068543526344
404,0.0044530965387821,-0.0016677468083798,0.0068746041506528,0.0081469463184475,0.015210391022265,0.0027346115093678
405,0.0042362376116216,-0.0013183088740333,0.0061394879594445,0.0059660007245838,0.0147950351238251,0.0058195362798869
406,0.0041195643134415,-0.0011272706324234,0.0061292061582207,0.0046306829899549,0.014331728219986,0.0081660440191626
407,0.0040256618522107,-0.001141405897215,0.0070115136913955,0.0045214793644845,0.0136623755097389,0.0096566220745444
408,0.0039671487174928,-0.0009944296907633,0.0081001706421375,0.0050824740901589,0.0128077371045947,0.0099825263023376
409,0.0040094992145896,-0.0004475543100852,0.008603255264461,0.0057978858239948,0.0118692917749286,0.0094582131132483
410,0.0038765450008213,0.0004349106748122,0.0083207925781607,0.0068238331004977,0.0106763001531363,0.0089705120772123
411,0.0032604681327939,0.0017739478498697,0.0077905408106744,0.008668515831232,0.0092649729922413,0.0092079928144812
412,0.0024078851565718,0.0034788171760737,0.0074654407799243,0.0111622493714094,0.0078721260651946,0.0098557854071259
413,0.0020484095439314,0.0048794620670378,0.0071952017024159,0.0128786899149418,0.0070631629787385,0.0094187166541814
414,0.002618936356157,0.0055014314129948,0.0068423519842326,0.0126643748953938,0.0074610468000173,0.0069674784317612
415,0.0036001913249492,0.0055794254876673,0.0064393896609544,0.0116252535954118,0.0087033780291676,0.0035606641322374
416,0.0041732350364327,0.0054160510189831,0.0059650102630257,0.011846567504108,0.0097493883222341,0.000594048819039
417,0.0043253391049802,0.0050073498860001,0.0057367109693586,0.0137827200815082,0.010288274846971,-0.0017513134516775
418,0.004792527295649,0.0044211372733116,0.0064525082707405,0.0162030607461929,0.0113721918314695,-0.0033549019135534
419,0.0061650923453271,0.0037733861245214,0.0083821211010217,0.0175924133509398,0.0142713505774736,-0.0037925066426396
420,0.0079253511503338,0.0029335336294025,0.0105028972029686,0.0170582588762045,0.0181875824928284,-0.0033541293814778
421,0.0090035954490304,0.0021374044008553,0.0111981760710478,0.0148501768708229,0.020589292049408,-0.0021862569265067
422,0.0091881239786744,0.0019619597587734,0.0101524377241731,0.0120432516559958,0.0204099584370852,0.0001713904493954
423,0.0091836377978324,0.0023460288066417,0.0088020926341414,0.0098637714982032,0.0192209240049124,0.0033354049082845
424,0.0093426676467061,0.0027033772785216,0.0082403710111975,0.0091168945655226,0.0187907870858908,0.0058571621775627
425,0.009113254956901,0.0024975130800157,0.0079209879040718,0.0094098933041095,0.0188146755099297,0.006482733413577
426,0.0083966897800564,0.00196353206411,0.0072370772249996,0.0097111789509654,0.01804587431252,0.0052691008895635
427,0.0076874340884387,0.0018040694994851,0.0061869597993791,0.0092894183471798,0.0161661263555288,0.0030774169135838
428,0.007186478935182,0.0020975898951292,0.0050931763835251,0.0081425011157989,0.0139614464715123,0.0007605073042213
429,0.007021659053862,0.0026967462617903,0.0045207608491182,0.0072108567692339,0.0123370075598359,-0.0003916972491424
430,0.0073082069866359,0.0035485716070979,0.0044767051003873,0.0068031921982765,0.0113832326605916,0.0001594874775037
431,0.007757980376482,0.0041116643697023,0.0044611063785851,0.0060726860538125,0.0108433961868286,0.0010425809305161
432,0.0078089479357004,0.003799500875175,0.0041579552926123,0.0050312066450715,0.0105985049158335,0.0013808268122375
433,0.0074343001469969,0.0030721200164407,0.003505015745759,0.0047751148231327,0.0104181142523885,0.0021570795215666
434,0.0067128576338291,0.0026220418512821,0.0025893812999129,0.0055724042467773,0.0098337549716234,0.0038492155726999
435,0.0054428521543741,0.0021441408898681,0.0018026503967121,0.0064071854576468,0.0086135203018784,0.0049970359541475
436,0.0042752474546432,0.0012389603070914,0.0017095835646614,0.006446455605328,0.0075174202211201,0.0039979293942451
437,0.0040110163390636,3.85569219361059e-05,0.0021742922253906,0.005770050920546,0.0074842404574155,0.0009196549654006
438,0.0046209152787923,-0.0009018050041049,0.0026600409764796,0.0052327737212181,0.0085627203807234,-0.0024547958746552
439,0.0056715933606028,-0.0011191060766577,0.0031663468107581,0.005461080931127,0.0102769779041409,-0.0045538004487752
440,0.0064220908097922,-0.0010971693554893,0.003636349691078,0.0058163744397461,0.0117345182225108,-0.0059671676717698
441,0.0066783013753593,-0.0012348209274932,0.0039905067533254,0.0057198223657906,0.0123240211978555,-0.007860554382205
442,0.0068675368092954,-0.001308154198341,0.0044124973937869,0.0054018166847527,0.0123123452067375,-0.0100724343210459
443,0.0070553389377892,-0.0015073148533701,0.0046614101156592,0.0048278220929205,0.0119762681424618,-0.0116502372547984
444,0.0072283279150724,-0.002144236350432,0.0045025083236396,0.0041168625466525,0.0115326112136245,-0.011964101344347
445,0.0075171403586864,-0.002940502949059,0.0040936600416898,0.0041486090049147,0.0109461257234216,-0.0115047274157405
446,0.008039210923016,-0.0034165582619607,0.0035718705039471,0.0046282010152936,0.0099789258092641,-0.0114537766203284
447,0.0087118865922093,-0.0035580894909799,0.0031304564327001,0.0037918374873697,0.0089250551536679,-0.0125314248725772
448,0.008929063566029,-0.0036761627998203,0.0029343871865421,0.0012802177807316,0.0080531807616353,-0.014094028621912
449,0.0083001786842942,-0.0038154211360961,0.0028631889726966,-0.0016251225024461,0.0072762612253427,-0.0144696021452546
450,0.0071457484737038,-0.0035193241201341,0.0026422317605465,-0.0036704067606478,0.0062763676978647,-0.0121393613517284
451,0.0060124481096863,-0.0023945923894643,0.0021883873268961,-0.0042790328152477,0.004958510864526,-0.0070603657513856
452,0.0053553073666989,-0.0009480314329266,0.0014639046275988,-0.0043197548948228,0.003949528094381,-0.0018206131644547
453,0.0052864775061607,0.000269177078735,0.0002343405794817,-0.0049690878950059,0.0036914499942213,0.0007974437321536
454,0.0053247660398483,0.0011934748617932,-0.0016005903016775,-0.0060531892813742,0.0036636251024901,0.0007429911056533
455,0.0047967764548957,0.0015802852576598,-0.0035932280588895,-0.0067917620763182,0.0031917565502226,-0.0006271943566389
456,0.0036787257995456,0.0015279370127245,-0.0049479193985462,-0.0066583175212144,0.0024378313682973,-0.002251355908811
457,0.0024804761633276,0.0015480854781344,-0.0052764089778065,-0.0057222740724682,0.0020536647643894,-0.0037596423644572
458,0.0015897429548203,0.0017511600162833,-0.0047338437288999,-0.0043453108519315,0.0020918638911098,-0.0053342645987868
459,0.0009785371366888,0.0019797224085778,-0.0039638965390622,-0.0028341975994408,0.0017198551213368,-0.0067611634731292
460,0.0005412412574514,0.0024972290266305,-0.0035167948808521,-0.0015647993423044,0.0004171169712208,-0.0070753903128206
461,0.0002675873111002,0.0034747011959552,-0.0033259764313697,-0.0008532830397598,-0.0015466206241399,-0.0062095625326037
462,0.0002240761532448,0.0045328428968787,-0.0032359382603317,-0.001010870328173,-0.0033987353090196,-0.0053492039442062
463,0.0006321960245259,0.0055049806833267,-0.0032030050642788,-0.0020014010369777,-0.0044909655116498,-0.0047137443907558
464,0.001407892559655,0.0065336572006344,-0.0030936116818338,-0.0029521756805479,-0.0050238906405866,-0.0037571305874735
465,0.002386676846072,0.007707490120083,-0.0025439322926104,-0.0028579258359968,-0.0049504777416586,-0.0023806022945791
466,0.0031964795198291,0.00858901347965,-0.0017670973902568,-0.0018252874724566,-0.0042860507965087,-0.000835875456687
467,0.00338702253066,0.0088417259976267,-0.0017090674955397,-0.0007738859276287,-0.0037647939752787,0.0003987637755926
468,0.0031251495238393,0.0090197548270225,-0.0028294746298342,-0.0004006988019682,-0.0038554503116756,0.0010787862120196
469,0.0026403344236314,0.0096695628017187,-0.0046313456259667,-0.0005474284989759,-0.0045566968619823,0.0014972579665482
470,0.0018886922625824,0.0106997936964035,-0.0061454959213733,-0.0004556251806207,-0.0053091822192072,0.0018247010884806
471,0.0007432849961332,0.0115801403298974,-0.0067757964134216,0.0001897412003017,-0.0054385834373533,0.0018406568560749
472,-0.0005056835361756,0.0118876080960035,-0.00675401231274,0.0009619205375202,-0.0048926277086138,0.0013959469506517
473,-0.0009946974460035,0.0118589028716087,-0.0064334659837186,0.0015086218481883,-0.0037831964436918,0.0009131826809607
474,-0.0005890981992706,0.0118917850777507,-0.0061432663351297,0.0020451522432267,-0.0026152392383664,0.001013949746266
475,-3.56296259269584e-05,0.0118394158780575,-0.0062118815258145,0.0028060709591954,-0.0021697860211134,0.0011805273825302
476,0.0003258861252106,0.0114028882235289,-0.0062487116083502,0.0035340865142643,-0.0022870525717735,0.000383674429031
477,0.0005002876860089,0.0106298197060823,-0.0058970367535948,0.003719890024513,-0.0024457909166812,-0.0012644971720874
478,0.0007580785313621,0.0101363742724061,-0.0048494632355868,0.0037212495226413,-0.0020931828767061,-0.0024372504558414
479,0.001170260598883,0.0102549334987998,-0.0030309276189655,0.0045068087056279,-0.0010936679318547,-0.0026114517822861
480,0.0012617845786735,0.0105612343177199,-0.0013909169938415,0.0060843974351882,-0.0002878643863368,-0.0028495632577687
481,0.0010273229563608,0.0108086112886667,-0.0004332063545007,0.0071249534375965,-1.46798192872666e-05,-0.0039362730458378
482,0.0006231745937839,0.0108068026602268,0.0001494934840593,0.006631794385612,0.0001505715772509,-0.0056524784304201
483,7.65290824347176e-05,0.0105457399040461,0.0004317818966228,0.0053825634531676,0.0003672316379379,-0.0069027878344059
484,-0.0001475277822464,0.0106812193989754,0.0002231091930298,0.0042754844762384,0.0006110561662353,-0.006248946301639
485,0.0001125664057326,0.0113159287720919,-0.0005860502133145,0.0030458713881671,0.0007186018046922,-0.0035235856194049
486,0.0004449670959729,0.0117967603728175,-0.0014303841162473,0.0016976854531094,0.0007800234016031,0.0001288228377234
487,0.0006403825827874,0.0121173104271293,-0.0016385605558753,0.0009266780689358,0.001241858000867,0.003841568948701
488,0.0006308067822828,0.0124006913974881,-0.001711459713988,0.0006259066285565,0.0018241842044517,0.006777502130717
489,0.0004736298869829,0.0121305584907532,-0.0023764732759445,-0.0001619292452232,0.0021161665208637,0.007586077786982
490,0.0005374441971071,0.011192592792213,-0.003433872712776,-0.0015932817477732,0.0022934153676033,0.0062228646129369
491,0.0010402326006442,0.0101243201643229,-0.0040984069928526,-0.0028395734261721,0.002500613220036,0.0044372584670782
492,0.001749821472913,0.0092100324109196,-0.0037523407954722,-0.0033608290832489,0.0029907061252743,0.0032676630653441
493,0.0024292506277561,0.0083993505686521,-0.0025501884520053,-0.0032312679104507,0.0042258906178176,0.0023335528094321
494,0.002885608933866,0.0075114867649972,-0.0013119113864377,-0.0030117176938802,0.005733823403716,0.0009925276972353
495,0.0027669444680213,0.0063846581615507,-0.0008893341291695,-0.0032065017148852,0.0060430131852626,-0.0010920417262241
496,0.0021274448372423,0.0052952961996197,-0.0014241213211789,-0.0034659036900848,0.0047944006510078,-0.0035308930091559
497,0.0016057679895311,0.0047533717006444,-0.0021305873524397,-0.0031172020826488,0.0033427684102207,-0.0055085201747715
498,0.0014348068507388,0.0048552528023719,-0.002269898308441,-0.0019973462913185,0.0026668380014598,-0.0064316717907786
499,0.0013621682301163,0.00537293497473,-0.0018506292253732,-0.0005595181719399,0.0027210672851651,-0.0063399267382919
500,0.0013005549553781,0.0062616947107017,-0.0014057799708098,0.0006358925020322,0.0029821323696523,-0.0054898671805858
501,0.0012363141868263,0.0073500145226717,-0.0015627417014911,0.0014188545756042,0.0027720599900931,-0.0039685829542577
502,0.0013617023359984,0.0082037933170795,-0.0021370775066316,0.0020324368961155,0.0024257125332951,-0.0021571416873484
503,0.0017487239092588,0.0084626814350485,-0.0021510964725166,0.0027019078843295,0.0030459447298198,-0.0008747905376367
504,0.0023131105117499,0.008046668022871,-0.001009228057228,0.0032310797832906,0.0050341631285846,-0.0006999392644502
505,0.0030267855618149,0.0073187197558581,0.0006062700995244,0.0033396140206605,0.0073081362061202,-0.0011478516971692
506,0.0035377901513129,0.0067025362513959,0.0014832047745585,0.0029230248183012,0.0084971785545349,-0.0013186067808419
507,0.0036695110611617,0.0063502364791929,0.0014204423641786,0.0020652343519032,0.0088945589959621,-0.0009982063202187
508,0.0036363978870213,0.0062582944519817,0.0010824237251654,0.0011749329278245,0.0095817148685455,-0.0007526840781793
509,0.0036271165590733,0.0063615273684263,0.0009803476277738,0.0009318399243056,0.0105483345687389,-0.00124104518909
510,0.0035993298515677,0.0067715644836425,0.001031347666867,0.0019718641415238,0.0109330294653773,-0.0020284983329474
511,0.0031017654109746,0.0075037973001599,0.0006466443301178,0.0038859113119542,0.0100588202476501,-0.0025021117180585
512,0.0020191683433949,0.0081561971455812,-0.0003441950539126,0.0055205016396939,0.0080304350703954,-0.0034948845859617
513,0.0011026581050828,0.0080501083284616,-0.0012213994050398,0.0063524753786623,0.0060438001528382,-0.006422356236726
514,0.0010301111033186,0.0067252023145556,-0.0014570800121873,0.0061023035086691,0.0053265714086592,-0.0112231187522411
515,0.0016213427297771,0.0047597223892808,-0.0012514971895143,0.004490700084716,0.0058070332743227,-0.0156378913670778
516,0.00229271966964,0.0032965531572699,-0.0011098014656454,0.0018747681751847,0.0064071919769048,-0.0171626210212708
517,0.0028220852836966,0.0029299503657966,-0.0013153861509636,-0.000808592303656,0.0064007486216723,-0.0150561882182956
518,0.0031541518401354,0.0032066027633845,-0.0017907979199662,-0.0029926323331892,0.0061055296100676,-0.0107785984873772
519,0.0030399044044315,0.0032515169586986,-0.0025158913340419,-0.0048441286198794,0.0059018549509346,-0.0064718690700829
520,0.0025646076537668,0.0031668376177549,-0.0033215330913662,-0.0062714326195418,0.0057439757511019,-0.0028132654260844
521,0.0022616349160671,0.0038669735658913,-0.0036778429057449,-0.0068648955784738,0.0056766206398606,0.0005754435551352
522,0.0020772023126483,0.0052680005319416,-0.0036162750329822,-0.0068570892326533,0.0055351769551634,0.0035628462210297
523,0.001401228015311,0.0062536816112697,-0.0036065389867872,-0.0065740454010665,0.0050262473523616,0.0057872952893376
524,0.000332900614012,0.0065496559254825,-0.0036500219721347,-0.0059207607991993,0.0043999953195452,0.006961977109313
525,-0.0006881262524984,0.0066679045557975,-0.0041099716909229,-0.0054456950165331,0.003702332964167,0.0063726217485964
526,-0.0015809764154255,0.006674984935671,-0.0056282323785126,-0.0058058006688952,0.0024011943023651,0.0037884057965129
527,-0.002272430807352,0.0062454105354845,-0.0076857982203364,-0.0066924709826707,0.000376334763132,-0.00033063229057
528,-0.0030322286766022,0.005213133059442,-0.0093303052708506,-0.0074269380420446,-0.0021143103949725,-0.0054629733785986
529,-0.0042102392762899,0.0038076536729931,-0.0104071469977498,-0.007540582679212,-0.0045641204342246,-0.0105811757966876
530,-0.0055522969923913,0.0024148640222847,-0.0111244786530733,-0.0073026004247367,-0.0063856369815766,-0.0143756289035082
531,-0.0063915206119418,0.0015492523089051,-0.011413044296205,-0.0074075739830732,-0.0073861740529537,-0.01610117405653
532,-0.0063197994604706,0.001620962517336,-0.0110495258122683,-0.0079353768378496,-0.0075898794457316,-0.0156459659337997
533,-0.0058372640050947,0.0019523057853803,-0.0103189907968044,-0.0088225584477186,-0.0072803078219294,-0.0139122968539596
534,-0.0055568073876202,0.0014840220101177,-0.009761992841959,-0.0099451364949345,-0.0067115570418536,-0.0126343015581369
535,-0.0054233116097748,0.0001605965517228,-0.0096315657719969,-0.0105855567380786,-0.006138774100691,-0.0128586050122976
536,-0.0050657135434448,-0.0013039682526141,-0.0096894223242998,-0.0099737495183944,-0.005539754871279,-0.0142299979925156
537,-0.0043889302760362,-0.0024077193811535,-0.0093051930889487,-0.0082661155611276,-0.0042439005337655,-0.015861252322793
538,-0.0036612919066101,-0.0031991978175938,-0.0084857065230608,-0.0067454250529408,-0.0021518268622458,-0.0172717142850161
539,-0.0028368961066007,-0.0036076572723686,-0.0077525721862912,-0.0064682713709771,0.0001295669790124,-0.0180729031562805
540,-0.0018847917672246,-0.0035684506874531,-0.0074111968278884,-0.0072823553346097,0.0019622081890702,-0.0180000439286232
541,-0.0011791657889261,-0.0033501300495117,-0.0074666184373199,-0.0079223029315471,0.0028941980563104,-0.0171785857528448
542,-0.0009026159532368,-0.0031053281854838,-0.0077690086327493,-0.0075748199597001,0.0030714194290339,-0.0158391948789358
543,-0.0007790075615048,-0.0028659703675657,-0.0079900873824954,-0.0068969274871051,0.0031662655528634,-0.0143252601847053
544,-0.0004788728256244,-0.0026706682983785,-0.0074963723309338,-0.00667021330446,0.0037744992878288,-0.0132000865414739
545,-0.0004118583747185,-0.0025464666541665,-0.0064525017514824,-0.0069008362479507,0.0045553292147815,-0.0128133539110422
546,-0.001403005211614,-0.0024336131755262,-0.0059369844384491,-0.0070698601193726,0.0042206863872706,-0.0125481598079205
547,-0.0032921903766691,-0.001993705984205,-0.0064776120707392,-0.0070087830536067,0.002019710605964,-0.0113263409584761
548,-0.0049549140967428,-0.0009398803813382,-0.0076629687100648,-0.0072364453226327,-0.0010878125904128,-0.0088796848431229
549,-0.0055262031964957,0.0003959322057198,-0.0085957422852516,-0.008007857017219,-0.0032628814224153,-0.0059637683443725
550,-0.0047946032136678,0.0013742157025262,-0.0083859460428357,-0.0087080467492342,-0.0033069506753236,-0.0035676748957485
551,-0.0031011456158012,0.001900284551084,-0.0068465662188828,-0.008284380659461,-0.0013184021227061,-0.0018817600794136
552,-0.0014853489119559,0.0020858396310359,-0.0051243747584521,-0.0067455512471497,0.0008692656992934,-0.0008785834070295
553,-0.0007322927122004,0.0019427608931437,-0.0044034761376678,-0.0051806457340717,0.0015388613101095,-0.0009090485982596
554,-0.0006082955515012,0.0016204291023314,-0.004637002479285,-0.0041966610588133,0.0009590678964741,-0.0019403273472562
555,-0.0009680823422968,0.0009800789412111,-0.0056155957281589,-0.0039357771165669,-0.0003813824441749,-0.0035689121577888
556,-0.0015685878461226,0.0001133658588514,-0.0067791924811899,-0.0037707462906837,-0.0021014881785959,-0.0050984625704586
557,-0.0017425222322344,-0.0003532119735609,-0.0071171950548887,-0.0027987267822027,-0.0032535635400563,-0.0063449991866946
558,-0.0015929723158478,-0.0002785463875625,-0.0069226156920194,-0.0015647555701434,-0.0034687696024775,-0.0081127258017659
559,-0.0016253646463155,-0.00017630874936,-0.0071315658278763,-0.0011816151672974,-0.0029084770940244,-0.0108509128913283
560,-0.0019040298648178,-0.0002818685898091,-0.0076080276630818,-0.0015079011209309,-0.0019452273845672,-0.0135265626013279
561,-0.002204661257565,-0.0002834420010913,-0.007688105572015,-0.0016583205433562,-0.0011662675533443,-0.014352910220623
562,-0.0020604217424988,2.8794967875001e-05,-0.0070475847460329,-0.0012819172115996,-0.0003826540487352,-0.0130791254341602
563,-0.0015509410295635,0.0001439859479432,-0.0061449715867638,-0.0007877952884882,0.0007293577073141,-0.0116394441574812
564,-0.0013825957430526,-0.0005796087789349,-0.0056612365879118,-0.0007879538461565,0.0016414287965744,-0.0116465641185641
565,-0.00157873169519,-0.0016782722668722,-0.0053079780191183,-0.000960273318924,0.0018011564388871,-0.0124660572037101
566,-0.0017117412062361,-0.0024100053124129,-0.004482171498239,-0.000976845389232,0.0013296003453433,-0.0131132276728749
567,-0.0016346727497875,-0.0029961108230054,-0.0033821794204413,-0.0018641448114067,0.0009744127164594,-0.0140913436189294
568,-0.0014042790280655,-0.0038086918648332,-0.0027253928128629,-0.0040053906850516,0.001112988567911,-0.0158359929919243
569,-0.0012369499308988,-0.0045668254606425,-0.0028130982536822,-0.0060766274109482,0.0014059705426916,-0.0172558836638927
570,-0.0012737263459712,-0.0047492031008005,-0.0032164971344173,-0.0071151722222566,0.00161271286197,-0.0169006902724504
571,-0.0014713078271597,-0.0042627728544175,-0.0036626325454562,-0.0076633151620626,0.0015231331344693,-0.0144415404647589
572,-0.0017507575685158,-0.0035302622709423,-0.0044517288915813,-0.0085791610181331,0.0008900994434952,-0.0107308607548475
573,-0.0019318662816658,-0.0029677080456167,-0.0056440536864101,-0.0098157096654176,-8.72947857715189e-05,-0.0072036394849419
574,-0.0016876767622306,-0.0028031177353113,-0.0071151498705148,-0.0107962479814887,-0.0007357072317972,-0.0053586466237902
575,-0.0009670403669588,-0.0033518935088068,-0.0088648367673158,-0.0109609561040998,-0.0004828635719604,-0.0060703856870532
576,-0.0001756397105054,-0.0048054349608719,-0.0102855628356338,-0.0099358204752206,0.0003445947077125,-0.0090940920636057
577,0.0002888797025661,-0.0068453084677457,-0.0105434339493513,-0.0082124266773462,0.0008875565254129,-0.013744811527431
578,0.0002752549189608,-0.0087861651554703,-0.0097737414762377,-0.0070134787820279,0.0008308500400744,-0.0192905180156231
579,-5.99976192461327e-05,-0.0099197151139378,-0.0087580867111682,-0.0066828466951847,0.0004177159862592,-0.0245275218039751
580,-0.0004021132772322,-0.009975072927773,-0.007788642309606,-0.0064692888408899,-5.02055190736428e-05,-0.0279179234057665
581,-0.0006038929568603,-0.0092478524893522,-0.0067523582838475,-0.0062154168263077,-0.0004044206289108,-0.028534647077322
582,-0.0008280464098788,-0.0081566097214818,-0.0059333364479243,-0.0064350320026278,-0.0008925711154006,-0.0271206647157669
583,-0.001316801761277,-0.0069238236173987,-0.0057259355671703,-0.0072451359592378,-0.0018393668578937,-0.0252506118267775
584,-0.0017598562408238,-0.0054839383810758,-0.0058921799063682,-0.0083014387637376,-0.0027889509219676,-0.0233026165515184
585,-0.0020886689890176,-0.0041011003777384,-0.0063152322545647,-0.0094737140461802,-0.0034987330436706,-0.0208158697932959
586,-0.0029069541487842,-0.0033789684530347,-0.0074665280990302,-0.0108533566817641,-0.0046504624187946,-0.017881728708744
587,-0.0038794067222625,-0.0030596936121583,-0.0091058034449815,-0.0119764702394605,-0.0061478200368583,-0.015110039152205
588,-0.0042532072402536,-0.0028559740167111,-0.0105999168008566,-0.0125453537330031,-0.0071704168803989,-0.0135625973343849
589,-0.0042046969756484,-0.0031454791314899,-0.011847635731101,-0.012756397947669,-0.0076278802007436,-0.0137693537399173
590,-0.0040038935840129,-0.0037281645927578,-0.0125567428767681,-0.0124316466972232,-0.0076375906355679,-0.0148619618266821
591,-0.003553828690201,-0.0040104426443576,-0.0124404476955533,-0.0115433987230062,-0.0072638969868421,-0.0158481691032648
592,-0.0030740001238882,-0.0041071353480219,-0.0120279528200626,-0.0106630176305771,-0.0071894195862114,-0.0165883041918278
593,-0.0032259884756058,-0.0045147356577217,-0.0119917932897806,-0.0101580135524273,-0.0080792121589183,-0.0173359792679548
594,-0.0040346453897655,-0.0050026727840304,-0.0120394676923752,-0.0095521556213498,-0.0094163417816162,-0.017805078998208
595,-0.0046302750706672,-0.0049050631932914,-0.0113657927140594,-0.0083854459226131,-0.0097886389121413,-0.0175502113997936
596,-0.0045044315047562,-0.0039822678081691,-0.0100214267149568,-0.0071545271202921,-0.0087347133085131,-0.0168002191931009
597,-0.0036968635395169,-0.0023388750851154,-0.0086473654955625,-0.0061603458598256,-0.0069421264342963,-0.0155457155779004
598,-0.002625620458275,-0.0006538118468597,-0.0074894307181239,-0.0051817432977259,-0.0049151116982102,-0.0138126853853464
599,-0.0018903161399066,0.0003104473871644,-0.0063207950443029,-0.0041328109800815,-0.002875224687159,-0.0121899330988526
600,-0.0017922194674611,0.00058053486282,-0.0052658510394394,-0.0030492825899273,-0.0015368089079856,-0.0109983151778579
601,-0.0023397284094244,0.0002556952531449,-0.0050910073332488,-0.0022836751304566,-0.0017571044154465,-0.0102930217981339
602,-0.0031062886118888,-0.0005882828263565,-0.0057992520742118,-0.0018661225913092,-0.0030699046328663,-0.0097611732780933
603,-0.0036186496727168,-0.0016746658366173,-0.0063759535551071,-0.0016901534982025,-0.0039731347933411,-0.009407271631062
604,-0.0037563075311482,-0.0028298813849687,-0.0060639167204499,-0.0022281839046627,-0.0035320301540195,-0.0095807071775198
605,-0.0037761440034955,-0.0037725095171481,-0.0052234455943107,-0.0035746798384934,-0.0024610899854451,-0.0098333312198519
606,-0.0040018456056714,-0.0041928817518055,-0.0047393827699124,-0.0048880442045629,-0.0020248931832611,-0.0093948319554328
607,-0.004235369618982,-0.0039294892922043,-0.0047420859336853,-0.0052810688503086,-0.0022363124880939,-0.0078009576536715
608,-0.0041779787279665,-0.0032072027679532,-0.0048848576843738,-0.0048631839454174,-0.002543133450672,-0.0052856509573757
609,-0.0041055432520806,-0.0025491090491414,-0.0050399433821439,-0.0043710418976843,-0.0028416411951184,-0.0027916589751839
610,-0.0042404946871101,-0.0020971565973013,-0.0049402127042412,-0.0040859431028366,-0.00302594457753,-0.0009546208311803
611,-0.0042874291539192,-0.0017625064356252,-0.0043140272609889,-0.0036796862259507,-0.002897128695622,0.0001286537008127
612,-0.0040176138281822,-0.0014862570678815,-0.0033634626306593,-0.0024800121318548,-0.0024451133795082,0.0003127336385659
613,-0.0037240530364215,-0.0014196438714861,-0.0027072813827544,-0.0005703851347789,-0.0019482172792777,-0.0010607712902128
614,-0.0037473198026418,-0.0018777872901409,-0.0030692615546286,0.0008154483512043,-0.0018811664776876,-0.0043212315067648
615,-0.0039578955620527,-0.0028009342495352,-0.004777193069458,0.000628994021099,-0.0023830994032323,-0.0083168791607022
616,-0.0039252312853932,-0.003718321910128,-0.0071876826696097,-0.0011506563751027,-0.0028073026333004,-0.0112997982650995
617,-0.0034135712776333,-0.0042963689193129,-0.0089465426281094,-0.0035873372107744,-0.0025146331172436,-0.0123907970264554
618,-0.0029495244380086,-0.0047625782899558,-0.0092993294820189,-0.0057713892310857,-0.0020606187172234,-0.0118211135268211
619,-0.002964018844068,-0.0052160685881972,-0.0081321392208337,-0.0073663047514855,-0.0020377109758555,-0.0100712310522795
620,-0.0033084677997976,-0.0055125933140516,-0.005796926561743,-0.0082696406170725,-0.0023833676241338,-0.0077702365815639
621,-0.0039899600669741,-0.0057207206264138,-0.0034124325029552,-0.0082030538469553,-0.0031539632473141,-0.0054600019939243
622,-0.004782538395375,-0.0056115491315722,-0.002171206055209,-0.0070345364511013,-0.0042856163345277,-0.0031946320086717
623,-0.0053233806975185,-0.0050728232599794,-0.0028761066496372,-0.0057146777398884,-0.0057035163044929,-0.0020175820682197
624,-0.0057676788419485,-0.0045297741889953,-0.0053545795381069,-0.0052184057421982,-0.0075860582292079,-0.0032488456927239
625,-0.00667863804847,-0.0044551650062203,-0.0081622460857033,-0.0053225043229758,-0.0102419182658196,-0.0064745652489364
626,-0.0080967275425791,-0.0047159530222415,-0.0101135428994894,-0.005512973293662,-0.0136316679418087,-0.0100203016772866
627,-0.0093207266181707,-0.004652458243072,-0.0116269188001752,-0.0059917573817074,-0.0173193980008364,-0.0124067235738039
628,-0.0102719338610768,-0.0042116655968129,-0.0133862486109138,-0.0070065385662019,-0.0212859250605106,-0.013294274918735
629,-0.0113515583798289,-0.0037691239267587,-0.0150350080803037,-0.008204435929656,-0.0256371032446623,-0.013114926405251
630,-0.0125850001350045,-0.003255219431594,-0.0168974455446005,-0.0093361623585224,-0.0303248874843121,-0.0128039000555873
631,-0.0138501822948456,-0.0022188012953847,-0.0203776471316814,-0.0102018099278212,-0.0350538305938244,-0.0132241426035762
632,-0.0149822821840644,-0.0005698592285625,-0.0252508614212275,-0.0106744226068258,-0.0389972440898418,-0.0142459543421865
633,-0.0157888401299715,0.0011417756322771,-0.0293604582548141,-0.011091603897512,-0.0417331755161285,-0.0151176154613495
634,-0.0161767676472664,0.0022974675521254,-0.0314460247755051,-0.0121323373168707,-0.0437762811779976,-0.0156496837735176
635,-0.0159884952008724,0.0028555635362863,-0.0322425700724125,-0.0147616323083639,-0.0455191694200039,-0.016483660787344
636,-0.015133791603148,0.0031559355556964,-0.0332132019102573,-0.0190467294305563,-0.0468194372951984,-0.0180868338793516
637,-0.0138525264337659,0.0036037983372807,-0.0352735072374344,-0.0233775228261948,-0.0479062311351299,-0.0195882376283407
638,-0.0126369222998619,0.0043445392511785,-0.0383616909384727,-0.0263216998428106,-0.0495390519499779,-0.0199547931551933
639,-0.0116511862725019,0.004933541174978,-0.0413823463022709,-0.0277582295238972,-0.0518406592309475,-0.0200744923204184
640,-0.010422701947391,0.0049010883085429,-0.0429469011723995,-0.0281418412923813,-0.0538840889930725,-0.0214939061552286
641,-0.0092923697084188,0.0041975113563239,-0.0435519963502884,-0.0279817469418049,-0.0559705495834351,-0.0247003845870495
642,-0.0093476865440607,0.0033769500441849,-0.0447799600660801,-0.0276318304240704,-0.059712540358305,-0.0293017812073231
643,-0.0102722560986876,0.0029618635307997,-0.0466132014989853,-0.0278670489788055,-0.0646754652261734,-0.0349783301353455
644,-0.0108229927718639,0.0028270811308175,-0.0485467202961445,-0.0294347796589136,-0.0687147080898285,-0.0409338138997555
645,-0.0107591515406966,0.0028619712684303,-0.0509121939539909,-0.0315107852220535,-0.0713109597563744,-0.0448728017508984
646,-0.0104038221761584,0.0033516644034534,-0.053524374961853,-0.0328260771930218,-0.0732203423976898,-0.0452697016298771
647,-0.0097323264926672,0.0042166942730546,-0.0557004287838936,-0.0340953767299652,-0.0745810940861702,-0.0434460528194904
648,-0.008746862411499,0.0049818637780845,-0.0576618127524853,-0.036801815032959,-0.0759721249341965,-0.041571881622076
649,-0.0078352335840463,0.0055479132570326,-0.0599664561450481,-0.0405766069889069,-0.0781911835074425,-0.040393341332674
650,-0.0075438967905938,0.0058265919797122,-0.0627564564347267,-0.0442535802721977,-0.0808378085494041,-0.0398118868470192
651,-0.0073719951324164,0.0058639654889702,-0.0654465779662132,-0.0473128780722618,-0.0825062692165375,-0.039973221719265
652,-0.0062611359171569,0.0059611005708575,-0.0671320110559464,-0.0495497286319733,-0.0824253857135773,-0.0413003638386726
653,-0.0045912377536296,0.0058814315125346,-0.0681926235556602,-0.0511655956506729,-0.0817669481039047,-0.0438560470938683
654,-0.0033481374848634,0.0050547588616609,-0.0695538744330406,-0.0529725179076195,-0.0815622955560684,-0.0472931452095509
655,-0.0026393856387585,0.0034334328956902,-0.0709883347153664,-0.0554347336292267,-0.0813130810856819,-0.0508908554911613
656,-0.0022318689152598,0.0018577931914478,-0.0716534480452538,-0.0576239675283432,-0.0805959552526474,-0.0532941110432148
657,-0.0022838038858026,0.001207240158692,-0.071165032684803,-0.0585586316883564,-0.0797510519623756,-0.0539624318480492
658,-0.0030370312742888,0.0015345615101978,-0.0701954141259193,-0.058586161583662,-0.0794030725955963,-0.0539240464568138
659,-0.0040398449636995,0.0025179320946335,-0.0698824673891068,-0.0583157390356064,-0.0799571722745895,-0.0539404191076756
660,-0.0044753453694284,0.0038647092878818,-0.0703777149319649,-0.0579489544034004,-0.0809024572372437,-0.0540277771651745
661,-0.0041883448138833,0.0051054381765425,-0.0709762573242188,-0.057490348815918,-0.0814495235681534,-0.0547440275549889
662,-0.0038334957789629,0.0057623405009508,-0.0712713599205017,-0.0566322654485703,-0.0817479714751244,-0.0566881485283375
663,-0.0040992046706378,0.0057338955812156,-0.0713665559887886,-0.0553925968706608,-0.0823101103305817,-0.0589608587324619
664,-0.005111354868859,0.005271035246551,-0.0712414160370827,-0.0544959828257561,-0.0830684900283813,-0.0602882616221905
665,-0.0064109535887837,0.0049657076597213,-0.0707138478755951,-0.05440529063344,-0.0836919322609901,-0.0603240393102169
666,-0.007426475174725,0.0054826466366648,-0.070233628153801,-0.0548847913742065,-0.0842468068003654,-0.0586396716535091
667,-0.0080567989498376,0.006784816738218,-0.0707092136144638,-0.0556110590696335,-0.0849439054727554,-0.0556915514171124
668,-0.0082879262045025,0.0081951189786195,-0.0718608349561691,-0.0560939386487007,-0.0852336958050728,-0.0535312704741955
669,-0.007823490537703,0.0091652888804674,-0.0719025731086731,-0.0554936081171036,-0.083981566131115,-0.0533631518483162
670,-0.0069295493885874,0.0092888800427317,-0.0700635835528374,-0.0535974018275738,-0.0812920182943344,-0.0548067502677441
671,-0.0065623493865132,0.0085907494649291,-0.0682750716805458,-0.0512898974120617,-0.0793000906705856,-0.0567930564284325
672,-0.0069412966258823,0.007618342526257,-0.0683751180768013,-0.0499563924968243,-0.0793797746300697,-0.0582084320485592
673,-0.0072489120066165,0.0065162200480699,-0.0692828446626663,-0.0503939092159271,-0.0799858272075653,-0.0588852949440479
674,-0.0069825337268412,0.0053435517475009,-0.0690933018922806,-0.0517270043492317,-0.0792845040559769,-0.0590914785861969
675,-0.0067543257027864,0.0044234660454094,-0.06771469861269,-0.0525023378431797,-0.0775759965181351,-0.0584462024271488
676,-0.0071815666742622,0.0037426727358251,-0.0661562159657478,-0.0526555366814137,-0.0756472423672676,-0.0568116381764412
677,-0.0076350891031324,0.0032071499153971,-0.0649113431572914,-0.0530067980289459,-0.0732385367155075,-0.0549114756286144
678,-0.0074013629928231,0.0031527152750641,-0.0637931078672409,-0.053347073495388,-0.0702876970171928,-0.0531251989305019
679,-0.0069936793297529,0.0038786621298641,-0.0627112910151482,-0.0525750480592251,-0.0678279921412468,-0.0512234754860401
680,-0.0070031397044658,0.0051189265213906,-0.0614502429962158,-0.0504434444010258,-0.0664607733488083,-0.0492347329854965
681,-0.0073119662702083,0.0062090307474136,-0.0593583658337593,-0.0476862415671349,-0.0652522221207619,-0.047539159655571
682,-0.007712391205132,0.0064847557805478,-0.0561199747025967,-0.044994443655014,-0.0627825856208801,-0.0465416274964809
683,-0.0077807526104152,0.006063318811357,-0.052112951874733,-0.0424499325454235,-0.0586502552032471,-0.0456785559654236
684,-0.0071151438169181,0.005810406524688,-0.0482368543744087,-0.0400884076952934,-0.0540153533220291,-0.0433621220290661
685,-0.0063442760147154,0.0058244667015969,-0.0457878038287163,-0.038843858987093,-0.0506703592836857,-0.039374366402626
686,-0.0062198392115533,0.0055829309858381,-0.0453020073473454,-0.0393896922469139,-0.0490881502628326,-0.0352661833167076
687,-0.0064028766937553,0.0049061477184295,-0.0458088852465153,-0.0414025336503983,-0.0480354465544224,-0.0328281335532665
688,-0.0061919772997498,0.0040251645259559,-0.0459138713777065,-0.043774887919426,-0.04639732837677,-0.0324930585920811
689,-0.0055434191599488,0.0035252459347248,-0.0448526814579964,-0.0447277128696442,-0.0442896075546741,-0.0326260812580585
690,-0.0050259754061698,0.003449049545452,-0.0429840087890625,-0.0437570177018642,-0.0422488562762737,-0.0321257896721363
691,-0.004943223670125,0.003388104494661,-0.0410338826477528,-0.0417185537517071,-0.0400792248547077,-0.0315325036644936
692,-0.0051359324716031,0.0033305587712675,-0.0390513986349106,-0.039077240973711,-0.0372139625251293,-0.0311034638434649
693,-0.0052224607206881,0.0036348069552332,-0.0368162803351879,-0.0360941402614117,-0.0336194597184658,-0.0304191950708628
694,-0.0049564293585717,0.0047779758460819,-0.034418024122715,-0.0330182537436485,-0.0298558138310909,-0.0286077838391066
695,-0.0048987944610416,0.0065750190988183,-0.0324910804629326,-0.0302624143660069,-0.0271229762583971,-0.0248948186635971
696,-0.0056598344817757,0.0082384245470166,-0.0314969345927238,-0.0284413527697325,-0.0263801869004965,-0.019925719127059
697,-0.0067294975742697,0.0093155074864625,-0.0305444076657295,-0.0272319689393044,-0.0265515372157097,-0.015272636897862
698,-0.0074147274717688,0.0096936030313372,-0.0285041984170675,-0.0258314907550812,-0.0257481262087822,-0.0119918407872319
699,-0.0075778514146804,0.009548932313919,-0.0256831999868155,-0.0242035519331694,-0.023680791258812,-0.0100263794884086
700,-0.0014272356638684,0.01455301605165,-0.0021064605098217,0.0033549324143678,-0.0187966953963041,0.0203245375305414
701,-0.0006824811571277,0.0152362938970327,-0.0006866558687761,0.0052710133604705,-0.0172246545553207,0.0219860710203648
702,-0.0001073114035534,0.0145780555903912,4.11714645451866e-05,0.0056950259022414,-0.015359491109848,0.0218758545815945
703,0.0002006790891755,0.0135028148069978,-0.0004606215807143,0.0045053148642182,-0.0142043484374881,0.0204170122742653
704,0.0001530867448309,0.0131108006462455,-0.0015381540870294,0.0029756189323961,-0.0139080667868257,0.019163740798831
705,2.69710672000656e-05,0.0136666018515825,-0.0021986013744026,0.0023160185664892,-0.0141255306079984,0.0192858148366213
706,-6.28311026957817e-05,0.0145084774121642,-0.0026204311288893,0.0020786819513887,-0.0149315651506186,0.0202690605074167
707,-0.0002047735761152,0.0150060914456844,-0.0036453807260841,0.0012458709534257,-0.0166323389858007,0.0207177679985762
708,-0.000135192007292,0.0152997449040413,-0.0051424670964479,-6.41783262835816e-05,-0.018850926309824,0.0203935392200947
709,0.0006233550957404,0.0159001536667347,-0.0062223193235695,-0.000980781391263,-0.0206163097172976,0.0201538056135178
710,0.0017536868108436,0.016563281416893,-0.0065200300887227,-0.0010764166945591,-0.0216035135090351,0.0204556547105312
711,0.0025021794717758,0.0161429867148399,-0.0062391529791057,-0.0009310057503171,-0.0220594238489866,0.0203163325786591
712,0.0029048870783299,0.014240825548768,-0.0053633055649697,-0.0012147101806476,-0.0216873809695244,0.0180705785751343
713,0.0031397379934787,0.0119179245084524,-0.0039185849018394,-0.0015869420021772,-0.0203882865607738,0.0139445764943957
714,0.003104967996478,0.0102307116612792,-0.0021615242585539,-0.001153687830083,-0.0185550525784492,0.0104675758630037
715,0.0030749181751161,0.009335933253169,-0.0002827151038218,0.0003232440794818,-0.0160987824201584,0.0098087601363658
716,0.0035017346963286,0.0092193139716982,0.0015823461581021,0.0019457868766039,-0.0127797648310661,0.0120236594229937
717,0.0041641700081527,0.0094820046797394,0.0027741731610149,0.0020672192331403,-0.0093306759372353,0.0148471426218748
718,0.0044014542363584,0.0095657240599393,0.0022700785193592,2.39189485000679e-05,-0.007409032434225,0.0159092769026756
719,0.0040447185747325,0.0097760921344161,0.0002460218966007,-0.0028587910346686,-0.0075952624902129,0.0153083493933082
720,0.0032257512211799,0.00993955694139,-0.0019410894019529,-0.0050618313252925,-0.00868905428797,0.0141291106119752
721,0.0025961701758205,0.0094614578410983,-0.0028309398330748,-0.0058797532692551,-0.0089102517813444,0.0129062887281179
722,0.002885618712753,0.0087252249941229,-0.0019714839290827,-0.0053253113292157,-0.0075648562051355,0.0118638314306736
723,0.0038088695146143,0.0085537377744913,-0.0002749375416897,-0.0040140529163181,-0.0055796797387301,0.0112897250801325
724,0.0045516728423535,0.0090880366042256,0.0008558870176784,-0.0028632024768739,-0.0042607360519468,0.01126972399652
725,0.0044711367227137,0.0094229020178318,0.000405930011766,-0.0028532594442367,-0.0045275157317519,0.0109613267704844
726,0.0034690373577177,0.0089724548161029,-0.0015156066510826,-0.0042875413782894,-0.006552365142852,0.0097710564732551
727,0.0019392432877793,0.0083015440031886,-0.0038177690003067,-0.006575106177479,-0.0095283249393105,0.0082589099183678
728,0.0005799774080514,0.0081163616850972,-0.0051297978498041,-0.0084278732538223,-0.011962890625,0.0073866602033376
729,-0.0001325655757682,0.0085427798330783,-0.0049572242423892,-0.0086575197055935,-0.0131463715806603,0.0079042231664061
730,-0.0004500341601669,0.0092401439324021,-0.0041026282124221,-0.0074394387193024,-0.0136630116030574,0.009331258945167
731,-0.0006255981279537,0.0098411524668335,-0.0032750377431511,-0.0055479854345321,-0.0139849111437798,0.0100848563015461
732,-0.0004466193495318,0.0105071505531669,-0.0024143455084413,-0.002922075567767,-0.0139424139633775,0.0099574336782097
733,-5.67501847399399e-05,0.0115363411605358,-0.0017716056900098,0.0003153925354126,-0.0137143125757575,0.010728788562119
734,-0.0001299427822232,0.0123817259445786,-0.0019841883331537,0.0028805390466004,-0.0139732640236616,0.0132962493225932
735,-0.0008062379201874,0.012311790138483,-0.0027148195076733,0.0037560616619885,-0.0144139127805829,0.0165862888097763
736,-0.0016483376966789,0.0115305716171861,-0.0033791109453886,0.0029780275654047,-0.0142712835222483,0.0193193051964045
737,-0.0024438272230327,0.0107265179976821,-0.0044030067510902,0.0009166487143374,-0.013774786144495,0.0208028554916382
738,-0.003121135989204,0.0104342279955745,-0.0060229585506022,-0.0017824958777055,-0.0134328054264188,0.020882785320282
739,-0.0035546568688005,0.0107584297657013,-0.0077426894567906,-0.0044305273331701,-0.0132562760263681,0.0195922553539276
740,-0.003762932959944,0.0115659199655056,-0.0093161296099424,-0.0066306926310062,-0.0130905825644732,0.0170014817267656
741,-0.0040521137416362,0.0126162236556411,-0.0109522072598338,-0.0080481944605708,-0.0132153891026974,0.0136750154197216
742,-0.0046741468831896,0.0132817998528481,-0.0126731442287564,-0.008526062592864,-0.0141408704221249,0.0108376629650593
743,-0.0052719740197062,0.0133969727903605,-0.0140988565981388,-0.0081694917753338,-0.0157548263669014,0.0095229400321841
744,-0.0054898406378924,0.0130420541390777,-0.0151678314432502,-0.0078550865873694,-0.0174841172993183,0.0088966414332389
745,-0.0050881966017186,0.0122041329741478,-0.0157436244189739,-0.0084565477445721,-0.0184954758733511,0.0077427141368389
746,-0.0040002106688916,0.0114007191732526,-0.0153282908722758,-0.0095213865861296,-0.0183783248066902,0.0065017086453735
747,-0.0031871562823653,0.010850552469492,-0.0142176197841764,-0.0101744867861271,-0.018103277310729,0.0057463445700705
748,-0.0035841770004481,0.0102161634713411,-0.013062302954495,-0.009815638884902,-0.0186642240732908,0.0055083995684981
749,-0.0047890087589621,0.0095236301422119,-0.0119321011006832,-0.0082805454730987,-0.0198450516909361,0.0058692800812423
750,-0.0054693641141057,0.0092339916154742,-0.0103539237752557,-0.0060901371762156,-0.0205293390899897,0.0066896271891892
751,-0.0049789566546678,0.0092003941535949,-0.0082174129784107,-0.0042096432298421,-0.0198208261281252,0.007036454975605
752,-0.0041721351444721,0.0086415177211165,-0.006629682611674,-0.0035273022949695,-0.0182609595358372,0.0056477137841284
753,-0.0038173946086317,0.0075606773607432,-0.0063416510820388,-0.0041133346967399,-0.0167599935084581,0.0028374886605888
754,-0.0034954089205712,0.0070622689090669,-0.0065990770235657,-0.005196320824325,-0.0152178043499589,0.0010880921036005
755,-0.0028309961780905,0.0076675545424222,-0.0068078059703111,-0.0061671282164752,-0.0135090695694089,0.002188382204622
756,-0.0021289668511599,0.0088055506348609,-0.0072875171899795,-0.0070384279824793,-0.0120168104767799,0.0053808325901627
757,-0.0015313974581658,0.0099602630361914,-0.0082544907927513,-0.0079870307818055,-0.0109115391969681,0.0089838076382875
758,-0.0010282637085765,0.0110638067126274,-0.009387282654643,-0.0088038789108395,-0.0102220112457871,0.0117434030398726
759,-0.0008361927466467,0.0124117601662874,-0.0103883557021618,-0.0088211372494697,-0.0102594075724483,0.0131341218948364
760,-0.0011482854606583,0.0136584583669901,-0.0113564394414425,-0.0078415442258119,-0.0111925322562456,0.0127595886588097
761,-0.0016372296959161,0.0137312300503254,-0.0120841963216662,-0.0066069201566278,-0.0121909696608782,0.0104292929172516
762,-0.0017462538089603,0.0124181909486651,-0.0123685477301478,-0.0062998537905514,-0.0122128399088979,0.0070862467400729
763,-0.0016164858825504,0.0105473129078746,-0.0126840639859438,-0.0077167730778455,-0.0114685874432325,0.0039200261235237
764,-0.0013955031754449,0.0091794617474079,-0.013009219430387,-0.0103076994419098,-0.0107203302904963,0.0014429703587666
765,-0.0009848049376159,0.0087276427075266,-0.013046532869339,-0.0128311784937978,-0.0105106150731444,-0.000534524617251
766,-0.000534467282705,0.0089623946696519,-0.012991645373404,-0.0143149308860302,-0.0111814830452204,-0.0018778765806928
767,0.0002723374345805,0.0098341172561049,-0.0127791902050376,-0.0144071914255619,-0.0122317131608725,-0.0017993898363784
768,0.0016586241545155,0.0110281147062778,-0.0126726822927594,-0.0140023939311504,-0.0131261320784688,-0.0004475947644095
769,0.0030589555390179,0.011950901709497,-0.0134106185287237,-0.0140911908820271,-0.014158520847559,0.0018217280739918
770,0.0038848756812512,0.0125803016126156,-0.0149853555485606,-0.0146806724369526,-0.0153939016163349,0.0050047026015818
771,0.0040379408746957,0.0131734916940331,-0.0167335104197264,-0.0154847875237465,-0.0165895223617554,0.0077955517917871
772,0.0037188364658504,0.0135922618210316,-0.0181053429841995,-0.0161243937909603,-0.0177339483052492,0.00864880066365
773,0.0031816104892641,0.0135984774678946,-0.0188541505485773,-0.0162545144557953,-0.0188011657446623,0.0078592356294393
774,0.0026772250421345,0.0133560942485929,-0.0190025214105845,-0.0159370265901089,-0.0197374317795038,0.0065894271247088
775,0.0021633482538163,0.0131287109106779,-0.0187464393675327,-0.0155522944405675,-0.0203385706990957,0.0053263083100318
776,0.0015921930316835,0.0127814020961523,-0.0181668046861887,-0.0153540885075927,-0.0200464557856321,0.0040803323499858
777,0.0014250051463022,0.0121377035975456,-0.0173107627779245,-0.0148046715185046,-0.0187871530652046,0.0030429689213633
778,0.0017229033401235,0.0113341324031353,-0.0166456662118435,-0.0133206369355321,-0.0176377613097429,0.0021047717891633
779,0.0018730773590505,0.0103336442261934,-0.0164077617228031,-0.0114936139434576,-0.017246063798666,0.0005241713952273
780,0.0017092343186959,0.0089117875322699,-0.0160521399229765,-0.010388501919806,-0.0167982596904039,-0.0020599931012839
781,0.0017373337177559,0.0076478109695017,-0.0152508057653904,-0.0102260848507285,-0.015402652323246,-0.0047464091330766
782,0.0020860021468251,0.0073878518305718,-0.014701658859849,-0.0107373800128698,-0.0136169176548719,-0.0061606727540493
783,0.0020729852840304,0.0078469375148415,-0.0151566723361611,-0.0117470808327198,-0.0129050519317389,-0.0056256805546581
784,0.00151497812476,0.0085441581904888,-0.0161107629537582,-0.0127171371132135,-0.0134105756878853,-0.0031450029928237
785,0.0011008385336026,0.0094191171228885,-0.0166015475988388,-0.0133953122422099,-0.0141487186774611,0.0001033477747114
786,0.0012779039097949,0.010313200764358,-0.0164175163954496,-0.0142296776175499,-0.0145018827170134,0.0018801450496539
787,0.0017960115801543,0.0110707618296146,-0.0159355476498604,-0.0152052352204919,-0.0142947509884834,0.0011053637135773
788,0.0021559356246143,0.0113768903538585,-0.0155939608812332,-0.0158634558320045,-0.0138569343835115,-0.0016394150443375
789,0.0020360313355922,0.0110423173755407,-0.0158251505345106,-0.0162818692624569,-0.0137912128120661,-0.0055653532035648
790,0.001561865909025,0.0105857830494642,-0.0165160428732634,-0.0165760926902294,-0.0142682557925582,-0.0093286270275712
791,0.001164112240076,0.0104956924915314,-0.0170550756156445,-0.016693577170372,-0.0151099311187863,-0.0114210061728954
792,0.0010394018609076,0.0105849420651793,-0.0173849873244762,-0.0170285347849131,-0.0159647297114134,-0.011826541274786
793,0.0009824541630223,0.0105545120313764,-0.0178268682211638,-0.017820680513978,-0.0164340753108263,-0.0112726660445333
794,0.0006419228739105,0.0101932911202312,-0.0183566436171532,-0.0187847465276718,-0.0163521692156792,-0.0100048501044512
795,7.93897052062675e-05,0.0093294847756624,-0.0184693336486816,-0.0194206349551678,-0.0156456511467695,-0.0081134904175996
796,-0.0002682204940356,0.0082241334021091,-0.0177681650966406,-0.0192256662994623,-0.0145838940516114,-0.0060450304299593
797,-0.0001593636116012,0.0073202126659452,-0.0167352855205536,-0.0184735506772995,-0.0137784369289875,-0.0044925268739461
798,0.0002198815345764,0.006847393233329,-0.0164199657738209,-0.0182682499289513,-0.0135815953835845,-0.0041619897820055
799,0.0006412372458726,0.0067636249586939,-0.0169334206730127,-0.0191009715199471,-0.0135701987892389,-0.0053188446909189
800,0.0011024560080841,0.0066021867096424,-0.0173252895474434,-0.0199025589972734,-0.0132105238735676,-0.0072649200446903
801,0.0017419175710529,0.0060570430941879,-0.0167485401034355,-0.0190542228519917,-0.0123377805575728,-0.0086800353601574
802,0.0026048892177641,0.0055433078669011,-0.0152316624298692,-0.0166129376739264,-0.0110208597034216,-0.0086889714002609
803,0.0033931683283299,0.0053475350141525,-0.0139223374426365,-0.0146012138575315,-0.0099078686907887,-0.008002539165318
804,0.0041434969753027,0.0050940737128257,-0.0132258217781782,-0.0143629824742675,-0.008849449455738,-0.0079711694270372
805,0.004925962537527,0.0043331938795745,-0.0125172324478626,-0.0155203649774194,-0.0070918821729719,-0.0090718753635883
806,0.0050229597836732,0.0030340035445988,-0.0120247714221478,-0.0172576624900103,-0.0053290817886591,-0.0110376859083772
807,0.0041004726663231,0.001719529274851,-0.0122427837923169,-0.0186697598546743,-0.0047307834029197,-0.0129729136824608
808,0.0028825816698372,0.00062645500293,-0.0130713284015656,-0.0192731413990259,-0.0053661572746932,-0.0144244749099016
809,0.0020009099971503,-0.0004624777066055,-0.0144550101831555,-0.0197982098907232,-0.006783758290112,-0.0161124002188444
810,0.0013204790884628,-0.0013244893634691,-0.0161658450961113,-0.0209267437458038,-0.0083992769941687,-0.0184612851589918
811,0.0006678806967101,-0.0017631228547543,-0.017176041379571,-0.0218410026282072,-0.0093297399580478,-0.0205076299607754
812,0.0001558330259285,-0.0016109811840578,-0.0169097241014242,-0.0211474131792784,-0.0093408701941371,-0.0209094192832708
813,-0.0002572603407315,-0.0003268528089392,-0.0160431507974863,-0.0185291785746813,-0.009037934243679,-0.0189037546515465
814,-0.0007232117932289,0.0019696557428687,-0.0151522113010287,-0.0147710544988513,-0.0089270863682031,-0.0141149070113897
815,-0.0015497201820835,0.0042128451168537,-0.0142903244122863,-0.0110214184969664,-0.009138511493802,-0.0071877227164804
816,-0.0028657275252044,0.0056673609651625,-0.0135664688423276,-0.008372526615858,-0.0094924289733171,-4.0196693589678e-05
817,-0.0041344710625708,0.0065043098293244,-0.0130939306691289,-0.0075857071205973,-0.0093628317117691,0.0047529735602438
818,-0.004829466342926,0.0074125747196376,-0.0126819331198931,-0.0083831353113055,-0.0079702856019139,0.0055683283135294
819,-0.0049388697370886,0.0089459791779518,-0.011986430734396,-0.0089209349825978,-0.0056246882304549,0.0037733265198767
820,-0.0047876690514385,0.0104583203792572,-0.0112944347783923,-0.0081441421061754,-0.004060186445713,0.0017492197221145
821,-0.0045647658407688,0.0110016688704491,-0.0108221787959337,-0.0071941944770515,-0.004155941773206,-0.0001506456464994
822,-0.0042382958345115,0.0108595201745629,-0.009876050055027,-0.0073149255476892,-0.0046714814379811,-0.002744355238974
823,-0.0039007887244224,0.010544341057539,-0.0082286074757576,-0.008396552875638,-0.0045429863967001,-0.0057360394857823
824,-0.0038350066170096,0.0100228823721409,-0.0066584986634552,-0.0092953639104962,-0.0042314664460718,-0.0076473345980048
825,-0.0039741233922541,0.0099258860573172,-0.005775530822575,-0.0092954421415925,-0.0041826497763395,-0.0078849913552403
826,-0.0036819407250732,0.0107640279456973,-0.0055198222398757,-0.0088201956823468,-0.003991481848061,-0.0076662199571728
827,-0.0029390710406005,0.0111680552363396,-0.0056858477182686,-0.0084715131670236,-0.0033483866136521,-0.0080256592482328
828,-0.0022005345672369,0.0098166959360241,-0.0059254895895719,-0.0081652514636516,-0.0022599303629249,-0.0080179804936051
829,-0.0012985100038349,0.0072569525800645,-0.0055419821292161,-0.0073146955110132,-0.0004563773982226,-0.006482649128884
830,-0.000199889356736,0.0049743512645363,-0.004365652333945,-0.0058760708197951,0.0019408597145229,-0.0041878526099026
831,0.0005308411782607,0.0039507085457444,-0.0032651911024004,-0.0048053180798888,0.003877906827256,-0.0031352271325886
832,0.0004728118074126,0.0043060788884758,-0.0032643913291394,-0.0047955196350812,0.004172071814537,-0.0037797456607222
833,-0.0003470153314992,0.0056369621306657,-0.004417581949383,-0.0054536275565624,0.0027593325357884,-0.004070886876434
834,-0.0014620304573327,0.0069997441023588,-0.0055313031189143,-0.005922622513026,0.0009129358804784,-0.0028272066265344
835,-0.0022686186712235,0.0076097981072962,-0.0056023765355348,-0.0059515517204999,-0.0002269428950967,-0.0015797800151631
836,-0.0027567546349018,0.0074656172655522,-0.0052242805249989,-0.0064371949993073,-0.0006745515274815,-0.0019553015008568
837,-0.0032358176540583,0.007107350975275,-0.0053300713188946,-0.007758020889014,-0.0007037136238068,-0.0034947097301483
838,-0.0035070718731731,0.0071134101599454,-0.0056574558839201,-0.0089095160365104,0.0001512301532784,-0.0049017327837646
839,-0.0033731791190803,0.0078549906611442,-0.0055775130167603,-0.0092178750783205,0.0020182158332318,-0.0060150776989758
840,-0.0028489248361438,0.0095079205930233,-0.0049581937491893,-0.008760891854763,0.0041254493407905,-0.0070097530260682
841,-0.0019537801854312,0.0113261109218001,-0.0039956271648407,-0.007667341735214,0.0057822782546281,-0.007288399618119
842,-0.0009852781658992,0.0117028532549739,-0.003052515676245,-0.0062408945523202,0.0068345223553478,-0.0064659449271857
843,-0.000422129931394,0.0104833524674177,-0.0027379069942981,-0.0052346801385283,0.0072401906363666,-0.0051356335170567
844,-0.000584774359595,0.009619384072721,-0.0034054948482662,-0.0051416442729532,0.006787703372538,-0.0042040855623781
845,-0.0008720675250515,0.0102860238403082,-0.0040046842768788,-0.0050841839984059,0.0062248068861663,-0.0035002413205802
846,-0.0003918564761988,0.0114955538883805,-0.0035947852302342,-0.003968481440097,0.0063954996876418,-0.0017686394276097
847,0.0006721455720253,0.0117578823119402,-0.0028788712806999,-0.0023014650214463,0.0066510420292615,0.0011910060420632
848,0.0016920657362788,0.0104242730885744,-0.0025627580471336,-0.0014405233087018,0.0064559620805084,0.0038394297007471
849,0.0023892424069345,0.0076400432735681,-0.0028472512494772,-0.0022063320502638,0.0060187121853232,0.0043654371984303
850,0.0026207412593066,0.0041402420029044,-0.0035674106329679,-0.0040805786848068,0.0054824906401336,0.0021847793832421
851,0.0024980944581329,0.0011678378796204,-0.003709826618433,-0.0053136642090976,0.0051487958990037,-0.0014898605877533
852,0.0024590955581516,-0.0003908927319571,-0.0026207289192825,-0.0050231372006237,0.0052729435265064,-0.005129687488079
853,0.0024062362499535,-0.0005370842991396,-0.0014819029020145,-0.0042393626645207,0.005234517622739,-0.007970112375915
854,0.0019290110794827,0.0002535515523049,-0.0018216155003756,-0.0041474606841802,0.0044395620934665,-0.0093299634754657
855,0.0011959330877289,0.0011870758607983,-0.0029910302255302,-0.0046459790319204,0.0036217933520674,-0.0087566152215004
856,0.0005781361833214,0.0016808779910206,-0.0033420519903302,-0.0049027912318706,0.0034673518966883,-0.0065878089517355
857,0.0002845120907295,0.001587645499967,-0.002652188995853,-0.0047249174676835,0.0037731719203293,-0.0042638424783945
858,0.0001909831626107,0.0007370167295448,-0.0018825588049367,-0.0046596913598477,0.0043227230198681,-0.0038321618922054
859,-6.00738458160777e-05,-0.0006905838963575,-0.0016568569699302,-0.0049945130012929,0.0049427719786763,-0.0057554710656404
860,-0.0004617638769559,-0.0019409793894738,-0.0014430693117901,-0.0053308485075831,0.0055466359481215,-0.0081451851874589
861,-0.0007913819281384,-0.002400382887572,-0.0006438012351281,-0.005202492699027,0.0059394044801592,-0.0092243887484073
862,-0.0012901016743853,-0.0022259033285081,0.0001412966666975,-0.0050255828537046,0.0054367138072848,-0.0092016700655221
863,-0.0022830909583717,-0.0018051721854135,-1.76307946730958e-06,-0.0054690712131559,0.0037773174699395,-0.0086876703426241
864,-0.0034108639229089,-0.0012331634061411,-0.000968974083662,-0.0065310006029903,0.0017779762856662,-0.0076966057531535
865,-0.0041190893389284,-0.000773818232119,-0.0020012317690998,-0.0079691316932439,0.0002742541837506,-0.0067960824817419
866,-0.004380963742733,-0.0005909473402425,-0.0028426288627088,-0.0095303691923618,-0.0006828286568634,-0.0068014785647392
867,-0.0044200327247381,-8.9555986050982e-05,-0.0036587121430784,-0.0106594981625676,-0.0012221743818372,-0.0074577457271516
868,-0.0043610585853457,0.00107136904262,-0.004385728854686,-0.0109523758292198,-0.0014034404885023,-0.0078035113401711
869,-0.0043831565417349,0.0021387918386608,-0.0047795865684747,-0.0105324685573578,-0.0014295843429863,-0.0078118373639881
870,-0.0047433171421289,0.0026520050596445,-0.0049549005925655,-0.0096680987626314,-0.001837934483774,-0.0082982024177908
871,-0.0054558366537094,0.0029118114616721,-0.0054997820407152,-0.0086961193010211,-0.0030938817653805,-0.0098187932744622
872,-0.0062346709892153,0.0028613957110792,-0.0065522426739335,-0.0076807714067399,-0.0046339859254658,-0.0123117668554187
873,-0.0070833140052855,0.0023779552429914,-0.0076005752198398,-0.0065596471540629,-0.0057815914042294,-0.0140632251277566
874,-0.0081157553941011,0.002133417641744,-0.0083464859053492,-0.0058648730628192,-0.0067872013896703,-0.0129687525331974
875,-0.0086871488019824,0.0029508012812584,-0.0087966443970799,-0.0062546269036829,-0.0075396080501377,-0.0096331555396318
876,-0.0081256544217467,0.0046916557475924,-0.0088219055905938,-0.0076037715189158,-0.0072542373090982,-0.0058351722545921
877,-0.0069909603334963,0.0063935802318155,-0.0083924643695354,-0.0089916344732046,-0.0061757024377584,-0.0021310278680175
878,-0.0062126140110194,0.0073999995365738,-0.0075655491091311,-0.0094239292666316,-0.0053550107404589,0.0012674146564677
879,-0.0060684215277433,0.0076337452046573,-0.0062813912518322,-0.0086208814755082,-0.0052864854224026,0.0038359507452696
880,-0.0066833612509071,0.0070669208653271,-0.0050597530789673,-0.0074700880795717,-0.0060420809313654,0.0048373551107943
881,-0.0078975539654493,0.0056300181895494,-0.0045407344587147,-0.0069835898466408,-0.0071962187066674,0.0038478136993944
882,-0.0090146176517009,0.0034725058358162,-0.0043915794230997,-0.006922117434442,-0.0077534760348498,0.0014315492007881
883,-0.009695298038423,0.0011042520636692,-0.0041757710278034,-0.0065279179252684,-0.0074379476718604,-0.0013302426086738
884,-0.0100030563771725,-0.0007248514448292,-0.0039996756240725,-0.0053874440491199,-0.0069833067245781,-0.0035848277620971
885,-0.0097601925954222,-0.0014848612481728,-0.0038650545757263,-0.0038291001692414,-0.0066870031878352,-0.0051969308406114
886,-0.0088675115257501,-0.0012154629221186,-0.0034054340794682,-0.0027987766079604,-0.005972730461508,-0.0065875207073986
887,-0.0076954262331128,-0.0004561778041534,-0.0022387790959328,-0.0024791727773845,-0.004542623180896,-0.0077518383041024
888,-0.006830200087279,8.51133227115497e-05,-0.0004749245999846,-0.0022787996567785,-0.0029680028092116,-0.0079987691715359
889,-0.0065538864582777,0.0001355614804197,0.0012801573611795,-0.0018271985463798,-0.0019037852762267,-0.0071057910099625
890,-0.0066049802117049,-5.68860632483847e-05,0.0024744097609072,-0.0012590633705258,-0.0015568534145131,-0.0057759219780564
891,-0.0064325761049985,-0.0002319307386642,0.0031629260629415,-0.0011389042483642,-0.0015386556042358,-0.0044447877444326
892,-0.0059113972820341,-0.0002355633041588,0.0036543430760502,-0.0015295157209038,-0.0013117315247654,-0.0027955512050539
893,-0.0054244180209934,-0.0001072708328138,0.0039466014131903,-0.0017936641816049,-0.0007288878550753,-0.0002922818821389
894,-0.0049716583453118,-9.02855608728714e-05,0.0043329843319952,-0.0015771560138091,0.000449258252047,0.003214412368834
895,-0.0043359203264117,2.76385453616967e-05,0.0052446923218667,-0.0006652433658018,0.0018396122613921,0.0073863375000655
896,-0.0040227533318102,0.0004894639132544,0.005987849086523,0.0007006136584095,0.0020169040653854,0.0111601063981652
897,-0.0044528353027999,0.0011704688658937,0.0058387331664562,0.0017700950847938,0.0007137580541893,0.0133607126772404
898,-0.0052826954051852,0.0019956748001277,0.0052880444563925,0.0024361256510019,-0.0008756007300689,0.0137693639844656
899,-0.0061931889504194,0.0026800679042935,0.0049285157583653,0.0032305687200278,-0.0020166924223303,0.0127211594954133
900,-0.0069415625184774,0.002937022363767,0.0050231614150106,0.0043376446701586,-0.0026538902893662,0.0108289988711476
901,-0.0073196548037231,0.0030520488508045,0.0054342160001397,0.0050878855399787,-0.0029338547028601,0.0084611354395747
902,-0.0073431027121841,0.0036450044717639,0.0054737036116421,0.0050396509468555,-0.0034184625837951,0.0057333870790898
903,-0.0070407669991254,0.0049523403868079,0.0049643390811979,0.0049110697582364,-0.004472913686186,0.0035604771692305
904,-0.0063821384683251,0.0064946319907903,0.0046566985547542,0.0055632246658206,-0.005216252990067,0.003052074695006
905,-0.0055328765884041,0.007138134445995,0.0051075159572064,0.006716345436871,-0.0046487553045153,0.0036842301487922
906,-0.0047796689905226,0.0062347329221665,0.0061452551744878,0.0074127684347331,-0.0031033714767545,0.0040276115760207
907,-0.0041495854966342,0.0047334930859506,0.00749297067523,0.0075155375525355,-0.0014895404456183,0.0040992917492985
908,-0.0035219364799559,0.0039011701010167,0.0090654278174042,0.0079011945053935,-0.0002613245160318,0.004772640299052
909,-0.002644243184477,0.003948897588998,0.0107361888512969,0.0090250018984079,0.0005843169055879,0.006084881722927
910,-0.0015763050178065,0.0044206283055245,0.0121180107817054,0.0102718323469162,0.0009236136102117,0.0074797221459448
911,-0.0008622847381047,0.004941813647747,0.0128566361963749,0.0110052106902003,0.0006500386516563,0.0087111946195364
912,-0.000752278836444,0.0051476215012371,0.0131163913756609,0.0112098073586822,0.000277537619695,0.0096377609297633
913,-0.0011669067898765,0.0047437031753361,0.0131021644920111,0.0110979489982128,7.17548464308493e-05,0.0095630167052149
914,-0.0017982764402404,0.0040641347877681,0.0126892980188131,0.0108971763402224,-0.0003845920145977,0.00781792961061
915,-0.0024643028154969,0.0034346838947385,0.011679426766932,0.010425896383822,-0.0015163451898843,0.0045424867421388
916,-0.0030141975730657,0.002796986605972,0.0103830499574542,0.0092540355399251,-0.0028714230284094,0.0007976007764227
917,-0.0030192448757588,0.0023419361095875,0.009508229792118,0.0078276908025145,-0.0035436768084764,-0.001783640589565
918,-0.0025312907528132,0.0022058673202991,0.0090520307421684,0.0067829620093107,-0.0037472711410373,-0.0021386188454926
919,-0.0019121745135635,0.0021099753212183,0.0084182834252715,0.0058343112468719,-0.004194900393486,-0.000551565841306
920,-0.0010160070378333,0.0023005788680166,0.0074835754930973,0.0048692990094423,-0.0046554440632462,0.0018960644956678
921,0.0001302307355217,0.0034194579347968,0.0066480473615229,0.0044211512431502,-0.0044840183109045,0.0040492983534932
922,0.0007748904172331,0.0052577452734112,0.0061505543999373,0.0047789206728339,-0.0038070143200457,0.005524497013539
923,0.0006415076786652,0.0068360571749508,0.0059945383109152,0.0057899910025298,-0.0031327691394835,0.0065953722223639
924,0.0003293322515673,0.0073834364302456,0.0061550843529403,0.0072797085158526,-0.0026722541078925,0.0070854392834007
925,0.0004141177923884,0.0066316765733063,0.0068032280541956,0.0093797352164983,-0.0022275082301348,0.0065105124376714
926,0.0008317902684211,0.0046599498018622,0.0078825633972883,0.0117299845442176,-0.0016916345339268,0.0045122243463993
927,0.0010525269899517,0.0024176056031137,0.0087877968326211,0.0131227197125554,-0.0014861741801723,0.0015195788582786
928,0.000557824212592,0.0010607076110318,0.0092143071815371,0.0129306185990572,-0.0019060662016272,-0.0008968642214313
929,-0.0006921086460351,0.0005131250363774,0.0094003239646554,0.0118352249264717,-0.0025442230980843,-0.0014771213755011
930,-0.0023098655510693,-0.0002238500601379,0.0095364516600966,0.0106054488569498,-0.002776910085231,-0.0005056845839135
931,-0.0038685402832925,-0.0015407839091494,0.0094579085707664,0.0090311570093035,-0.0027536016423255,0.0008218236034736
932,-0.0046037025749683,-0.0025325894821435,0.0092302989214658,0.0072413245216012,-0.0027900370769202,0.0020019388757646
933,-0.0041512111201882,-0.002507695229724,0.0093330144882202,0.0063017588108778,-0.0026647266931831,0.0031338052358478
934,-0.003576242364943,-0.0020465471316129,0.0094820661470294,0.0065643046982586,-0.0025603384710848,0.003611579304561
935,-0.0040783705189824,-0.001848136074841,0.0089354068040847,0.0074613383039832,-0.0030686690006405,0.0031304641161114
936,-0.0054496326483786,-0.0020098024979233,0.0075923623517155,0.008069334551692,-0.0043179504573345,0.0024774307385087
937,-0.0068985447287559,-0.002446427475661,0.0058158738538622,0.0078613460063934,-0.0057881181128323,0.0023474525660276
938,-0.0080970609560608,-0.0030340473167598,0.0044980444945395,0.0075265164487063,-0.006584683433175,0.0030093144159764
939,-0.0086704129353165,-0.0033165488857775,0.0046627460978925,0.0077800303697586,-0.0058907265774905,0.0042785690166056
940,-0.0085773449391126,-0.0030459736008197,0.005875052884221,0.0081591131165623,-0.0040835621766746,0.0050685438327491
941,-0.0082930978387594,-0.0025997462216764,0.0065422444604337,0.0080468337982893,-0.002785166259855,0.0044792839325964
942,-0.0076937298290431,-0.0022390182130038,0.0064371852204203,0.0079147685319185,-0.0023356752935797,0.0030567743815481
943,-0.0067590195685625,-0.0023230041842907,0.0065133795142173,0.0081844655796885,-0.001587442937307,0.0014759195037186
944,-0.006149464752525,-0.0033099199645221,0.0067853331565856,0.0081851929426193,-0.0004567104915622,-0.0003518468001857
945,-0.0058866450563073,-0.0047924239188432,0.0067545035853982,0.0073892977088689,0.0004076677432749,-0.0023786481469869
946,-0.005439962260425,-0.0059640808030962,0.0064322613179683,0.0063472162000834,0.0010213917121291,-0.0040882127359509
947,-0.0050414237193763,-0.0065077510662376,0.0058067464269697,0.0059587219730019,0.0012516013812273,-0.0048745018430054
948,-0.0052000517025589,-0.0065336762927472,0.0048063774593174,0.0062342039309442,0.0007976263877935,-0.0047832136042416
949,-0.0054874457418918,-0.0062693185172975,0.0040018819272518,0.0065263812430203,0.0001907516852952,-0.0044902437366545
950,-0.0055320924147963,-0.0060195317491889,0.003961696755141,0.0068201818503439,-0.0001991606404772,-0.0040173302404582
951,-0.0057744407095015,-0.0061238543130457,0.0045324000529944,0.0073623838834464,-0.0006708363071084,-0.0028315470553934
952,-0.0063398773781955,-0.0066698733717203,0.0053228884935379,0.0078102871775627,-0.001038264716044,-0.0013905744999647
953,-0.00684121157974,-0.0072622732259333,0.0060844724066555,0.0080318450927734,-0.0009852283401414,-0.0007837257580831
954,-0.0069835497997701,-0.007147351745516,0.0069640143774449,0.0084023596718907,-0.0005180112202651,-0.0011095561785623
955,-0.0069041373208165,-0.0061242640949785,0.0079483110457658,0.0089619439095258,7.18769442755729e-05,-0.0015315997879952
956,-0.0066999811679124,-0.0046790339983999,0.0087297083809971,0.009540919214487,0.0002850306627806,-0.0011676714057102
957,-0.006480214651674,-0.0035970283206552,0.0091053200885653,0.0097227459773421,-0.0002202196919824,-0.0001291933585889
958,-0.0066822464577853,-0.0035485804546624,0.0089331455528736,0.0091176433488726,-0.0014232581015676,0.0004055217723362
959,-0.0070697390474379,-0.0044447681866586,0.0088230753317475,0.0084521006792783,-0.0023592833895236,-0.0004446859238669
960,-0.0068630701862275,-0.0060022235848009,0.0095928721129894,0.0084532741457223,-0.0019107828848063,-0.0027169734239578
961,-0.0059143905527889,-0.0078062680549919,0.0110828019678593,0.0088134510442614,-0.0002385895932093,-0.0051182997412979
962,-0.0048411628231406,-0.0092875203117728,0.0124736754223704,0.0088858613744378,0.0015661059878766,-0.0059867049567401
963,-0.0038872349541634,-0.0102166198194027,0.0134040554985404,0.0084628416225314,0.0032376276794821,-0.0051911799237132
964,-0.0028178426437079,-0.0107409870252013,0.0140265841037035,0.0076779746450483,0.0053572319447994,-0.0038678983692079
965,-0.0017195203108713,-0.0109846061095595,0.0143533647060394,0.0066267205402255,0.0076091834343969,-0.0031473017297685
966,-0.0007510483264923,-0.0104820793494582,0.0144166070967913,0.0057422225363552,0.0091132530942559,-0.0029186734464019
967,-0.0002515035448595,-0.0090719312429428,0.0140062710270286,0.0051505011506378,0.009349912405014,-0.0022215859498828
968,-0.0005785914254374,-0.007352297194302,0.012912536971271,0.0042918878607451,0.0083611570298671,-0.000896377430763
969,-0.0014207492349669,-0.0061121466569602,0.0116884866729379,0.0030289178248494,0.0069784140214324,-1.50690075315651e-05
970,-0.0021639754995703,-0.0060886922292411,0.0108053125441074,0.0019418147858232,0.0058120456524193,-0.0003946974466089
971,-0.0025931063573807,-0.0074441377073526,0.0099389012902975,0.0014659275766462,0.0045715812593698,-0.0013517613988369
972,-0.002550057368353,-0.0093641597777605,0.0089581720530986,0.0017344092484563,0.0033036586828529,-0.0017408677376806
973,-0.0017404714599251,-0.0105979535728693,0.0083025023341178,0.0027092676609754,0.0027205387596041,-0.0016742578009143
974,-0.00040685388376,-0.0108750518411398,0.0081782350316643,0.0037887578364461,0.0031003595795482,-0.0023675849661231
975,0.0008189013460651,-0.0108073130249977,0.0084612015634775,0.004435381386429,0.0041703316383063,-0.004098939243704
976,0.001526651205495,-0.01052560005337,0.0089878523722291,0.0048275589942932,0.0053347125649452,-0.0057330657728016
977,0.0014966345624998,-0.0100723067298532,0.0093484027311205,0.0051320176571607,0.0056612631306052,-0.0066501409746706
978,0.0009477495914325,-0.0096684554591774,0.0094652483239769,0.0056250295601785,0.0050006713718175,-0.007239521946758
979,0.000524929841049,-0.0091793900355696,0.0096797198057174,0.0066598355770111,0.004139604512602,-0.0078077036887407
980,0.0003611168649513,-0.0086597735062241,0.0097236596047878,0.0074728773906827,0.0032825171947479,-0.0084610674530267
981,0.0002895871875807,-0.0081581305712461,0.0093691777437925,0.0072704325430095,0.0023521520197391,-0.0089527815580368
982,0.0003074141277465,-0.007711015176028,0.0089637469500303,0.0065321340225637,0.0016243531135842,-0.0087679792195558
983,0.0006596296443603,-0.0075592515058815,0.0092047983780503,0.0061413454823195,0.0018134168349206,-0.0077705518342554
984,0.0016099936328828,-0.0073985564522445,0.0103465588763356,0.0062869181856513,0.0032985373400151,-0.0063429349102079
985,0.0027451813220977,-0.0070337262004613,0.011372528038919,0.0064113149419426,0.0047855456359684,-0.0053282724693417
986,0.0038189464248716,-0.0068371049128472,0.0116660175845027,0.0062833405099809,0.0053072534501552,-0.0051084416918456
987,0.0047300229780376,-0.0072098299860954,0.0113712176680565,0.0060450742021203,0.0050203786231577,-0.0053233159705996
988,0.0049608857370913,-0.0081711122766137,0.010435382835567,0.0059473975561559,0.0038519909139722,-0.0055187307298183
989,0.004505677614361,-0.0088968835771083,0.0091077992692589,0.0067163221538066,0.0022144557442516,-0.0056018689647316
990,0.0038255739491432,-0.0088114691898226,0.0079881772398948,0.0086644701659679,0.0011157268891111,-0.0066975140944123
991,0.0031370238866657,-0.0089574437588453,0.0074775051325559,0.010577573440969,0.0009392785723321,-0.0102599849924445
992,0.0022637317888438,-0.0104322787374258,0.0073262625373899,0.0108388038352132,0.0009560656035318,-0.0154869761317968
993,0.0012421045685187,-0.0123731680214405,0.0071342797018587,0.009334766305983,0.0004368019581306,-0.0196021106094122
994,0.0003730319149326,-0.0134650552645326,0.0068306801840663,0.0067792497575283,-0.000542712281458,-0.0211632419377565
995,-0.0003047290956601,-0.0136411311104894,0.0063786301761865,0.0037045928183943,-0.0014026153367012,-0.0206732526421547
