,AF3,AF4,Fp1,Fp2,AF7,AF8
0,0.0013928272528573,-0.0084514794871211,-0.0102529237046838,-0.0460097789764404,-0.0057087820023298,-0.026339503005147
1,0.0028941859491169,-0.0075306422077119,-0.0091578578576445,-0.0451775453984737,-0.0043485681526362,-0.0244584120810032
2,0.0030505922622978,-0.0065374434925615,-0.009263627231121,-0.0445050932466984,-0.0044865692034363,-0.0217174421995878
3,0.00212556659244,-0.0059396405704319,-0.010427157394588,-0.0440332926809788,-0.005812345072627,-0.01907660625875
4,0.0011479649692773,-0.0057791653089225,-0.0115560339763761,-0.0437191538512707,-0.0069772461429238,-0.0172858200967312
5,0.0006720555829815,-0.0059285005554556,-0.0120418705046177,-0.04346888884902,-0.007293211761862,-0.0168703850358725
6,0.0007526787812821,-0.0060790493153035,-0.0119645409286022,-0.0428637377917767,-0.0073176929727196,-0.0174046047031879
7,0.0009965464705601,-0.0060761170461773,-0.0120363337919116,-0.0418245904147625,-0.0079425852745771,-0.0176778640598059
8,0.0011386423138901,-0.0059403884224593,-0.0124953845515847,-0.040872436016798,-0.0086680268868804,-0.0165182109922171
9,0.0009798494866117,-0.0061890999786555,-0.0130133992061019,-0.0405607186257839,-0.0088315075263381,-0.0140862306579947
10,0.000551190925762,-0.0067775580100715,-0.0132959177717566,-0.0405379123985767,-0.0086977276951074,-0.0114450855180621
11,0.0005212938413023,-0.0067448504269123,-0.0128715084865689,-0.0398844256997108,-0.0080986591055989,-0.009203827008605
12,0.0010866916272789,-0.0062124710530042,-0.01205238327384,-0.0386261641979218,-0.0070906323380768,-0.0084376968443393
13,0.001921167364344,-0.0058006877079606,-0.0118368687108159,-0.0374786742031574,-0.0063719251193106,-0.0100405160337687
14,0.0028726465534418,-0.005319595336914,-0.012259622104466,-0.037060558795929,-0.005954744759947,-0.0130089968442917
15,0.0036623403429985,-0.0048551298677921,-0.0125888185575604,-0.0376576371490955,-0.0053644920699298,-0.0155729074031115
16,0.004200461320579,-0.0046598175540566,-0.0122777437791228,-0.0386747755110264,-0.0042013181373477,-0.0164136420935392
17,0.0049544968642294,-0.004245919175446,-0.0110845239832997,-0.0390018969774246,-0.0022923334036022,-0.0151865249499679
18,0.0059624426066875,-0.003338293172419,-0.0092554632574319,-0.0377601683139801,-6.74009861540981e-05,-0.0126101057976484
19,0.0064751021564006,-0.0025149583816528,-0.0074162594974041,-0.0350259244441986,0.0017044807318598,-0.0096685364842414
20,0.0061327493749558,-0.0023205867037177,-0.0060708345845341,-0.0321296714246273,0.0025554522871971,-0.0074472944252193
21,0.0053417412564158,-0.0027479669079184,-0.0054523418657481,-0.0303777121007442,0.0026426829863339,-0.0067008575424552
22,0.0046172100119292,-0.0034793948289006,-0.0055715912021696,-0.030245466157794,0.0024234524462372,-0.007156603038311
23,0.0043521332554519,-0.003934804815799,-0.0061377780511975,-0.0315131992101669,0.0022570136934518,-0.0079401945695281
24,0.0044438801705837,-0.0037255387287586,-0.0070360051468014,-0.0335403718054295,0.0016510240966454,-0.0082487054169178
25,0.0044156531803309,-0.0029045920819044,-0.0082367295399308,-0.0353920497000217,-0.0001465912355342,-0.0076320865191519
26,0.0040534459985792,-0.0016155061312019,-0.0093976054340601,-0.0362963266670704,-0.0028632211033254,-0.0065979762002825
27,0.0032942909747362,-0.0002646471548359,-0.0106220412999392,-0.0363128520548344,-0.0060083786956965,-0.0063588134944438
28,0.0021419879049062,0.0008160340366885,-0.0122721269726753,-0.0358665846288204,-0.0094185611233115,-0.0070869838818907
29,0.0004152522305957,0.0015736826462671,-0.0143539579585195,-0.0353287495672703,-0.0131795518100262,-0.0076794815249741
30,-0.0013957472983747,0.0020458293147385,-0.0161932837218046,-0.0348340347409248,-0.0165457166731358,-0.0074174567125737
31,-0.0023077563382685,0.0022417525760829,-0.0171144604682922,-0.0345972590148449,-0.0181313548237085,-0.0071464451029896
32,-0.0025664290878921,0.0020165801979601,-0.0173677802085876,-0.0347503647208214,-0.0180708561092615,-0.0079953214153647
33,-0.0026808390393853,0.0014125473098829,-0.0171751156449318,-0.034581933170557,-0.0174708161503077,-0.0099119674414396
34,-0.0026492017786949,0.0006713271723128,-0.0164145715534687,-0.0336975380778313,-0.0169885624200106,-0.0121486857533455
35,-0.0025010961107909,0.0001470423303544,-0.0153144178912044,-0.0329446122050285,-0.0169033110141754,-0.0137614123523235
36,-0.0020528514869511,0.0003453094395808,-0.0141519857570529,-0.0328977815806866,-0.0171428732573986,-0.014074738137424
37,-0.0014704212080687,0.0012364331632852,-0.0129594234749675,-0.032888263463974,-0.0174108725041151,-0.013162499293685
38,-0.0014440694358199,0.0018322085961699,-0.0121699376031756,-0.0327270179986954,-0.0176001153886318,-0.0122783295810223
39,-0.001727846218273,0.0014904235722497,-0.0120637184008956,-0.0331299304962158,-0.0173709131777287,-0.0126557117328048
40,-0.0015346631407737,0.0004713821690529,-0.0120889265090227,-0.0342240780591965,-0.0162170119583607,-0.0139975007623434
41,-0.0010627645533531,-0.0006023519090376,-0.011946608312428,-0.0354386158287525,-0.0146034127101302,-0.0150592131540179
42,-0.0011925316648557,-0.0012336785439401,-0.0120226200670004,-0.0361726023256779,-0.0138309067115188,-0.014763823710382
43,-0.0020883344113826,-0.0015789166791364,-0.0124599924311042,-0.0363727286458015,-0.0141306016594172,-0.0133305881172419
44,-0.0027611595578491,-0.0017066315049305,-0.0128145189955831,-0.0363245755434036,-0.0143435690551996,-0.0118338176980615
45,-0.0026430806610733,-0.0015914686955511,-0.0130088347941637,-0.0363630168139935,-0.013937771320343,-0.0110902935266495
46,-0.0021285326220095,-0.0016550013097003,-0.0132142808288336,-0.0365547984838486,-0.0132776321843266,-0.0111567955464125
47,-0.0015853968216106,-0.002301272470504,-0.0132767083123326,-0.0365368947386742,-0.0127337733283639,-0.0116233183071017
48,-0.0010744727915152,-0.0035386588424444,-0.0129960775375366,-0.0360229276120663,-0.0122052682563663,-0.0124342124909163
49,-0.0005393275641836,-0.0049361120909452,-0.0123646184802055,-0.0348416157066822,-0.0114371255040169,-0.0137250255793333
50,-7.42071206332184e-05,-0.0058726062998175,-0.0117842089384794,-0.0331681296229362,-0.0109424591064453,-0.0152406115084887
51,0.000235874322243,-0.0058004958555102,-0.0113699426874518,-0.0315606705844402,-0.0109068155288696,-0.0160791426897049
52,0.0006656171171925,-0.004658258985728,-0.0108691602945328,-0.0306539032608271,-0.0103820934891701,-0.0157956313341856
53,0.0015185909578576,-0.0031154337339103,-0.0103455856442451,-0.0308669842779636,-0.0086275227367878,-0.0150677161291242
54,0.0024139110464602,-0.0021793048363179,-0.0099696787074208,-0.0319442637264729,-0.0061576613225042,-0.0145734557881951
55,0.0026139467954635,-0.0022140108048915,-0.0097332866862416,-0.0330358147621155,-0.0040925764478743,-0.0139783397316933
56,0.0020023970864713,-0.0026705602649599,-0.0095086833462119,-0.0335074402391911,-0.0028985205572098,-0.0126406606286764
57,0.0010187533916905,-0.0029323340859264,-0.0093868086114525,-0.0333835296332836,-0.0024864508304745,-0.0110432542860508
58,0.0002826779091265,-0.0026872251182794,-0.0095409676432609,-0.0328656136989594,-0.0026682040188461,-0.0104675833135843
59,0.0002491293416824,-0.0020562091376632,-0.0098227197304368,-0.0323494784533978,-0.0031609218567609,-0.0117325438186526
60,0.0008260397007688,-0.0012908580247312,-0.0097813149914145,-0.032224178314209,-0.0036000041291117,-0.0140092521905899
61,0.0014002302195876,-0.0004922157386317,-0.0093664480373263,-0.0320284813642502,-0.0040981033816933,-0.0153831895440817
62,0.0015587221132591,0.0003313021443318,-0.0090756844729185,-0.0308155473321676,-0.0050653349608182,-0.0144907049834728
63,0.0014856685884296,0.0011620048899203,-0.0089741526171565,-0.0286738723516464,-0.0061691887676715,-0.0111006516963243
64,0.0011948011815547,0.0013192204060033,-0.0089239664375782,-0.0271537061780691,-0.0069315326400101,-0.0063311061821878
65,0.0005879959790036,0.0001868987747002,-0.0091405073180794,-0.0273811910301447,-0.0074014053680002,-0.0022083474323153
66,-6.92286994308233e-05,-0.0017843639943748,-0.0097477613016963,-0.0289107337594032,-0.0076712337322533,-0.0007549382862634
67,-0.0004051598079968,-0.0038264759350568,-0.0104289604350924,-0.030828669667244,-0.0075462129898369,-0.0026924023404717
68,-0.0002540147688705,-0.0055226059630513,-0.0106672951951623,-0.032496951520443,-0.0068352813832461,-0.0072477576322853
69,0.0003300943935755,-0.0067250444553792,-0.0102178370580077,-0.0333238355815411,-0.0056179286912083,-0.012881520204246
70,0.0009200188796967,-0.0075080869719386,-0.0095746740698814,-0.0331952795386314,-0.0045177866704762,-0.0179338734596968
71,0.000734636792913,-0.0080158272758126,-0.0098596680909395,-0.032993245869875,-0.0044945739209651,-0.0217501558363438
72,-0.0001798194280127,-0.0078883087262511,-0.0113721676170826,-0.0333699584007263,-0.0055430261418223,-0.0243481900542974
73,-0.0009262607200071,-0.0065773339010775,-0.0129215698689222,-0.033758707344532,-0.0066025028936564,-0.0253186412155628
74,-0.0012037635315209,-0.0044344570487737,-0.0133599322289228,-0.0334611237049103,-0.0070508103817701,-0.0239210594445467
75,-0.0014312646817416,-0.0023833764716982,-0.0127569045871496,-0.0323840007185936,-0.0074077104218304,-0.0201842226088047
76,-0.0019041449995711,-0.0009534498676657,-0.0121121322736144,-0.0307965818792582,-0.0085387770086526,-0.0158289838582277
77,-0.0022567776031792,-0.0003080332535319,-0.0122310677543283,-0.0294368006289005,-0.0103690959513187,-0.0131445238366723
78,-0.0017661434831097,-0.0004807669611182,-0.0128276934847236,-0.0290824826806784,-0.0118240108713508,-0.0130826951935887
79,-0.0004002816858701,-0.0011048559099435,-0.01320915017277,-0.0296389665454626,-0.0123180979862809,-0.014911993406713
80,0.0009827355388551,-0.0014465120621025,-0.0129989851266146,-0.0303162895143032,-0.0120937926694751,-0.0169909503310919
81,0.0015201092464849,-0.0013518329942598,-0.0121589433401823,-0.0306204073131084,-0.0112961530685425,-0.018103364855051
82,0.0008745715022087,-0.0011363020166754,-0.0112611474469304,-0.030723424628377,-0.0104981521144509,-0.0178803540766239
83,-0.0003786880988627,-0.0003296829527243,-0.0109696574509144,-0.0307611189782619,-0.0105388648808002,-0.0158623158931732
84,-0.0012764597777277,0.0014327545650303,-0.0113224573433399,-0.0306802373379469,-0.0113029051572084,-0.0121066542342305
85,-0.0018577171722427,0.0031585756223648,-0.0119386333972216,-0.0306868832558393,-0.0119636710733175,-0.0080932769924402
86,-0.0026333145797252,0.0036110256332904,-0.0121846878901124,-0.0308167524635792,-0.0113789103925228,-0.0056193172931671
87,-0.0035348036326468,0.0026275019627064,-0.0119121251627803,-0.0307705122977495,-0.0093996310606598,-0.0056121973320841
88,-0.0041988054290413,0.0009559529135003,-0.0115958554670215,-0.0303342714905739,-0.0073369382880628,-0.0077525195665657
89,-0.0044440012425184,-0.0008590366342104,-0.0111996727064252,-0.0295253302901983,-0.0058551202528178,-0.0109247043728828
90,-0.0044349362142384,-0.0027158295270055,-0.0106011750176549,-0.0288289301097393,-0.0046734712086617,-0.0139214424416423
91,-0.0045165149495005,-0.0043023210018873,-0.0103139355778694,-0.028988154605031,-0.0040827500633895,-0.0157811846584082
92,-0.00494135171175,-0.0053632510825991,-0.0105951456353068,-0.0300254598259926,-0.004623127169907,-0.0166847016662359
93,-0.0053633246570825,-0.0060712820850312,-0.0109413154423237,-0.0309539288282394,-0.0056951772421598,-0.0176305212080479
94,-0.0051719793118536,-0.0065600820817053,-0.0111981313675642,-0.0311949290335178,-0.0065123434178531,-0.0188341625034809
95,-0.0047492659650743,-0.0069303163327276,-0.0120795220136642,-0.0314490646123886,-0.0075764809735119,-0.0197838507592678
96,-0.0047679720446467,-0.0070588490925729,-0.0135196158662438,-0.0319159403443336,-0.0093317786231637,-0.0196135137230158
97,-0.0049920626915991,-0.006492500193417,-0.0144350072368979,-0.0316784828901291,-0.0111161014065146,-0.017864927649498
98,-0.0052155260927975,-0.0053019830957055,-0.0145420599728823,-0.0303542707115412,-0.0124393673613667,-0.0151048405095935
99,-0.0052882456220686,-0.0035962068941444,-0.0141519065946341,-0.0278813745826483,-0.0130023481324315,-0.0116743128746748
100,-0.0050371321849525,-0.001819317927584,-0.0134647581726313,-0.0247376896440983,-0.0125199072062969,-0.0084370449185371
101,-0.0048511074855923,-0.0012595989974215,-0.0127231422811747,-0.0227511953562498,-0.011415378190577,-0.0071496115997433
102,-0.0047353315167129,-0.0018507853383198,-0.0118229007348418,-0.0229497961699963,-0.0099008241668343,-0.0077292365022003
103,-0.0044768084771931,-0.0022757423575967,-0.0109675787389278,-0.0244933515787125,-0.0082396855577826,-0.0085168434306979
104,-0.0043630222789943,-0.0021500769071281,-0.0107464622706175,-0.0263651870191097,-0.0073410896584391,-0.0090930126607418
105,-0.0043526934459805,-0.0019158546347171,-0.0104619897902012,-0.0278530512005091,-0.0069224117323756,-0.0099701359868049
106,-0.0037988668773323,-0.0017026981804519,-0.0089722033590078,-0.0281852073967457,-0.0057267216034233,-0.0106241004541516
107,-0.0024573106784373,-0.0013501188950613,-0.0069326688535511,-0.0273003485053778,-0.003906431607902,-0.0103945201262832
108,-0.0007838968886062,-0.000641215883661,-0.0057494807988405,-0.0256621800363064,-0.0028196854982525,-0.0092095984145999
109,0.0005060349940322,0.0003044824698008,-0.0057869930751621,-0.0236884597688913,-0.0032711166422814,-0.0068908552639186
110,0.0009853123920038,0.0006495030247606,-0.0064604734070599,-0.0222022291272879,-0.0046462891623377,-0.0040761115960776
111,0.0007696684915572,-0.0001635142543818,-0.0071039134636521,-0.0219593681395054,-0.0056933006271719,-0.0019411883549764
112,-3.40054612024687e-05,-0.0017698511946946,-0.0078584412112832,-0.0227370318025351,-0.0062699909321963,-0.0010253784712404
113,-0.0013069014530628,-0.003252136753872,-0.0093615353107452,-0.0239282008260489,-0.0071077710017561,-0.0017711715772748
114,-0.0026130110491067,-0.0039037086535245,-0.0114727048203349,-0.0249658320099115,-0.0081668887287378,-0.0042619085870683
115,-0.0036824611015617,-0.0038244053721427,-0.0133075527846813,-0.0247953701764345,-0.0089463274925947,-0.0075284005142748
116,-0.0043484829366207,-0.0033694885205477,-0.014233659952879,-0.0232734233140945,-0.0093584479764103,-0.0104427104815841
117,-0.0045186728239059,-0.0028471450787037,-0.0142109803855419,-0.0221471097320318,-0.0093537885695695,-0.0124500654637814
118,-0.0047137807123363,-0.0027018233668059,-0.0138438083231449,-0.022459140047431,-0.0090718865394592,-0.0129700163379312
119,-0.0054079298861324,-0.0031062688212841,-0.0137895895168185,-0.0232884213328362,-0.0087904063984751,-0.0117824962362647
120,-0.0064032995142042,-0.0039085508324205,-0.0138094117864966,-0.0235202144831419,-0.0084834191948175,-0.0098658204078674
121,-0.0071971081197261,-0.004766134545207,-0.0132832126691937,-0.0228995401412249,-0.0084343925118446,-0.0080585535615682
122,-0.007612760644406,-0.005211038980633,-0.012314728461206,-0.0217543058097363,-0.0089865764603018,-0.0063601159490644
123,-0.0077686733566224,-0.0048025911673903,-0.0110813807696104,-0.0202537197619677,-0.0094162411987781,-0.0043746028095483
124,-0.0078091127797961,-0.0034690343309193,-0.0097614489495754,-0.0188901461660862,-0.0092491880059242,-0.0017627151682972
125,-0.0078922361135482,-0.0016953439917415,-0.0089948708191514,-0.0185485556721687,-0.0091237975284457,0.0011062971316278
126,-0.0080620748922228,-0.0003260193334426,-0.0089869536459446,-0.0193647723644972,-0.0091510955244302,0.0030066045001149
127,-0.0083744097501039,-1.4243272744352e-05,-0.0091940080747008,-0.0204474218189716,-0.0087183220311999,0.0030054578091949
128,-0.0086656501516699,-0.0004942640080116,-0.0088573507964611,-0.0200968664139509,-0.0076435655355453,0.00225689727813
129,-0.0085455384105444,-0.0010084360837936,-0.0077247275039553,-0.0176147054880857,-0.0064770090393722,0.0027236540336161
130,-0.0080289002507925,-0.0013398005394265,-0.00625686859712,-0.0142941372469068,-0.0057485164143145,0.0043546166270971
131,-0.0072918352670967,-0.0014694482088089,-0.004948750603944,-0.0112698152661324,-0.0055170939303934,0.0057076998054981
132,-0.0062384870834648,-0.0012761983089149,-0.0039828745648264,-0.0087436074391007,-0.0056574391201138,0.0059340805746614
133,-0.0050377324223518,-0.0012538605369627,-0.0036627468653023,-0.0071250591427087,-0.0059969504363834,0.0044555864296853
134,-0.0041221124120056,-0.0018612084677442,-0.0042013358324766,-0.0068337810225784,-0.0063291601836681,0.001208454137668
135,-0.003877391340211,-0.0028734137304127,-0.0052313162013888,-0.0075307521037757,-0.0066661899909377,-0.0025001217145472
136,-0.00460458220914,-0.0039438777603209,-0.0063767107203602,-0.0087013347074389,-0.0073625156655907,-0.0053739012219011
137,-0.0060711144469678,-0.0048634791746735,-0.0078200688585639,-0.0103200729936361,-0.0085362968966364,-0.0070462329313159
138,-0.0073248231783509,-0.0054486170411109,-0.0093168700113892,-0.0121909799054265,-0.0093433409929275,-0.0073716300539672
139,-0.0074226073920726,-0.0053259036503732,-0.0096050286665558,-0.0135012771934271,-0.0085951453074812,-0.0061097000725567
140,-0.006566010415554,-0.0041902647353708,-0.0082839503884315,-0.013545542024076,-0.0067522157914936,-0.0031679766252636
141,-0.0056335716508328,-0.0023526158183813,-0.0063900225795805,-0.0126885594800115,-0.0052813254296779,0.0008709009853191
142,-0.0049845944158732,-0.0008735958253964,-0.0047859665937721,-0.0123075433075428,-0.0042530349455773,0.0041628773324191
143,-0.0046694669872522,-0.0007822684710845,-0.0038937404751777,-0.0131777571514249,-0.0032012553419917,0.005058653652668
144,-0.0044762445613741,-0.0016729551134631,-0.0034317153040319,-0.014158695936203,-0.0021497353445738,0.0042495355010032
145,-0.0041538500227034,-0.0025704875588417,-0.002743752207607,-0.0139396451413631,-0.0012505801860243,0.0031133652664721
146,-0.0039299027994275,-0.0035085014533251,-0.0021094679832458,-0.0125520247966051,-0.000861533859279,0.0020090048201382
147,-0.0041803666390478,-0.0045709875412285,-0.0019745992030948,-0.0103797353804111,-0.001176253077574,0.0014560460112988
148,-0.004996835719794,-0.0053267478942871,-0.002190945437178,-0.008293816819787,-0.0020003272220492,0.0016652201302349
149,-0.0059306407347321,-0.0056246249005198,-0.0023870072327554,-0.007347909733653,-0.0029110449831932,0.0018260845681652
150,-0.0063610314391553,-0.0056317667476832,-0.0021970719099044,-0.0075990795157849,-0.0032180738635361,0.0015515551203861
151,-0.0062503954395651,-0.0056271404027938,-0.0017275218851864,-0.0086866533383727,-0.0027413249481469,0.0013551476877182
152,-0.0062422552146017,-0.006063730455935,-0.0014918578090146,-0.0102101266384125,-0.0024641044437885,0.0016790949739515
153,-0.0067438194528222,-0.0068787699565291,-0.0016617851797491,-0.0112025560811162,-0.0030953853856772,0.0022935459855943
154,-0.0075799613259732,-0.0076196305453777,-0.0022253866773098,-0.010807016864419,-0.0043285051360726,0.0022059783805161
155,-0.0084193609654903,-0.0084177451208233,-0.003199458355084,-0.0097203850746154,-0.0055061141029,0.0001161752952612
156,-0.0088547766208648,-0.0094785830006003,-0.0043271253816783,-0.0094079216942191,-0.0061352690681815,-0.0043029095977544
157,-0.0088167395442724,-0.0106267686933279,-0.0052256342023611,-0.010401351377368,-0.0061851637437939,-0.0098989140242338
158,-0.0083935912698507,-0.0116094332188368,-0.0054809022694826,-0.0123231280595064,-0.0055515659041702,-0.0148061690852046
159,-0.0076598282903432,-0.0122899161651731,-0.0052102105692029,-0.0147390170022845,-0.0043769837357103,-0.0174389611929655
160,-0.0069356029853224,-0.0124988220632076,-0.0050317901186645,-0.0173441935330629,-0.00324576953426,-0.0172752290964127
161,-0.0062691671773791,-0.0119134560227394,-0.0053931269794702,-0.0198096558451653,-0.0026716720312833,-0.0150645710527897
162,-0.0055590900592505,-0.0108066089451313,-0.0064051360823214,-0.0221920944750309,-0.002989970613271,-0.0125314304605126
163,-0.0048324810341,-0.0099384579807519,-0.0071902428753674,-0.0241089258342981,-0.0032581551931798,-0.0113479355350137
164,-0.0040911040268838,-0.0095662511885166,-0.0068871821276843,-0.0245580039918423,-0.0024299398064613,-0.0121454456821084
165,-0.0033244967926293,-0.0094826556742191,-0.0059593059122562,-0.0237327218055725,-0.0010582372779026,-0.0146349696442485
166,-0.0025286437012255,-0.0095749450847506,-0.0048696398735046,-0.0226999539881945,0.0003406489267945,-0.017661040648818
167,-0.0016972789308056,-0.0095755131915211,-0.0036506031174212,-0.0218392312526703,0.0017174402019009,-0.0188880395144224
168,-0.0012071534292772,-0.0093852914869785,-0.0028556915931403,-0.0210289731621742,0.0025159046053886,-0.0171131677925587
169,-0.001618436537683,-0.0092203179374337,-0.0027495485264807,-0.0199339836835861,0.002329625422135,-0.0138825969770551
170,-0.0023608247283846,-0.0086433347314596,-0.0025485267397016,-0.018621813505888,0.0018355913925916,-0.0112633686512709
171,-0.0024494079407304,-0.0075334077700972,-0.0018424841109663,-0.0178177058696747,0.0019982033409178,-0.0103950873017311
172,-0.0020204081665724,-0.0066414861939847,-0.0011898168595507,-0.017276069149375,0.0028088837862014,-0.0110737169161439
173,-0.0013724087039008,-0.0061908368952572,-0.0006610884447582,-0.0161348357796669,0.0038864987436682,-0.011940773576498
174,-0.0005841125384904,-0.0058557810261845,2.14469291677233e-05,-0.0149367218837142,0.004869220778346,-0.0118938917294145
175,-0.0001891608408186,-0.0054887561127543,0.000150711464812,-0.0149863632395864,0.0049221492372453,-0.0107710845768452
176,-0.0002532369981054,-0.0050318562425673,-0.0006607010145671,-0.016332421451807,0.0040557091124355,-0.0090435789898037
177,-0.0002237267326563,-0.0044502392411232,-0.0014291770057752,-0.0178285092115402,0.0033482068683952,-0.0073073208332061
178,-9.40519894356839e-05,-0.0040378519333899,-0.0013720690039917,-0.0186167862266302,0.0031331691425293,-0.0061442474834621
179,-0.0003414916282054,-0.0042217425070703,-0.0008293552091345,-0.0184820014983416,0.0030493629164993,-0.0056829857639968
180,-0.0010601588292047,-0.0048120990395546,-0.0003483566397335,-0.0172311197966337,0.0029040228109806,-0.00494618806988
181,-0.0019841562025249,-0.0053973696194589,7.46890364098363e-05,-0.0149251827970147,0.0025179176591336,-0.0033642768394202
182,-0.0026691535022109,-0.0057793948799371,0.0008262451156042,-0.012089722789824,0.002123650163412,-0.0018669782439246
183,-0.0029270863160491,-0.0061531686224043,0.0020255628041923,-0.0095790438354015,0.0023963602725416,-0.0020019705407321
184,-0.0030319364741444,-0.0069804601371288,0.0031853760592639,-0.0081348838284611,0.0034323642030358,-0.0044140606187284
185,-0.0028235227800905,-0.0077213952317833,0.0039571677334606,-0.0073215272277593,0.0047336276620626,-0.0072662499733269
186,-0.0018641090719029,-0.007402264047414,0.0044416422024369,-0.006294893566519,0.0059012784622609,-0.007849046960473
187,-0.000492826977279,-0.0060116839595139,0.0046746088191866,-0.0051493514329195,0.006668368820101,-0.0054614297114312
188,0.0001711170916678,-0.0044724913313984,0.0041001965291798,-0.0045421505346894,0.0064716502092778,-0.0020891712047159
189,-0.0001961571979336,-0.0036670819390565,0.0022294274531304,-0.0049851709045469,0.0052605140954256,-0.0005753953009843
190,-0.0006186380633153,-0.0036480762064456,-2.47640491579659e-05,-0.0064919907599687,0.0040655094198882,-0.0016871767584234
191,-0.0006807782338,-0.0041619087569415,-0.0016247106250375,-0.0084526799619197,0.0031401172745972,-0.0037297313101589
192,-0.0007899006595835,-0.0048268260434269,-0.0026809324044734,-0.0095692677423358,0.0019244415452703,-0.0047364202328026
193,-0.0009069899097085,-0.0052225599065423,-0.0033059979323297,-0.009094807319343,0.0010726964101195,-0.0046117766760289
194,-0.0006286631105467,-0.0052200900390744,-0.0033727197442203,-0.0081675285473465,0.0013947911793366,-0.0044702794402837
195,-9.5330375188496e-05,-0.004517366643995,-0.003175483783707,-0.0082500064745545,0.002013994846493,-0.0042857639491558
196,-7.02853067195974e-05,-0.0031699032988399,-0.0032251430675387,-0.009540588594973,0.0015703694662079,-0.0032858147751539
197,-0.0006430579232983,-0.0020440076477825,-0.0036293906159699,-0.0114670200273395,2.72722481895471e-05,-0.0018040195573121
198,-0.0013699976261705,-0.0019056338351219,-0.0040429919026792,-0.0134248696267605,-0.0017456450732424,-0.0012657199986279
199,-0.0023744346108287,-0.0026944857090711,-0.0043439739383757,-0.0148152159526944,-0.0034442751202732,-0.0018322732066735
200,-0.0037656335625797,-0.0036402221303433,-0.0048893820494413,-0.0153065668419003,-0.0053447890095412,-0.0020663689356297
201,-0.0050623770803213,-0.0039854338392615,-0.0057387873530387,-0.0152171961963177,-0.0071180765517056,-0.0016831016400829
202,-0.0058089951053261,-0.0037963022477924,-0.0064523541368544,-0.0150135811418295,-0.0080017996951937,-0.0019430021056905
203,-0.0061818594112992,-0.0038959162775427,-0.0067688855342567,-0.0149254919961095,-0.007948201149702,-0.0036535265389829
204,-0.0064173974096775,-0.0044314148835837,-0.0068332864902913,-0.0148542243987322,-0.0075105750001967,-0.0060916598886251
205,-0.0060968296602368,-0.0047119529917836,-0.0067840027622878,-0.0147305326536298,-0.0068801403976976,-0.0079220542684197
206,-0.0048743612132966,-0.0045914300717413,-0.0065541584044694,-0.0148973036557436,-0.0057483874261379,-0.0086704548448324
207,-0.0034330463968217,-0.0046621039509773,-0.0063179670833051,-0.0154995853081346,-0.0042075435630977,-0.008974046446383
208,-0.0023661563172936,-0.005249947309494,-0.0059691672213375,-0.0157528333365917,-0.0024115990381687,-0.0095048313960433
209,-0.0012582838535308,-0.0058224177919328,-0.0048002582043409,-0.0145371034741402,-6.05601053393912e-05,-0.01001753564924
210,-0.000139071693411,-0.0060392529703676,-0.0029148855246603,-0.0123348794877529,0.0024235711898654,-0.0104362005367875
211,0.0003865557082463,-0.0064454516395926,-0.0012721187667921,-0.0106677673757076,0.0040458310395479,-0.0115450350567698
212,0.0006231011939235,-0.0070349364541471,-0.0003664254618342,-0.0098981270566582,0.0045838486403226,-0.0133576476946473
213,0.0009496366255916,-0.0072047542780637,-0.0003324642893858,-0.0099725583568215,0.0041204188019037,-0.0148601727560163
214,0.0007950495346449,-0.0070014363154768,-0.001112954923883,-0.0110281687229872,0.0026601515710353,-0.0151952700689435
215,0.0001801217440515,-0.0065107829868793,-0.0019713866058737,-0.0124622341245413,0.0009500451269559,-0.0138064678758383
216,-0.0004673484072554,-0.0056772171519696,-0.0025171602610498,-0.0136253526434302,-0.0006785704172216,-0.0107879601418972
217,-0.0011717474553734,-0.0049356096424162,-0.0029117751400917,-0.0145234679803252,-0.002243764931336,-0.0073537402786314
218,-0.0015808283351361,-0.0046498756855726,-0.0028765928000211,-0.0151283731684089,-0.0029026346746832,-0.0047252289950847
219,-0.0017051474424079,-0.0045927660539746,-0.0025101890787482,-0.0151196988299489,-0.0029044291004538,-0.0029851961880922
220,-0.0019063905347138,-0.0041395984590053,-0.0022905790247023,-0.0141857760027051,-0.003384341020137,-0.0015489810612052
221,-0.001780251506716,-0.0030643967911601,-0.002044326858595,-0.0125031555071473,-0.0041078948415815,-0.0003815054660663
222,-0.0010881355265155,-0.0021221227943897,-0.0014651735546067,-0.0106978788971901,-0.0042861942201852,-3.60418052878231e-05
223,-0.0002642170002218,-0.002081572310999,-0.0004494951863307,-0.0089801670983433,-0.0036214459687471,-0.0005483756540343
224,0.0004653776122722,-0.0028107417747378,0.0010541881201788,-0.0071476032026112,-0.0019948913250118,-0.0013033141149208
225,0.0010813680710271,-0.0037386261392384,0.0025313694495707,-0.0052910284139215,7.50411491026171e-05,-0.001940861926414
226,0.0015843734145164,-0.0044264802709221,0.0032812999561429,-0.0038801843766123,0.0016986508853733,-0.002728980500251
227,0.0022491097915917,-0.0046839560382068,0.0033973928075283,-0.0033597571309655,0.0029444659594446,-0.0035197988618165
228,0.0031226875726133,-0.0048398124054074,0.0033901638817042,-0.0040557836182415,0.0041882586665451,-0.0037394240498542
229,0.0041338670998811,-0.005155012011528,0.0034657355863601,-0.0057459096424281,0.0051377932541072,-0.0034287525340914
230,0.005533664021641,-0.0052158473990857,0.0035607479512691,-0.007332214154303,0.0058610565029084,-0.0030990317463874
231,0.006875769700855,-0.0049663451500237,0.0034290628973394,-0.0081278858706355,0.0066222911700606,-0.0032261493615806
232,0.0074259517714381,-0.0047663100995123,0.0030169168021529,-0.0084338672459125,0.0069831027649343,-0.0035674860700964
233,0.0073028123006224,-0.0047553782351315,0.0025652532931417,-0.008765859529376,0.006556352134794,-0.003595974529162
234,0.0068967114202678,-0.0049808518961072,0.0019345921464264,-0.0093963425606489,0.0054121846333146,-0.0032861966174095
235,0.0066099832765758,-0.0052674738690257,0.0009407934267073,-0.0099510001018643,0.003951281774789,-0.0024286804255098
236,0.0069077461957931,-0.0053043845109641,0.0001803910126909,-0.0098181776702404,0.0030293930321931,-0.0007738639251329
237,0.0076811243779957,-0.0050352243706584,0.000218869667151,-0.0092799244448542,0.0032987019512802,0.0010895859450101
238,0.0083589535206556,-0.004651793744415,0.0008700722828507,-0.0088371392339468,0.0045811706222593,0.0023124495055526
239,0.0083660343661904,-0.004275397863239,0.001516530290246,-0.0083986818790435,0.0058376202359795,0.0025386940687894
240,0.0071896207518875,-0.0038720848970115,0.0013569904258474,-0.0079928087070584,0.0057562794536352,0.0018659174675121
241,0.0051575461402535,-0.0032672442030161,0.0002179386501666,-0.0077692978084087,0.0042245625518262,0.0011620598379522
242,0.0031820032745599,-0.0022090319544076,-0.0011940374970436,-0.0075415559113025,0.0021033599041402,0.0019057085737586
243,0.0014803853118792,-0.0011608484201133,-0.0022208227310329,-0.0072788214311003,-4.02424393541878e-06,0.0040699578821659
244,1.16045539471088e-05,-0.0010588282020762,-0.0025728142354637,-0.0072190868668258,-0.0015301528619602,0.0054746689274907
245,-0.0008698346209712,-0.0017205625772476,-0.0024547975044697,-0.0072546689771115,-0.0021777220536023,0.0041539054363966
246,-0.0012067448114976,-0.0024029694031924,-0.0028835323173552,-0.0071191093884408,-0.0028620974626392,1.89536967809545e-05
247,-0.0013291235081851,-0.0030133812688291,-0.0042887511663138,-0.0066441227681934,-0.0044562462717294,-0.0050949053838849
248,-0.0011389486026018,-0.0038283702451735,-0.0056540626101195,-0.0062836734578013,-0.0060758716426789,-0.0092136552557349
249,-0.000661724130623,-0.0049620606005191,-0.0063616782426834,-0.0070497570559382,-0.0067749223671853,-0.0117857791483402
250,-0.0004264514136593,-0.0061571183614432,-0.0070545733906328,-0.0090597392991185,-0.0073422086425125,-0.0131629593670368
251,-0.0007210113108158,-0.0072793839499354,-0.0080994712188839,-0.0112427584826946,-0.0084856478497386,-0.0141140101477504
252,-0.0008813770255073,-0.0078690610826015,-0.0087675573304295,-0.0123903825879097,-0.0093933129683136,-0.0148554919287562
253,-0.0003769570030272,-0.0073584052734077,-0.0086077377200126,-0.0125788915902376,-0.0095398826524615,-0.014990545809269
254,0.0004744500329252,-0.0061437892727553,-0.0077819358557462,-0.0127679333090782,-0.0093763042241334,-0.0145814893767238
255,0.0012505224440246,-0.0044717425480485,-0.0065671284683048,-0.0131056122481823,-0.0092755863443017,-0.0134838912636042
256,0.0014190883375704,-0.0023506176657974,-0.0057450570166111,-0.0132204182446003,-0.0095450757071375,-0.0112057942897081
257,0.0009230143623426,-0.0004443380457814,-0.0055616381578147,-0.0128542734310031,-0.009685012511909,-0.0079285502433776
258,0.0003105753858108,0.000632225011941,-0.0054527632892131,-0.0122160222381353,-0.0088451486080884,-0.0048479409888386
259,-0.0001618000096641,0.0010993160540238,-0.0052774380892515,-0.0117970239371061,-0.0077720880508422,-0.0030750485602766
260,-0.0004869927361141,0.0017164442688226,-0.0051496033556759,-0.0114975683391094,-0.00777243450284,-0.0023518218658864
261,-0.0008248242083936,0.0026698242872953,-0.0047858166508376,-0.0107114352285862,-0.0087329754605889,-0.0015489691868424
262,-0.0013000180479139,0.0037109577096998,-0.0038243539165705,-0.0088982414454221,-0.0096177719533443,0.0003214212192688
263,-0.0018362356349825,0.0048460657708346,-0.0024425443261861,-0.0062734181992709,-0.0100174220278859,0.0031536582391709
264,-0.0023228167556226,0.0059249154292047,-0.001001022523269,-0.0033821333199739,-0.0099347494542598,0.0056673814542591
265,-0.0025822229217737,0.0065631102770566,0.0001683281298028,-0.0001896546746138,-0.0092571871355176,0.0065311081707477
266,-0.0024952483363449,0.0067494381219148,0.0007999878143891,0.0029508103616535,-0.0082540912553668,0.0055386880412697
267,-0.0022821123711764,0.0067872675135731,0.0008884358685463,0.004672572016716,-0.0074021006003022,0.0037176820915192
268,-0.002365053165704,0.006595398299396,0.0004449214611668,0.004153124988079,-0.0070292288437485,0.0021818487439304
269,-0.0026915140915662,0.0060876933857798,-0.0002002882683882,0.0020991521887481,-0.0070073427632451,0.0018368951277807
270,-0.0029744689818471,0.0055925282649695,-0.0006805746816098,-0.0003827089967671,-0.0068957759067416,0.0031155066099017
271,-0.0036182559560984,0.004934259224683,-0.0014552003704011,-0.0030479591805487,-0.0070238313637673,0.00513979466632
272,-0.0049167149700224,0.0037059169262647,-0.0029440883081406,-0.0057445280253887,-0.0079714972525835,0.0065680523402988
273,-0.0062302662990987,0.0023590645287185,-0.0047359154559671,-0.0074193640612065,-0.0094067454338073,0.0068256803788244
274,-0.007216181140393,0.0013397248694673,-0.0064175454899668,-0.0073835141956806,-0.0109267318621278,0.0057867811992764
275,-0.0080223996192216,0.0004650749033316,-0.007443408947438,-0.0064004599116742,-0.0119454460218549,0.0035373144783079
276,-0.0083111301064491,-0.0001060899667209,-0.0068420674651861,-0.0053292359225451,-0.0112894019111991,0.0011416299967095
277,-0.0080607272684574,-0.0001592993648955,-0.0049098688177764,-0.004405609332025,-0.0093901362270116,5.21848851349205e-05
278,-0.0078496765345335,0.0001262875302927,-0.0032666618935763,-0.0039354641921818,-0.0081576807424426,0.0006477510905824
279,-0.0076408903114497,0.0006235461914911,-0.0026511817704886,-0.0038645069580525,-0.007995493710041,0.0017941310070455
280,-0.0071127493865788,0.000780860078521,-0.0027011439669877,-0.0041367914527654,-0.0077402587048709,0.0014596352120861
281,-0.0063598277047276,0.0002050112088909,-0.0026990280020982,-0.0050514601171016,-0.0066600898280739,-0.0005108021432533
282,-0.005623007658869,-0.0006732782931067,-0.0022394200786948,-0.0064981691539287,-0.0052081230096519,-0.0021621477790176
283,-0.0052489470690488,-0.0014752241550013,-0.0019557694904506,-0.008127212524414,-0.0045234821736812,-0.0028145003598183
284,-0.0053494796156883,-0.0019202564144507,-0.0024056902620941,-0.0095941107720136,-0.0048190634697675,-0.0033090016804635
285,-0.0055571193806827,-0.0019427879014983,-0.0030454110819846,-0.0104536665603518,-0.0047590467147529,-0.0038218756671994
286,-0.0056490963324904,-0.0019086915999651,-0.0030699397902935,-0.0100051108747721,-0.0037130198907107,-0.0031744211446493
287,-0.0059439521282911,-0.0018024535384029,-0.0025941177736967,-0.0082673393189907,-0.0029051315505057,-0.0004658434481825
288,-0.0069862585514783,-0.0013859414029866,-0.0025337256956845,-0.0067525031045079,-0.0036347771529108,0.003074393607676
289,-0.0087436372414231,-0.0009869553614407,-0.0034308009780943,-0.0069350637495517,-0.0058683035895228,0.0050321877934038
290,-0.0102282501757145,-0.000722722208593,-0.0048685278743505,-0.0087572271004319,-0.0084276879206299,0.0045973686501383
291,-0.0105150295421481,-9.92429559119046e-05,-0.0058619398623704,-0.0104710292071104,-0.0100690722465515,0.0029533335473388
292,-0.0098393382504582,0.0005371867446228,-0.006073479540646,-0.0104856723919511,-0.0105087263509631,0.0007344671175815
293,-0.0092008784413337,0.0001415552105754,-0.0062275100499391,-0.0094165559858083,-0.0103982230648398,-0.0021837106905877
294,-0.0093829305842518,-0.0010718936100602,-0.0069464510306716,-0.0088127618655562,-0.0104783968999982,-0.0047820289619267
295,-0.0101713854819536,-0.0019863124471157,-0.008029656484723,-0.0092704817652702,-0.0108249336481094,-0.0059854323044419
296,-0.0106131723150611,-0.002151055028662,-0.0087861279025673,-0.0102700237184763,-0.011008819565177,-0.0059513486921787
297,-0.0104129835963249,-0.0019611567258834,-0.0089883022010326,-0.0110431611537933,-0.0110899414867163,-0.0050477664917707
298,-0.0099682211875915,-0.0019052092684432,-0.0088929645717144,-0.011365951038897,-0.0112087978050113,-0.0032224876340478
299,-0.009608200751245,-0.002032179152593,-0.0083391806110739,-0.0112927136942744,-0.0108516281470656,-0.0006333108758553
300,-0.0095955803990364,-0.00239232275635,-0.0074494536966085,-0.0112257478758693,-0.010066831484437,0.001259007724002
301,-0.0096417805179953,-0.002598212333396,-0.006843808107078,-0.0107966596260667,-0.0094678867608308,0.0015344370622187
302,-0.0094093298539519,-0.0022446818184107,-0.0068558882921934,-0.0091961873695254,-0.0095080928876996,0.000716577807907
303,-0.0090799834579229,-0.0018974629929289,-0.0072112660855054,-0.0074201915413141,-0.0100506115704775,-0.0011870266171172
304,-0.0084306811913847,-0.0018091234378516,-0.00694674346596,-0.0065712216310203,-0.0098389228805899,-0.0036707606632262
305,-0.0073382384143769,-0.0017418271163478,-0.0059935147874057,-0.0068660667166113,-0.0082944324240088,-0.0054353666491806
306,-0.0060675772838294,-0.0014663805486634,-0.0055263326503336,-0.0083930324763059,-0.006513447035104,-0.0054708351381123
307,-0.0049587427638471,-0.0008489823667332,-0.0060831252485513,-0.0105137629434466,-0.0056290635839104,-0.0036174526903778
308,-0.0042660189792513,-0.0001612832711543,-0.0070490334182977,-0.0126079423353076,-0.0054833004251122,-0.001291366177611
309,-0.0037724042776972,7.00495147611946e-05,-0.0078420396894216,-0.0147690102458,-0.0054042600095272,-0.0004120040102861
310,-0.0033250583801418,-0.0005380043876357,-0.0086099207401275,-0.0165670718997717,-0.0054397913627326,-0.0015157436719164
311,-0.003199451835826,-0.0017182299634441,-0.0095523474738001,-0.0166674479842186,-0.0060156029649078,-0.0032862720545381
312,-0.0035903169773519,-0.0029854252934455,-0.0103338081389666,-0.0147472582757473,-0.0070230280980467,-0.0045140921138227
313,-0.0041372682899236,-0.0040277652442455,-0.0105197886005044,-0.0123604359105229,-0.0076392614282667,-0.0052030510269105
314,-0.004635355900973,-0.0048576523549854,-0.0105175906792283,-0.0116210337728262,-0.0076047126203775,-0.0062049548141658
315,-0.0057065305300056,-0.0059391590766608,-0.011184511706233,-0.0133752385154366,-0.0078174751251936,-0.0084931729361414
316,-0.0078437197953462,-0.0072405757382512,-0.0124569088220596,-0.0160488840192556,-0.0090108681470155,-0.011325690895319
317,-0.0101766474545002,-0.0079328520223498,-0.0133848907426,-0.0174818504601717,-0.0106840906664729,-0.0129531007260084
318,-0.0112553294748068,-0.0073347794823348,-0.0129002034664154,-0.017332823947072,-0.0115586398169398,-0.0126759391278028
319,-0.0107075832784176,-0.0055271489545702,-0.0107491016387939,-0.0162691343575716,-0.0109225632622838,-0.0107127288356423
320,-0.0094896554946899,-0.0037011145614087,-0.0082575650885701,-0.0149302091449499,-0.0094244144856929,-0.0081272898241877
321,-0.0085684899240732,-0.002934182062745,-0.006511082407087,-0.0134923402220011,-0.0077617364004254,-0.0059198485687375
322,-0.0079108877107501,-0.002567182527855,-0.0051091951318085,-0.0114211738109589,-0.005897541064769,-0.003561794059351
323,-0.0073390342295169,-0.0017831471050158,-0.0037550416309386,-0.0087243532761931,-0.0042092739604413,-0.0008158080163411
324,-0.007043823134154,-0.0010570220183581,-0.0026549950707703,-0.0062543642707169,-0.0031661433167755,0.0010202140547335
325,-0.0070681157521903,-0.0009238833445124,-0.001868154387921,-0.0046732644550502,-0.0025826112832874,0.0014220448210835
326,-0.0073673618026077,-0.0012945908820256,-0.0015311174793168,-0.0042880228720605,-0.0024635074660182,0.001467092661187
327,-0.0078970333561301,-0.0020368550904095,-0.0017660213634371,-0.0050116293132305,-0.0031078592874109,0.0019466879311949
328,-0.0081249037757515,-0.0027686066459864,-0.0019790094811469,-0.0057240696623921,-0.0038723598700016,0.0032164603471756
329,-0.0074820397421717,-0.002814897801727,-0.0016363824252039,-0.0051724696531891,-0.0039636995643377,0.0056807347573339
330,-0.0065467678941786,-0.0025073636788874,-0.0014853175962343,-0.0038697051350027,-0.0039159902371466,0.0075447522103786
331,-0.0062661529518663,-0.0026754210703074,-0.0022244658321142,-0.0032008348498493,-0.0044050151482224,0.0063558821566402
332,-0.0066274357959628,-0.00303177209571,-0.0031710232142359,-0.0032720579765737,-0.005307441111654,0.0033807915169745
333,-0.0071111135184764,-0.0029681269079446,-0.0037773118820041,-0.0036236124578863,-0.0064361100085079,0.0011752911377698
334,-0.0072596683166921,-0.0025556010659784,-0.0044992263428866,-0.0044735604897141,-0.0076292627491056,-3.687452772283e-05
335,-0.0067148129455745,-0.001996963052079,-0.0050984192639589,-0.005358025431633,-0.0083091780543327,-0.0004690243513323
336,-0.0058715711347758,-0.0014891301980242,-0.0048273936845362,-0.0054260971955955,-0.0082600535824894,-5.72589351577335e-06
337,-0.0058404984883964,-0.0014776868047192,-0.0041554779745638,-0.0054086530581116,-0.0081393234431743,0.0002601543383207
338,-0.0065797679126262,-0.0017841578228399,-0.003725694026798,-0.006164648104459,-0.0082942591980099,-0.0004163281701039
339,-0.0070268246345222,-0.0016117200721055,-0.0034895213320851,-0.0072432244196534,-0.0084608839824795,-0.0010310237994417
340,-0.0071101072244346,-0.0009707385324873,-0.003627962898463,-0.0080259190872311,-0.0085988389328122,-0.0004120975208934
341,-0.0073391972109675,-0.0002611977688502,-0.004273472353816,-0.0081678982824087,-0.0089131537824869,0.0016608904115855
342,-0.0078438865020871,0.0004460098571144,-0.0049403845332562,-0.0074671548791229,-0.0093114813789725,0.0043698376975953
343,-0.0085905501618981,0.0007624897989444,-0.0053263241425156,-0.0063235783018171,-0.0096579454839229,0.0062252860516309
344,-0.009503511711955,0.0001837184972828,-0.0059496406465768,-0.0056925844401121,-0.0103689273819327,0.0065339785069227
345,-0.0106374602764845,-0.0011915006907656,-0.0073665287345647,-0.0061204941011965,-0.0118007156997919,0.006357395555824
346,-0.0117823472246528,-0.0026476252824068,-0.0089870942756533,-0.0068490975536406,-0.0132869323715568,0.0069873314350843
347,-0.0121759008616209,-0.0036641843616962,-0.0096041681244969,-0.0069221369922161,-0.0135482149198651,0.0077623263932764
348,-0.0116200931370258,-0.0043821921572089,-0.0092529542744159,-0.0065950481221079,-0.0123991398140788,0.0073835202492773
349,-0.010798784904182,-0.0049348999746143,-0.0088743222877383,-0.0065745399333536,-0.0109010320156813,0.0060841809026897
350,0.0069969347678124,-0.0148459430783987,0.0426115542650223,0.0240827780216932,0.057291503995657,0.0133609864860773
351,0.006632360164076,-0.0107653085142374,0.0429916307330132,0.0265285838395357,0.0568080917000771,0.0190781876444817
352,0.0057702283374965,-0.0062730512581765,0.0420442782342434,0.0273315645754337,0.0550261624157429,0.0233352091163397
353,0.0054767793044447,-0.0035355112049728,0.0413849614560604,0.0262834653258324,0.0540299862623215,0.0246789045631886
354,0.0056033837608993,-0.0033698109909892,0.0410761348903179,0.0245049763470888,0.053946565836668,0.0252465568482876
355,0.0056013083085417,-0.0049812528304755,0.0403675995767117,0.0233027171343565,0.0538446120917797,0.0255561042577028
356,0.0061050322838127,-0.0076863914728164,0.0396327711641788,0.0221523996442556,0.0544219687581062,0.0219196248799562
357,0.0074341320432722,-0.0106510911136866,0.0395019575953484,0.0200727209448814,0.0561642162501812,0.0133137796074152
358,0.0084396060556173,-0.0121774226427078,0.0398073196411133,0.0182608347386122,0.0574993379414082,0.0053373356349766
359,0.0086263129487633,-0.0112629942595959,0.0402570217847824,0.0184130687266588,0.0572770349681377,0.0031023612245917
360,0.0082257650792598,-0.0086205517873168,0.0401026234030724,0.0196663662791252,0.0552685186266899,0.0062566008418798
361,0.0072062048129737,-0.0062448801472783,0.0385002158582211,0.0201139841228724,0.0516982488334179,0.0114734945818782
362,0.0063437963835895,-0.0063380277715623,0.0364507660269737,0.0197071693837643,0.0487851165235043,0.0142828561365604
363,0.0063960729166865,-0.0091692926362156,0.0357904583215714,0.0198158640414476,0.0486467257142067,0.0127853602170944
364,0.0072263511829078,-0.0130491210147738,0.0366792380809784,0.0209101401269436,0.0508565679192543,0.0087115662172436
365,0.0086082061752677,-0.0155983688309789,0.0376907736063004,0.0220512803643942,0.0535051375627518,0.0041944291442632
366,0.009982424788177,-0.0152522018179297,0.0377081818878651,0.022684158757329,0.0545776635408401,0.0011801560176536
367,0.0104991970583797,-0.0132443364709616,0.0370693281292915,0.0233549382537603,0.0532848387956619,0.0011630663648247
368,0.010155581869185,-0.0116597441956401,0.0368201360106468,0.0244151968508959,0.050822626799345,0.0037744657602161
369,0.0098503744229674,-0.0102748898789287,0.0371700264513493,0.0253738760948181,0.0486562475562096,0.0068259993568062
370,0.0101174702867866,-0.0077923103235662,0.0371973216533661,0.0258090198040009,0.0466896593570709,0.0088305408135056
371,0.0107826720923185,-0.0052085551433265,0.0365757755935192,0.0255266632884741,0.0452184677124023,0.0090470453724265
372,0.0118463579565287,-0.0049288370646536,0.0359701216220856,0.0242550987750292,0.0455422922968864,0.0067947809584438
373,0.0132194878533483,-0.0066252811811864,0.0357237905263901,0.0227510798722506,0.0472100041806698,0.0043963207863271
374,0.0142183909192681,-0.0081556206569075,0.0359655655920506,0.0223450977355242,0.0489464066922665,0.0051205810159444
375,0.0148468827828765,-0.0095014302060008,0.0368520505726337,0.0227403156459332,0.0510016866028309,0.0080361440777778
376,0.0160996466875076,-0.0112944757565856,0.0383859239518642,0.0229906365275383,0.0537679269909859,0.0104111693799496
377,0.0177616253495216,-0.0128100635483861,0.040061242878437,0.0231239385902882,0.0559829473495483,0.0110269449651241
378,0.0183327700942755,-0.0135643128305674,0.0410362593829632,0.0234269853681326,0.056207712739706,0.0102816177532077
379,0.0173822715878487,-0.0135839302092791,0.0409949719905853,0.0239622965455055,0.0546879023313522,0.010142995044589
380,0.0157576855272055,-0.0125383771955967,0.0399545282125473,0.0243767611682415,0.0522517859935761,0.0119691574946046
381,0.0144371064379811,-0.0096756853163242,0.0383411981165409,0.0242229402065277,0.0495472252368927,0.0147504974156618
382,0.0139243267476559,-0.0052970559336245,0.0371212922036648,0.0236533544957638,0.0474306978285313,0.0167783293873072
383,0.0139827840030193,-0.0015241982182487,0.0369518250226974,0.0232908129692078,0.0465384460985661,0.0176997594535351
384,0.0142756337299943,0.0001892807340482,0.0378788188099861,0.0235972385853529,0.0470408424735069,0.0181949399411678
385,0.0147914038971066,0.0002761073410511,0.039210382848978,0.0242261663079262,0.0482238978147507,0.0184256508946419
386,0.015082998201251,-0.0008211022359319,0.0397639013826847,0.0245297774672508,0.048606876283884,0.0173929259181023
387,0.0147421322762966,-0.0026526297442615,0.039113711565733,0.0246977768838406,0.0475447624921799,0.0152677493169904
388,0.0144815249368548,-0.0038951002061367,0.0380490757524967,0.0247422587126493,0.0460449978709221,0.0135339694097638
389,0.0148810679093003,-0.0038908822461962,0.0370651036500931,0.0236314665526152,0.0452847555279732,0.0122757581993937
390,0.0156914889812469,-0.0032431432045996,0.0361013971269131,0.0214251279830933,0.045545469969511,0.0114345699548721
391,0.0165668521076441,-0.0027812961488962,0.0355151779949665,0.0196036864072084,0.0465510673820972,0.0112839797511697
392,0.016857735812664,-0.002661237725988,0.0350379049777985,0.0188838448375463,0.0471920110285282,0.0117672448977828
393,0.016358271241188,-0.0022615073248744,0.0338245406746864,0.0188876260071993,0.0462381355464458,0.0127931442111731
394,0.0159988421946764,-0.0013075993629172,0.03215616568923,0.0192470978945494,0.0439512990415096,0.0134964091703296
395,0.0164313949644566,-0.000200187874725,0.0312234871089458,0.0201826523989439,0.0417425073683262,0.0131414970383048
396,0.0172064788639545,0.0006900489097461,0.0315734595060349,0.0218384768813849,0.0406012386083603,0.0121134826913476
397,0.0177392847836018,0.0013532120501622,0.0326017923653126,0.0234604049474001,0.0404704362154007,0.0112200872972608
398,0.0181824211031199,0.0019229394383728,0.0334979109466076,0.0239756964147091,0.0410217642784119,0.0107537740841508
399,0.0188046358525753,0.0022515619639307,0.0338046215474606,0.0230788663029671,0.0418676696717739,0.0104529969394207
400,0.0192278511822224,0.0021418929100036,0.0331847816705704,0.0213323552161455,0.0420979522168636,0.0102514363825321
401,0.0193454995751381,0.0017829651478678,0.0318263843655586,0.0193950403481722,0.0414117239415646,0.0098843332380056
402,0.0199203602969646,0.0017975012306124,0.0303875729441643,0.0178756359964609,0.040421225130558,0.0090592736378312
403,0.0210706423968077,0.0028850953094661,0.0289556868374348,0.0170130860060453,0.0390564650297165,0.008186443708837
404,0.0215692929923534,0.0050036367028951,0.0271267686039209,0.0165374502539635,0.0365797020494938,0.0077911969274282
405,0.0207597706466913,0.0070334626361727,0.0252208448946476,0.0169015862047672,0.0333061181008816,0.0083509171381592
406,0.0194626580923796,0.0078178597614169,0.0241888891905546,0.0180589463561773,0.0307546220719814,0.0095731345936656
407,0.0183368846774101,0.0073546762578189,0.0239892788231373,0.0183785706758499,0.0293568726629019,0.0102452086284757
408,0.0171851944178343,0.0064293942414224,0.0234336648136377,0.0173413492739201,0.0279845613986254,0.0100367125123739
409,0.0161062125116587,0.0060085444711148,0.0220799334347248,0.0164396781474352,0.0261580944061279,0.0103918518871069
410,0.0155597506090999,0.0065237884409725,0.0206335317343473,0.0165568012744188,0.0243978872895241,0.0124003468081355
411,0.0153320180252194,0.0076360278762877,0.0193943008780479,0.016636960208416,0.0228932611644268,0.0147648341953754
412,0.0147332455962896,0.0093058366328477,0.0180652625858784,0.0154959065839648,0.0211732219904661,0.0158463716506958
413,0.0134730776771903,0.0110392225906253,0.0166131723672152,0.0132434424012899,0.0191128738224506,0.014926471747458
414,0.0122587839141488,0.0114230569452047,0.0152839049696922,0.010603029280901,0.0174658484756947,0.0119636366143823
415,0.0120093859732151,0.0102350916713476,0.0142575865611434,0.0085999788716435,0.0164510104805231,0.0091823367401957
416,0.0123585294932127,0.0087452605366706,0.0134838977828622,0.0080049876123666,0.015367953106761,0.0086483526974916
417,0.012342662550509,0.0080077946186065,0.0127171603962779,0.0083073945716023,0.0140575719997287,0.0092009305953979
418,0.0113727692514658,0.0078315213322639,0.011553518474102,0.0085668750107288,0.0125820264220238,0.0097356829792261
419,0.009761506691575,0.0078504476696252,0.0102849332615733,0.0088591314852237,0.0110823009163141,0.0112438770011067
420,0.008573293685913,0.008305300027132,0.0097207380458712,0.0096629913896322,0.0101614641025662,0.0138616291806102
421,0.0081513570621609,0.0085208201780915,0.0097883958369493,0.0103966416791081,0.0100430538877845,0.0151719395071268
422,0.0085283061489462,0.0074834688566625,0.010278232395649,0.0104033909738064,0.0112013360485435,0.0138108376413584
423,0.0096888067200779,0.005332195200026,0.0109218917787075,0.0100863445550203,0.0135740349069238,0.0116318510845304
424,0.0108453771099448,0.0030797785148024,0.0108733205124736,0.0097101852297782,0.0152368089184165,0.0100066084414721
425,0.011441539041698,0.0019660380203276,0.0097932592034339,0.0087018404155969,0.0149389104917645,0.0081987250596284
426,0.011762716807425,0.0022777169942855,0.0082157095894217,0.0069973072968423,0.0135690812021494,0.0059813950210809
427,0.0118558425456285,0.0033178348094224,0.0069740894250571,0.0058160843327641,0.0120660653337836,0.0046009365469217
428,0.0111476052552462,0.0045261485502123,0.0062320795841515,0.0059203365817666,0.01040721219033,0.004834677092731
429,0.0096044884994626,0.0056168478913605,0.0055230208672583,0.0066955089569091,0.0086009781807661,0.0060758125036954
430,0.0079260915517807,0.0064334417693316,0.0046068569645285,0.0073116603307426,0.0068979295901954,0.0069592171348631
431,0.0056912172585725,0.0061041228473186,0.0025016763247549,0.0066271508112549,0.0044926106929779,0.0057719959877431
432,0.0012569002574309,0.0029008544515818,-0.0024184098001569,0.0031050064135342,-0.0001917803747346,0.001753884833306
433,-0.005182709544897,-0.0028320814017206,-0.0094876093789935,-0.003008485538885,-0.0062827649526298,-0.0038535844068974
434,-0.0111063122749329,-0.0085106818005442,-0.0156661905348301,-0.0093815876170992,-0.0106017487123609,-0.0090130204334855
435,-0.0147711811587214,-0.0127217005938292,-0.0193451531231403,-0.0144016677513719,-0.0121000306680799,-0.0132626369595528
436,-0.0163266211748123,-0.0153613518923521,-0.0213511474430561,-0.0175154972821474,-0.0125293200835586,-0.0170611348003149
437,-0.0165536273270845,-0.0159829929471016,-0.0224354173988104,-0.0179396141320467,-0.0132947843521833,-0.019313670694828
438,-0.0159753412008286,-0.0144390147179365,-0.0225290767848492,-0.0161184798926115,-0.0139608317986131,-0.0191070288419724
439,-0.0147299682721496,-0.0116825075820088,-0.0216270759701729,-0.0140179209411144,-0.0133958701044321,-0.017364552244544
440,-0.012618756853044,-0.0080889044329524,-0.0196352805942297,-0.0120489848777652,-0.0114472787827253,-0.0143880695104599
441,-0.0094656832516193,-0.003138055326417,-0.0163884572684765,-0.0086178155615925,-0.0087828477844595,-0.0095168175175786
442,-0.005673149600625,0.0023292757105082,-0.0126492334529758,-0.0039600790478289,-0.0058805490843951,-0.0040559573099017
443,-0.0019094559829682,0.006334782578051,-0.0098412605002522,-0.0004586856812238,-0.003064846387133,-0.000775434076786
444,0.0011407512938603,0.0078545520082116,-0.0085990717634558,0.0010187722509726,-0.0008635190315544,-0.0008849321166053
445,0.0029447909910231,0.0073996917344629,-0.0083247367292642,0.0013813464902341,0.0005197298014536,-0.0032720651943236
446,0.003538410179317,0.0059772590175271,-0.0085212467238307,0.0010761313606053,0.0011418943759053,-0.0061561791226267
447,0.0034318377729505,0.0043720938265323,-0.0091882916167378,-7.06676437403075e-05,0.0011241185711696,-0.0088896248489618
448,0.0033562411554157,0.0033416415099054,-0.0097494134679436,-0.0017335972515866,0.0010089968563988,-0.0110997129231691
449,0.0036229407414794,0.0032697927672416,-0.0100321816280484,-0.0035773767158389,0.0006254308973439,-0.0120860086753964
450,0.0039494470693171,0.003340063849464,-0.010876951739192,-0.0060166148468852,-0.0007932566222734,-0.0125194974243641
451,0.0040242657996714,0.0022423500195145,-0.0125449392944574,-0.0089496960863471,-0.0030338682699948,-0.0138824256137013
452,0.003918039612472,0.0001022723445203,-0.0143473939970136,-0.0111801000311971,-0.0051674307323992,-0.0162237044423819
453,0.0037746534217149,-0.0016332676168531,-0.0157795045524836,-0.0120410788804293,-0.0067930063232779,-0.0183137618005276
454,0.0030972550157457,-0.0022962151560932,-0.0171607714146376,-0.0118089262396097,-0.0084925927221775,-0.0190491434186697
455,0.0018174396827817,-0.0025490648113191,-0.0186262782663107,-0.0111787654459476,-0.0102664344012737,-0.0187131017446518
456,0.0007393713458441,-0.0027964885812252,-0.0199422463774681,-0.01104517839849,-0.0115018812939525,-0.0186406169086695
457,0.0003018451097887,-0.0024505234323442,-0.0211882870644331,-0.0111655844375491,-0.0123322559520602,-0.0192739013582468
458,0.0002342152874916,-0.0011401746887713,-0.0221293773502111,-0.0103541482239962,-0.0127079635858536,-0.0200102161616087
459,0.0002122565929312,0.0006377033423632,-0.0222825687378645,-0.0086383828893303,-0.0119828144088387,-0.0201343316584826
460,0.0005350611172616,0.0021978341974318,-0.0218150746077299,-0.0073197232559323,-0.0101073021069169,-0.0190441738814116
461,0.001252974383533,0.0032685487531125,-0.021508714184165,-0.0071580670773983,-0.0083778789266943,-0.016687199473381
462,0.0015962900361046,0.0037666447460651,-0.0219343267381191,-0.0080050528049469,-0.0084636891260743,-0.0143770938739181
463,0.0007519210339523,0.0032598911784589,-0.0234151314944029,-0.0096362438052892,-0.0109875993803144,-0.01412417832762
464,-0.0012352074263617,0.0018305975245311,-0.0259000845253468,-0.0114694153890014,-0.0151781057938933,-0.0161858052015305
465,-0.0032581537961959,0.0003917383146472,-0.0285095162689686,-0.0129341529682279,-0.0194254871457815,-0.0195591282099485
466,-0.0045412895269691,-0.0007297815172933,-0.0304695758968592,-0.0144067807123065,-0.0226556751877069,-0.0236364845186472
467,-0.0054600359871983,-0.002060210565105,-0.0318946950137615,-0.0163763966411352,-0.0249487701803446,-0.0272058788686991
468,-0.0064603029750287,-0.0037005795165896,-0.0330232940614223,-0.0186552293598652,-0.0264995750039816,-0.0289950985461473
469,-0.0072976048104465,-0.0047391112893819,-0.0335785560309887,-0.0208336785435677,-0.0271692685782909,-0.0294632185250521
470,-0.0077161351218819,-0.0045651285909116,-0.0335344523191452,-0.0230324473232031,-0.0271224658936262,-0.0302818231284618
471,-0.0079190302640199,-0.0039955130778253,-0.033371414989233,-0.0253827814012766,-0.0268528778105974,-0.0320828445255756
472,-0.0079972306266427,-0.0040315631777048,-0.0332136675715446,-0.0269763320684433,-0.0266754571348429,-0.0333735011518002
473,-0.007823284715414,-0.0045840158127248,-0.0331510603427887,-0.027210732921958,-0.026727607473731,-0.0328845866024494
474,-0.0069221681915223,-0.0050213201902806,-0.0335357636213303,-0.0269170328974724,-0.0268879421055317,-0.0316238068044186
475,-0.0050641437992453,-0.0052677672356367,-0.0341089516878128,-0.0269771795719862,-0.026594303548336,-0.0313798114657402
476,-0.0033951022196561,-0.0058613517321646,-0.0339407064020634,-0.0270018670707941,-0.0254757199436426,-0.0323143787682056
477,-0.0030320407822728,-0.0062839840538799,-0.0324891954660416,-0.0254884734749794,-0.0238850899040699,-0.0325571820139885
478,-0.0037912738043814,-0.005459071137011,-0.0305246096104383,-0.0221810135990381,-0.022869186475873,-0.0317848026752472
479,-0.0049481918103992,-0.0041464986279606,-0.0295665003359318,-0.01890336163342,-0.0235384535044432,-0.0321978069841862
480,-0.0055131837725639,-0.0036378563381731,-0.0295774843543768,-0.0166205577552319,-0.0250299815088511,-0.0341787151992321
481,-0.0050565246492624,-0.0040779048576951,-0.0291499178856611,-0.0148579003289342,-0.0252152513712645,-0.0362226963043213
482,-0.0043028853833675,-0.0049803205765783,-0.0278259050101042,-0.0132766561582685,-0.0239543635398149,-0.0373168587684631
483,-0.003592039225623,-0.0055579994805157,-0.0257021393626928,-0.0117028234526515,-0.0220894459635019,-0.0374190136790276
484,-0.0028478659223765,-0.0054396563209593,-0.0232122410088778,-0.010166572406888,-0.020046778023243,-0.0370684824883938
485,-0.0025614947080612,-0.0047505390830338,-0.0216002054512501,-0.0093901474028825,-0.0187471229583025,-0.0360591001808643
486,-0.0028220207896083,-0.0037195994518697,-0.0217267721891403,-0.0105207758024335,-0.0185607876628637,-0.0341789238154888
487,-0.0028547090478241,-0.0028452819678932,-0.0232475493103266,-0.0135031314566731,-0.0185625478625298,-0.0321131087839603
488,-0.0023546447046101,-0.0022371455561369,-0.0255192574113607,-0.0170465335249901,-0.0184431634843349,-0.030503598973155
489,-0.0018072975799441,-0.0012774182250723,-0.0281264763325453,-0.0198006425052881,-0.0187333822250366,-0.0293534975498915
490,-0.0013887793757021,0.000309952563839,-0.0303267277777195,-0.0206056926399469,-0.0193247590214014,-0.027857368811965
491,-0.0007457361207343,0.0021126051433384,-0.0314420387148857,-0.019504688680172,-0.0197809915989637,-0.024960033595562
492,-0.0001228200271725,0.0031739438418299,-0.0316274389624596,-0.0177573431283236,-0.0200845431536436,-0.0206690058112144
493,-0.0004552511381916,0.0028324590530246,-0.0316430516541004,-0.0162413381040096,-0.0205552466213703,-0.0161682460457087
494,-0.0018406304297968,0.0018789620371535,-0.0322220288217068,-0.0156256910413504,-0.0215038154274225,-0.0133888637647033
495,-0.0031865411438047,0.0013878890313208,-0.0330848731100559,-0.0164229739457369,-0.0224703978747129,-0.0136483246460557
496,-0.0036788550205528,0.0014838244533166,-0.0331996195018291,-0.0177102368324995,-0.0226468108594418,-0.0156576186418533
497,-0.0034959197510033,0.0018287764396518,-0.0323278941214085,-0.0182447787374258,-0.0220544002950192,-0.0172510407865047
498,-0.0029597922693938,0.0023391125723719,-0.0307495165616274,-0.0176053307950497,-0.0207521021366119,-0.0176060702651739
499,-0.002147639170289,0.0030182630289346,-0.0286996979266405,-0.0152402417734265,-0.0186556540429592,-0.0167065020650625
500,-0.0008436313946731,0.0033890237100422,-0.026321055367589,-0.0110783409327269,-0.0160577464848757,-0.0154207982122898
501,0.0007273696828633,0.0032177837565541,-0.0240482725203037,-0.0072420849464833,-0.0138192987069488,-0.0154252592474222
502,0.0016223905840888,0.0030279362108558,-0.0225106365978718,-0.0059733549132943,-0.013029501773417,-0.0170166771858931
503,0.0016552655724808,0.0029450936708599,-0.0216081459075212,-0.006998723372817,-0.0136012006551027,-0.0184468626976013
504,0.0014189076609909,0.0029460005462169,-0.0212068092077971,-0.0088935326784849,-0.0147031359374523,-0.0178698562085629
505,0.0013032596325501,0.0032304530031979,-0.0213305968791246,-0.0107063036412001,-0.0157033894211054,-0.015556113794446
506,0.0011463436530903,0.0027533513493835,-0.0218444745987654,-0.0121975047513843,-0.0163505841046572,-0.0144913205876946
507,0.0008949218899942,0.0006630899733863,-0.0225871186703444,-0.013137336820364,-0.0167287271469831,-0.0164358243346214
508,0.0008473124471493,-0.0023075244389474,-0.0234656035900116,-0.0134567143395543,-0.0169860552996397,-0.0198093056678772
509,0.0007686978788115,-0.0052256686612963,-0.0247531943023205,-0.0142515935003757,-0.0174047742038965,-0.0232275892049074
510,0.0020085291471332,-0.0066069336608052,-0.0263751242309809,-0.0160715952515602,-0.0181044340133667,-0.02615025639534
511,0.0083790998905897,-0.0056714965030551,-0.0275887716561556,-0.0175953172147274,-0.0189536735415459,-0.0277009457349777
512,0.0207116641104221,-0.0038030056748539,-0.027547862380743,-0.0174244437366724,-0.0194557327777147,-0.0277811344712973
513,0.0346094183623791,-0.0022219826932996,-0.0263158716261387,-0.0152816968038678,-0.0196513030678034,-0.0263702739030123
514,0.0454990975558758,-0.0015341312391683,-0.0249790661036968,-0.012112544849515,-0.0204318258911371,-0.0228409841656685
515,0.0522679723799229,-0.0021631347481161,-0.0241329781711102,-0.0098459152504801,-0.0216311067342758,-0.0182012040168047
516,0.055871095508337,-0.003865000559017,-0.0238004699349403,-0.0096862604841589,-0.0223452728241682,-0.0149604137986898
517,0.0569996908307076,-0.0061754896305501,-0.0242109522223473,-0.0110490247607231,-0.0228809341788292,-0.0146133108064532
518,0.0560812316834927,-0.008084375411272,-0.0253662094473839,-0.0126049593091011,-0.0240605212748051,-0.0168883912265301
519,0.0541305355727673,-0.0092284120619297,-0.0263887960463762,-0.0138125000521541,-0.025198170915246,-0.0212201047688723
520,0.0522136837244034,-0.0104863541200757,-0.0263662822544575,-0.0151600707322359,-0.0251420177519321,-0.0276691038161516
521,0.0505137629806995,-0.0113225979730487,-0.0255883764475584,-0.0165991708636284,-0.024294026196003,-0.0343565493822098
522,0.0489464439451694,-0.0103611117228866,-0.0248182564973831,-0.0174738224595785,-0.0235943086445332,-0.0382444337010384
523,0.0477400124073029,-0.0081670358777046,-0.024333106353879,-0.0178440231829882,-0.0232277940958738,-0.0392617583274841
524,0.0467660464346409,-0.0061600231565535,-0.0241015274077654,-0.0174233801662922,-0.0229589398950338,-0.0386645384132862
525,0.0458241403102875,-0.0049519008025527,-0.0238565616309643,-0.0154521036893129,-0.0225940272212029,-0.0369607023894787
526,0.0447365231812,-0.0048649553209543,-0.0236680619418621,-0.0129200778901577,-0.0225543100386858,-0.035329844802618
527,0.0429755970835686,-0.0054433280602097,-0.0236993562430143,-0.011130996979773,-0.0235723834484816,-0.0338754989206791
528,0.0406853295862675,-0.0056125819683075,-0.0232607871294022,-0.0095285987481474,-0.0250221733003855,-0.0305825900286436
529,0.0385915413498878,-0.0049831015057861,-0.0220068227499723,-0.0075575653463602,-0.0254373364150524,-0.0245515685528517
530,0.0367988757789135,-0.0037585936952382,-0.0205820836126804,-0.0061219460330903,-0.024654533714056,-0.0177933275699615
531,0.0352749228477478,-0.0024488219060003,-0.0193595048040152,-0.0061802458949387,-0.0234823524951935,-0.0129122752696276
532,0.0342428535223007,-0.001719897496514,-0.0181337967514992,-0.007269712164998,-0.0219201501458883,-0.0105695212259889
533,0.0333034805953503,-0.002117475727573,-0.0170451086014509,-0.0087494468316435,-0.0195660293102264,-0.0109139308333397
534,0.0304706040769815,-0.0034389731008559,-0.0168911758810282,-0.0105619197711349,-0.0176647268235683,-0.0133308172225952
535,0.0234487373381853,-0.0047472468577325,-0.018025791272521,-0.0119691416621208,-0.0180376842617989,-0.015395337715745
536,0.0129051581025124,-0.0056017399765551,-0.0193250365555286,-0.011719617061317,-0.0201193913817406,-0.0160288400948048
537,0.0020197182893753,-0.0067008277401328,-0.0188702344894409,-0.0096333287656307,-0.021295165643096,-0.0168045442551374
538,-0.0068582333624362,-0.0081948526203632,-0.0161586347967386,-0.0069009037688374,-0.0201963987201452,-0.0186752341687679
539,-0.0130539601668715,-0.0086431093513965,-0.012780025601387,-0.0047110365703702,-0.0181683767586946,-0.0205466952174902
540,-0.0164771378040314,-0.0076062525622546,-0.0101279187947512,-0.003427566261962,-0.0166349466890097,-0.0218484923243523
541,-0.01754947938025,-0.0064851613715291,-0.0083976238965988,-0.0024771681055426,-0.0157889593392611,-0.0225691385567188
542,-0.0175086930394173,-0.0061453902162611,-0.0076990141533315,-0.0005505261360667,-0.0159080382436514,-0.0211044475436211
543,-0.0173051338642836,-0.0068740248680114,-0.0078406129032373,0.0025899687316268,-0.0167528055608273,-0.016426108777523
544,-0.0170565191656351,-0.0089057236909866,-0.008031990379095,0.0049622398801147,-0.0173190291970968,-0.0111235743388534
545,-0.0170459840446711,-0.0112965274602175,-0.0080703618004918,0.0045167100615799,-0.0174440201371908,-0.008320321328938
546,-0.0175119321793318,-0.0124442996457219,-0.0082054892554879,0.0014828621642664,-0.0174706280231476,-0.0078867254778742
547,-0.0178528819233179,-0.0112231401726604,-0.0080989357084035,-0.0019106421386823,-0.017362467944622,-0.0078645218163728
548,-0.0173517893999815,-0.0079854186624288,-0.0072938203811645,-0.0036181628238409,-0.0169948730617762,-0.0072600855492055
549,-0.0161602888256311,-0.0048487735912203,-0.0057979011908173,-0.003770018229261,-0.0155303217470646,-0.0071013532578945
550,-0.015245771035552,-0.0032505320850759,-0.0042356615886092,-0.003938355948776,-0.0125009194016457,-0.0083581218495965
551,-0.0151203544810414,-0.0027336473576724,-0.0031229490414261,-0.0042900298722088,-0.0094612101092934,-0.0095869591459631
552,-0.0153072159737349,-0.0029376787133514,-0.0021406132727861,-0.0034172879531979,-0.0081757865846157,-0.00890873093158
553,-0.0152936270460486,-0.0040856003761291,-0.0010582956019789,-0.0009248086134903,-0.0088939480483532,-0.0061619761399924
554,-0.0149979125708342,-0.0060862870886921,-0.0001032103245961,0.0017068630550056,-0.0104922875761986,-0.0028841795865446
555,-0.0145590463653207,-0.0084562757983803,0.0008566486067138,0.0030476637184619,-0.0112841380760074,-0.000956269854214
556,-0.0144513100385666,-0.0104593718424439,0.0019123827805742,0.0029929156880825,-0.010837678797543,-0.0003735434438567
557,-0.0148606756702065,-0.0116009982302785,0.002517836401239,0.0019580705557018,-0.0103203393518925,-0.0001878643088275
558,-0.0151975695043802,-0.0117993289604783,0.0023876742925494,0.0004647603491321,-0.0104870619252324,-0.0007154921186156
559,-0.0150535218417645,-0.0111621944233775,0.0020650003571063,-0.000631995149888,-0.0109815513715148,-0.0022369159851223
560,-0.0144844492897391,-0.0106878979131579,0.0024153899867087,-0.0005955222877673,-0.010835001245141,-0.0040698614902794
561,-0.0135452887043357,-0.0115766823291779,0.0035662190057337,0.0003250522713642,-0.0094670560210943,-0.0056013707071542
562,-0.0123572656884789,-0.0128597961738706,0.0045517282560467,0.0012681371299549,-0.0077595319598913,-0.0062444931827485
563,-0.011338671669364,-0.0127564473077655,0.0045453291386365,0.0016730317147448,-0.0068058925680816,-0.0060204258188605
564,-0.0109463427215815,-0.0117304660379887,0.0038707891944795,0.0016262468416243,-0.0065975729376077,-0.00556310871616
565,-0.0114477034658194,-0.0114113064482808,0.003163328859955,0.0014393368037417,-0.0069618783891201,-0.0056472984142601
566,-0.0125873032957315,-0.012256377376616,0.0027720029465854,0.0014407439157366,-0.0077722202986478,-0.0069658705033361
567,-0.0134079689159989,-0.0140539146959782,0.0030086562037468,0.0021460421849042,-0.0079452255740761,-0.009537692181766
568,-0.0130489179864526,-0.0166002996265888,0.00407689018175,0.0032326781656593,-0.0063384403474628,-0.0128372916951776
569,-0.0116239758208394,-0.0192631520330906,0.0060221101157367,0.0038216086104512,-0.0033442864660173,-0.015497799962759
570,-0.0103299347683787,-0.0209305491298437,0.0080151595175266,0.0038727994542568,-0.0008464636048302,-0.0159744191914797
571,-0.0102839833125472,-0.0205424185842276,0.0087005998939275,0.0035935083869844,-0.000516582687851,-0.0141251543536782
572,-0.0116322906687856,-0.017970247194171,0.0074070724658668,0.0025190368760377,-0.0024641943164169,-0.0113421799615026
573,-0.0139938592910767,-0.014259172603488,0.0043999426998198,0.000361915299436,-0.0059183603152632,-0.0086207399144768
574,-0.0162393562495708,-0.0106866918504238,0.0014075406361371,-0.0017881294479593,-0.0091877877712249,-0.005590075161308
575,-0.0172438062727451,-0.0083817522972822,6.43683815724216e-05,-0.0031894005369395,-0.0107838176190853,-0.0027595940046012
576,-0.0172870997339487,-0.0083437971770763,2.71686421910999e-05,-0.0048275827430188,-0.0114116389304399,-0.0017353405710309
577,-0.0168364066630602,-0.0101282522082329,0.0005664206692017,-0.0067137260921299,-0.011888793669641,-0.0027396650984883
578,-0.0161603037267923,-0.0119349295273423,0.0013176839565858,-0.0075671975500881,-0.0119035048410296,-0.004483703058213
579,-0.0157535038888454,-0.0128301903605461,0.0018499392317608,-0.0075067137368023,-0.0110730826854706,-0.0062682265415787
580,-0.0155525552108884,-0.0132668167352676,0.0021081333979964,-0.0070653045549988,-0.0095219742506742,-0.00804063398391
581,-0.0154553893953562,-0.0137046054005623,0.0019693758804351,-0.0062005729414522,-0.008456964045763,-0.0096450913697481
582,-0.015634274110198,-0.0140634831041098,0.001094127073884,-0.0061121089383959,-0.0087202442809939,-0.0121189262717962
583,-0.01596006937325,-0.0135603398084641,-0.0002170499647036,-0.0079351477324962,-0.0096816690638661,-0.0158213451504707
584,-0.0163945201784372,-0.0110897989943624,-0.0016751651419326,-0.0108533268794417,-0.0112018566578627,-0.0179432909935713
585,-0.0165642313659191,-0.0072136442176997,-0.0035297779832035,-0.0133713586255908,-0.0136762047186494,-0.0159614589065313
586,-0.015798382461071,-0.0050548231229186,-0.005375740583986,-0.0147125860676169,-0.0159628856927156,-0.0118975462391973
587,-0.0142605183646083,-0.0068775531835854,-0.0057944976724684,-0.0143781499937177,-0.015907384455204,-0.0093154618516564
588,-0.0127044981345534,-0.0111680142581463,-0.0043807225301861,-0.0123744504526258,-0.0133976330980659,-0.0089476341381669
589,-0.0119939129799604,-0.0154521418735385,-0.0027875318191945,-0.0103792771697044,-0.0108610652387142,-0.010545501485467
590,-0.0121201919391751,-0.0185591280460358,-0.0017559478292241,-0.0093944994732737,-0.0094460304826498,-0.0132126621901989
591,-0.0119852339848876,-0.0198528598994017,-0.0004552252357825,-0.0086136031895875,-0.0083342501893639,-0.0147594176232815
592,-0.0112031204625964,-0.019546227529645,0.0010525841498747,-0.0077918176539242,-0.0073677473701536,-0.0145588042214513
593,-0.0105552589520812,-0.0188161339610815,0.0019378719152882,-0.0075901043601334,-0.0071298307739198,-0.0141191119328141
594,-0.0106401378288865,-0.0181403439491987,0.0019868086092174,-0.0082369642332196,-0.0076271994039416,-0.0146070318296552
595,-0.0114437136799097,-0.0173827279359102,0.0015066523337736,-0.009124532341957,-0.0085919918492436,-0.0154680395498872
596,-0.0129887759685516,-0.0171134043484926,0.0004664772422984,-0.0094569353386759,-0.0104365888983011,-0.0149785093963146
597,-0.0146256759762764,-0.017210753634572,-0.0007626833394169,-0.0087826577946543,-0.0129121039062738,-0.0124134002253413
598,-0.0148279787972569,-0.017206197604537,-0.0011208939831703,-0.0076596536673605,-0.0141701558604836,-0.0105198854580522
599,-0.0133387362584472,-0.0174923092126846,-0.0003275157359894,-0.0070121334865689,-0.0132463295012712,-0.0115784294903278
600,-0.0113733066245914,-0.0177913159132004,0.0008260263712145,-0.0064210686832666,-0.0115463575348258,-0.0133060747757554
601,-0.0099389422684907,-0.0177667196840048,0.001464216155,-0.0050779674202203,-0.0106128547340631,-0.013623415492475
602,-0.0093253059312701,-0.0176578033715487,0.0015047014458105,-0.0032806743402034,-0.0102616520598531,-0.013102101162076
603,-0.0093159731477499,-0.0173652935773134,0.001236647600308,-0.0019292669603601,-0.0096480203792452,-0.0126562668010592
604,-0.0098033184185624,-0.0173311177641153,0.0007259301492013,-0.0016226677689701,-0.0085288193076849,-0.0121911028400064
605,-0.0107237007468939,-0.0182089358568192,-9.81495541054755e-05,-0.0025638865772634,-0.0073468890041112,-0.0106943696737289
606,-0.0114461099728942,-0.0195381157100201,-0.001230931840837,-0.0043098093010485,-0.0067351046018302,-0.0079835942015051
607,-0.0115658296272159,-0.0212447494268417,-0.0021305189002305,-0.0059410007670521,-0.0066827330738306,-0.0061365664005279
608,-0.0112522412091494,-0.0238455906510353,-0.0023424930404871,-0.0074635744094848,-0.0065699242986738,-0.0079288268461823
609,-0.0106432717293501,-0.0262634512037039,-0.0023453487083315,-0.0093295443803072,-0.0062931054271757,-0.0128676267340779
610,-0.0098415855318307,-0.0267440136522055,-0.0024070523213595,-0.0106475874781609,-0.006327087059617,-0.0175907053053379
611,-0.0092304581776261,-0.024917846545577,-0.0022125600371509,-0.0102859502658248,-0.006841885857284,-0.0198135413229465
612,-0.0090307593345642,-0.0219812467694283,-0.0018372081685811,-0.0088674211874604,-0.007537807803601,-0.0202796943485737
613,-0.0090766679495573,-0.0198341831564903,-0.0016826705541461,-0.0078984890133142,-0.0084138978272676,-0.0209098290652037
614,-0.0095596993342042,-0.0190084036439657,-0.0021769306622445,-0.0081755956634879,-0.0101164467632771,-0.0217539314180613
615,-0.0102158691734076,-0.0183651745319366,-0.0028404961340129,-0.0090237287804484,-0.0122684361413121,-0.022117342799902
616,-0.0103844422847033,-0.0172030758112669,-0.0030712450388819,-0.0096914526075124,-0.013930032029748,-0.0219961795955896
617,-0.0101540256291628,-0.0152881825342774,-0.0035233001690357,-0.0107677215710282,-0.0152169233188033,-0.0205194801092148
618,-0.0102575933560729,-0.0124736446887255,-0.0046477797441184,-0.0125918136909604,-0.0165949333459139,-0.0171880349516869
619,-0.011246501468122,-0.0098282154649496,-0.0060077020898461,-0.0144613170996308,-0.0182776171714067,-0.0144779365509748
620,-0.0123051423579454,-0.0090834572911262,-0.0069637228734791,-0.0157338865101337,-0.0197163596749306,-0.0150114949792624
621,-0.0123515902087092,-0.0108846994116902,-0.0071919336915016,-0.0167586766183376,-0.0203084461390972,-0.018383851274848
622,-0.0115131810307503,-0.0138721950352192,-0.0066739870235323,-0.017939442768693,-0.0202778782695532,-0.0219180919229984
623,-0.0103606414049864,-0.0165198519825935,-0.0055533088743686,-0.019135270267725,-0.0197750348597765,-0.023819612339139
624,-0.0090328836813569,-0.0186872947961092,-0.0043815094977617,-0.0202657375484705,-0.0186457801610231,-0.0245990827679634
625,-0.0076303090900182,-0.0201047919690609,-0.0037364833988249,-0.0209622196853161,-0.0170962288975716,-0.0241807829588652
626,-0.0067244358360767,-0.019850330427289,-0.0038213548250496,-0.0210406053811312,-0.0159803256392479,-0.0215971954166889
627,-0.0064645074307918,-0.0174347050487995,-0.0046727675944566,-0.0211398713290691,-0.0159869994968176,-0.0177197121083736
628,-0.006547131575644,-0.0138830440118909,-0.0061706667765975,-0.0220323409885168,-0.016512606292963,-0.0145061165094376
629,-0.0071131833828985,-0.0107353329658508,-0.007755319122225,-0.0233462695032358,-0.0164433475583792,-0.0121929030865431
630,-0.0081175407394766,-0.0082000289112329,-0.0085244448855519,-0.023482870310545,-0.0156168136745691,-0.0099938968196511
631,-0.0089607741683721,-0.005916828289628,-0.0080076903104782,-0.0214696228504181,-0.0149036515504122,-0.0078683104366064
632,-0.0092362761497497,-0.0045515457168221,-0.0069526359438896,-0.0185469835996628,-0.0153815746307373,-0.0066865151748061
633,-0.0089114662259817,-0.0047808592207729,-0.0068234610371291,-0.0168652720749378,-0.0174358207732439,-0.0071137328632175
634,-0.0084859300404787,-0.0056388736702501,-0.0080357939004898,-0.0169347040355206,-0.0204795468598604,-0.0084740240126848
635,-0.0088410461321473,-0.0060816649347543,-0.0094551546499133,-0.0176675021648407,-0.0231304690241814,-0.0101676601916552
636,-0.0100775538012385,-0.0067616514861583,-0.0100268432870507,-0.0180664137005806,-0.0242830067873001,-0.0123718678951263
637,-0.0115291653200984,-0.0084600057452917,-0.0099231209605932,-0.018079899251461,-0.023927915841341,-0.014427537098527
638,-0.0123317483812571,-0.0101641295477748,-0.0095232967287302,-0.017271650955081,-0.022347679361701,-0.0140811167657375
639,-0.0121624171733856,-0.0105872647836804,-0.008840262889862,-0.0150902550667524,-0.0203519277274609,-0.010398049838841
640,-0.0117634367197752,-0.0102576296776533,-0.008310493081808,-0.0130004556849599,-0.0191826038062572,-0.0062297885306179
641,-0.0117722926661372,-0.0098862834274768,-0.0080715678632259,-0.0120593905448914,-0.0189395099878311,-0.0035717859864234
642,-0.0124995671212673,-0.0085164485499262,-0.008092931471765,-0.0113510331138968,-0.0197803657501936,-0.0001211197595694
643,-0.0136765753850341,-0.0056063774973154,-0.0089466925710439,-0.0109637379646301,-0.0220181960612535,0.0046041081659495
644,-0.0143465762957931,-0.0026412766892463,-0.0105497939512134,-0.0116923246532679,-0.0242828857153654,0.0074634114280343
645,-0.0142187383025885,-0.0014962201239541,-0.0118253091350198,-0.0128394067287445,-0.0249823331832886,0.0084410635754466
646,-0.0136317489668727,-0.0025078279431909,-0.0118629336357117,-0.0130529375746846,-0.0238468162715435,0.0106502827256918
647,-0.0129676247015595,-0.0040146531537175,-0.0109780766069889,-0.011790506541729,-0.0219592545181513,0.0152125712484121
648,-0.0125111853703856,-0.0043671997264027,-0.0102546764537692,-0.0099235763773322,-0.0207813605666161,0.0197823718190193
649,-0.0123973684385419,-0.0038411319255828,-0.010227763094008,-0.0091097205877304,-0.0205711238086224,0.0206355582922697
650,-0.0123810013756156,-0.0036429422907531,-0.0105641856789589,-0.0101241078227758,-0.0201944559812546,0.0161601379513741
651,-0.0120160030201077,-0.0040495065040886,-0.0106983613222837,-0.0122658982872963,-0.0187275074422359,0.0081398542970418
652,-0.0116713978350163,-0.0042231152765452,-0.0109246484935284,-0.014459615573287,-0.0173742491751909,0.000356683274731
653,-0.0119635658338666,-0.003529043868184,-0.0118022263050079,-0.0159657076001167,-0.017726507037878,-0.0046639265492558
654,-0.0126207293942571,-0.0021819088142365,-0.012856999412179,-0.0160475932061672,-0.0192988589406013,-0.0074525717645883
655,-0.0131403021514416,-0.0009257944184355,-0.0134793920442462,-0.0143143450841308,-0.020987818017602,-0.0090677458792924
656,-0.0135318851098418,-0.0006520063616335,-0.0136241428554058,-0.0119157014414668,-0.021913506090641,-0.0098749967291951
657,-0.0140389781445265,-0.0013189198216423,-0.0134877152740955,-0.010983501560986,-0.0217611957341433,-0.0096341967582702
658,-0.0147216320037842,-0.0017566074384376,-0.0135658346116543,-0.012075986713171,-0.0215502176433802,-0.0076517262496054
659,-0.0154238902032375,-0.0015078731812536,-0.0139823378995061,-0.0139337927103043,-0.0219542272388935,-0.0041882116347551
660,-0.0160042606294155,-0.0010012837592512,-0.0141830686479807,-0.0153075307607651,-0.0226822402328253,0.0006275019259192
661,-0.0163402501493692,-0.0004627784655895,-0.0141468951478601,-0.0159468147903681,-0.0236342214047909,0.0059091951698064
662,-0.0164663586765528,-8.0537298345007e-05,-0.0144991846755147,-0.016179146245122,-0.0249239541590214,0.008686838671565
663,-0.0168793387711048,0.0002776050532702,-0.0156522616744041,-0.0160669013857841,-0.0265681315213442,0.0073485481552779
664,-0.0176569297909737,0.0008681219187565,-0.0171127393841743,-0.0154746687039733,-0.0280081257224083,0.0031029905658215
665,-0.0184444263577461,0.0015651418361812,-0.0179329607635736,-0.0143130496144295,-0.0286228414624929,-0.0012800210388377
666,-0.0192560032010078,0.0026287117507308,-0.0179111007601023,-0.0120227364823222,-0.028746847063303,-0.0027915958780795
667,-0.0200615003705025,0.0041810688562691,-0.0172799229621887,-0.0080352602526545,-0.028943745419383,0.0002305782109033
668,-0.0204987395554781,0.0054326700046658,-0.016272546723485,-0.003488064976409,-0.0289097353816032,0.0066870246082544
669,-0.0200231410562992,0.005673817358911,-0.0149600449949503,-0.0004535824118647,-0.0275535751134157,0.0137087637558579
670,-0.0190737470984459,0.0049728462472558,-0.0137657299637794,-3.61596430593636e-05,-0.0249057002365589,0.0189046207815409
671,-0.018810112029314,0.0041206520982086,-0.0135835437104106,-0.0019907318055629,-0.0224543791264296,0.0211897529661655
672,-0.0192793011665344,0.0041009951382875,-0.0143283968791366,-0.0051415297202765,-0.0209208223968744,0.0209494829177856
673,-0.0197609942406416,0.0053819087333977,-0.0152741055935621,-0.0087788384407758,-0.0201489981263876,0.0182623565196991
674,-0.0198043175041676,0.0081195952370762,-0.0161382760852575,-0.0124206878244877,-0.0204490479081869,0.0137879122048616
675,-0.0195596814155579,0.0116257155314088,-0.0168444849550724,-0.0149908792227507,-0.0222118869423866,0.0101873241364956
676,-0.019320959225297,0.0137780383229256,-0.017182694748044,-0.0157546773552895,-0.0246552750468254,0.0089616496115922
677,-0.0190775562077761,0.0130036659538746,-0.0168868713080883,-0.014676365070045,-0.0263424757868052,0.0090925246477127
678,-0.0187790114432573,0.0094275055453181,-0.0160841606557369,-0.0128787560388446,-0.0265578050166368,0.0081512322649359
679,-0.0183018911629915,0.0046288259327411,-0.0152655094861984,-0.0118124419823289,-0.025789637118578,0.0050425683148205
680,-0.0174565315246582,0.0007371985702775,-0.014778389595449,-0.0115707153454423,-0.0249298419803381,0.0010813962435349
681,-0.0155802220106125,-0.0015914588002488,-0.0142209539189935,-0.0113887209445238,-0.0236225984990597,-0.0025908348616212
682,-0.0129167409613729,-0.002404194092378,-0.0135687673464417,-0.0112286135554314,-0.0219198446720839,-0.0053501822985708
683,-0.0116480141878128,-0.0010729661444202,-0.0139589859172702,-0.011705526150763,-0.0213363338261843,-0.0064188879914581
684,-0.0123697817325592,0.0018192621646449,-0.0152934994548559,-0.0122627373784781,-0.0215829722583294,-0.0051435003988444
685,-0.0133958430960774,0.0047485432587564,-0.0160735659301281,-0.0118989758193493,-0.0208785347640514,-0.001368241617456
686,-0.0139773702248931,0.007465926464647,-0.015918867662549,-0.0109010217711329,-0.0194030329585075,0.0039302441291511
687,-0.014559855684638,0.0100748632103205,-0.0157573390752077,-0.0104123828932643,-0.0187448188662529,0.0091887889429926
688,-0.0152645306661725,0.0122777353972197,-0.0161915365606546,-0.010767363011837,-0.0189173389226198,0.013839278370142
689,-0.0157829467207193,0.0136293144896626,-0.0168192684650421,-0.0109147783368826,-0.0187044516205788,0.0180798042565584
690,-0.0160355754196644,0.0133855026215315,-0.0172979850322008,-0.0102935051545501,-0.0183253847062588,0.021080207079649
691,-0.0161477606743574,0.0114865386858583,-0.0176940616220236,-0.0093947984278202,-0.018730329349637,0.0215458851307631
692,-0.015907870605588,0.0090752840042114,-0.0175016447901726,-0.0085100214928388,-0.01935781724751,0.0193459205329418
693,-0.0149070098996162,0.0071999761275947,-0.0163975730538368,-0.007758064661175,-0.0192930344492197,0.0147997234016657
694,-0.0134678641334176,0.0060819289647042,-0.0154089760035276,-0.0079644927754998,-0.0191202908754349,0.0075849904678762
695,-0.0126189328730106,0.0055948090739548,-0.0157304145395756,-0.0098590133711695,-0.020140340551734,-0.0015301551902666
696,-0.012924250215292,0.005793625023216,-0.0173992533236742,-0.0119214858859777,-0.0227394830435514,-0.0092750201001763
697,-0.013852508738637,0.0068761915899813,-0.0192265491932631,-0.0116919633001089,-0.0253763701766729,-0.0120874531567097
698,-0.0146588766947389,0.0081389471888542,-0.0199669953435659,-0.0096895303577184,-0.0262361448258162,-0.0087069766595959
699,-0.0150477616116405,0.008543605916202,-0.0198422949761152,-0.0089965919032692,-0.0258147325366735,-0.0023689595982432
700,-0.0003334874636493,-0.0115058524534106,-0.0218161903321743,-0.0119859091937542,-0.0230557601898909,-0.0336175188422203
701,-0.0010533079039305,-0.0096076596528291,-0.0301044583320618,-0.0174588952213526,-0.0291267205029726,-0.0324297957122326
702,-0.0026373311411589,-0.0081292055547237,-0.0363485030829906,-0.0219084359705448,-0.0368105545639992,-0.0350522734224796
703,-0.0042421566322445,-0.0074308845214545,-0.0405983030796051,-0.0249720104038715,-0.0434309840202332,-0.0406070314347744
704,-0.005487663205713,-0.0078349346294999,-0.0427540317177773,-0.0251440815627575,-0.0478903204202652,-0.0473444163799286
705,-0.0069188587367534,-0.0084359617903828,-0.0435144193470478,-0.0220292899757624,-0.0526254437863827,-0.0525290854275227
706,-0.0085504176095128,-0.0081495866179466,-0.0449620634317398,-0.0182422790676355,-0.0586468987166882,-0.054218377918005
707,-0.0097095789387822,-0.0062908311374485,-0.0490904338657856,-0.014404758810997,-0.0646547377109528,-0.0529602877795696
708,-0.0107674170285463,-0.0022898009046912,-0.0555167309939861,-0.008704244159162,-0.0709846839308739,-0.0509867072105408
709,-0.0123248361051083,0.0024295686744153,-0.0621660575270653,-0.0019962238147854,-0.07802914083004,-0.0501228347420692
710,-0.014230172149837,0.0055497349239885,-0.0683705806732178,0.0038718031719327,-0.0853506773710251,-0.0492631830275059
711,-0.0158477835357189,0.0068418122828006,-0.0743784829974175,0.0077481153421104,-0.0920865461230278,-0.0479633361101151
712,-0.0165298581123352,0.007040649652481,-0.079769603908062,0.008848188444972,-0.0969974771142006,-0.0489911660552025
713,-0.0163778141140938,0.0063365623354911,-0.0841913819313049,0.0074604363180697,-0.100547686219215,-0.0543904155492783
714,-0.01578289270401,0.004844638518989,-0.0878626629710197,0.0035227872431278,-0.104594133794308,-0.0643313229084015
715,-0.0155582567676902,0.0035920045338571,-0.0916566923260689,-0.0025149341672658,-0.11046639084816,-0.0744202807545662
716,-0.0162190478295088,0.0040249046869576,-0.0954782292246819,-0.0079431906342506,-0.117050990462303,-0.0779432207345963
717,-0.0164987593889236,0.0057459324598312,-0.09807488322258,-0.0112235695123672,-0.121570624411106,-0.0762993469834328
718,-0.0157667119055986,0.0073759513907134,-0.0999145284295082,-0.013492819853127,-0.12411043792963,-0.074858658015728
719,-0.0147663755342364,0.0082517750561237,-0.10209783911705,-0.0155166387557983,-0.126458644866943,-0.0748659893870354
720,-0.0139792487025261,0.0086104189977049,-0.104571834206581,-0.0164525713771582,-0.129691779613495,-0.0748811140656471
721,-0.013985657133162,0.0096336379647254,-0.107915081083775,-0.0159441325813532,-0.134610891342163,-0.0727832913398743
722,-0.0148249045014381,0.0117087457329035,-0.112763181328774,-0.0155380936339498,-0.140192151069641,-0.069323793053627
723,-0.0159273482859135,0.0134520716965199,-0.11805997043848,-0.0170250814408064,-0.144940406084061,-0.068880133330822
724,-0.0171439368277788,0.0136016681790352,-0.122326627373695,-0.0208467692136765,-0.148891180753708,-0.0740808099508286
725,-0.0182139780372381,0.0125528052449226,-0.125416815280914,-0.0262809954583645,-0.152446195483208,-0.0826912522315979
726,-0.0189785845577717,0.0115517051890492,-0.128152951598167,-0.0321374833583832,-0.155786424875259,-0.0904807671904564
727,-0.0195204596966505,0.0112273544073105,-0.130657017230988,-0.0373328290879726,-0.158299133181572,-0.0953957885503769
728,-0.0193762760609388,0.011226000264287,-0.132146492600441,-0.0413880199193954,-0.15875418484211,-0.0984077230095863
729,-0.0183207560330629,0.0110988700762391,-0.132381215691566,-0.0443211309611797,-0.157231166958809,-0.100662142038345
730,-0.016898101195693,0.0109270000830293,-0.131815105676651,-0.046020295470953,-0.155123025178909,-0.101997315883636
731,-0.015804735943675,0.010966744273901,-0.130919903516769,-0.0463868789374828,-0.15381646156311,-0.102221556007862
732,-0.0150683764368296,0.0111777884885669,-0.129919335246086,-0.0462288893759251,-0.153387263417244,-0.102546222507954
733,-0.0140200303867459,0.0108639700338244,-0.128342151641846,-0.0467167049646378,-0.15208500623703,-0.104962959885597
734,-0.0125882215797901,0.0092569720000028,-0.125902578234673,-0.0483134724199772,-0.14859327673912,-0.109831623733044
735,-0.0112543581053615,0.0072449748404324,-0.123245730996132,-0.0503439269959927,-0.143492579460144,-0.11476331949234
736,-0.0104589201509953,0.006418852135539,-0.1212467700243,-0.051456905901432,-0.138286754488945,-0.116448931396008
737,-0.0102341957390308,0.0064901700243353,-0.120320163667202,-0.0515622869133949,-0.133844256401062,-0.114650160074234
738,-0.0097568733617663,0.0065138153731823,-0.119766540825367,-0.0515401475131512,-0.129883348941803,-0.111701540648937
739,-0.0087069766595959,0.0065091736614704,-0.11855474114418,-0.0514456667006016,-0.126288071274757,-0.108401156961918
740,-0.0075593697838485,0.0067175473086535,-0.115954503417015,-0.0502010025084019,-0.122727282345295,-0.103631682693958
741,-0.0063569066114723,0.00661974074319,-0.111277721822262,-0.0472202487289906,-0.117663078010082,-0.0977491736412048
742,-0.0049425926990807,0.0056251008063554,-0.105067938566208,-0.0437976382672787,-0.110523708164692,-0.0926709696650505
743,-0.0031605204567313,0.0043037515133619,-0.0989889800548553,-0.0415213145315647,-0.102753698825836,-0.0885737016797066
744,-0.0012339395470917,0.0035869642160832,-0.0939925909042358,-0.0409143567085266,-0.0955800563097,-0.0846570134162903
745,-0.0002063530264422,0.0046632047742605,-0.0901668444275856,-0.0410991348326206,-0.0893926993012428,-0.0805870741605759
746,-0.0004143409896641,0.0079180095344781,-0.0870295539498329,-0.0406004525721073,-0.0841013640165329,-0.0769534334540367
747,-0.0011280011385679,0.0113910203799605,-0.0839072242379189,-0.0389389991760254,-0.0793296843767166,-0.0745313763618469
748,-0.0023196330294013,0.0132027147337794,-0.0807866826653481,-0.0361557751893997,-0.0753953978419304,-0.0719328373670578
749,-0.0038630703929811,0.0133616831153631,-0.0771207958459854,-0.0320980437099934,-0.0717775821685791,-0.0671042203903198
750,-0.0045979991555213,0.0120118223130703,-0.0721353441476822,-0.0277817938476801,-0.0669975280761719,-0.0611564144492149
751,-0.0041560805402696,0.0092121958732605,-0.066904105246067,-0.0251085329800844,-0.0613834075629711,-0.0567019954323769
752,-0.0031729992479085,0.0065746363252401,-0.0629402473568916,-0.0242532584816217,-0.0561968013644218,-0.0536749847233295
753,-0.0022749602794647,0.0055998414754867,-0.0604341924190521,-0.0238827094435692,-0.0516830831766129,-0.0505637712776661
754,-0.0017026353161782,0.0057571395300328,-0.0586337894201279,-0.0233490839600563,-0.0473455563187599,-0.0474746339023113
755,-0.0009849885245785,0.0056461496278643,-0.0563536249101162,-0.0228232238441706,-0.042072519659996,-0.0457995943725109
756,0.0001048162521328,0.0047914441674947,-0.0529607012867928,-0.0220118425786495,-0.0354736521840096,-0.044998936355114
757,0.0008175469120033,0.0041985362768173,-0.0489636436104774,-0.0200980622321367,-0.0291713662445545,-0.0424232557415962
758,0.0007007040549069,0.0040767979808151,-0.0451559387147427,-0.0172460563480854,-0.0243727080523968,-0.0380273535847664
759,0.0005045306752435,0.0032577347010374,-0.0414354987442493,-0.0145696923136711,-0.0200462006032467,-0.0348000526428223
760,0.0009230316500179,0.001594110392034,-0.0371682941913605,-0.0123071325942874,-0.0150530925020576,-0.0336978435516357
761,0.0014973860234022,-3.62877435691189e-05,-0.0329738520085812,-0.0104843433946371,-0.0098048532381653,-0.0328591205179691
762,0.0017214469844475,-0.0012318408116698,-0.0298390369862318,-0.009527001529932,-0.0052630524151027,-0.0310529675334692
763,0.0017323821084573,-0.0020834321621805,-0.0276112202554941,-0.0089104585349559,-0.0020438213832676,-0.0284790378063917
764,0.0014917497755959,-0.0019529203418642,-0.0259203501045704,-0.0077016321010887,-0.0002586280170362,-0.0240611396729946
765,0.0008094314835034,-0.0003729011805262,-0.0240185391157866,-0.00565773434937,0.0009798026876524,-0.0167357139289379
766,-0.0001455576712032,0.0014618197456002,-0.0210662521421909,-0.0032010800205171,0.0027537140995264,-0.009014424867928
767,-0.0009093658300116,0.0020537243690341,-0.0172910448163748,-0.0010248079197481,0.0054852124303579,-0.0040852529928088
768,-0.001084268791601,0.0016228083986789,-0.0133047541603446,0.0007734465762041,0.0094088334590196,-0.0016479430487379
769,-0.0011293329298496,0.0019606379792094,-0.0098390495404601,0.0026964293792843,0.0137915415689349,0.0009413490188308
770,-0.0016083366936072,0.0035017693880945,-0.0074714636430144,0.0048078456893563,0.0174699276685715,0.0044088433496654
771,-0.0021478203125298,0.0048759276978671,-0.0060613774694502,0.0066322539933025,0.0201563164591789,0.0074094110168516
772,-0.0024179748725146,0.0056284572929143,-0.0046962266787886,0.0083548864349722,0.0222684890031815,0.010515864007175
773,-0.0023987155873328,0.0054902518168091,-0.0018073281971737,0.0103771854192019,0.025178911164403,0.0136105325073004
774,-0.0022053977008909,0.0038893066812306,0.0028969699051231,0.012215118855238,0.0293450616300106,0.0142872501164675
775,-0.0021791735198348,0.0024818750098347,0.0074785542674362,0.0139044914394617,0.0328717492520809,0.0143545679748058
776,-0.002276154467836,0.0029621033463627,0.0102421278133988,0.0157100688666105,0.0345812849700451,0.0168697871267796
777,-0.0022157246712595,0.0047267125919461,0.0116310510784388,0.0172513704746962,0.0356344021856785,0.0203528311103582
778,-0.0020509886089712,0.0071324021555483,0.0131282489746809,0.0190165545791388,0.037412203848362,0.0235510859638453
779,-0.0016614043852314,0.0092444671317935,0.0156400762498379,0.0218025036156178,0.0406200662255287,0.027792252600193
780,-0.0008402921957895,0.0092139188200235,0.0189523678272963,0.0250000171363354,0.0454737059772015,0.032988253980875
781,0.0001532034075353,0.0063943779096007,0.0221819113940001,0.0272298287600279,0.0510164462029934,0.036233227699995
782,0.0010005133226513,0.0022698733955621,0.0247536916285753,0.0282424949109554,0.0553743354976177,0.0358514450490475
783,0.0012940325541421,-0.0011845716508105,0.0267422422766685,0.0291849337518215,0.0576186589896679,0.0336819067597389
784,0.0009641637443564,-0.0031920678447932,0.0286086518317461,0.0306678246706724,0.0587720684707165,0.0319556519389153
785,0.0006040502921678,-0.0042926068417727,0.0305409450083971,0.0320061706006527,0.0600527040660381,0.0309088751673698
786,0.00104885478504,-0.0055341264232993,0.0327802412211895,0.0327530615031719,0.0622770227491856,0.0296249072998762
787,0.0028990758582949,-0.0073281307704746,0.0360258854925632,0.0335071384906769,0.0664604976773262,0.0283886305987835
788,0.0052530569955706,-0.0090717608109116,0.0398748442530632,0.0348473414778709,0.0718891769647598,0.0292248241603374
789,0.0068919095210731,-0.0098680146038532,0.0431901477277279,0.0365668311715126,0.0768384486436844,0.0323710329830647
790,0.0083909584209322,-0.0095332544296979,0.0460423603653908,0.0379975512623787,0.0813819989562035,0.0347493439912796
791,0.0105587271973491,-0.0088236201554536,0.0487871915102005,0.0383638478815556,0.0861057788133621,0.0333611480891705
792,0.0122417947277427,-0.0079638278111815,0.0506685152649879,0.0377591401338577,0.0894748494029045,0.0301935411989689
793,0.0120723554864526,-0.0065445336513221,0.0512622557580471,0.0373431369662285,0.0900555402040482,0.0300446748733521
794,0.0110692344605923,-0.0055138077586889,0.0518134944140911,0.0378729924559593,0.0900810733437538,0.0322482958436012
795,0.0103876227512956,-0.0058338544331491,0.0530883446335793,0.0392349176108837,0.0913589745759964,0.033832598477602
796,0.009612931869924,-0.0067658452317118,0.0540483109652996,0.0407845862209797,0.0920767560601234,0.0356950387358665
797,0.0085121057927608,-0.0070969057269394,0.053773857653141,0.0418603047728539,0.0906504765152931,0.0389948971569538
798,0.0073318602517247,-0.0061323782429099,0.0526846647262573,0.0422080866992474,0.0877825617790222,0.0429625138640404
799,0.0063895690254867,-0.0048332223668694,0.0522238314151764,0.0418169498443604,0.0857656449079514,0.0455878265202045
800,0.0058388607576489,-0.004740176256746,0.0536497011780739,0.0408633016049862,0.0866395756602287,0.0452403426170349
801,0.0054900883696973,-0.0048860670067369,0.0565155372023582,0.0402179025113583,0.0898731052875519,0.0445857644081116
802,0.0050437189638614,-0.0034078657627105,0.0591349117457867,0.0411394089460373,0.0931742414832115,0.0475076735019684
803,0.0045929527841508,-0.0011918374802917,0.0606151781976223,0.0433828383684158,0.0952940136194229,0.0520406663417816
804,0.0048176716081798,-0.0009949655504897,0.0615642741322517,0.0453689582645893,0.0968504324555397,0.0540292784571648
805,0.0060566305182874,-0.0037975418381393,0.0629027634859085,0.0467231497168541,0.0985723882913589,0.0539062321186066
806,0.0075323856435716,-0.0071029434911906,0.0645342543721199,0.0480593182146549,0.0996664091944695,0.0541959628462791
807,0.0082096364349126,-0.007598256226629,0.0654080435633659,0.049067672342062,0.0992201343178749,0.055449016392231
808,0.0084257647395134,-0.0056025348603725,0.0653378143906593,0.0492314770817757,0.0983434692025185,0.056581798940897
809,0.0087371002882719,-0.0041362373158335,0.0649770423769951,0.0484021529555321,0.0980202257633209,0.0564048364758492
810,0.008528291247785,-0.0041401414200663,0.0639406070113182,0.046444408595562,0.0971462652087212,0.0549798794090748
811,0.0076008117757737,-0.0047549991868436,0.0620559379458427,0.0439569279551506,0.0954080820083618,0.0530050583183765
812,0.0064858309924602,-0.0058798836544156,0.0604055151343346,0.041718527674675,0.0940639227628708,0.0510146208107471
813,0.0055713863112032,-0.0075367535464465,0.0597332827746868,0.0397610329091549,0.0936446264386177,0.0494595170021057
814,0.0051240292377769,-0.0092552797868847,0.060046099126339,0.0381450578570366,0.0937309637665749,0.0483912751078606
815,0.0052414434030652,-0.0106238843873143,0.0613110922276974,0.0373685024678707,0.0941811203956604,0.0478609763085842
816,0.005599285941571,-0.0111826760694385,0.0628447830677032,0.0374674238264561,0.0945975854992867,0.0478922724723816
817,0.0056519657373428,-0.0106066064909101,0.0635857060551643,0.0379174016416073,0.0941670909523964,0.0483697764575481
818,0.0054943757131695,-0.009048162959516,0.0637715235352516,0.0384429693222046,0.0932832732796669,0.049137506633997
819,0.0059286672621965,-0.0070187575183808,0.0643171519041061,0.038617979735136,0.0930201262235641,0.0489563979208469
820,0.0069554704241454,-0.0049606887623667,0.0652027800679207,0.0381671413779259,0.0933815613389015,0.0472888089716434
821,0.0073096086271107,-0.0029184364248067,0.0656896680593491,0.0377208217978477,0.0936460345983505,0.0464871972799301
822,0.0064482158049941,-0.0007836113218218,0.0655511692166328,0.0378437116742134,0.0934267863631248,0.0488222427666187
823,0.0055052377283573,0.0007773732650093,0.0654025077819824,0.0382388085126877,0.0929751023650169,0.0525246299803257
824,0.0055203298106789,0.0004910184652544,0.0659680962562561,0.0383469685912132,0.0928365513682365,0.0535510703921318
825,0.0065068053081631,-0.0013636784860864,0.0676337704062462,0.0385619029402733,0.0936701223254204,0.0515092425048351
826,0.0081439958885312,-0.003068728139624,0.069930337369442,0.0391994304955006,0.0959632098674774,0.0493394695222378
827,0.0093034757301211,-0.0030589746311307,0.0710053816437721,0.0397462919354439,0.0976236537098885,0.0496662855148315
828,0.0091692646965384,-0.0018071982776746,0.0701906159520149,0.0401758849620819,0.0967683792114258,0.05247613042593
829,0.0090105971321463,-0.0014204086037352,0.0696191266179085,0.0406418666243553,0.096121683716774,0.0554538294672966
830,0.0096247605979442,-0.001537641393952,0.0699693337082863,0.0406128764152527,0.0971162840723991,0.0574859753251076
831,0.0101265870034695,-0.0006415765965357,0.0692932978272438,0.0392781496047974,0.0971059799194336,0.0580457001924515
832,0.0100714704021811,0.0008061730186454,0.0670682862401009,0.0370573662221432,0.0945821478962898,0.0571078099310398
833,0.0094583537429571,0.002204550197348,0.0645006373524666,0.0353121943771839,0.0898681804537773,0.056230541318655
834,0.0089068450033664,0.0034184961114078,0.0631849840283394,0.0343303307890892,0.0858398079872131,0.0555519163608551
835,0.0096826897934079,0.0039361058734357,0.0638916119933128,0.0333295091986656,0.086686447262764,0.0533975102007389
836,0.0116276601329446,0.0035573851782828,0.0653754249215126,0.0319007150828838,0.0914803221821785,0.0496316812932491
837,0.0134641919285059,0.0022568132262677,0.0664655044674873,0.0304456129670143,0.0962052121758461,0.0459254458546638
838,0.0144286565482616,0.0001051954095601,0.0671412348747253,0.0296108312904835,0.0992360562086105,0.0440197549760342
839,0.0145553983747959,-0.0018228159751743,0.0676125660538673,0.0297372043132782,0.100530624389648,0.0441284291446209
840,0.0145059563219547,-0.0028182703536003,0.0679953843355179,0.0301059875637293,0.100629478693008,0.0437089391052723
841,0.0146162137389183,-0.003336303634569,0.0680648759007454,0.0297292340546846,0.100039042532444,0.0411487258970737
842,0.0144584001973271,-0.0041361520998179,0.0676796361804008,0.0286767035722733,0.0984930843114853,0.038207370787859
843,0.0141948433592916,-0.0054274122230708,0.0669452399015427,0.0274048279970884,0.0962616354227066,0.0367385558784008
844,0.014573996886611,-0.0058321114629507,0.0658794119954109,0.0263287089765072,0.0943567901849747,0.0378508865833282
845,0.015167891047895,-0.0044960053637623,0.0647062361240387,0.02595279738307,0.0930543020367622,0.04142240062356
846,0.0150119634345174,-0.0029193249065429,0.0638507604598999,0.0260212253779173,0.092043861746788,0.0440455637872219
847,0.0139420833438635,-0.0027184872888028,0.0634072422981262,0.0256061963737011,0.0911766439676285,0.0426016449928284
848,0.011797291226685,-0.0037298412062227,0.0629018917679787,0.0244524125009775,0.0900323987007141,0.0387987792491913
849,0.0083669321611523,-0.004516642075032,0.0620511434972286,0.023385850712657,0.0876918137073517,0.0368318632245064
850,0.0046652904711663,-0.0036234764847904,0.0607289038598537,0.0229157954454422,0.0839790850877762,0.0382065363228321
851,0.0030924491584301,-0.0015990394167602,0.0587471649050713,0.0218414850533009,0.0817404389381409,0.0397216230630875
852,0.0047558499500155,-0.0001264304446522,0.0568860210478306,0.0200080927461386,0.0831364765763283,0.0393183343112469
853,0.0075696893036365,0.0001195908771478,0.0560690574347973,0.0193597041070461,0.085406094789505,0.039179764688015
854,0.0090262424200773,-0.0004769489460159,0.0560455434024334,0.0207163449376822,0.08516675978899,0.0410809740424156
855,0.0088593382388353,-0.0003770944022107,0.0560073181986809,0.0228521730750799,0.0823605507612228,0.0441636703908443
856,0.0082761067897081,0.0005751639255322,0.0553967654705048,0.023630490526557,0.0794707089662552,0.0458016842603683
857,0.0079028019681572,0.0009412084473297,0.054232157766819,0.0229962412267923,0.0774908363819122,0.0455223247408867
858,0.0074817165732383,0.0002974032831843,0.053369153290987,0.023235235363245,0.0757338777184486,0.0448558479547501
859,0.0071764187887311,-0.0011949035106226,0.0533517450094223,0.0244969855993986,0.0753882378339767,0.0434744022786617
860,0.0070806760340929,-0.0029194043017923,0.0528768412768841,0.0242263227701187,0.0763308554887772,0.0403335317969322
861,0.0064431219361722,-0.004216921981424,0.0510397739708424,0.0213996972888708,0.0760514065623283,0.0357105433940887
862,0.0060015572234988,-0.0061796144582331,0.0504316389560699,0.0173620898276567,0.0768097117543221,0.0291048493236303
863,0.0066905943676829,-0.0090339370071888,0.0529093109071255,0.0142485732212663,0.0808235853910446,0.0217567402869463
864,0.0065943016670644,-0.0096241300925612,0.0558825396001339,0.0145744988694787,0.0827075093984604,0.0195294283330441
865,0.0055580688640475,-0.0071756988763809,0.0572334080934525,0.0180016774684191,0.0815744549036026,0.02358621917665
866,0.0062967957928776,-0.004961637314409,0.0574979111552238,0.0210812278091908,0.0831777006387711,0.0286714620888233
867,0.0087388306856155,-0.0044785658828914,0.0573800317943096,0.0225051511079073,0.0868556424975395,0.0320844985544682
868,0.0103502199053764,-0.0046376506797969,0.0569833144545555,0.0234761945903301,0.0878297835588455,0.0348656103014946
869,0.0101104639470577,-0.0040987315587699,0.0559981726109982,0.0241536013782024,0.0848265662789345,0.0376999005675316
870,0.0090165194123983,-0.002655514748767,0.0543525256216526,0.0234942156821489,0.0795091167092323,0.0388738103210926
871,0.0088357208296656,-0.0014539833646267,0.0526973567903042,0.0210554338991642,0.0749707370996475,0.0368372052907944
872,0.0098413601517677,-0.0006760104442946,0.0513160564005375,0.0179971121251583,0.0725705251097679,0.0343235433101654
873,0.010914508253336,0.0002451723557896,0.049962293356657,0.0158594641834497,0.0709904059767723,0.0343845933675766
874,0.0120940720662475,0.0003042398602701,0.0491843298077583,0.0145885795354843,0.0703628286719322,0.0349742732942104
875,0.0135541595518589,-0.0008013363694772,0.0493245832622051,0.0136645147576928,0.0710379183292389,0.0338973142206669
876,0.0144234886392951,-0.0017609297065064,0.0493212789297104,0.0131439091637731,0.0708753243088722,0.0321156978607178
877,0.0143286222591996,-0.0023394187446683,0.0485843122005463,0.0131065296009183,0.068923108279705,0.030533691868186
878,0.013996122404933,-0.0039067403413355,0.0481868833303452,0.0134012922644615,0.0673711076378822,0.0285090133547783
879,0.0137216057628393,-0.0069029075093567,0.0488313026726246,0.0138856042176485,0.0677006468176842,0.0264888722449541
880,0.0127398688346148,-0.0089754993095994,0.0487769693136215,0.0140328146517277,0.0676978826522827,0.0260736849159002
881,0.0110335573554039,-0.0086445221677422,0.0462070852518082,0.0127937840297818,0.0648652613162994,0.0262319445610046
882,0.0096343550831079,-0.0075950035825371,0.0425743460655212,0.0107414964586496,0.0606791190803051,0.0253046378493309
883,0.0089920684695243,-0.0072853537276387,0.0400035865604877,0.0091618876904249,0.0578804537653923,0.0235900972038507
884,0.008649188093841,-0.0067911469377577,0.038112111389637,0.0080235432833433,0.0561376698315144,0.0224903523921967
885,0.008016861975193,-0.0050381175242364,0.0357545167207718,0.0070780226960778,0.0532829761505127,0.0226045809686184
886,0.0069122812710702,-0.002757087117061,0.0330221205949783,0.0063698645681142,0.0485000088810921,0.0224860943853855
887,0.0049597672186791,-0.0006373270298354,0.0303350482136011,0.0063570998609066,0.0409155189990997,0.0223719105124474
888,0.0015676750335842,0.0014010329032316,0.0279736742377281,0.0073193893767893,0.0287855640053749,0.0237840265035629
889,-0.0022309683263301,0.0022977113258093,0.0266395397484303,0.0077150305733084,0.0155366351827979,0.023810213431716
890,-0.0030952501110732,0.0006614456651732,0.0266429595649242,0.0057651316747069,0.0125785702839494,0.019820423796773
891,0.0002228792727692,-0.0023890330921858,0.0274020005017519,0.002588844159618,0.0241926200687885,0.016011917963624
892,0.0043121599592268,-0.0044833058491349,0.0281912013888359,0.0006009536446072,0.038846455514431,0.0159674156457186
893,0.0065802400931716,-0.0049257762730121,0.0289329867810011,0.0005072987405583,0.0473381839692593,0.017987959086895
894,0.0074516488239169,-0.0045724380761385,0.0295135136693716,0.0016950916033238,0.0505404137074947,0.0201437175273895
895,0.0080156540498137,-0.0040916451252996,0.0293960180133581,0.0032175846863538,0.0509879998862743,0.0215971805155277
896,0.0091657917946577,-0.0028852422256022,0.0287602208554745,0.004053896293044,0.0505718141794205,0.0221326500177383
897,0.0105921803042293,-0.000691897876095,0.0282143466174603,0.0037339059635996,0.0500830300152302,0.0223515443503857
898,0.0114768063649535,0.0010396941797807,0.0279299560934305,0.0028568278066813,0.0490392334759235,0.0220974422991276
899,0.0115863643586636,0.0010311262449249,0.0276644062250853,0.0025563766248524,0.0469441935420036,0.0208207983523607
900,0.0109735354781151,3.09003225993365e-05,0.0272677913308144,0.0033333909232169,0.0437712594866753,0.019533134996891
901,0.0098787751048803,-0.0006008039345033,0.0269218403846025,0.0044505111873149,0.0400822386145592,0.0190064385533333
902,0.0086654117330908,-0.0008266364457085,0.0267499387264252,0.0048674591816961,0.0371593646705151,0.0181070454418659
903,0.0079539688304066,-0.001426906674169,0.0268576126545668,0.0041508097201585,0.0366090796887875,0.0158849097788334
904,0.0080416481941938,-0.0027630194090306,0.0271576456725597,0.0022582337260246,0.0386037789285183,0.0125592686235905
905,0.0078484583646059,-0.0040361457504332,0.0263931695371866,-0.0005731040146201,0.0403258763253689,0.009482811205089
906,0.0061860023997724,-0.0041968459263443,0.0232987366616726,-0.0034691414330154,0.0387095473706722,0.0084995459765195
907,0.0032374879810959,-0.0035376870073378,0.0187689792364836,-0.0051966216415166,0.0337287746369839,0.0097606070339679
908,0.0001264540478587,-0.0032724917400628,0.014960328117013,-0.0055676666088402,0.0276267509907484,0.0113341808319092
909,-0.0020247111096978,-0.0041452995501458,0.0132653396576643,-0.005491747520864,0.0227179881185293,0.0119822891429067
910,-0.0026526660658419,-0.0060070594772696,0.0134331285953522,-0.0060256589204073,0.019997650757432,0.0120445610955358
911,-0.0016204830026254,-0.0081553077325224,0.0146672036498785,-0.0068036522716283,0.019562516361475,0.0127260582521558
912,0.000192091698409,-0.0094323698431253,0.0159491300582886,-0.0067344615235924,0.0204766038805246,0.0143935307860374
913,0.0013716686517,-0.0093392385169863,0.0160045940428972,-0.0065425811335444,0.0212951805442572,0.0150747010484338
914,0.0019673048518598,-0.009018437936902,0.015519866719842,-0.0070674032904207,0.0225056484341621,0.0134067069739103
915,0.0028916632290929,-0.0093933688476681,0.0163116380572319,-0.0075343907810747,0.0250348467379808,0.0102660562843084
916,0.0039550745859742,-0.0099838832393288,0.0182905998080969,-0.0070208893157541,0.0274357292801142,0.0077191237360239
917,0.0041018561460077,-0.0101271606981754,0.0194256082177162,-0.0061953039839863,0.0273181442171335,0.0067104003392159
918,0.0028458163142204,-0.0094358110800385,0.018462186679244,-0.0063891387544572,0.0242166984826326,0.0058547556400299
919,0.0005816494813188,-0.0075014163739979,0.0161445923149586,-0.0072058229707181,0.0196617878973484,0.0053390506654977
920,-0.0018454305827617,-0.0048124073073267,0.0134849110618234,-0.0077140256762504,0.0154050653800368,0.0066739791072905
921,-0.003663238370791,-0.0033716135658323,0.0109949791803956,-0.008724027313292,0.0127014108002186,0.0073465588502585
922,-0.0047748703509569,-0.004189892206341,0.0088686468079686,-0.0105242077261209,0.0113310739398003,0.0048542185686528
923,-0.0054020937532186,-0.0061242738738656,0.0070070778019726,-0.0121734384447336,0.0097769480198621,0.0001920398790389
924,-0.0055000693537294,-0.0081273447722196,0.0056355562992394,-0.0139317000284791,0.0077240886166691,-0.0060428446158766
925,-0.0049844072200357,-0.0093209231272339,0.0052348459139466,-0.0157372746616602,0.0064005707390606,-0.0114229237660766
926,-0.0040352512151002,-0.0090244496241211,0.0058622513897717,-0.0162832476198673,0.0062614902853965,-0.0118757383897901
927,-0.0030527682974934,-0.0074906507506966,0.0070220963098108,-0.0150823649019003,0.0065493052825331,-0.00679716700688
928,-0.0025004995986819,-0.0054445206187665,0.0075402767397463,-0.0133194960653782,0.0064677312038838,0.0002342804364161
929,-0.0022920779883861,-0.0043855658732354,0.006977398879826,-0.0124564524739981,0.0061894385144114,0.0040033501572907
930,-0.0017299713799729,-0.0055307280272245,0.0064503005705773,-0.0128263011574745,0.0071536959148943,0.0022593429312109
931,-0.0008452853071503,-0.0080623561516404,0.0064177210442721,-0.0140163693577051,0.0094184083864092,-0.0023868726566433
932,-0.0005930288461968,-0.0101154334843159,0.0059955762699246,-0.0153631838038564,0.0103256003931165,-0.0059713181108236
933,-0.0011449422454461,-0.0105060366913676,0.0048609599471092,-0.0160788055509329,0.0082096438854932,-0.0067344941198825
934,-0.0015828491887077,-0.0092069925740361,0.0038779960013926,-0.015634823590517,0.0049056634306907,-0.0052583022043108
935,-0.0013025905936956,-0.0073259156197309,0.0037896146532148,-0.0146665666252375,0.00334028666839,-0.0039852997288107
936,-0.0004380578175187,-0.005818641744554,0.0044440533965826,-0.0145735535770655,0.0043824608437717,-0.0047991466708481
937,0.0003713283222168,-0.0048352684825658,0.0050494270399212,-0.0155882965773344,0.006469021551311,-0.0066194436512887
938,0.0007726944168098,-0.0042328620329499,0.0052223880775272,-0.0166441295295954,0.0079388776794076,-0.0076556932181119
939,0.0009729891316965,-0.0034134038724005,0.0053873779252171,-0.0167725142091513,0.0083961086347699,-0.0066942078992724
940,0.0010705142049118,-0.0022224383428692,0.0056990855373442,-0.0163868721574545,0.0079515306279063,-0.0045585865154862
941,0.0009560788748785,-0.0013334492687135,0.0055360323749482,-0.0165744945406914,0.0066185561008751,-0.0042886133305728
942,0.0003362721181474,-0.0009959017625078,0.0044671520590782,-0.0167321544140577,0.0042325132526457,-0.0061835823580622
943,-0.0006002670852467,-0.0012464493047446,0.0032097664661705,-0.015649102628231,0.0015828512841835,-0.0081179421395063
944,-0.001590370782651,-0.0019260725239291,0.0019724047742784,-0.0139353340491652,-0.0006020964938215,-0.0091215623542666
945,-0.0033625562209636,-0.0021133050322532,-0.0003451395605225,-0.013315150514245,-0.0034670133609324,-0.0086050992831587
946,-0.0055292514152824,-0.0019002658082172,-0.0028190372977405,-0.0146004790440202,-0.0062414789572358,-0.0067064180038869
947,-0.0065838769078254,-0.0021865046583116,-0.0035289898514747,-0.0176594685763121,-0.0070928605273366,-0.0061448537744581
948,-0.0075824721716344,-0.0022764261811971,-0.0037673392798751,-0.0216796230524778,-0.0092675583437085,-0.00806884188205
949,-0.009485475718975,-0.0016344492323696,-0.0051366705447435,-0.0249910578131676,-0.0141563024371862,-0.0102377850562334
950,-0.0096152024343609,-0.0017619776772335,-0.0061113866977393,-0.027050144970417,-0.0153941037133336,-0.0132224028930068
951,-0.0064458502456545,-0.0036885323934257,-0.0051760347560048,-0.0288088750094175,-0.0099587151780724,-0.0193242821842432
952,-0.0023133223876357,-0.0061724642291665,-0.0035251502413302,-0.029952272772789,-0.0029418803751468,-0.0256813820451498
953,0.0003320946125313,-0.0069297379814088,-0.0026768958196044,-0.0283013209700584,0.0007515799370594,-0.0259383246302605
954,0.0013419880997389,-0.0050035757012665,-0.0027211739215999,-0.0237712878733873,0.000895063043572,-0.019179904833436
955,0.0019787943456322,-0.0019231660990044,-0.0031361042056232,-0.0195667669177055,0.0004774354165419,-0.0118231950327754
956,0.0029337187297642,-0.0001416354934917,-0.0032947431318461,-0.0176849793642759,0.0017633469542488,-0.0092302402481436
957,0.0035856768954545,-0.0001600139657966,-0.0033213342539966,-0.0170232765376568,0.0032596443779766,-0.0100170876830816
958,0.003307172562927,-0.0003285258717369,-0.0039930157363414,-0.0163280889391899,0.0024263975210487,-0.0101049626246095
959,0.0023702541366219,0.0001748637587297,-0.0052728964947164,-0.0157013460993767,-0.0007863282808102,-0.0082316193729639
960,0.0014461782993748,0.0002368915302213,-0.0062189786694943,-0.0157209001481533,-0.0041797333396971,-0.0070821717381477
961,0.0006457728450186,-0.0006438898271881,-0.0065721105784177,-0.016669325530529,-0.0061786998994648,-0.0091830631718039
962,-0.00029276611167,-0.0007918362971395,-0.0070287785492837,-0.0176747795194387,-0.0073303030803799,-0.0117647470906377
963,-0.0013007331872358,0.000827026378829,-0.0079716481268405,-0.0176213178783655,-0.0082585848867893,-0.0113735059276223
964,-0.0022041455376893,0.0028637060895562,-0.009261823259294,-0.0170308407396078,-0.0090338168665766,-0.0095490040257573
965,-0.0030425384175032,0.0039452970959246,-0.0107690254226327,-0.017130371183157,-0.0101226475089788,-0.0090344976633787
966,-0.003907339181751,0.004191162995994,-0.012293522246182,-0.0177880618721247,-0.0118110897019506,-0.0094178393483161
967,-0.0048720142804086,0.0045198891311883,-0.0139158153906465,-0.0183221250772476,-0.01443284843117,-0.0091512631624937
968,-0.006111669819802,0.004950818605721,-0.0159259047359228,-0.0188288316130638,-0.018068827688694,-0.0089613264426589
969,-0.0072799334302544,0.0043209688737988,-0.0177376158535481,-0.0194412842392921,-0.0211716592311859,-0.0099115213379263
970,-0.0077778431586921,0.0026029553264379,-0.0190092772245407,-0.0204425491392612,-0.0224154908210039,-0.0112129412591457
971,-0.0075229434296488,0.0006026714108884,-0.0201273709535599,-0.0221732724457979,-0.021666057407856,-0.0119367716833949
972,-0.0064956219866871,-0.0015527226496487,-0.0206241570413113,-0.0239984076470137,-0.0190814137458801,-0.012459134683013
973,-0.0056873713620007,-0.0025374162942171,-0.0202599689364433,-0.0246105454862118,-0.0166874043643475,-0.0117211099714041
974,-0.00660867895931,-0.0006453032256104,-0.0194777529686689,-0.023137042298913,-0.0171313025057316,-0.0077008553780615
975,-0.0088346833363175,0.0031450849492102,-0.0184877086430788,-0.0200983937829733,-0.020099675282836,-0.001858931267634
976,-0.0107517689466476,0.0068135885521769,-0.0179900862276554,-0.0170942731201649,-0.0229892153292894,0.0029230788350105
977,-0.0113013340160251,0.0091412356123328,-0.0182606726884842,-0.0150745427235961,-0.0237548686563969,0.0036894355434924
978,-0.0109004192054272,0.0093813529238104,-0.0187921226024628,-0.0129027282819152,-0.0234510619193316,-0.0009628514526411
979,-0.0111791016533971,0.0081665283069014,-0.0195283256471157,-0.0097072310745716,-0.0262194722890854,-0.0076558319851756
980,-0.013076851144433,0.0074282474815845,-0.0202748440206051,-0.0067917718552053,-0.0331680215895176,-0.0113239511847496
981,-0.0140619575977325,0.0069680432789027,-0.0204290151596069,-0.0065912441350519,-0.0355902537703514,-0.0120240058749914
982,-0.0116374641656876,0.0050753699615597,-0.0207091700285673,-0.010461600497365,-0.0288006756454706,-0.0128127736970782
983,-0.0081779640167951,0.0031270172912627,-0.0223945267498493,-0.016189943999052,-0.0222490355372429,-0.0122058382257819
984,-0.006102664861828,0.0024413510691374,-0.0243343003094196,-0.0210991930216551,-0.0205861516296864,-0.0094902450218796
985,-0.0053769764490425,0.0019774991087615,-0.0247022174298763,-0.0245858747512102,-0.0201078988611698,-0.0075157224200666
986,-0.0053221164271235,0.0014597262488678,-0.0235728900879622,-0.026327608153224,-0.0196309946477413,-0.0070881941355764
987,-0.0049034059047699,0.0006876388215459,-0.0218335036188364,-0.0265225619077683,-0.0189560726284981,-0.0076460181735456
988,-0.0038448057603091,-0.0003630931023508,-0.0202860832214355,-0.0259722806513309,-0.0175654496997595,-0.0085371006280183
