,AF3,AF4,Fp1,Fp2,AF7,AF8
0,-0.003504829481244,-0.0067765256389975,-0.0116040045395494,0.001545546692796,-0.0179679300636053,-0.0181660540401936
1,-0.0027119196020066,-0.006411715876311,-0.011485475115478,0.0014602016890421,-0.0170562714338303,-0.0146056888625026
2,-0.0026597785763442,-0.0043148025870323,-0.0128158424049616,-0.0022186257410794,-0.016629571095109,-0.0098813604563474
3,-0.0028854147531092,-0.0011832673335447,-0.0152493892237544,-0.0079439207911491,-0.0168165192008018,-0.0055007175542414
4,-0.0029349641408771,0.0014731216942891,-0.0177633073180914,-0.0133760264143348,-0.0163812767714262,-0.0028229602612555
5,-0.0029626577161252,0.0037359092384576,-0.0187458861619234,-0.0154726011678576,-0.0144964950159192,-0.0003364745061844
6,-0.0034013390541076,0.0063788248226046,-0.018459539860487,-0.0138560691848397,-0.0129416482523084,0.0029920963570475
7,-0.0040223207324743,0.0080803148448467,-0.0187699049711227,-0.0115264765918255,-0.0135792624205351,0.0035687703639268
8,-0.0042857355438172,0.0072479667142033,-0.0201187897473574,-0.0104720527306199,-0.0163802932947874,-0.0012483759783208
9,-0.0041462932713329,0.0043963775970041,-0.0210496578365564,-0.0103504471480846,-0.0199310779571533,-0.0083752833306789
10,-0.0042908387258648,0.0013977659400552,-0.0198628194630146,-0.0094991149380803,-0.0225627832114697,-0.0119712697342038
11,-0.0050772055983543,-0.0006372735952027,-0.016750568524003,-0.0071409619413316,-0.0233723577111959,-0.010801519267261
12,-0.0055264015682041,-0.0020015004556626,-0.0135694015771151,-0.0047361394390463,-0.0220309514552355,-0.0098897879943251
13,-0.0049381959252059,-0.0030771377496421,-0.0115213859826326,-0.0035790842957794,-0.0194827448576689,-0.0129772387444973
14,-0.0036904332228004,-0.0037730254698544,-0.0112813310697675,-0.0045200763270258,-0.0178208779543638,-0.019482059404254
15,-0.0020520319230854,-0.0040194964967668,-0.0134175298735499,-0.0085974130779504,-0.017407463863492,-0.026942377910018
16,-0.0006032421952113,-0.0039304150268435,-0.0176633652299643,-0.015032984316349,-0.0172263719141483,-0.0318611562252045
17,-0.0001044702949002,-0.0038794917054474,-0.0221745651215315,-0.0201816614717245,-0.0164640136063099,-0.0310236010700464
18,-0.0001207406821777,-0.0043358509428799,-0.0243996344506741,-0.021359832957387,-0.0143792349845171,-0.0256381724029779
19,0.0001531388406874,-0.0057314080186188,-0.0234005451202393,-0.0203568395227194,-0.0111888712272048,-0.0216432753950357
20,0.0005902035627514,-0.0078047467395663,-0.0203265659511089,-0.0194157063961029,-0.0087991384789347,-0.0216052047908306
21,0.0007265927270054,-0.0094703258946538,-0.0173481311649084,-0.0185715723782778,-0.0092324707657098,-0.0230533890426159
22,0.0001864878431661,-0.0091423587873578,-0.0161313340067863,-0.0179382562637329,-0.0129948938265443,-0.0231286007910967
23,-0.0014376608887687,-0.0055716563947498,-0.0166846588253975,-0.0177989359945059,-0.0195996444672346,-0.0200150702148676
24,-0.0034138059709221,-0.0004202780255582,-0.0174196381121874,-0.0178131833672524,-0.0264715310186148,-0.0154909519478679
25,-0.0043791225180029,0.0023006196133792,-0.0170008707791567,-0.0181893575936556,-0.0293260775506496,-0.0141193866729736
26,-0.0044055208563804,0.0005670629325322,-0.0162509959191084,-0.0202810242772102,-0.027175584807992,-0.018094927072525
27,-0.0045186253264546,-0.0026831119321286,-0.017163110896945,-0.0240210518240929,-0.0238587763160467,-0.0241716671735048
28,-0.0044769425876438,-0.0037268539890646,-0.0197004824876785,-0.027003850787878,-0.0219565220177174,-0.0288080945611
29,-0.0030439652036875,-0.0038026648107916,-0.0212200861424208,-0.0274800341576338,-0.0195214729756117,-0.0340921990573406
30,-0.0004247528559062,-0.0048746219836175,-0.0201661922037601,-0.0254006069153547,-0.0152191426604986,-0.0406106188893318
31,0.0014412231976166,-0.0048954230733215,-0.0181816071271896,-0.0212913323193789,-0.0116216903552413,-0.0422867648303509
32,0.000857287494,-0.0018159566679969,-0.0177692193537951,-0.0159881040453911,-0.0118626765906811,-0.035117045044899
33,-0.0016987707931548,0.0030245827510953,-0.0193652547895908,-0.0109533211216331,-0.0155946481972933,-0.0221954640001059
34,-0.0036632718984037,0.0067214621230959,-0.0212697815150023,-0.0087606376037001,-0.0188284460455179,-0.0108612654730678
35,-0.003434200072661,0.0078249750658869,-0.0220883227884769,-0.010664819739759,-0.019173514097929,-0.006322689820081
36,-0.0023787959944456,0.0072586988098919,-0.0221062526106834,-0.0138045279309154,-0.0194342005997896,-0.0059102135710418
37,-0.0023499634116888,0.006104627624154,-0.0218757875263691,-0.0147498669102788,-0.0218734890222549,-0.0057476325891912
38,-0.0032285109627991,0.0048469579778611,-0.0213471073657274,-0.0132056372240186,-0.0241604559123516,-0.0060092057101428
39,-0.0039565465413034,0.0039367885328829,-0.0206038486212492,-0.0110903130844235,-0.0242351870983839,-0.0071104140952229
40,-0.0039003004785627,0.002747300080955,-0.0193782318383455,-0.0101596070453525,-0.0224599558860064,-0.0091400668025016
41,-0.0028228997252881,0.0005096911918371,-0.0168013218790293,-0.0103948162868619,-0.0191290024667978,-0.0125880241394043
42,-0.0015820269472897,-0.0013143732212483,-0.013715879060328,-0.0109465103596449,-0.0157325174659491,-0.0165117401629686
43,-0.0015170127153396,-0.0013945449609309,-0.0123302983120084,-0.0118166469037533,-0.0149002326652408,-0.0195317175239325
44,-0.0027633616700768,-0.0007790132658556,-0.0133804241195321,-0.01305943261832,-0.0174385812133551,-0.020651226863265
45,-0.005219361744821,0.0002996144175995,-0.0164096746593714,-0.0140583254396915,-0.0224174503237009,-0.0179806407541037
46,-0.0082352086901664,0.0020920187234878,-0.0200059339404106,-0.014713104814291,-0.0272499453276396,-0.0126931732520461
47,-0.0098565872758626,0.0033322495874017,-0.0219311658293009,-0.0151271009817719,-0.0287704598158598,-0.0090510323643684
48,-0.0097211580723524,0.0029936111532151,-0.0214627608656883,-0.0148815959692001,-0.0268123243004084,-0.0091771641746163
49,-0.0094357887282967,0.0018766695866361,-0.0201888233423233,-0.0132509972900152,-0.0243586748838425,-0.011545293033123
50,-0.0095888115465641,0.0018950059311464,-0.0197265706956387,-0.0101525718346238,-0.0236509572714567,-0.0129059795290232
51,-0.0094990320503711,0.0027945281472057,-0.0199646316468716,-0.0076766642741859,-0.0240406263619661,-0.0133282197639346
52,-0.0089440960437059,0.0030696466565132,-0.0205227211117744,-0.0076417918317019,-0.0246786270290613,-0.0139938350766897
53,-0.0083409938961267,0.0026908917352557,-0.0214842725545168,-0.0090711712837219,-0.0261371117085218,-0.0134961912408471
54,-0.0076863756403327,0.0015520238084718,-0.022212628275156,-0.0107159642502666,-0.0278207343071699,-0.0122933331876993
55,-0.0068173962645232,0.0001727691269479,-0.0220023598521948,-0.0117961978539824,-0.0282260980457067,-0.0107383793219924
56,-0.0059809442609548,-0.0003715625207405,-0.0209632050246,-0.0115625020116568,-0.0268220510333776,-0.007918644696474
57,-0.0050484966486692,-0.0010003399802371,-0.0192943308502436,-0.0103125460445881,-0.0236772578209639,-0.0062206778675317
58,-0.0040065017528832,-0.0018401980632916,-0.0178913753479719,-0.008930861018598,-0.0209900382906199,-0.0069992472417652
59,-0.0037487216759473,-0.0013509313575923,-0.0181801225990057,-0.0085164010524749,-0.0217207688838243,-0.0079546216875314
60,-0.0042297053150832,-0.0002843780675902,-0.0200356282293797,-0.0104282796382904,-0.0248495619744062,-0.0086984680965542
61,-0.0041249771602451,-0.0001540757511975,-0.0219789985567331,-0.0145912980660796,-0.0271043609827757,-0.0104676652699709
62,-0.0032999096438288,-0.0009060052107088,-0.0230228006839752,-0.0186952594667673,-0.027424868196249,-0.0128190964460373
63,-0.0026311243418604,-0.0019224126590415,-0.0230842251330614,-0.0204915497452021,-0.0265420097857714,-0.0143008036538959
64,-0.0021900800056755,-0.0022882667835801,-0.0223960094153881,-0.0198714025318623,-0.0248709581792355,-0.0140975723043084
65,-0.0017791076097637,-0.0016512952279299,-0.0214709602296352,-0.0180677901953459,-0.0229193400591612,-0.013063577003777
66,-0.0018100991146639,-0.0004262902657501,-0.0206788685172796,-0.0159460976719856,-0.0216619130223989,-0.0123989237472415
67,-0.0025836566928774,0.0005448397714644,-0.0197136234492064,-0.0139388088136911,-0.0207727644592524,-0.0128667969256639
68,-0.0033345934934914,0.0004243099538143,-0.0182200353592634,-0.0123291229829192,-0.01879264973104,-0.0150495301932096
69,-0.0031065146904438,-0.0002076925738947,-0.0168248452246189,-0.0114547396078706,-0.0156969651579857,-0.0176631696522236
70,-0.0024304136168211,-1.36265052788076e-05,-0.0164772290736437,-0.0112394569441676,-0.0132407303899527,-0.0177595671266317
71,-0.0023038419894874,0.0007677039247937,-0.0168434288352728,-0.010677807033062,-0.0124782174825668,-0.0150092281401157
72,-0.0020666872151196,0.0005135052488185,-0.0166657008230686,-0.0091664558276534,-0.0119994217529893,-0.0133623164147139
73,-0.001034653163515,-0.0012120169121772,-0.0157452318817377,-0.0074399611912667,-0.0108715072274208,-0.0164250154048204
74,-1.27796110973577e-05,-0.0030181549955159,-0.0145205361768603,-0.0056780725717544,-0.0099146272987127,-0.0219292994588614
75,0.0004700487188529,-0.0036085285246372,-0.0125037888064981,-0.0032345310319215,-0.0088112140074372,-0.023927440866828
76,0.0005150000215508,-0.0031206186395138,-0.0099472915753722,-0.0012314353371039,-0.0074009066447615,-0.0211890917271376
77,0.0005598634015768,-0.0024963300675153,-0.0084724780172109,-0.0015042769955471,-0.0066416151821613,-0.0176325645297766
78,0.0011087353341281,-0.0025131807196885,-0.0084763132035732,-0.0039456360973417,-0.0062720160931348,-0.0160313341766596
79,0.001889688661322,-0.0032855013851076,-0.0086835343390703,-0.0066032595932483,-0.00534163787961,-0.0154653834179044
80,0.0026581895072013,-0.0042830263264477,-0.0083821937441825,-0.0081695346161723,-0.0040124827064573,-0.0148188192397356
81,0.0036107928026467,-0.0049123088829219,-0.007579477969557,-0.0087955202907323,-0.0029610241763293,-0.0143658351153135
82,0.0043019042350351,-0.004652583040297,-0.0060222325846552,-0.0085867708548903,-0.0022261191625148,-0.0123968701809645
83,0.0043499460443854,-0.0033983413595706,-0.0039182933978736,-0.0081147532910108,-0.0013162998948246,-0.0076878610998392
84,0.0043087643571198,-0.0017805841052904,-0.002034104662016,-0.0079293679445982,-3.60252852260601e-05,-0.0016636603977531
85,0.0044341911561787,-0.0008144010207615,-0.0008849668665789,-0.0075818435288965,0.001361264497973,0.0039995391853153
86,0.0039665177464485,-0.0008957899408414,-0.0013400798197835,-0.0075026331469416,0.0024691454600542,0.0071411957032978
87,0.0021801108960062,-0.0018232809379696,-0.004083948675543,-0.0087185632437467,0.0026859412901103,0.0062437397427856
88,-6.94328336976469e-05,-0.0031693167984485,-0.0072812717407941,-0.010028594173491,0.0022589433938264,0.0028733091894537
89,-0.0010855067521333,-0.0041383747011423,-0.0081037748605012,-0.0092543372884392,0.0027301893569529,-0.000259066466242
90,-0.0002494293730705,-0.004582823254168,-0.0060278638266027,-0.0060538952238857,0.0050723166204989,-0.0018382665002718
91,0.0018843787256628,-0.0047562657855451,-0.0022051678970456,-0.0015546027570962,0.0089434133842587,-0.0015234641032293
92,0.0040244795382022,-0.0040599112398922,0.0017611351795494,0.0025353035889565,0.0130038671195507,0.000349029636709
93,0.004935341887176,-0.0021813036873936,0.0042422479018569,0.0051196063868701,0.015354017727077,0.0023196972906589
94,0.0047327578067779,-0.0003918868023902,0.0051086922176182,0.0066893990151584,0.0156474206596613,0.002529525430873
95,0.0042702569626271,0.0002993516100104,0.0050866552628576,0.0078587336465716,0.0149671612307429,0.000357072596671
96,0.003963756840676,-7.37136651878245e-05,0.0044170841574668,0.0081199444830417,0.0143308416008949,-0.0040374496020376
97,0.0038615404628217,-0.0010736781405285,0.0037545305676758,0.0069862706586718,0.0143209006637335,-0.0089300516992807
98,0.0037617706693708,-0.0015254757599905,0.0039216163568198,0.0051108319312334,0.0145554654300213,-0.0103034619241953
99,0.0034331700298935,-0.0010437848977744,0.004510648548603,0.0030642061028629,0.0143474424257874,-0.0073017952963709
100,0.0029359261970967,-0.0004923857632093,0.0046714139170944,0.0013474939623847,0.0133434506133199,-0.0030834400095045
101,0.0026027909480035,-0.0003064019256271,0.0043221041560173,0.0008320159977301,0.011841376312077,0.000300113519188
102,0.0026526695583015,-0.0003272226313129,0.003317741677165,0.0009825794259086,0.0102609554305673,0.0026034750044345
103,0.0029408112168312,-8.48061390570365e-05,0.0019580223597586,0.0009876898257061,0.0086895171552896,0.0048775873146951
104,0.00322618172504,0.0006441628793254,0.0016906168311834,0.0011986215831711,0.0077831451781094,0.0077077858150005
105,0.0035331584513187,0.0012377235107123,0.0030981774907559,0.0019030217081308,0.0084391850978136,0.009955646470189
106,0.0039284997619688,0.0011939125834032,0.0053178048692643,0.0028925130609422,0.0109101124107838,0.0114698857069016
107,0.0042395335622131,0.000590726500377,0.0070249242708087,0.0033143681939691,0.0142165347933769,0.012501030229032
108,0.0044401921331882,-0.0001611085899639,0.0074132457375526,0.0028191152960062,0.0168952625244856,0.0127222184091806
109,0.0047359657473862,-0.0001774504489731,0.0069969524629414,0.0025873933918774,0.0185940004885197,0.0124920699745417
110,0.005107291508466,0.0008055767975747,0.0067106387577951,0.0034780674614012,0.0196361038833857,0.0118345664814115
111,0.0054292283020913,0.0018906753975898,0.0066804019734263,0.0051025645807385,0.0199616812169552,0.0102895889431238
112,0.0058648963458836,0.0024458104744553,0.0065670367330312,0.0069942395202815,0.0195368863642216,0.0081113213673234
113,0.0062784464098513,0.0025120254140347,0.0059670684859156,0.0084721287712454,0.0182483661919832,0.0061676176264882
114,0.0062797870486974,0.0018332754261791,0.0045600207522511,0.0081806387752294,0.0159561838954687,0.0043952208943665
115,0.0060174874961376,-0.0001707020128378,0.0031181874219328,0.0055849803611636,0.0138423843309283,0.0014207139611244
116,0.0058892215602099,-0.0032123266719281,0.0026954556815326,0.0015453442465513,0.0133152576163411,-0.0036585622001439
117,0.0060349972918629,-0.0055035930126905,0.003144949208945,-0.0022541438229382,0.0141427936032414,-0.0090266801416873
118,0.0061480272561311,-0.005842515733093,0.0037194567266851,-0.0041297026909887,0.0151517624035478,-0.0114544024690986
119,0.0058322269469499,-0.004954079631716,0.0042438497766852,-0.0038958278018981,0.0156387034803629,-0.0096812816336751
120,0.0051781125366687,-0.0038196181412786,0.0050426772795617,-0.0027171887923032,0.0157490279525518,-0.0049245855771005
121,0.0044783116318285,-0.0028908976819366,0.0059819896705448,-0.0014372004661709,0.0156811866909266,0.0002580194850452
122,0.0037916966248303,-0.0023106166627258,0.0065694320946931,-0.0001333461987087,0.0150291891768575,0.0038904107641428
123,0.0028899596072733,-0.0019904405344277,0.0061202477663755,0.0011335257440805,0.013122989796102,0.0054743182845413
124,0.001568682026118,-0.0016733517404645,0.0040363571606576,0.0018909180071204,0.0096749765798449,0.0049894782714545
125,0.0003594261943362,-0.0011241984320804,0.0011040639365091,0.0021556341089308,0.0052566705271601,0.0028156507760286
126,4.85364580526948e-05,-0.000221146387048,-0.001044200034812,0.0032928229775279,0.0016033967258408,0.0010156586067751
127,0.0005786761175841,0.0009792069904506,-0.0016113552264869,0.0058020600117743,0.0004776879795826,0.0014639612054452
128,0.00117555889301,0.0022676014341414,-0.0008406243869103,0.0077022667974233,0.0015264764660969,0.0035351847764104
129,0.0010247417958453,0.0032441110815852,0.0003689804289024,0.0069527109153568,0.0030906600877642,0.005983471404761
130,0.0003681915986817,0.0029186499305069,0.001324592391029,0.0037653231993317,0.0047997278161346,0.0075219105929136
131,0.0002039144019363,0.0014106436865404,0.0016409013187512,-0.0004357711877673,0.0064515941776335,0.0064420239068567
132,-0.000164630531799,0.000321505300235,-1.90806349564809e-05,-0.0051276986487209,0.0058204708620905,0.0028185185510665
133,-0.0023622622247785,-0.0001717409177217,-0.0042792218737304,-0.0099386237561702,0.0016348717035725,-0.0013077951734885
134,-0.0055811265483498,-0.0011371537111699,-0.0088369278237223,-0.013418260961771,-0.0032759716268628,-0.0048965183086693
135,-0.0074787819758057,-0.0025026767980307,-0.0114070810377598,-0.0145547827705741,-0.0056008794344961,-0.0080409161746501
136,-0.0072457054629921,-0.0030873680952936,-0.0120454337447882,-0.0137888044118881,-0.0055184341035783,-0.0100746797397733
137,-0.0058589680120348,-0.0020640515722334,-0.0115215284749866,-0.0118687795475125,-0.0052349707111716,-0.0098691387102007
138,-0.0048038912937045,-0.0001204333893838,-0.01084746979177,-0.0097828321158886,-0.0064798006787896,-0.0078059900552034
139,-0.0048420266248285,0.0013912698486819,-0.0110752936452627,-0.0087681254372,-0.0094392001628875,-0.0058590197004377
140,-0.0057570058852434,0.0026493947952985,-0.0123783443123102,-0.008274151943624,-0.0134187564253807,-0.0044700815342366
141,-0.0069035068154335,0.0041427169926464,-0.0140737360343337,-0.0066931913606822,-0.0174995884299278,-0.0033061122521758
142,-0.007523906417191,0.0049140560440719,-0.0148369558155537,-0.0040164547972381,-0.0200381502509117,-0.0037511875852942
143,-0.0073049613274633,0.0042724623344838,-0.0141523573547602,-0.0016485885716974,-0.020092461258173,-0.0069457129575312
144,-0.0066325063817203,0.0029704603366553,-0.0132285607978702,-0.000876547594089,-0.0189351439476013,-0.0117706907913089
145,-0.0060490951873362,0.0022774168755859,-0.0132169723510742,-0.0017788943368941,-0.0182746518403292,-0.0153033267706633
146,-0.0055687953718006,0.0027065621688962,-0.0135327316820621,-0.0030644319485873,-0.0178548712283373,-0.0149684865027666
147,-0.0048338007181882,0.00366140040569,-0.0127664674073458,-0.0037857594434171,-0.0164701864123344,-0.0114883361384273
148,-0.003655836218968,0.0042718923650682,-0.0105388490483165,-0.0043317270465195,-0.0139720039442182,-0.0081748366355896
149,-0.0019626563880592,0.0043103969655931,-0.007486100308597,-0.0049050226807594,-0.0109974471852183,-0.0068071880377829
150,4.2875839426415e-05,0.004396054893732,-0.0046551404520869,-0.0052140071056783,-0.0083710700273513,-0.0065766097977757
151,0.001527281710878,0.0047204922884702,-0.0033178168814629,-0.0054423809051513,-0.006704059895128,-0.0067421989515423
152,0.0019773177336901,0.0047095315530896,-0.0036845384165644,-0.0054046707227826,-0.0056381016038358,-0.0072789802215993
153,0.0019152594031766,0.0047188834287226,-0.004464762751013,-0.0038369973190128,-0.0046590222045779,-0.0066366354003548
154,0.0015612248098477,0.0053065232932567,-0.0049394289962947,-0.0006707806023769,-0.0046529793180525,-0.0038790113758295
155,0.0007365522324107,0.0059285927563905,-0.0052257883362472,0.002318067010492,-0.0062339147552847,-0.0010893016587942
156,-0.0002021879772655,0.005794268567115,-0.0050677494145929,0.0038497438654303,-0.0080650961026549,-0.0001935300679178
157,-0.001084282179363,0.0044510373845696,-0.0046744281426072,0.0034448557998985,-0.0089405849575996,-0.0012478890130296
158,-0.0017626481130719,0.0023551762569695,-0.0042074336670339,0.0017058345256373,-0.0083163641393184,-0.0025730787310749
159,-0.0015754649648442,0.000982777797617,-0.0032740081660449,9.85979932011105e-05,-0.006126151420176,-0.0018754171906039
160,-0.0006096177385188,0.0009474802063778,-0.0024015721864998,-0.0014334834413602,-0.003906208788976,0.0005199923180043
161,0.0004878658510278,0.0012459150748327,-0.0017276223516091,-0.0036762314848601,-0.0024732751771807,0.0022336496040225
162,0.0014835930196568,0.0009793379576876,-0.000484343880089,-0.0058660414069891,-0.0010181089164689,0.0022306137252599
163,0.0019375658594071,0.0006232865853235,0.000985880033113,-0.0061696390621364,0.0001957313361344,0.0017603201558813
164,0.0014846774283796,0.0013856197474524,0.001620803726837,-0.0039728567935526,0.0002274524013046,0.0027049286291003
165,0.0003370847553014,0.0031287150923162,0.0008832504390738,-0.0011887741275131,-0.0009151224512606,0.0046288687735796
166,-0.0009525156347081,0.0044642239809036,-0.0007053053122945,-2.01867642317666e-05,-0.0024070225190371,0.005384040530771
167,-0.0018706553382799,0.0051520466804504,-0.0021016232203692,-0.0002814498147927,-0.0035036387853324,0.005362868309021
168,-0.0024161792825907,0.0059982626698911,-0.0025691939517855,0.0001282439334318,-0.0041573718190193,0.0069623589515686
169,-0.0031407605856657,0.0069873789325356,-0.0021988388616591,0.0021521516609937,-0.0048949122428894,0.009876238182187
170,-0.0046836826950311,0.0077783181332051,-0.0021587999071925,0.0050036194734275,-0.0065358094871044,0.0122527601197362
171,-0.006400179117918,0.0086568668484687,-0.0025897326413542,0.0088968053460121,-0.0083395512774586,0.0139393750578165
172,-0.0070402673445642,0.0091908080503344,-0.0024878161493688,0.013616818934679,-0.0084290904924273,0.0137813771143556
173,-0.0063758599571883,0.0085311522707343,-0.0014678760198876,0.0169227719306946,-0.0063852868042886,0.0101072806864977
174,-0.0046521467156708,0.0070257573388516,0.0006103336927481,0.0173173602670431,-0.0027389042079448,0.0047684679739177
175,-0.0022972379811108,0.0057564857415854,0.0031153340823948,0.0150259798392653,0.0014456043718382,0.0015420789131894
176,-1.54143629060854e-06,0.0054891724139452,0.0045242612250149,0.0111690871417522,0.0046958606690168,0.0025371855590492
177,0.0015395605005323,0.0061726248823106,0.0040291142649948,0.007118466310203,0.0061026425100863,0.0071561341173946
178,0.0021464673336595,0.0069553623907268,0.0026113206986337,0.0036684453953057,0.0058660912327468,0.0125444708392024
179,0.0018293876200914,0.0064317914657294,0.0017662903992459,0.0007647576858289,0.0048971218056976,0.0150603912770748
180,0.0005825519328936,0.0040625538676977,0.0013132474850863,-0.0017975989030674,0.0037358081899583,0.0134061183780432
181,-0.0005607313942164,0.0014122378779575,0.0007080225623212,-0.0029460196383297,0.002748877974227,0.0099808610975742
182,-0.0005222196923568,-7.90456942922901e-06,0.0005500068655237,-0.0012644724920392,0.0024749285075813,0.0072981463745236
183,0.0005086216842755,-0.000281198445009,0.0011607696069404,0.0029483519028872,0.0030974983237683,0.0055518401786685
184,0.0016889793332666,0.0002326331159565,0.0021136088762432,0.0085761854425072,0.0041722999885678,0.0047175311483442
185,0.0020732444245368,0.0010178431402891,0.0030570949893444,0.014051541686058,0.0050649936310946,0.0053436318412423
186,0.0018103467300534,0.0015212252037599,0.004067672882229,0.0174246933311224,0.0058299535885453,0.0071938671171665
187,0.0017778143519535,0.0018441930878907,0.0050435485318303,0.0181156937032938,0.0064050443470478,0.0090023847296834
188,0.0018999926978722,0.002489403123036,0.0051715951412916,0.016570046544075,0.0059578688815236,0.0099802128970623
189,0.0019757053814828,0.0035689598880708,0.0040432270616293,0.0127091156318784,0.0047108167782425,0.0103329923003912
190,0.0022890355903655,0.0044040805660188,0.0026238220743835,0.0072149508632719,0.0039480505511164,0.0106685124337673
191,0.0028476037550717,0.0044747237116098,0.0022757058031857,0.0026047464925795,0.0042976276017725,0.011875600554049
192,0.0033642270136624,0.0037628859281539,0.0033621608745306,0.0002979860873892,0.0056218882091343,0.0136754438281059
193,0.0041226926259696,0.0028623784892261,0.0056692156940698,-0.0004112850583624,0.0077961054630577,0.0146449096500874
194,0.0054667387157678,0.0024753822945058,0.0088551957160234,3.27006164297927e-05,0.0104857198894024,0.0141957812011242
195,0.0064953197725117,0.002508144127205,0.0115535138174891,0.0016039280453696,0.0125049510970712,0.0134851755574346
196,0.0064333169721067,0.0028496133163571,0.0120107121765614,0.0033451379276812,0.0127077298238873,0.01350128185004
197,0.0059362640604376,0.0034117999020963,0.0099629992619156,0.0040368805639445,0.0112953269854188,0.0129927834495902
198,0.0055571338161826,0.0034677686635404,0.0065287686884403,0.003404033370316,0.0091335130855441,0.0104950936511159
199,0.0051679462194442,0.002845600945875,0.0030144278425723,0.0023227494675666,0.0065665449947118,0.0067293462343514
200,0.0046347402967512,0.0024166167713701,0.0001737638376653,0.0023202956654131,0.0034049141686409,0.0029616148676723
201,0.0036598148290067,0.0021938676945865,-0.0019454000284895,0.0037589278072118,-0.0003422244917601,-0.0010044539812952
202,0.002204546239227,0.0019614675547927,-0.0032848950941115,0.005752611439675,-0.0038348375819623,-0.0043870387598872
203,0.0009725607233121,0.0021269542630761,-0.0036206333898007,0.0077069685794413,-0.006057855207473,-0.0062047024257481
204,0.0004644977452699,0.0025638500228524,-0.0037494632415473,0.0092620616778731,-0.007035260554403,-0.0076624252833426
205,0.0003678582725115,0.0032742924522608,-0.0046481122262775,0.0099830133840441,-0.0072931922040879,-0.0088676717132329
206,0.0004457345930859,0.0042315744794905,-0.0051146452315151,0.0095943575724959,-0.0065235230140388,-0.0081717493012547
207,0.0006711200112476,0.0045348876155912,-0.00393539480865,0.0078223226591944,-0.0051528764888644,-0.0054552387446165
208,0.0008099725237116,0.0043257251381874,-0.002076136181131,0.0051745483651757,-0.0046939146704971,-0.0013154414482414
209,0.0001962428941624,0.0047714835964143,-0.0011394680477678,0.0031158521305769,-0.0059353816322982,0.004308455158025
210,-0.0014471934409812,0.0053381379693746,-0.0015571766998618,0.00216393196024,-0.0083057386800646,0.0091469036415219
211,-0.0027614582795649,0.0048042736016213,-0.0020088779274374,0.0019417676376178,-0.0099723255261778,0.0099496124312281
212,-0.0027056843973696,0.0035268266219645,-0.0017611129442229,0.0023360904306173,-0.0104102808982134,0.0073953326791524
213,-0.0019694440998137,0.0027266845572739,-0.0016815423732623,0.0031312897335737,-0.0109079349786043,0.0049654426984489
214,-0.0013675262453034,0.0025406705681234,-0.0027270086575299,0.0032572171185165,-0.0119725679978728,0.0038727473001927
215,-0.0009475749684497,0.0021672518923878,-0.0048651858232915,0.0015248392010107,-0.0129396757110953,0.0024292380549013
216,-0.0006353363860398,0.0013992937747389,-0.0068760821595788,-0.001462728367187,-0.0132953384891152,5.34330647496972e-05
217,-0.0008362824446521,0.000776766333729,-0.0084673510864377,-0.0037809545174241,-0.0141241848468781,-0.001488521345891
218,-0.0015652969013899,0.0008078792598098,-0.0105572761967778,-0.004904190544039,-0.0165119916200638,-0.0016960363136604
219,-0.0019049729453399,0.0008526456658728,-0.0127533711493015,-0.0061005293391645,-0.0189614854753017,-0.0037220767699182
220,-0.0015544105553999,7.9829158494249e-05,-0.0138749601319432,-0.0072520347312092,-0.0196693819016218,-0.0094473669305443
221,-0.0015876602847129,-0.0009721558308228,-0.0142720062285662,-0.0067243464291095,-0.0195114593952894,-0.0162613913416862
222,-0.0027697766199708,-0.0015788002638146,-0.0148029178380966,-0.0047609927132725,-0.0203966721892357,-0.0211906097829342
223,-0.0045967958867549,-0.0015872057992965,-0.0154602406546474,-0.0035313065163791,-0.0228007491678,-0.0232863463461399
224,-0.0062650591135025,-0.0010784795740619,-0.0161913558840752,-0.0044349106028676,-0.0258866064250469,-0.0231513641774654
225,-0.0072433557361364,2.35579068430525e-06,-0.0168723743408918,-0.006709168665111,-0.0286017190665007,-0.0212676357477903
226,-0.0073654260486364,0.0015183554496616,-0.0177560038864613,-0.0094125960022211,-0.0308465957641602,-0.0180073324590921
227,-0.0069610550999641,0.002596563892439,-0.0193718373775482,-0.0125303184613585,-0.0329256951808929,-0.0149259809404612
228,-0.0064413733780384,0.0030257909093052,-0.0211334303021431,-0.0153741054236889,-0.0343141816556454,-0.0128488158807158
229,-0.0060150334611535,0.0030296600889414,-0.0220317672938108,-0.0172914061695337,-0.0343649908900261,-0.011620856821537
230,-0.0060149976052343,0.0017814694438129,-0.0219535455107689,-0.0187695249915123,-0.0332165919244289,-0.0116884065791965
231,-0.0066044284030795,-0.0010346084600314,-0.0216087866574526,-0.0201580710709095,-0.0315202474594116,-0.0132053783163428
232,-0.0073539023287594,-0.0036890637129545,-0.0216948371380568,-0.0206848923116922,-0.0301427915692329,-0.0150185087695718
233,-0.0080360956490039,-0.0042183646000921,-0.0227128639817238,-0.0198881085962057,-0.0306975953280926,-0.0161916520446539
234,-0.0087173851206898,-0.0031710288021713,-0.0251764263957739,-0.0193960554897785,-0.034019973129034,-0.0184177942574024
235,-0.0089771393686533,-0.0025514028966426,-0.0286920145153999,-0.0209078285843134,-0.0383408814668655,-0.0235143303871155
236,-0.0087172370404005,-0.0028240871615707,-0.0321313366293907,-0.0235152803361416,-0.0417998023331165,-0.0295551493763924
237,-0.0085718417540192,-0.0030425763688981,-0.034679964184761,-0.0251088533550501,-0.0441320985555649,-0.0328763350844383
238,-0.0086125889793038,-0.0021789046004414,-0.0360144674777985,-0.025289848446846,-0.0455002672970295,-0.0317184664309025
239,-0.0083755422383546,-6.1461643781513e-05,-0.0367749780416489,-0.0254084561020136,-0.0464683026075363,-0.0279683154076338
240,-0.0080699631944298,0.0024642786011099,-0.0383165255188942,-0.026035139337182,-0.0481326095759869,-0.02549391053617
241,-0.0082284389063715,0.0043959519825875,-0.0410100184381008,-0.0267994087189436,-0.0506506785750389,-0.0269130244851112
242,-0.0086856484413147,0.0056535424664616,-0.0436356477439404,-0.0267432276159525,-0.0532034337520599,-0.0310424156486988
243,-0.009461953304708,0.0068959617055952,-0.0451600290834904,-0.0248970165848732,-0.0559498183429241,-0.0336208902299404
244,-0.0108813401311636,0.0080389762297272,-0.0453063547611237,-0.0227843821048737,-0.0588312819600105,-0.0328914895653725
245,-0.0123239271342754,0.0085934530943632,-0.0439084134995937,-0.0225719604641199,-0.0603920556604862,-0.0306852348148823
246,-0.0128806233406067,0.0087633049115538,-0.0419440679252148,-0.0243851635605097,-0.0603422112762928,-0.0284562204033136
247,-0.0125065511092544,0.0090732760727405,-0.0414577350020409,-0.0272976085543633,-0.0601256303489208,-0.0263726059347391
248,-0.0116968071088195,0.0097627118229866,-0.0428751260042191,-0.0297525878995657,-0.0604237429797649,-0.0240756329149008
249,-0.010720606893301,0.0107218623161316,-0.0446979776024818,-0.0304732117801905,-0.060819286853075,-0.0219680182635784
250,-0.0095999715849757,0.0116577707231045,-0.0459641255438328,-0.0299283713102341,-0.0611556805670261,-0.0218792278319597
251,-0.0086552239954471,0.0121284788474441,-0.046682670712471,-0.0290207229554653,-0.0617778040468693,-0.0238707307726145
252,-0.008514299057424,0.0122183253988624,-0.0473560057580471,-0.027967968955636,-0.0634750425815582,-0.0249562337994576
253,-0.0091261183843016,0.0129703907296062,-0.0483306162059307,-0.026628041639924,-0.0662372782826424,-0.0224306359887123
254,-0.0096397530287504,0.0145957740023732,-0.049167275428772,-0.0250163786113262,-0.0684431195259094,-0.0173286329954863
255,-0.0095765041187405,0.0159034635871649,-0.0495694428682327,-0.0240407604724169,-0.0688357874751091,-0.0137199563905597
256,-0.0094242831692099,0.0157832968980074,-0.0497172139585018,-0.0241145137697458,-0.0679506585001946,-0.0140292271971703
257,-0.0100811151787639,0.0141243934631348,-0.0496983863413334,-0.0242035463452339,-0.0671335384249687,-0.0173533745110035
258,-0.0112958839163184,0.0114947082474828,-0.0490189641714096,-0.0235731117427349,-0.0663913190364838,-0.0224054213613272
259,-0.0118395620957017,0.0084520000964403,-0.0471505895256996,-0.0227794833481312,-0.0646280571818352,-0.028052931651473
260,-0.0117097999900579,0.0058362809941172,-0.0451769158244133,-0.0232478976249695,-0.0626330003142357,-0.031692873686552
261,-0.0112838800996542,0.0042679389007389,-0.0444002635776997,-0.0257498696446419,-0.0614572986960411,-0.0324365496635437
262,-0.0101549969986081,0.0036903237923979,-0.0446411892771721,-0.0290427934378386,-0.0603610575199127,-0.0323372036218643
263,-0.0088663091883063,0.0041630952619016,-0.0459055490791798,-0.0314556062221527,-0.0598577223718166,-0.0324345864355564
264,-0.0082016512751579,0.0055368184112012,-0.0479071922600269,-0.0322870425879955,-0.060748815536499,-0.0325819477438927
265,-0.007972814142704,0.0068463021889329,-0.0491488873958588,-0.0314318425953388,-0.0620131231844425,-0.0328143090009689
266,-0.0079937642440199,0.0074007189832627,-0.0487236715853214,-0.0297875292599201,-0.0626967400312424,-0.0328003652393818
267,-0.0080717932432889,0.0073333377949893,-0.0473382137715817,-0.0293855611234903,-0.062678761780262,-0.0324059799313545
268,-0.0079058716073632,0.0066324830986559,-0.0461412146687508,-0.0313391536474228,-0.0620742551982403,-0.0319033823907375
269,-0.0073776915669441,0.0052725998684763,-0.0451443269848824,-0.0345911867916584,-0.0606052353978157,-0.0314034409821033
270,-0.0065265092998743,0.0039946120232343,-0.0437865369021893,-0.037390910089016,-0.0581254400312901,-0.0311748515814543
271,-0.005513624753803,0.0035164593718946,-0.0421060025691986,-0.0383907333016396,-0.0553438477218151,-0.0313654541969299
272,-0.0043560955673456,0.0036240387707948,-0.0402368977665901,-0.0372528247535229,-0.0525283105671406,-0.0319507755339146
273,-0.0031279451213777,0.0038123859558254,-0.0384608469903469,-0.0351149663329124,-0.049843680113554,-0.0332223400473595
274,-0.0021025268360972,0.0039654895663261,-0.037600789219141,-0.0331726931035519,-0.0485170185565948,-0.0347496531903744
275,-0.0016515854513272,0.0042307074181735,-0.0381725244224072,-0.0317171029746532,-0.049306858330965,-0.0354126766324043
276,-0.0022403949405998,0.0045476695522666,-0.03986656665802,-0.0306356810033321,-0.0517152175307274,-0.0350412465631962
277,-0.0036809106823056,0.0045250747352838,-0.0416977554559708,-0.0294772479683161,-0.0545566715300083,-0.0342558473348618
278,-0.0052557606250047,0.0040040384046733,-0.0429954081773758,-0.028142349794507,-0.0566548220813274,-0.0334062948822975
279,-0.0060491985641419,0.0035009619314223,-0.0433891303837299,-0.0268633551895618,-0.0570969618856907,-0.0326596274971962
280,-0.0053057274781167,0.0036093608941882,-0.042373351752758,-0.0256219245493412,-0.0555082261562347,-0.0325653553009033
281,-0.0039873248897492,0.0037897927686572,-0.0404449701309204,-0.0249638762325048,-0.0528242960572243,-0.0332943052053452
282,-0.0039552981033921,0.0030694094020873,-0.0389482900500298,-0.0259675681591034,-0.0507086180150509,-0.0342543721199036
283,-0.0047397739253938,0.0022216942161321,-0.038087110966444,-0.0281669050455093,-0.0494601540267468,-0.0346089377999306
284,-0.0045187780633568,0.0028769737109541,-0.0373319834470749,-0.0299258232116699,-0.0484325662255287,-0.0333217196166515
285,-0.0036902297288179,0.0047943922691047,-0.037135012447834,-0.0310346093028784,-0.0479414090514183,-0.030382489785552
286,-0.003441724460572,0.0065855267457664,-0.0374703072011471,-0.0315477102994919,-0.0479051545262337,-0.0269019640982151
287,-0.0035158654209226,0.0077996305190026,-0.0376873649656773,-0.0310114026069641,-0.048018354922533,-0.0237188655883074
288,-0.0032076297793537,0.008532827720046,-0.037982314825058,-0.030184056609869,-0.0486412867903709,-0.0214247200638056
289,-0.0021317338105291,0.0085368100553751,-0.0380624569952488,-0.0300174430012703,-0.0491796880960464,-0.0206901971250772
290,-0.0003606106038205,0.0078759845346212,-0.036978792399168,-0.0301744639873505,-0.0485707856714725,-0.0216271784156561
291,0.0012975599383935,0.0071107684634625,-0.0348840914666653,-0.0299372039735317,-0.0468798391520977,-0.0229538511484861
292,0.0018894056556746,0.0063902642577886,-0.0326451770961285,-0.0285501163452864,-0.0447832718491554,-0.022722939029336
293,0.001444321591407,0.0052669350989162,-0.0305898115038872,-0.0257330778986216,-0.0423097349703312,-0.0213559716939926
294,0.0004864127840846,0.0035997878294438,-0.0288068484514952,-0.0223886203020811,-0.0395036563277245,-0.020902244374156
295,-0.0009863277664408,0.0025933468714356,-0.0276905931532383,-0.0194254275411367,-0.0376532599329948,-0.0203338246792555
296,-0.0025081248022615,0.0034033430274575,-0.0273564830422401,-0.017662052065134,-0.0374775230884552,-0.0185300931334496
297,-0.0032280180603265,0.00500018754974,-0.0275119133293629,-0.0178236234933138,-0.0379412248730659,-0.0177455879747868
298,-0.0032334397546947,0.005975934676826,-0.0278869718313217,-0.0193072129040957,-0.0379416309297085,-0.0185366366058588
299,-0.0028507143724709,0.0063625299371779,-0.027862261980772,-0.0206506010144949,-0.036894116550684,-0.0185931194573641
300,-0.0023696988355368,0.0064594321884214,-0.0267960894852877,-0.0208384990692139,-0.0348436944186687,-0.0169746857136488
301,-0.0020447052083909,0.0061345915310084,-0.0249210968613625,-0.0199360232800245,-0.032235998660326,-0.0160891953855753
302,-0.0019332459196448,0.0049359812401235,-0.0235269144177437,-0.0192306097596884,-0.0298550985753536,-0.01914725266397
303,-0.002104437444359,0.0030809137970209,-0.0237126741558313,-0.0199778322130442,-0.0288968626409769,-0.0254171825945377
304,-0.002471646759659,0.0017184852622449,-0.0252358540892601,-0.0219893101602793,-0.029691381379962,-0.030502999201417
305,-0.00301522645168,0.00179440935608,-0.0270060282200575,-0.023810064420104,-0.0313438847661018,-0.0303324889391661
306,-0.0034673146437853,0.0035018278285861,-0.0278540123254061,-0.0238187927752733,-0.032737348228693,-0.0244984850287437
307,-0.003277493873611,0.0056214099749922,-0.0272873416543007,-0.0218088533729315,-0.0330604948103428,-0.0173507016152143
308,-0.002558167790994,0.0063569541089236,-0.0256356541067362,-0.0195235032588243,-0.0317825861275196,-0.0140229426324368
309,-0.0017049370799213,0.0053966408595442,-0.0232615787535906,-0.0185765121132135,-0.0289028193801641,-0.0156870502978563
310,-0.0006623220979236,0.0043300697579979,-0.020606080070138,-0.0185037460178137,-0.0250446870923042,-0.0190032869577408
311,0.0003298880183137,0.0048521291464567,-0.018738329410553,-0.0181833244860172,-0.0213880855590105,-0.0196138750761747
312,0.0007920716889202,0.0064938520081341,-0.0178749207407236,-0.0176050309091806,-0.0187116451561451,-0.0166557617485523
313,0.000894620665349,0.0077460827305913,-0.0171340703964233,-0.0174005553126335,-0.0169590581208467,-0.0126363802701235
314,0.0012152887647971,0.0081700468435883,-0.0164752379059792,-0.0177396144717932,-0.0162058640271425,-0.0101255131885409
315,0.0019764564931392,0.0082611953839659,-0.0159714855253696,-0.0175834614783525,-0.0161746013909578,-0.0095592429861426
316,0.0032018322963267,0.0084825558587908,-0.0145315323024988,-0.0158890355378389,-0.015265972353518,-0.0098310625180602
317,0.0048459307290613,0.0085917618125677,-0.0114673441275954,-0.0131060518324375,-0.0124082351103425,-0.0103038353845477
318,0.0061289533041417,0.0079047484323382,-0.0079402597621083,-0.0103136776015162,-0.0088780997321009,-0.0110277747735381
319,0.0064840139821171,0.0063059516251087,-0.0054834671318531,-0.0080204121768474,-0.0063167470507323,-0.0115425754338503
320,0.0064884549938142,0.0044436212629079,-0.0044750245288014,-0.0064838561229407,-0.0049748835153877,-0.0106949787586927
321,0.0066143972799181,0.0028528650291264,-0.0046866680495441,-0.0062151639722287,-0.0045617669820785,-0.0084547065198421
322,0.0066441632807254,0.0023364555090665,-0.005827231798321,-0.0067779724486172,-0.0051313936710357,-0.0055058561265468
323,0.0063833016902208,0.0032732335384935,-0.0073096235282719,-0.0064168642275035,-0.0060999430716037,-0.0018395291408523
324,0.0061534973792731,0.0045439614914357,-0.0079303020611405,-0.0042312946170568,-0.0055314302444458,0.0020681200549006
325,0.0062196901999414,0.0053110737353563,-0.0067667188122868,-0.0013493276201188,-0.0027895895764231,0.0049348114989697
326,0.0061600189656019,0.0056644058786332,-0.0045227445662021,0.0004172834742348,-1.33235480461735e-05,0.0058823688887059
327,0.0056954082101583,0.0053137294016778,-0.0026313443668186,-0.0001241092541022,0.0010498036863282,0.0042665726505219
328,0.0050224182195961,0.0039389063604176,-0.0016304266173392,-0.0027008452452719,0.0008221329771913,0.0001458464248571
329,0.0041578980162739,0.0022787563502788,-0.0013124003307893,-0.0055832103826105,-4.7760499001015e-05,-0.0038358808960765
330,0.0031038711313158,0.0011059906100854,-0.0014634992694482,-0.0076569151133298,-0.0010826116194948,-0.0047632022760808
331,0.0020858189091086,0.0004275346291251,-0.0016670492477715,-0.0088744843378663,-0.0013615096686407,-0.0023358648177236
332,0.0012429490452632,-2.52321751759155e-05,-0.0013002520427107,-0.0092190336436033,-0.0004330363881308,0.0023003804963082
333,0.000382664380595,-0.0009649413987062,-0.0004165874270256,-0.0087059512734413,0.0012496339622885,0.0071335406973958
334,-0.0003969651879742,-0.0024935987312346,0.0008737233001738,-0.0068164863623678,0.0033262483775615,0.009743626229465
335,-0.0005117712425999,-0.003594042500481,0.0033902514260262,-0.0029220785945653,0.0061885677278041,0.009838773868978
336,0.0001470125134801,-0.0034037064760923,0.0071554188616573,0.002330885734409,0.009539688937366,0.010240038856864
337,0.0010757248383015,-0.0023428993299603,0.0102974763140082,0.0069699864834547,0.0120108230039477,0.0122335366904736
338,0.0021308239083737,-0.0015605589142069,0.0119433486834168,0.0098295472562313,0.0136141544207931,0.0140927266329527
339,0.0038875101599842,-0.0013999243965372,0.0133183896541595,0.0114807682111859,0.0160357262939215,0.0146952625364065
340,0.0063828909769654,-0.0021113257389515,0.0149324769154191,0.0117885023355484,0.0200016498565674,0.0133044561371207
341,0.0087966052815318,-0.0032849027775228,0.0163078475743532,0.0104462876915932,0.0243965126574039,0.0114070642739534
342,0.0104730222374201,-0.0033547920174896,0.0171729624271393,0.0085807600989937,0.0278388932347298,0.012573323212564
343,0.0113603910431266,-0.0020413948222994,0.0175326857715845,0.0074012693949043,0.0301477797329426,0.0167009327560663
344,0.0118246972560883,-0.0008524989825673,0.0181384310126305,0.0074582165107131,0.0318805277347565,0.0203447267413139
345,0.0120142428204417,-0.0004053888551425,0.0200374647974968,0.0091110337525606,0.0330335386097431,0.0221069511026144
346,0.0115696983411908,8.54455793160014e-05,0.0232300851494074,0.0122527917847037,0.0331295020878315,0.0230530723929405
347,0.0106242625042796,0.0004643508000299,0.026486499235034,0.0153092416003346,0.0325758196413517,0.0229078717529774
348,0.0101608848199248,0.0002876513171941,0.0288222096860409,0.0169015973806381,0.0328726246953011,0.0213718321174383
349,0.0104649793356657,0.0004005888185929,0.0302300155162811,0.0175625868141651,0.034696701914072,0.0204140711575747
350,-0.0027176525909453,0.0032387033570557,-0.0042865364812314,0.0056292759254574,-0.0015096371062099,-0.0008209632942453
351,-0.0036756682675331,0.0030343420803546,-0.0042715393938124,0.0061278925277292,-0.0015986252110451,0.0015794046921655
352,-0.0042612445540726,0.0017588700866326,-0.0033978896681219,0.0059611811302602,-0.0004624453722499,0.002954423893243
353,-0.0042602051980793,0.0003304146521259,-0.0017948665190488,0.0059860553592443,0.0011202180758118,0.0034881660249084
354,-0.0032527656294405,3.90263157896698e-05,0.0004811463004443,0.0073656174354255,0.0029501488897949,0.0043209618888795
355,-0.0015381900593638,0.0009820298291742,0.0030937679111957,0.0100482171401381,0.0051874457858502,0.0054250513203442
356,-0.0001295763358939,0.0018066333141177,0.0051539768464863,0.0125824809074402,0.0072980155237019,0.0052026766352355
357,0.0010554220061749,0.0019692957866936,0.0064844130538404,0.0140590593218803,0.0093267122283577,0.0036962577141821
358,0.0027240894269198,0.0022580346558243,0.0076745739206671,0.0143800284713507,0.0119611835107207,0.0027826412115246
359,0.0044904262758791,0.0029166117310524,0.0088426182046532,0.0136920660734177,0.0149030713364482,0.0032728025689721
360,0.0057889437302947,0.0036945343017578,0.0097537608817219,0.0127447275444865,0.0169231183826923,0.0049782674759626
361,0.0068853991106152,0.0045048627071082,0.0104619283229113,0.0120903477072716,0.0173937417566776,0.0072677782736718
362,0.0075634028762579,0.004814310465008,0.0108163692057133,0.0112361647188663,0.0165179651230574,0.0089789405465126
363,0.0070343827828764,0.0040439451113343,0.0103607811033726,0.0095324805006384,0.0147105176001787,0.0097858225926756
364,0.0056639271788299,0.0026033341418951,0.0093936314806342,0.0074202036485076,0.0127278473228216,0.010387908667326
365,0.0046396628022193,0.0012454631505534,0.008654530160129,0.0057947430759668,0.011568215675652,0.0108146425336599
366,0.0045972797088325,0.0003823815786745,0.0085525577887892,0.0050062551163137,0.0119849424809217,0.0103926043957472
367,0.0052854102104902,6.92597241140902e-05,0.0090993363410234,0.0052341539412736,0.0134482989087701,0.0088012591004371
368,0.0059243668802082,0.0001003060679067,0.0097599178552627,0.0069998921826481,0.0142100257799029,0.0064907995983958
369,0.0060606729239225,0.0001409642864018,0.0101112211123109,0.0101703889667988,0.0135515322908759,0.0039614513516426
370,0.0060419659130275,-0.0001674399827606,0.010570933111012,0.0128155574202538,0.01268345490098,0.0007406048825941
371,0.0066162343136966,-0.0008454404305666,0.0116658108308911,0.0130741819739342,0.0133462306112051,-0.0033577836584299
372,0.0076619568280875,-0.0015151442494243,0.012695824727416,0.0114919096231461,0.0155980410054326,-0.0063980226404964
373,0.0081350309774279,-0.0013940040953457,0.0125287994742393,0.0100879045203328,0.0175866577774286,-0.0050885002128779
374,0.0078769205138087,-0.0001961179368663,0.0115650994703174,0.0098323430866003,0.0185914374887943,0.0013216022634878
375,0.0074349520727992,0.0008067496237345,0.0110719986259937,0.0096794962882995,0.0197804588824511,0.0085718305781483
376,0.0067284214310348,0.0002748276747297,0.0114219347015023,0.0087657608091831,0.0213711149990559,0.0121546816080809
377,0.0057285339571535,-0.0010921796783804,0.0123650161549449,0.0086690951138734,0.022254079580307,0.0130119165405631
378,0.0046734153293073,-0.0019261643756181,0.013659717515111,0.0108810886740685,0.0219002533704042,0.0142651842907071
379,0.0035842780489474,-0.0024907919578254,0.0148446848616004,0.0139975938946009,0.02066770195961,0.0156063223257661
380,0.0026373546570539,-0.0037751989439129,0.0155433835461736,0.0161321740597487,0.0192457474768162,0.0149091025814414
381,0.0018143495544791,-0.0058805285952985,0.0155022777616978,0.0173736419528723,0.0180126130580902,0.0119641665369272
382,0.0009349333704449,-0.0080588357523083,0.0146306520327926,0.0185548979789019,0.0170495472848415,0.0081637846305966
383,0.0005708546959795,-0.0092572560533881,0.0141786457970738,0.0200362075120211,0.0171134974807501,0.0051847253926098
384,0.0012689885916188,-0.0088960081338882,0.0153523068875074,0.0213216692209244,0.0186064019799232,0.0042084665037691
385,0.0025120435748249,-0.0074736936949193,0.0168532934039831,0.0211725346744061,0.0202376153320074,0.004676136188209
386,0.0036576057318598,-0.0057666413486003,0.0168734360486269,0.0191530101001263,0.0206707157194614,0.0051589868962764
387,0.0045797703787684,-0.0041944030672311,0.0156547930091619,0.0161699429154396,0.0200999472290277,0.0052440040744841
388,0.0052316323854029,-0.0029348032549023,0.0145962834358215,0.0135102942585945,0.0196123626083136,0.0055165011435747
389,0.0055999774485826,-0.001883732387796,0.0143918953835964,0.0122214257717133,0.0195360481739044,0.0067718708887696
390,0.0056799193844199,-0.0011581430444493,0.0145717775449157,0.0126383258029819,0.0193628277629614,0.0090960478410124
391,0.0054580550640821,-0.0010893528815358,0.0146290780976415,0.0140176508575678,0.0192857421934605,0.0114226788282394
392,0.0050429850816726,-0.0015927375061437,0.0144169013947248,0.0152314659208059,0.0196096617728472,0.0124264704063535
393,0.0040101199410855,-0.0024908354971557,0.0132098291069269,0.0160019341856241,0.019044291228056,0.0116614131256938
394,0.0019897008314728,-0.0033367124851793,0.010957951657474,0.0172178875654936,0.0165022276341915,0.010165024548769
395,-0.000394254195271,-0.0035019335336983,0.0090225515887141,0.0191129073500633,0.0129473516717553,0.0093765826895833
396,-0.0026571361813694,-0.0032029247377067,0.0079416595399379,0.019986504688859,0.0096206665039062,0.0095883635804057
397,-0.0042580370791256,-0.0028906881343573,0.0074899708852171,0.0185490194708109,0.0073495130054652,0.0102642076089978
398,-0.004498460330069,-0.0027558873407542,0.0073880804702639,0.0151748051866889,0.0069239931181073,0.0100443819537759
399,-0.0036263242363929,-0.0027969758957624,0.0074366023764014,0.0113316643983126,0.0081297867000103,0.0082112038508057
400,-0.002612987300381,-0.0028212582692503,0.0079234689474105,0.0086999265477061,0.0093711456283927,0.0062367054633796
401,-0.0023411647416651,-0.0026055555790662,0.0084548704326152,0.0076822726987302,0.0090488772839307,0.0059237196110189
402,-0.0028514298610389,-0.0015538111329078,0.0076689929701387,0.0078034093603491,0.0066999979317188,0.0078291352838277
403,-0.0037178266793489,0.000400783465011,0.0048995520919561,0.0083217313513159,0.0029931142926216,0.0107120973989367
404,-0.0048075779341161,0.0024238899350166,0.0016110598808154,0.0089281490072608,-0.0002967384934891,0.0133071187883615
405,-0.0058881822042167,0.003879053518176,-6.35941833024845e-05,0.0101766558364034,-0.0014810307184234,0.0157383605837822
406,-0.0065692593343555,0.0044968207366764,-4.3616266339086e-05,0.0119001157581806,-0.0008050617761909,0.017358873039484
407,-0.0070065865293145,0.0043704351410269,8.0221907410305e-05,0.0130722112953663,-8.33576705190353e-05,0.0171320773661137
408,-0.0077472832053899,0.0038642331492155,-0.0007961519877426,0.0131243718788028,-0.0007299378630705,0.0158456992357969
409,-0.0087922308593988,0.0032071562018245,-0.0023272633552551,0.0122405644506216,-0.0026532092597335,0.015079153701663
410,-0.009329485706985,0.0027591483667492,-0.0031831958331167,0.011301526799798,-0.0044365278445184,0.015401802957058
411,-0.009068751707673,0.0026908260770142,-0.0027308359276503,0.0108016133308411,-0.0049854689277708,0.0159778948873281
412,-0.0086263036355376,0.0024787012953311,-0.0017596274847164,0.0102039640769362,-0.0044828499667346,0.0149834360927343
413,-0.0080851884558796,0.0018782909028232,-0.0008739784825593,0.009303324855864,-0.0032559183891862,0.0114013869315386
414,-0.0072978930547833,0.001421948429197,6.97038340149447e-05,0.0085435174405574,-0.0018730802694335,0.0069646402262151
415,-0.0068919537588954,0.0014745894586667,0.000492570165079,0.0078893015161156,-0.0018130840035155,0.0043806247413158
416,-0.0075112516060471,0.0018943100003525,-0.0002337007172172,0.0071355141699314,-0.0037573708686977,0.0046393391676247
417,-0.0088051324710249,0.0025964290834963,-0.0013225204311311,0.0069986539892852,-0.0063856677152216,0.0070592821575701
418,-0.0101803001016378,0.0029694817494601,-0.0021418393589556,0.0079833017662167,-0.0082634268328547,0.0092139979824423
419,-0.0115077299997211,0.0022417062427848,-0.0030342345125973,0.0092201679944992,-0.0092238187789917,0.008830165490508
420,-0.0126236546784639,0.0009149570250883,-0.0041416981257498,0.0095218867063522,-0.0095739895477891,0.0061368895694613
421,-0.0130943795666099,-9.32921248022467e-05,-0.0051025566644966,0.0085363360121846,-0.0094401901587843,0.0022538269404321
422,-0.0126725463196635,-0.0005652233958244,-0.0056225089356303,0.0066969455219805,-0.0090035740286111,-0.0019026035442948
423,-0.0116849187761545,-0.0007409522077068,-0.0057629300281405,0.0044319126754999,-0.008279325440526,-0.0046922205947339
424,-0.0104041928425431,-0.0005429346347227,-0.0054381256923079,0.002217608038336,-0.0067967609502375,-0.0040044020861387
425,-0.0094944927841424,6.20281643932685e-05,-0.0047655389644205,0.0009191903518512,-0.005092829465866,0.0004580431559588
426,-0.0099571701139211,0.0003167886752635,-0.0044784201309084,0.0009922292083501,-0.0044343126937747,0.0062417299486696
427,-0.011119432747364,-0.0001692837977316,-0.004782204516232,0.0020498128142207,-0.0043612727895379,0.0104886014014483
428,-0.0111775593832135,-0.0006295501370914,-0.0049097696319222,0.0034190760925412,-0.0035175178200006,0.0121695026755333
429,-0.0098769608885049,-0.0003503336047288,-0.0043619712814688,0.0044225552119314,-0.0020066769793629,0.0119205368682742
430,-0.0087407249957323,0.0002514201332814,-0.0036312250886112,0.0045403973199427,-0.0010225875303149,0.0105587802827358
431,-0.008556192740798,0.0005969715421088,-0.0028242706321179,0.0044158087112009,-0.0007971043814904,0.0093260174617171
432,-0.0089796176180243,0.0009055862901732,-0.0015785981668159,0.0051125050522387,-0.000837632571347,0.0097550712525844
433,-0.0098422449082136,0.0012062875321134,-0.0004754416586365,0.006006577052176,-0.001140545355156,0.0109967393800616
434,-0.0104997968301177,0.0008749682456254,0.0002516799722798,0.0059015383012592,-0.0010299587156623,0.0101418439298868
435,-0.0104241222143173,-0.0002813422470353,0.0011423795949667,0.004790473729372,0.0002095388044836,0.006089320871979
436,-0.0103712119162083,-0.0015883529558777,0.0017959186807274,0.0033685709349811,0.0015696651535108,0.0012156979646533
437,-0.0107197873294353,-0.0023897083010524,0.0017177900299429,0.0025204406119883,0.0021590327378362,-0.0009561334736645
438,-0.0107645941898227,-0.0025459812022745,0.0012616800377145,0.0027710248250514,0.0021530915983021,0.0010604972485452
439,-0.0102926045656204,-0.001985989511013,0.0004518511996138,0.0039250804111361,0.0013368927175179,0.0064860968850553
440,-0.0095810322090983,-0.0007481338107027,-0.0006898220744915,0.0055899047292769,-0.0001098015127354,0.0133248316124082
441,-0.0086315246298909,0.0004889384144917,-0.0015537907602265,0.0070723085664212,-0.0010992990573868,0.0186022594571114
442,-0.0075353500433266,0.0010303036542609,-0.0016864811768755,0.0075641651637852,-0.0008309960830956,0.0202502757310867
443,-0.0067175347357988,0.0010756351985037,-0.0009852448711171,0.0071698944084346,0.000844377442263,0.0193095076829195
444,-0.0064249141141772,0.0012682864908129,0.0005166748887859,0.0067736394703388,0.0034113903529942,0.0183238256722689
445,-0.0064745466224849,0.0017295726574957,0.0024769406300038,0.0066751651465892,0.0059499070048332,0.0179681126028299
446,-0.0065806396305561,0.002198715461418,0.0038435703609138,0.0062440633773803,0.0075260703451931,0.017278915271163
447,-0.0066561982966959,0.0025090449489653,0.003460963955149,0.0049014780670404,0.0073059415444731,0.0155926104635
448,-0.0068506086245179,0.0027008082251995,0.0015797055093571,0.0034982978831976,0.0052776015363633,0.0135263605043292
449,-0.0072822947986424,0.002972332527861,-0.0004327157512307,0.0040524150244891,0.0025601948145777,0.0123685831204057
450,-0.0080231986939907,0.0033686787355691,-0.0016313724918291,0.0069084102287888,0.0001673869992373,0.011979702860117
451,-0.0089337034150958,0.0035795795265585,-0.0017644014442339,0.0098076909780502,-0.0015588889364153,0.0108240963891149
452,-0.0093689123168587,0.0030104666948318,-0.0012329706223681,0.010237380862236,-0.0023934273049235,0.0077869496308267
453,-0.0089127197861671,0.0016179584199562,-0.0007990291342139,0.0079324394464492,-0.0023371684364974,0.003615042893216
454,-0.0084895361214876,2.95335339615121e-05,-0.0009249267750419,0.0049051227979362,-0.0022635483182966,0.0006826929748058
455,-0.0093988459557294,-0.0011921721743419,-0.0016658735694363,0.0031630287412554,-0.0033130531664937,0.0007820908213034
456,-0.0113160582259297,-0.0019513812148943,-0.0024944562464952,0.0032292746473103,-0.005172106437385,0.0032281454186886
457,-0.0126998508349061,-0.0024024080485105,-0.0026561091654002,0.0044044093228876,-0.0063715111464262,0.0060929683968424
458,-0.0130305364727974,-0.0024309323634952,-0.0024711471050977,0.0054124686866998,-0.0067588044330477,0.0086582479998469
459,-0.0130463382229209,-0.001953404629603,-0.0029838285408914,0.005315990652889,-0.0074193254113197,0.0111064054071903
460,-0.0131406364962459,-0.0014439214719459,-0.0042691715061664,0.0040514087304472,-0.0083907898515462,0.013134696520865
461,-0.0130528593435884,-0.0012817981187254,-0.0053136087954044,0.0018932265229523,-0.0086552631109952,0.0142840435728431
462,-0.0125222317874432,-0.0011703894706443,-0.0054185837507247,-0.0007166069117374,-0.0076959272846579,0.0143273742869496
463,-0.0120239909738302,-0.000967523897998,-0.0052059395238757,-0.003067861078307,-0.0064517296850681,0.013172285631299
464,-0.0123784095048904,-0.0006966736982576,-0.0058378730900585,-0.0042146523483097,-0.0064284792169928,0.0116459457203746
465,-0.0134930610656738,-0.0001342458854196,-0.0073327715508639,-0.0036370086017996,-0.007930046878755,0.0105648245662451
466,-0.0145823415368795,0.0006882603629492,-0.0086589558050036,-0.0022528774570673,-0.0100795766338706,0.0092481030151248
467,-0.0152003690600395,0.0013761180453002,-0.0094807846471667,-0.0017027029534801,-0.0117907570675015,0.0067453859373927
468,-0.0154584804549813,0.0015577245503664,-0.0101549010723829,-0.0023025262635201,-0.0124728875234723,0.0033734384924173
469,-0.015427453443408,0.0012886330951005,-0.0104915294796228,-0.0024221779312938,-0.0123491063714027,0.000397707655793
470,-0.0148570314049721,0.0011071438202634,-0.0099393930286169,-0.0007092792075127,-0.0118440724909306,-0.00135507597588
471,-0.013802825473249,0.0009249752038158,-0.0084842136129736,0.0019506032112985,-0.0113086011260748,-0.002521788701415
472,-0.0129105364903808,2.51813053182559e-05,-0.0069566261954605,0.0037232749164104,-0.0113333966583014,-0.0044201551936566
473,-0.0123161738738418,-0.0011322182836011,-0.0059850751422345,0.0039134691469371,-0.0117649035528302,-0.0067772082984447
474,-0.011538740247488,-0.001945701544173,-0.0052950596436858,0.0026088210288435,-0.0115429544821382,-0.0084021901711821
475,-0.0106561407446861,-0.0030333746690303,-0.0045590260997414,3.97203002648894e-05,-0.0104996180161834,-0.009498001076281
476,-0.0101452050730586,-0.0044820550829172,-0.0036799677181989,-0.0029964954592287,-0.0097778625786304,-0.010708399116993
477,-0.0101046813651919,-0.0052733942866325,-0.0027005742304027,-0.0053900592029094,-0.0102935656905174,-0.0112852267920971
478,-0.0103003429248929,-0.004660424310714,-0.0022311862558126,-0.0066553642973303,-0.0116773191839457,-0.0096842339262366
479,-0.0105645628646016,-0.0030070554930716,-0.0028630211018025,-0.0073645152151584,-0.0128027042374015,-0.0054954313673079
480,-0.0107327485457063,-0.0013722906587645,-0.0041984049603343,-0.008458643220365,-0.0128502715379,-5.83402106713038e-05
481,-0.0109266210347414,-0.0004772902466356,-0.005541066173464,-0.0102720931172371,-0.0121744051575661,0.0044789295643568
482,-0.0115580419078469,-0.0001610960607649,-0.0065330760553479,-0.0118434829637408,-0.0119269639253616,0.0071337781846523
483,-0.012500561773777,2.8030817702529e-05,-0.0069679250009357,-0.0120387719944119,-0.012622058391571,0.0085530383512377
484,-0.0132233891636133,0.000138446863275,-0.0070169907994568,-0.0112403016537428,-0.0137851228937507,0.0091523509472608
485,-0.0134530421346426,0.0001602237025508,-0.0070146252401173,-0.010200927965343,-0.0148351993411779,0.0089102881029248
486,-0.0134912775829434,1.2786285878974e-05,-0.007163765374571,-0.0090378886088728,-0.0160080641508102,0.007902062498033
487,-0.0138028934597969,-0.0006399906706064,-0.0075216144323349,-0.0081400843337178,-0.0176798049360514,0.0061610979028046
488,-0.0142472200095654,-0.0017687546787783,-0.0077946744859218,-0.0078755281865596,-0.0189676992595196,0.004131777677685
489,-0.0142312785610557,-0.0033201933838427,-0.0076603908091783,-0.0084925936535,-0.0184122156351805,0.0014049443416297
490,-0.0131434090435505,-0.0049195974133908,-0.0066771060228347,-0.0097155096009373,-0.0155812269076705,-0.0026171007193625
491,-0.0113832345232368,-0.0056298244744539,-0.0047705695033073,-0.0101344650611281,-0.0120543790981174,-0.0065052728168666
492,-0.0102398432791233,-0.0056714895181357,-0.0030077085830271,-0.00950697530061,-0.0101112145930529,-0.0092074964195489
493,-0.0097179356962442,-0.0056103100068867,-0.0019621490500867,-0.0088841505348682,-0.0099471947178244,-0.0109505355358124
494,-0.0088997511193156,-0.0053163273259997,-0.0010301391594111,-0.0086533855646848,-0.0099845584481954,-0.0122948912903667
495,-0.0078191766515374,-0.0052206763066351,-2.57010324276052e-05,-0.0090972920879721,-0.0090478742495179,-0.0142475999891758
496,-0.0070935911498963,-0.0057123443111777,0.0006343708373606,-0.0102778803557158,-0.0068878699094057,-0.0166102387011051
497,-0.006861429195851,-0.0062492876313626,0.0009187597897835,-0.0110216112807393,-0.003707350930199,-0.0177417621016502
498,-0.0071246437728405,-0.0065373787656426,0.0006379330297932,-0.0102720884606242,-0.0006796553498134,-0.0166116319596767
499,-0.0078455070033669,-0.0066176932305097,-0.0005231733666732,-0.0083655705675482,0.0004943551030009,-0.0137568432837725
500,-0.0084108579903841,-0.0065014180727303,-0.0017723811324685,-0.0066859549842774,-0.0003075872955378,-0.0113672781735659
501,-0.0084311943501234,-0.006865304429084,-0.002241879934445,-0.0070005250163376,-0.0018375918734818,-0.0117276860401034
502,-0.0079464679583907,-0.0078076575882732,-0.0019032164709642,-0.0092761553823947,-0.0029926083516329,-0.0138591285794973
503,-0.0067564118653535,-0.0083441725000739,-0.0006546530639752,-0.0115040130913258,-0.0029503195546567,-0.014647631905973
504,-0.0048251361586153,-0.0082246884703636,0.0016634807689115,-0.0128884008154273,-0.0012086301576346,-0.0132383313030005
505,-0.0027817094232887,-0.0081470943987369,0.0044613745994865,-0.0146050555631518,0.0016760353464633,-0.0114358505234122
506,-0.0013349941000342,-0.0084022991359233,0.0072389738634228,-0.0168560333549976,0.0045749098062515,-0.0103716468438506
507,-0.0009061063756234,-0.0086170928552746,0.0100090419873595,-0.0178536232560873,0.0066182021982967,-0.0093338191509246
508,-0.0014658095315098,-0.0085185980424284,0.0121421506628394,-0.0165506731718779,0.0070893559604883,-0.0083101876080036
509,-0.0024556585121899,-0.0080433990806341,0.0125120235607028,-0.0136452876031399,0.0058687371201813,-0.0080657610669732
510,-0.0034121626522392,-0.0072282943874597,0.0107797626405954,-0.0103714596480131,0.003799777245149,-0.0081238253042101
511,-0.0038873977027833,-0.0061994744464755,0.0080625107511878,-0.007510891649872,0.0020501601975411,-0.0067136408761143
512,-0.0035907460842281,-0.0052225664258003,0.0057369982823729,-0.0054804747924208,0.0010313600068911,-0.0028272080235183
513,-0.0024947610218077,-0.0044332640245556,0.004653325304389,-0.0047448053956031,0.0010477269534021,0.0017796606989577
514,-0.0008460009703412,-0.004150285385549,0.0050648711621761,-0.0053018289618194,0.0023790013510733,0.0039151743985712
515,0.0008208961808122,-0.0048028463497757,0.0063477153889834,-0.0066355871967971,0.0043024285696446,0.0023248502984643
516,0.0023599024862051,-0.0058751916512846,0.0077442075125873,-0.0082465894520282,0.0061403322033584,-0.0014081104891374
517,0.0037580200005322,-0.0066752764396369,0.008664296939969,-0.0098174521699547,0.0077290181070566,-0.0053064455278217
518,0.0046377396211028,-0.0070644645020365,0.0085971439257264,-0.0109437210485339,0.0088271293789148,-0.0083631528541445
519,0.0045126099139452,-0.0069848210550844,0.0074723958969116,-0.0113660451024771,0.0090532908216118,-0.0097244661301374
520,0.0032477790955454,-0.0062797386199235,0.0056931478902697,-0.0110010458156466,0.0079150535166263,-0.0085811102762818
521,0.0013534345198422,-0.0049276393838226,0.0039891768246889,-0.0097521264106035,0.0056537548080086,-0.0055197449401021
522,-0.0001073559978976,-0.0032234112732112,0.003007823601365,-0.008191218599677,0.0036903950385749,-0.0024304199032485
523,-0.0006264395196922,-0.0016219767276197,0.0026133500505238,-0.0074066985398531,0.0027838835958391,-0.0006465193000622
524,-0.000599599792622,-0.0002234414714621,0.0025208643637597,-0.0072341542690992,0.002454008674249,3.20633735100273e-05
525,-0.000479241105495,0.001138576073572,0.0027733880560845,-0.0065266699530184,0.0023013080935925,0.0004723172751255
526,-0.0007688655168749,0.0022284379228949,0.0030878246761858,-0.0050396369770169,0.0020185033790767,0.0010393093107268
527,-0.0015312094474211,0.0029446959961205,0.0032194734085351,-0.0030053805094212,0.001575110363774,0.0020117165986448
528,-0.0021831137128174,0.003446587594226,0.0033726354595273,-0.0011155850952491,0.0016730577917769,0.0032358379103243
529,-0.0022269948385655,0.0036003007553517,0.0042976923286914,-0.0005400084774009,0.003112694248557,0.003697280306369
530,-0.0014221760211512,0.0035199327394366,0.0067550772801041,-0.0013639510143548,0.0060139279812574,0.0029750077519565
531,-0.0003043281903956,0.0032706218771636,0.0097209084779024,-0.0030537422280758,0.0091002043336629,0.0012334663188085
532,0.0001259276032214,0.0023950731847435,0.0112259816378355,-0.0052495063282549,0.0106155946850777,-0.0011917159426957
533,-0.0001675654493737,0.0011843105312436,0.0111354570835829,-0.0069641917943954,0.0103945005685091,-0.0026401006616652
534,-0.0006628556875512,0.0005247456720098,0.0104991132393479,-0.0075928010046482,0.0093437656760215,-0.0015101183671504
535,-0.0012245496036484,0.0004639162798412,0.0098595013841986,-0.0077728345058858,0.0080568790435791,0.0012427598703652
536,-0.0018571469699963,0.000386106170481,0.0091314008459448,-0.0080040544271469,0.0066227922216057,0.0028514759615063
537,-0.0023819115012884,8.65972197061637e-06,0.008015913888812,-0.0077584264799952,0.0048836544156074,0.0017904676496982
538,-0.0028525844682008,-0.0004144536505918,0.0067651071585714,-0.0061417520046234,0.0029955192003399,-0.0008595050312578
539,-0.0038047863636165,-0.0007614478236064,0.0060006990097463,-0.0038423645310103,0.0011115948436781,-0.0033890316262841
540,-0.0052472618408501,-0.0013283764710649,0.0060677789151668,-0.0027640173211693,-0.0006989907124079,-0.0053398003801703
541,-0.0064116599969565,-0.0021271782461553,0.0066999495029449,-0.0035134269855916,-0.0019966179970651,-0.0069280504249036
542,-0.0068406863138079,-0.0024875293020159,0.0071632196195423,-0.0055260406807065,-0.0024191606789827,-0.0075182318687439
543,-0.0068385899066925,-0.0021320462692529,0.0070126573555171,-0.0080038476735353,-0.0023852195590734,-0.0060352999716997
544,-0.0068369070068001,-0.001435280428268,0.0064386008307337,-0.0096421455964446,-0.0028294168878346,-0.0022521859500557
545,-0.006672918330878,-0.000482243602164,0.0059719253331422,-0.0093911252915859,-0.0036789961159229,0.0029534641653299
546,-0.0060299495235085,0.0006733569316565,0.0056251850910484,-0.0078766783699393,-0.0040904115885496,0.0075041754171252
547,-0.0052477763965725,0.001540646655485,0.0048875124193728,-0.0066202697344124,-0.0040591093711555,0.009461767040193
548,-0.004675876814872,0.0019678070675581,0.0040569147095084,-0.0059222471900284,-0.0038081021048128,0.0089958067983388
549,-0.0041826786473393,0.0023648403584957,0.0037531568668782,-0.0049975202418863,-0.0033452941570431,0.0073293349705636
550,-0.0038687353953719,0.0027316876221448,0.0037898104637861,-0.0034785447642207,-0.0029339303728193,0.0048502725549042
551,-0.0041659181006252,0.002708112122491,0.0039391699247062,-0.0017575738020241,-0.0027104613836854,0.0018342814873904
552,-0.005012989975512,0.0024413981009274,0.0042467047460377,-0.0006895046681165,-0.0025395164266228,-0.0005822465755045
553,-0.0056639690883457,0.0023654187098145,0.0047812764532864,-0.0009986984077841,-0.0020417459309101,-0.0015759650850668
554,-0.0056407744996249,0.0026787514798343,0.0054885325953364,-0.0023680895101279,-0.0013014010619372,-0.0017463946714997
555,-0.0054409746080637,0.0034791799262166,0.005846750922501,-0.003713798476383,-0.0015628127148374,-0.0017760108457878
556,-0.005767195019871,0.0043747997842729,0.0055199330672621,-0.0045917406678199,-0.0033696293830871,-0.001401744200848
557,-0.0062390626408159,0.0048604290932416,0.0050573968328535,-0.0054212566465139,-0.0051904874853789,-0.0003601891512516
558,-0.006040817592293,0.0052411574870348,0.0050784456543624,-0.0066315568983554,-0.0055723669938743,0.0011559894774109
559,-0.0051109655760228,0.0059051164425909,0.0051469695754349,-0.0082549965009093,-0.0047111450694501,0.0029546583537012
560,-0.0038885518442839,0.0067096520215272,0.0044998261146247,-0.0098230969160795,-0.0038554959464818,0.0045896968804299
561,-0.0028434612322598,0.0072388066910207,0.0038152036722749,-0.0102939354255795,-0.00404420401901,0.005026641767472
562,-0.0025142496451735,0.0072933668270707,0.0043216221965849,-0.0089434990659356,-0.005284990184009,0.0041213198564946
563,-0.0033533109817653,0.00700823077932,0.0056087258271873,-0.006630097515881,-0.0073044314049184,0.0031991251744329
564,-0.0048242257907986,0.0066233919933438,0.0064940275624394,-0.0044491779990494,-0.0094381421804428,0.0036458584945648
565,-0.0059214187785983,0.0065022632479667,0.0067259701900184,-0.0024179473984986,-0.0107347583398223,0.0059521161019802
566,-0.0063119586557149,0.0067908186465501,0.0066174389794468,-0.0008240125607699,-0.011047069914639,0.0091045293956995
567,-0.0059824720956385,0.0073917531408369,0.0068046008236706,-0.0001492201699875,-0.010290221311152,0.011453072540462
568,-0.0049394899979233,0.0080915391445159,0.0082580391317606,-0.0002468834281899,-0.0079486314207315,0.0120747731998563
569,-0.0036844247952103,0.0082790125161409,0.0104675833135843,-0.0010210125474259,-0.0048361280933022,0.0105473306030035
570,-0.0031381528824567,0.0075434339232742,0.0117165353149176,-0.0019851326942443,-0.0028629363514483,0.0071595818735659
571,-0.0035409410484135,0.0063748992979526,0.0119184907525778,-0.0020698755979538,-0.0025522157084196,0.0029566276352852
572,-0.0043861176818609,0.0052563250064849,0.0120752556249499,-0.0011801272630691,-0.003271919908002,-0.0015915441326797
573,-0.0051429881714284,0.0042332238517701,0.012352341786027,-1.58795082825236e-05,-0.0045159254223108,-0.0064076371490955
574,-0.0056421346962451,0.0035359980538487,0.0121642043814063,0.0008099437691271,-0.0060961167328059,-0.010367788374424
575,-0.0061714365147054,0.0031470821704715,0.0111873783171177,0.0003121166082564,-0.0078119151294231,-0.0118050798773766
576,-0.0069515015929937,0.0028876180294901,0.0099888015538454,-0.0017479073721915,-0.0089761270210146,-0.0099009852856397
577,-0.0075036282651126,0.0030145754572004,0.0092689869925379,-0.0037792189978063,-0.008869344368577,-0.0054074842482805
578,-0.0073134056292474,0.0033324679825455,0.0088182147592306,-0.0045244810171425,-0.0079251071438193,-0.0008504878496751
579,-0.0069589386694133,0.0032311829272657,0.007650313898921,-0.0042021879926323,-0.0078849913552403,0.0014955387450754
580,-0.0069787418469786,0.0029709788504988,0.0056472872383892,-0.0030465708114206,-0.0095279840752482,0.0017938739620149
581,-0.0069075864739716,0.0033279422204941,0.003915024921298,-0.0012413876829668,-0.0116759650409222,0.001712669734843
582,-0.0065518897026777,0.0042047672905027,0.0028787879273295,6.74290131428279e-05,-0.0132774906232953,0.0023521201219409
583,-0.0060394834727048,0.0048398110084235,0.0023323327768594,-0.0003986783849541,-0.0135959144681692,0.0030834325589239
584,-0.0053515015169978,0.0049311816692352,0.0026429425925016,-0.0023791817948222,-0.0119599308818579,0.002914325101301
585,-0.0048428131267428,0.0046846410259604,0.0041320133022964,-0.0043233432807028,-0.0092822052538394,0.0024728120770305
586,-0.0049010729417204,0.0043655424378812,0.0061771553009748,-0.0051749642007052,-0.0071622268296778,0.002574500394985
587,-0.0053500737994909,0.0037866989150643,0.0076049631461501,-0.0050512081943452,-0.0060404911637306,0.0024161017499864
588,-0.005727123003453,0.002660424914211,0.0077720372937619,-0.0043725278228521,-0.0055930777452886,0.0006782140699215
589,-0.0060108555480837,0.0012533648405224,0.0068103978410363,-0.00370763707906,-0.0056352792307734,-0.0027612783014774
590,-0.0061961282044649,0.0003423424204811,0.0054208850488066,-0.0033628570381552,-0.0057474859058857,-0.0060833520255982
591,-0.0062524429522454,0.0002902105043176,0.0042667053639888,-0.0031589881982654,-0.005632349755615,-0.0071231890469789
592,-0.0065023675560951,0.0004231506318319,0.0033295007888227,-0.0035032643936574,-0.0056754774414002,-0.0057838447391986
593,-0.0065676979720592,0.0004128835571464,0.0024765429552644,-0.0046181972138583,-0.0058958902955055,-0.0033606549259275
594,-0.0061331866309046,0.0003993228892795,0.0017399010248482,-0.0059374910779297,-0.006151801906526,-0.001313537126407
595,-0.0057935006916523,0.0002157682320103,0.0012855563545599,-0.0070591159164905,-0.0065028625540435,-0.0004512142913881
596,-0.0059298304840922,3.51235466951039e-05,0.0009327895822934,-0.0077048535458743,-0.007084070239216,-5.97422986174934e-05
597,-0.0060830009169876,0.0005460832617245,0.0002845243434421,-0.0075169187039136,-0.0077787302434444,0.0009243006352335
598,-0.0058532780967652,0.001509153866209,-0.0003562166821211,-0.0068260515108704,-0.0078239822760224,0.001933486899361
599,-0.0058984640054404,0.0015654847957193,-0.0006840059068053,-0.0062871086411178,-0.0071653192862868,0.0011513081844896
600,-0.0064263446256518,0.0005557765834964,-0.0004474104207474,-0.0055552055127918,-0.0063525000587105,-0.0021637799218297
601,-0.0070152324624359,-0.000675665854942,0.0002381337690167,-0.0045288321562111,-0.0059786518104374,-0.007394315674901
602,-0.0075883171521127,-0.0015129465609788,0.0004984025727026,-0.0038758656010031,-0.0064779478125274,-0.0129412980750203
603,-0.0079911984503269,-0.0016104916576296,0.000148979583173,-0.0032753329724073,-0.0073638116009533,-0.0168597102165222
604,-0.0081197889521718,-0.0014896992361173,-4.51766500191297e-05,-0.0024114854168146,-0.0077439849264919,-0.0189016349613667
605,-0.0078012500889599,-0.0016493928851559,0.0006232557352632,-0.0023440355435013,-0.0070367525331676,-0.0197099484503269
606,-0.0071085300296545,-0.0018037639092654,0.0016815214185044,-0.0038857054896652,-0.0059247016906738,-0.0187178403139114
607,-0.0067208013497293,-0.0017673878464847,0.0018511860398575,-0.0062608071602881,-0.0058722766116261,-0.0156928636133671
608,-0.0069616241380572,-0.0015565856592729,0.0009915443370118,-0.0076865195296704,-0.0069390297867357,-0.0118421046063304
609,-0.0071842237375676,-0.0009743879199959,0.0001553098409203,-0.0071289190091192,-0.0077874083071947,-0.0077818748541176
610,-0.0066530462354421,3.48670982930344e-05,-7.7192577009555e-05,-0.0052714156918227,-0.0073329019360244,-0.0033662146888673
611,-0.0056191645562648,0.0010901716304943,-0.0002147019549738,-0.0034871795214712,-0.0055624032393097,0.0007214244687929
612,-0.0047531365416944,0.0016853128327056,-0.0005685402429662,-0.002968810731545,-0.0037014565896242,0.0033047965262085
613,-0.0041178846731782,0.0017876231577247,-0.0003201180079486,-0.0039273854345083,-0.0030622417107224,0.0044225053861737
614,-0.0034880705643445,0.0017253748374059,0.000769359699916,-0.0053401184268295,-0.0036579836159944,0.0048074717633426
615,-0.0026117546949535,0.0016225901199504,0.0016860604519024,-0.0063284360803663,-0.0046143289655447,0.0041979774832725
616,-0.0012581583578139,0.0013769431971013,0.0022468212991952,-0.0066469674929976,-0.005079086869955,0.0022049224935472
617,-8.52865778142586e-05,0.0005088276811875,0.0029496087227016,-0.0064757759682834,-0.0049994187429547,-0.0013033562572673
618,-8.40265856822953e-05,-0.001330695929937,0.0035763452760875,-0.0059896544553339,-0.005121674388647,-0.0062442030757665
619,-0.001123980153352,-0.0035304052289575,0.0037697106599807,-0.0050967568531632,-0.0057827634736895,-0.0113153159618378
620,-0.0022918321192264,-0.0050405198708176,0.0036576059646904,-0.0040320907719433,-0.0064703435637056,-0.0147384274750948
621,-0.0027597357984632,-0.0052182134240865,0.0037518332246691,-0.0027817769441753,-0.0065889824181795,-0.0151329543441534
622,-0.0022421954199671,-0.0041550360620021,0.0042875674553215,-0.0015423849690705,-0.0057243732735514,-0.0124314995482564
623,-0.0012861491413787,-0.0027715913020074,0.0046114386059343,-0.00170095753856,-0.0039068819023668,-0.0086667500436306
624,-0.0002787257835734,-0.001762835192494,0.0043352278880775,-0.0034866980277001,-0.0017007461283356,-0.0057177208364009
625,0.0011843700194731,-0.0009493937250226,0.0041255909018218,-0.0052710734307766,0.0005525353481061,-0.0039247730746865
626,0.0028553870506584,-0.0004478587070479,0.0043855821713805,-0.0058721038512885,0.0024476922117173,-0.0031407987698912
627,0.0036746149417012,-0.0006205359240993,0.004496659617871,-0.0053898706100881,0.0028580361977219,-0.0031029768288135
628,0.003178966930136,-0.0013815296115353,0.0035412136930972,-0.0049238065257668,0.0009035365073941,-0.0037447230424732
629,0.0020836479961872,-0.0022795796394348,0.0020196223631501,-0.0050690346397459,-0.0020524612627923,-0.0048763933591544
630,0.0014473308110609,-0.0027599618770182,0.001585979014635,-0.0047996151261031,-0.0035984427668154,-0.0059520686045289
631,0.0015100055607035,-0.0027734648901969,0.0028898806776851,-0.002934094518423,-0.003181888256222,-0.0065901419147849
632,0.0019376162672415,-0.0028521721251308,0.0052518271841108,-9.74622453213669e-05,-0.0017905250424519,-0.0069064572453498
633,0.0020858438219875,-0.0036380849778652,0.0075476076453924,0.001951637212187,-0.0007748450152575,-0.0077949254773557
634,0.0016724232118576,-0.0049853506498038,0.0094241816550493,0.002970719942823,-0.0004725850012619,-0.0095373410731554
635,0.0010683166328817,-0.0062299105338752,0.0109267150983214,0.0035820784978568,-0.0001475866447435,-0.0112197799608111
636,0.0003133927239105,-0.0071841636672616,0.0117616802453995,0.0037156720645725,0.0005322518991306,-0.0120629873126745
637,-0.0004489296406973,-0.0072430046275258,0.0118460208177567,0.0035901179071515,0.0016201719408854,-0.0111945746466517
638,-0.0009604030638001,-0.0056390836834907,0.0110338237136602,0.0033367604482919,0.0025719737168401,-0.0077819316647946
639,-0.001367773162201,-0.0030391458421945,0.0095590930432081,0.0024821483530104,0.0023799873888492,-0.0026330377440899
640,-0.0017604281893,-0.0009372449130751,0.0084760133177042,0.0010165274143219,0.0009374507353641,0.0018791131442412
641,-0.0023080685641616,-0.0002165176993003,0.0082879699766635,-0.000679183693137,-0.001041390816681,0.0037645471747964
642,-0.003197539364919,-0.0006241968949325,0.0082233911380171,-0.0023004913236945,-0.0029286181088537,0.0033772345632314
643,-0.004104180727154,-0.0011934308568015,0.0076267402619123,-0.0032974986825138,-0.004372120834887,0.0029891203157603
644,-0.0046899388544261,-0.0011218527797609,0.0067054890096187,-0.0032391150016337,-0.0054527344182133,0.0042111026123166
645,-0.0050225122831761,-0.0003016557893715,0.0056526800617575,-0.002351066796109,-0.0065686698071658,0.0067255431786179
646,-0.0051757516339421,0.0004924323875457,0.0048742485232651,-0.0011235460406169,-0.0072954180650413,0.0088085941970348
647,-0.0049714581109583,0.0006393379881046,0.0053347717039287,0.0005305799422785,-0.0064887274056673,0.0092171933501958
648,-0.0042813345789909,0.000433294015238,0.0072239316068589,0.0028184338007122,-0.0041926293633878,0.0081284251064062
649,-0.0035856429021805,0.0001037027395796,0.0093668811023235,0.0049986680969595,-0.0019520546775311,0.0058663534000515
650,-0.0029107010923326,-0.0001471118594054,0.010945332236588,0.00645137950778,-0.0004784819029737,0.0028509907424449
651,-0.0014636722626164,0.0001500580401625,0.0123689966276288,0.0078973202034831,0.0008324714144691,0.0003741782857105
652,0.0004334264085628,0.0009353705099783,0.0138337574899197,0.0103795286267996,0.0018153720302507,-2.75475376838585e-05
653,0.0014951837947592,0.0019378801807761,0.0149004478007555,0.0139308217912912,0.0016195840435102,0.0023782080970704
654,0.0013853602577,0.0031734718941152,0.0152344834059477,0.0170449335128069,0.0003711674362421,0.0068258899264037
655,0.0008209368679672,0.0041954079642891,0.014801231212914,0.0176267176866531,-0.0008303691283799,0.0108892899006605
656,0.000474933796795,0.0044229635968804,0.0142468512058258,0.0154758775606751,-0.0009358786046504,0.0124123161658645
657,0.0004901180509477,0.004032558761537,0.0140882143750787,0.0125322993844748,-0.0001118487416533,0.0113575216382742
658,0.0006678921054117,0.0033309254795312,0.0139774372801185,0.0104857124388218,0.0005530425696633,0.0086755640804767
659,0.0006607129471376,0.0021553884726017,0.013533771969378,0.0088999327272176,0.0003526121145114,0.0048149744980037
660,0.0004155954811722,0.0006739091477356,0.0129352239891887,0.0063850609585642,-0.0007197264349088,0.0005843627732247
661,-6.42440500087105e-05,-0.0007577234064228,0.0124674784019589,0.0028067091479897,-0.0024514745455235,-0.0026856795884668
662,-0.0008051372133195,-0.0019678915850818,0.0119287390261889,-0.0006452837842516,-0.0045081437565386,-0.0040822415612638
663,-0.0012301580281928,-0.0024671456776559,0.0112767247483134,-0.0025968302506953,-0.0060083912685513,-0.0031902778428047
664,-0.0008957204408943,-0.002094070892781,0.0106438454240561,-0.0028143532108515,-0.0060889208689332,-0.000439053896116
665,-0.0002774215245153,-0.0011192312231287,0.0097613846883177,-0.0020870743319392,-0.0051564816385507,0.0033476816024631
666,-0.0001421062916051,-3.12775082420558e-05,0.0085386270657181,-0.0012300459202379,-0.004856732673943,0.0069155762903392
667,-0.0007127947174012,0.0004572325851768,0.0070172548294067,-0.0007943240925669,-0.0064477422274649,0.0083438660949468
668,-0.0016198542434722,-2.72490487986943e-05,0.0050889118574559,-0.0011566440807655,-0.0094895446673035,0.0065571600571274
669,-0.0021376591175794,-0.0011705027427524,0.0034554253797978,-0.0021301438100636,-0.0119438311085105,0.0026211307849735
670,-0.0017465542769059,-0.0022448622621595,0.0033077381085604,-0.0028155394829809,-0.0120761077851057,-0.0009959464659914
671,-0.000503969786223,-0.0029113797936588,0.0050135729834437,-0.0024650320410728,-0.0099222930148243,-0.0024898026604205
672,0.0011002370156347,-0.0037102298811078,0.0076665501110255,-0.0014747526729479,-0.0068788039498031,-0.0025476599112153
673,0.0024098991416394,-0.0052020759321749,0.009504372254014,-0.0008497422095388,-0.0047507230192422,-0.0034296496305614
674,0.0031611281447112,-0.0067772944457829,0.0097812693566083,-0.0004531558661255,-0.0043156435713172,-0.0055333385244011
675,0.0035461394581943,-0.0075853462330997,0.0096379043534398,0.0006634795572608,-0.0048208711668849,-0.0075845695100724
676,0.0037862847093492,-0.0077355420216918,0.0105678671970963,0.0026340065523982,-0.005156469065696,-0.0091063547879457
677,0.0039603859186172,-0.0076615330763161,0.0128452898934484,0.0047889174893498,-0.0048887394368648,-0.0098123168572783
678,0.0039554820396006,-0.0076448400504887,0.0152938775718212,0.0062945620156824,-0.0041861748322844,-0.0093229888007044
679,0.0035722036845982,-0.0081174196675419,0.0167442001402378,0.0063978135585784,-0.0034172590821981,-0.0083826715126633
680,0.0031009998638182,-0.0090478584170341,0.0173194352537394,0.0053706858307123,-0.0028323102742433,-0.007831310853362
681,0.0028069785330444,-0.0097329933196306,0.0175816919654608,0.0045528742484748,-0.0025313259102404,-0.0074626882560551
682,0.0022924439981579,-0.0097955064848065,0.0174038279801607,0.0044399909675121,-0.0026021397206932,-0.0068522905930876
683,0.0016764909960329,-0.0093398746103048,0.016655033454299,0.0044767223298549,-0.0025087944231927,-0.0057116276584565
684,0.0015330250607803,-0.0086533967405557,0.0160422325134277,0.0044030002318322,-0.0014575944514945,-0.0039562243036925
685,0.0019061405910179,-0.007999806664884,0.0160752572119236,0.004069544840604,0.0006143111386336,-0.0022333993110805
686,0.0026902444660663,-0.0075373770669102,0.0164019651710987,0.0034873322583735,0.0032443406525999,-0.0015810173936188
687,0.0036538150161504,-0.0071855061687529,0.0166856572031975,0.0032972816843539,0.0055400007404387,-0.0017894360935315
688,0.0044037536717951,-0.0066104251891374,0.0169208496809006,0.0038003774825483,0.0068478593602776,-0.0013014989672228
689,0.0049556270241737,-0.0056882034987211,0.0172174740582705,0.0049810698255896,0.007441165857017,0.0008926787995733
690,0.005292649846524,-0.0046362858265638,0.017381377518177,0.0068502840586006,0.0074452022090554,0.0045505939051508
691,0.0051831025630235,-0.0039151636883616,0.0171820204705,0.0087843257933855,0.006465470418334,0.0086344024166464
692,0.004983611870557,-0.0036696132738143,0.0173306278884411,0.010362752713263,0.0048900172114372,0.012113737873733
693,0.0051429984159767,-0.0038594272918999,0.0184018183499575,0.011430149897933,0.0037398133426904,0.013513570651412
694,0.0055836196988821,-0.0047501954250037,0.0200124494731426,0.0115810455754399,0.0034621788654476,0.0112466625869274
695,0.0058931140229105,-0.0061017526313662,0.0216290578246117,0.0112314848229289,0.0036487504839897,0.0064351144246757
696,0.0054375440813601,-0.0071490630507469,0.02237812243402,0.0112878391519189,0.0031480337493121,0.0026331348344683
697,0.0043373294174671,-0.0075526610016822,0.0215450320392847,0.0118313701823354,0.0015088218497112,0.0019763621967285
698,0.0037011951208114,-0.0076402486301958,0.019932271912694,0.0124045023694634,0.0002688571403268,0.0031957575120031
699,0.0042740632779896,-0.0076944143511354,0.0191691815853119,0.0127845341339707,0.0012619979679584,0.0041850637644529
700,-0.0061066816560924,-0.0034455093555152,-0.0155995348468423,-0.0028379731811583,-0.0171702951192856,-0.0024667649995535
701,-0.0072140786796808,-0.0042024357244372,-0.0172018967568874,-0.0043328618630766,-0.0198691561818123,-0.0045809452421963
702,-0.0091660534963011,-0.0050405426882207,-0.0193947739899158,-0.0067255729809403,-0.0233676861971617,-0.0044361101463437
703,-0.0101663935929537,-0.0075621344149112,-0.0210176091641188,-0.0110559985041618,-0.0232845600694418,-0.0049868249334394
704,-0.009246421046555,-0.0117163565009832,-0.0211274903267622,-0.0154059622436762,-0.0193742848932743,-0.0075224530883133
705,-0.0076838014647364,-0.0138280922546983,-0.0208031125366688,-0.0177570693194866,-0.0164612140506506,-0.0093807224184274
706,-0.0074777551926672,-0.0117571363225579,-0.021955344825983,-0.0182482246309519,-0.0176254697144032,-0.0084095504134893
707,-0.0083942264318466,-0.007319982163608,-0.0240767300128937,-0.0167642813175917,-0.0207627601921558,-0.0054889437742531
708,-0.009338098578155,-0.0026681763119995,-0.0255412887781858,-0.0137386778369546,-0.0236406717449427,-0.0029987869784236
709,-0.0096784261986613,0.0004644001892302,-0.0250823553651571,-0.0111388014629483,-0.0253588426858187,-0.0027698334306478
710,-0.008689378388226,0.0015374848153442,-0.0228623300790787,-0.0102704875171185,-0.0251347552984953,-0.0038782076444476
711,-0.0066709266975522,0.0011290664551779,-0.0208596829324961,-0.0111671760678291,-0.0231388732790947,-0.0049545974470675
712,-0.0052146445959806,-0.000504903611727,-0.0207351855933666,-0.0136522566899657,-0.0214626807719469,-0.0075005493126809
713,-0.0047327615320682,-0.0030057274270802,-0.02209397777915,-0.0168098211288452,-0.0217791460454464,-0.0131341516971588
714,-0.0038357356097549,-0.0063229226507246,-0.0229794420301914,-0.018461225554347,-0.0225748904049397,-0.0203902218490839
715,-0.0025056975428015,-0.009553269483149,-0.0230754557996988,-0.0179054941982031,-0.0228312406688929,-0.0243898294866085
716,-0.0023475866764783,-0.0103613343089819,-0.023609446361661,-0.0166969504207373,-0.0233319289982319,-0.0212459359318018
717,-0.0040105399675667,-0.007617799565196,-0.0247695259749889,-0.0155570795759559,-0.0242215506732464,-0.012434427626431
718,-0.0061962874606251,-0.0031771634239703,-0.025671660900116,-0.0142728220671415,-0.0242304727435112,-0.003241412108764
719,-0.0071877571754157,0.000458663678728,-0.0253573711961508,-0.0125661175698042,-0.0222579650580883,0.0026844423264265
720,-0.0068509080447256,0.002348105655983,-0.0243680085986853,-0.0108439875766635,-0.0200719460844994,0.0044252793304622
721,-0.0061082602478563,0.0020837946794927,-0.0237726848572493,-0.0102163320407271,-0.0199493858963251,0.0019775289110839
722,-0.0058282045647501,0.0005827394197694,-0.0237504970282316,-0.010703113861382,-0.0220399405807257,-0.0019632407929748
723,-0.0059716431424021,-0.0003246730484534,-0.0243101101368666,-0.0119477240368724,-0.0247458461672068,-0.0045558903366327
724,-0.0054976120591163,-0.0012855833629146,-0.0243411492556334,-0.0130413649603724,-0.0249272063374519,-0.0060945758596062
725,-0.0038428131956607,-0.0036652782000601,-0.0231306739151478,-0.0128968525677919,-0.0219752360135317,-0.0077564306557178
726,-0.0016158466460183,-0.0062935366295278,-0.0225409418344498,-0.0132818827405572,-0.0192921627312899,-0.0113819306716323
727,-7.93557483120821e-05,-0.0074942884966731,-0.0236695520579815,-0.0156280398368835,-0.0189864225685596,-0.0167758017778397
728,0.0002062935091089,-0.0073456899262964,-0.0246341414749622,-0.0173944924026728,-0.0195646844804287,-0.0198934059590101
729,-0.0006286832503974,-0.0057251537218689,-0.0244567915797234,-0.0167950075119734,-0.0200892817229033,-0.0183774661272764
730,-0.0024853453505784,-0.0021412866190075,-0.024678872898221,-0.0152319073677063,-0.0217469055205584,-0.0141669427976012
731,-0.0043694362975657,0.0012579729082062,-0.0253521986305714,-0.0136108417063951,-0.0238182824105024,-0.0109555358067155
732,-0.0054143634624779,0.0026405220851302,-0.0249452628195286,-0.0113850943744183,-0.0244729425758123,-0.0087059028446674
733,-0.0057887374423444,0.0031440514139831,-0.0234156828373671,-0.0090334666892886,-0.0232261624187231,-0.0055854711681604
734,-0.0054729036055505,0.0033720911014825,-0.0218137390911579,-0.00785459484905,-0.0203313939273357,-0.0036889233160764
735,-0.0049954317510128,0.0040638512000441,-0.0216889567673206,-0.0076952711679041,-0.0181003492325544,-0.001792840193957
736,-0.0049460320733487,0.0060579236596822,-0.0236693453043699,-0.0080994619056582,-0.018106933683157,0.0030375423375517
737,-0.0043857735581696,0.0071554505266249,-0.0257919821888208,-0.0095837786793708,-0.0182397123426199,0.0066064200364053
738,-0.0027002275455743,0.0050802333280444,-0.0259505249559879,-0.0115871215239167,-0.0171730984002352,0.0051725939847528
739,-7.21622272976674e-05,0.0001893900334835,-0.0240074060857296,-0.0131357833743095,-0.0153329977765679,-0.0017438457580283
740,0.0032378497999161,-0.0060774572193622,-0.021394919604063,-0.0146665964275599,-0.0128030302003026,-0.0138004664331675
741,0.0052828015759587,-0.0105455508455634,-0.0203047133982182,-0.0156028168275952,-0.0116681903600693,-0.0239463374018669
742,0.0042654876597225,-0.0106588779017329,-0.0215438902378082,-0.0144891580566764,-0.0141927013173699,-0.0258066654205322
743,0.0013687721220776,-0.0081908293068409,-0.0231594052165747,-0.0117233181372285,-0.0182256139814854,-0.0222768075764179
744,-0.0010459065670147,-0.0056190276518464,-0.0233711693435907,-0.0090782102197408,-0.0206545609980822,-0.016762325540185
745,-0.0016107956180349,-0.0035049603320658,-0.0222339686006308,-0.0078928610309958,-0.0201142206788063,-0.0098780151456594
746,-0.000899666105397,-0.0015372727066278,-0.0207284763455391,-0.008147420361638,-0.0168694145977497,-0.0033473374787718
747,0.0001889187551569,-0.0004104386898688,-0.0196793116629124,-0.0097030866891145,-0.01283192448318,-0.0006986268563196
748,0.0020152844954282,-0.001838500262238,-0.0180913247168064,-0.0118617359548807,-0.0082870377227664,-0.0026247408241033
749,0.004010141827166,-0.0044070864096283,-0.0158084239810705,-0.0133433900773525,-0.0035886082332581,-0.0053521948866546
750,0.0052215121686458,-0.005260837264359,-0.0144912358373404,-0.0145345637574792,-0.0010148516157642,-0.0078591527417302
751,0.0053962627425789,-0.004569036886096,-0.0145732183009386,-0.0155817111954093,-0.0026706031057983,-0.0111266281455755
752,0.0042951297946274,-0.0032015808392316,-0.0152084128931165,-0.0148484027013183,-0.0077806441113352,-0.0133564630523324
753,0.0027703728992492,-0.0017626418266445,-0.01585353910923,-0.0123557671904564,-0.0118772825226188,-0.0138477142900229
754,0.001399814733304,-0.0009945781202986,-0.0174531582742929,-0.0107019916176796,-0.0138695361092687,-0.0136782936751843
755,-0.0001967030693776,-0.0001516758784418,-0.0203069970011711,-0.0103975730016828,-0.0165962222963572,-0.0118019171059132
756,-0.0013576855417341,0.0011929719476029,-0.02240433357656,-0.0094050588086247,-0.0196051001548767,-0.0075393426232039
757,-0.0009524533525109,0.0017362004145979,-0.0222431384027004,-0.0078000044450163,-0.0198475271463394,-0.0042136358097195
758,0.0009878660785034,0.0007973575266078,-0.0202824790030718,-0.0071431859396398,-0.0165836773812771,-0.005064426921308
759,0.0036213637795299,-0.0012117796577513,-0.017689349129796,-0.0074496241286397,-0.0116798439994454,-0.0092269154265523
760,0.0059277196414768,-0.0038431857246905,-0.0158153139054775,-0.0083076655864715,-0.0072677903808653,-0.0138602703809738
761,0.0073100812733173,-0.0060716979205608,-0.0155240278691053,-0.0098565062507987,-0.0042827827855944,-0.0166771560907364
762,0.0078588286414742,-0.0066055036149919,-0.0161257870495319,-0.0111183961853385,-0.0026314528658986,-0.0163590684533119
763,0.0072648795321583,-0.0052541899494826,-0.016934847459197,-0.0105980774387717,-0.0028800079599022,-0.012877750210464
764,0.0052857091650366,-0.0029376987367868,-0.0182470809668303,-0.0089548090472817,-0.0053984383121132,-0.0086640259250998
765,0.0026837983168661,-0.0010835421271622,-0.019753810018301,-0.0079446043819189,-0.0088686002418398,-0.0065025957301259
766,0.0006540631293319,-0.0007216113153845,-0.0205060541629791,-0.0083716809749603,-0.0113081820309162,-0.0068472949787974
767,0.0002284237125422,-0.0014919128734618,-0.019845899194479,-0.0101804006844759,-0.0112892799079418,-0.0091696148738265
768,0.0014561420539394,-0.0026559575926512,-0.0178630705922842,-0.0127448998391628,-0.0089245056733489,-0.012756266631186
769,0.0033295538742095,-0.0037684296257793,-0.01536466460675,-0.0149285402148962,-0.0057052318006753,-0.01626399718225
770,0.0048432727344334,-0.0045237918384373,-0.0131957782432437,-0.0154332220554352,-0.0033128624781966,-0.0189400054514408
771,0.0050379591993987,-0.0044945068657398,-0.0120208486914635,-0.0133585501462221,-0.0036132782697677,-0.0196801796555519
772,0.003638282418251,-0.0028664059937,-0.0119304032996297,-0.0086666774004697,-0.0071311565116047,-0.0164381619542837
773,0.0016291118226945,-0.0003862234007101,-0.012723334133625,-0.0031606340780854,-0.0117028271779418,-0.0108935330063105
774,-0.0001510752335889,0.0012606659438461,-0.0144804231822491,0.000458732334664,-0.0145232658833265,-0.0070568639785051
775,-0.0009760142420418,0.0016433525597676,-0.0165860895067453,0.0009551104158163,-0.0141180399805307,-0.0061822040006518
776,-0.0003494326374493,0.0005360199138522,-0.0179641954600811,-0.0013827198417857,-0.0116521632298827,-0.0076197143644094
777,0.0010441648773849,-0.0018889554776251,-0.0182172190397978,-0.0049556512385606,-0.0095514459535479,-0.0094513427466154
778,0.0021433993242681,-0.0042307679541409,-0.0177607741206884,-0.0082170832902193,-0.0090760486200451,-0.0100892642512918
779,0.0021406032610684,-0.0044708391651511,-0.0178253762423992,-0.011783572845161,-0.0104952119290829,-0.0104650678113103
780,0.0008609656943008,-0.0019805731717497,-0.0188358314335346,-0.0157566387206316,-0.0128965144976974,-0.0112628452479839
781,-0.0009950512321665,0.0011896161595359,-0.0195180810987949,-0.0177174843847752,-0.0146532086655498,-0.0110324285924435
782,-0.002341216430068,0.0026288768276572,-0.0188972186297178,-0.0158882867544889,-0.0148777356371284,-0.0088336467742919
783,-0.0025580618530511,0.0015967261279001,-0.0174305811524391,-0.0113074639812112,-0.0138115556910634,-0.0049670059233903
784,-0.0018705467227846,-0.0011200796579942,-0.0162906106561422,-0.0072481245733797,-0.0123464502394199,-0.0016160699306055
785,-0.0008040519314818,-0.0038013565354049,-0.015396005474031,-0.0056665348820388,-0.010726192034781,-0.0016692758072167
786,-9.04758198885247e-05,-0.0045441188849508,-0.0135944047942758,-0.0048320507630705,-0.0086443517357111,-0.0033627348020672
787,-0.0002069986367132,-0.0031050192192196,-0.0116661256179214,-0.0037113016005605,-0.0070160226896405,-0.0042846007272601
788,-0.0004537153872661,-0.0012318409280851,-0.011259532533586,-0.0037638775538653,-0.0069134281948208,-0.0055222054943442
789,3.10057439492084e-05,-0.0005008066655136,-0.0116411689668894,-0.004837745334953,-0.0069762864150106,-0.0064297555945813
790,0.0013126315316185,-0.0013793170219287,-0.0109060537070036,-0.0052073430269956,-0.0047450475394725,-0.0082896370440721
791,0.0031208265572786,-0.0033225170336663,-0.0091938227415084,-0.0047487369738519,-0.0004613733617588,-0.015880361199379
792,0.0042222342453897,-0.0045139053836464,-0.0082528097555041,-0.0034399791620671,0.002077171113342,-0.0248077157884836
793,0.0038109812885522,-0.0038509322330355,-0.0081775989383459,-0.0010631555924192,0.0009711510501801,-0.0269022397696972
794,0.0029097786173224,-0.0029109413735568,-0.0078778807073831,9.37716031330638e-05,-0.0010348584037274,-0.0242011044174433
795,0.002107567153871,-0.003124535549432,-0.0073069017380476,-0.0013702462892979,-0.0017882231622934,-0.0212601814419031
796,0.0011856087949127,-0.0034475636202842,-0.0069810315035283,-0.0035617887042462,-0.0020819194614887,-0.0169179420918226
797,0.0001963684044312,-0.0024491816293448,-0.0075394930317997,-0.0046204775571823,-0.0038571448531001,-0.0083461673930287
798,-0.0001773897820385,-0.0010222851997241,-0.0085289403796196,-0.0043837586417794,-0.0069252313114702,0.0023221352603286
799,0.0006335408543236,-0.0004875774029642,-0.0086775878444314,-0.0040919999592006,-0.0082167061045765,0.0099056782200932
800,0.001662312541157,0.0004478008777368,-0.0086133778095245,-0.0050597442314028,-0.0069165523163974,0.0131423445418477
801,0.0019167861901223,0.0025853116530925,-0.0093150567263364,-0.0067955548875033,-0.0049804998561739,0.0133609408512712
802,0.0019653395283967,0.0042341235093772,-0.0100130513310432,-0.0076303607784211,-0.0035992350894957,0.0113235572353005
803,0.002685114275664,0.0042418916709721,-0.0097935497760772,-0.0070447879843413,-0.0023582130670547,0.0079029221087694
804,0.0035703482571989,0.0035346227232366,-0.00928695499897,-0.0063671865500509,-0.0008279276662506,0.00418097153306
805,0.0032046672422438,0.0028890008106827,-0.0096796751022338,-0.0071186334826052,0.0004263644805178,0.0006541645852848
806,0.001906310673803,0.0016359799774363,-0.01034265011549,-0.0088467234745621,0.0012376762460917,-0.0026773528661578
807,0.0010199439711868,9.56870917434571e-06,-0.0102269053459167,-0.0098920809105038,0.0010226474842056,-0.0061946548521518
808,0.0007304546888917,-0.0012932693352922,-0.0096487635746598,-0.0098488656803965,-0.0004536821797955,-0.0105230715125799
809,0.0010158661752939,-0.0023769361432641,-0.009099924005568,-0.0088858380913734,-0.0015895429532975,-0.0145500218495727
810,0.0013312812661752,-0.0026896998751908,-0.0094059761613607,-0.0066889519803226,-0.0024679163470864,-0.0156688783317804
811,0.0008087567985057,-0.0018046913901343,-0.0112664513289928,-0.0041941571980714,-0.004219202324748,-0.0140858916565776
812,0.0003290476452093,-0.0006009803619235,-0.0133951120078564,-0.0032361426856368,-0.0052953748963773,-0.0131120616570115
813,0.001096800668165,-0.0001627367892069,-0.0144210513681173,-0.0043972549028694,-0.0045484616421163,-0.0147966854274273
814,0.0024811562616378,-0.0008276685257442,-0.0150781292468309,-0.0070975627750158,-0.0034102713689208,-0.0181521289050579
815,0.0032657096162438,-0.0021589966490864,-0.0161326061934233,-0.0103599773719907,-0.0027073172386735,-0.0201585460454226
816,0.0038240854628384,-0.0035731210373342,-0.016211649402976,-0.0136198857799172,-0.00089159241179,-0.0203398410230875
817,0.0052032032981514,-0.0046630399301648,-0.0139433853328228,-0.0167945940047503,0.0030469337943941,-0.021121758967638
818,0.0066485535353422,-0.0045062280260026,-0.0107724638655782,-0.0189851634204388,0.0065908161923289,-0.0207221265882254
819,0.0068504652008414,-0.0029376200400292,-0.0092712864279747,-0.0198045801371336,0.0070980531163513,-0.0171057246625423
820,0.0061751930043101,-0.0014778670156374,-0.0100643774494529,-0.0202772077172995,0.0053930031135678,-0.0135377068072557
821,0.0056249438785016,-0.0012537307338789,-0.0112449806183577,-0.0204308070242405,0.0039449851028621,-0.0123935863375664
822,0.0058799935504794,-0.0024268773850053,-0.0105454083532095,-0.0194212105125189,0.0044168876484036,-0.0132047962397337
823,0.0066355927847325,-0.0038047460839152,-0.0087260147556662,-0.0174183528870344,0.0055306642316281,-0.0137188658118248
824,0.0063496604561805,-0.0033829947933554,-0.0086451740935444,-0.0157654862850904,0.0040836855769157,-0.0118714915588498
825,0.0049778162501752,-0.001643584575504,-0.0102985175326467,-0.0149921160191298,0.0006391687202267,-0.0094795562326908
826,0.004042434040457,-0.0006507647340185,-0.0113205341622233,-0.0139444451779127,-0.0014093144563958,-0.0084754433482885
827,0.0040353941731154,-0.0008813984459266,-0.0113523034378886,-0.0124009847640991,-0.0016349930083379,-0.0084959687665104
828,0.0043479236774146,-0.0016587517457082,-0.0118493782356381,-0.0111939692869782,-0.0023038648068904,-0.0097588449716568
829,0.004724177531898,-0.0024703424423933,-0.0129388822242618,-0.0101289730519056,-0.004455741494894,-0.012758307158947
830,0.0052239685319364,-0.0028969859704375,-0.0137012479826808,-0.0083889784291386,-0.0069694933481514,-0.0154230101034045
831,0.0053358031436801,-0.0023612279910594,-0.0142490109428763,-0.0070223151706159,-0.0083643551915884,-0.0153939248993993
832,0.0057224887423217,-0.0019339815480634,-0.0142955565825105,-0.0088222241029143,-0.0069195767864584,-0.0158428233116865
833,0.0074969502165913,-0.003763370681554,-0.0129713630303741,-0.0135226408019662,-0.0023471256718039,-0.0201692059636116
834,0.0090846670791506,-0.0064598987810313,-0.0115557722747326,-0.0176740549504757,0.0017319304170087,-0.023747555911541
835,0.0087750358507037,-0.00712869502604,-0.0116746844723821,-0.0194619931280613,0.0025434780400246,-0.0221615470945835
836,0.007636837195605,-0.0063789854757487,-0.0129068959504366,-0.0203491561114788,0.0019436326110735,-0.0201102569699287
837,0.0070484462194144,-0.0056187841109931,-0.0141472658142447,-0.021331787109375,0.0019217977533116,-0.0211752839386463
838,0.0069866562262177,-0.0045919669792056,-0.0136910770088434,-0.0201182570308447,0.0028645163401961,-0.020502120256424
839,0.0069657983258366,-0.0036913715302944,-0.0105881206691265,-0.0157242994755507,0.0049432418309152,-0.0157674495130777
840,0.006718894932419,-0.0044895480386912,-0.0059146443381905,-0.0110298339277506,0.007669142447412,-0.0124150151386857
841,0.0062671774066984,-0.0064617814496159,-0.0011595368850976,-0.0083876084536314,0.0099706249311566,-0.0131613910198212
842,0.005482230335474,-0.0075189471244812,0.0016287709586322,-0.0075380811467766,0.0101851150393486,-0.0144473733380437
843,0.0044827149249613,-0.0077753951773047,5.71034761378542e-05,-0.0089665185660123,0.0073434421792626,-0.0166162643581629
844,0.0038934149779379,-0.007645312231034,-0.0060576852411031,-0.0136542301625013,0.0020907390862703,-0.0228191651403904
845,0.0032488442957401,-0.0058648255653679,-0.0141468308866024,-0.0190220773220062,-0.0053768781945109,-0.0276496522128582
846,0.0017495300853624,-0.0029545815195888,-0.0205782689154148,-0.0221335683017969,-0.013445851393044,-0.0266157984733582
847,-0.0002013130870182,-0.0010307825868949,-0.0227627512067556,-0.0229057408869267,-0.0182632897049189,-0.0238563418388367
848,-0.0021272415760904,0.0002375640615355,-0.0212175119668245,-0.0215608309954405,-0.0195330791175365,-0.0204283967614174
849,-0.0030432613566517,0.0007519594510085,-0.0179997943341732,-0.0190557781606913,-0.0191238392144442,-0.0168398525565863
850,-0.0018767848378047,-0.0012217460898682,-0.0143704311922193,-0.0172708760946989,-0.0165221970528364,-0.0171780046075583
851,0.0006918046274222,-0.0044969054870307,-0.0115174679085612,-0.0167046785354614,-0.011930663138628,-0.0212149266153574
852,0.0032195418607443,-0.0066000865772366,-0.0099763171747326,-0.0164026599377394,-0.0075911823660135,-0.0247532539069653
853,0.0045828865841031,-0.007099556736648,-0.0094788325950503,-0.0160453505814075,-0.0053691174834966,-0.0254893489181995
854,0.0046231797896325,-0.0062207793816924,-0.0101568372920156,-0.0164305381476879,-0.0054868957959115,-0.0241995751857758
855,0.0042966376058757,-0.0045685414224863,-0.0114775020629168,-0.0179182067513466,-0.0060694371350109,-0.0230039414018393
856,0.0037636819761246,-0.0037326794117689,-0.0124009996652603,-0.0205300021916628,-0.005685000680387,-0.0234882663935423
857,0.0025103194639086,-0.0045967535115778,-0.0129170380532742,-0.0244720727205276,-0.0049787564203143,-0.0258205775171518
858,0.0010305461473763,-0.0061316438950598,-0.0132714696228504,-0.0284676030278206,-0.0047129993326962,-0.0276254005730152
859,-0.0002263111819047,-0.0062292818911373,-0.01375338062644,-0.030096098780632,-0.0055832187645137,-0.0250400695949793
860,-0.0013756410917267,-0.0043277265504002,-0.0147781539708376,-0.029247097671032,-0.0078144902363419,-0.0191635694354773
861,-0.0019729898776859,-0.0020869304426014,-0.0155676798895001,-0.0276019182056189,-0.0097680771723389,-0.0151667911559343
862,-0.0017368888948112,-0.0005189012736082,-0.015082542784512,-0.0254325903952122,-0.0098690390586853,-0.0137338517233729
863,-0.0011514736106619,0.0005982362781651,-0.0135866887867451,-0.0223959870636463,-0.0081816939637064,-0.0122428070753813
864,-0.0006468372885137,0.0011010712478309,-0.0119628394022584,-0.0191734209656715,-0.0056883804500103,-0.010290645994246
865,-0.0004553832404781,0.0013691207859665,-0.0108078522607684,-0.0161964539438486,-0.0038434544112533,-0.0073187043890357
866,-0.0009328640298917,0.0024789129383862,-0.0105926208198071,-0.0135496193543077,-0.0038986371364444,-0.002228716854006
867,-0.0017956361407414,0.0032753318082541,-0.011007284745574,-0.0122020114213228,-0.005316661670804,0.0006831893115304
868,-0.0014963654102757,0.0010413383133709,-0.0098278196528554,-0.0118975974619389,-0.0049452628009021,-0.0047670770436525
869,0.0001219187397509,-0.0034163284581154,-0.0063093407079577,-0.0103764347732067,-0.001965541858226,-0.0151217402890325
870,0.0010601183166727,-0.0063336445018649,-0.0035001062788069,-0.0077129555866122,-0.0001258774864254,-0.0215044170618057
871,0.000720321026165,-0.0067723887041211,-0.0038416581228375,-0.0071429377421736,-0.0007576770731247,-0.0228001847863197
872,-0.0002132392546627,-0.0055208317935466,-0.0067007895559072,-0.0100295795127749,-0.0019337987760081,-0.0209318920969963
873,-0.0011521332198754,-0.0025222080294042,-0.0097230337560176,-0.0145642114803195,-0.0025586334522813,-0.0156723950058222
874,-0.0012168451212346,0.0005845910636708,-0.0110820177942514,-0.0190487150102854,-0.0021416498348116,-0.0105041787028313
875,-0.0006243541138246,0.0018257470801472,-0.0111636379733682,-0.0223594103008509,-0.0012936462881043,-0.0080388989299535
876,-0.0002447121078148,0.0011931724147871,-0.0111790159717202,-0.0237053018063307,-0.0011953841894865,-0.0061259311623871
877,-0.0003857356496155,-0.000295611389447,-0.0117930145934224,-0.0233771186321974,-0.0023210553918033,-0.0037890989333391
878,-0.0011142939329147,-0.0014832816086709,-0.0128825791180134,-0.0219550058245659,-0.0045771929435432,-0.0028707461897283
879,-0.0024771380703896,-0.00188172259368,-0.0138072408735752,-0.0199053976684809,-0.0072510475292801,-0.0035292371176183
880,-0.0042310901917517,-0.0011339630000293,-0.0139869609847665,-0.0174797959625721,-0.0096547715365886,-0.0033782327082008
881,-0.0053064231760799,0.0007036678143776,-0.0133457519114017,-0.0147763397544622,-0.0111409211531281,-0.0028445362113416
882,-0.005040138028562,0.0024419208057224,-0.0125212799757719,-0.0124893924221396,-0.0112374294549227,-0.0041832611896097
883,-0.0039119576103985,0.0024782482068985,-0.0117144277319312,-0.0117996260523796,-0.0101228216663003,-0.0080148465931415
884,-0.0024063980672508,0.0002139587595593,-0.0103157563135028,-0.0124927125871181,-0.008038280531764,-0.013457260094583
885,-0.0009151524864137,-0.002592998323962,-0.0084437998011708,-0.013082823716104,-0.0054653626866638,-0.0176540538668633
886,-0.0002903276472352,-0.0039305239915847,-0.0071800979785621,-0.0132363373413682,-0.0038926939014345,-0.0181773509830236
887,-0.0007804717752151,-0.0037762443535029,-0.006531685590744,-0.0129454173147678,-0.0040108738467097,-0.0150754181668162
888,-0.0019429189851507,-0.0030846574809402,-0.0057949014008045,-0.0116029009222984,-0.0047836885787546,-0.0093225482851266
889,-0.0032494985498487,-0.0033336831256747,-0.004786757286638,-0.0095210103318095,-0.004904315341264,-0.0033123367466032
890,-0.0044317566789686,-0.0049513117410242,-0.0045890319161117,-0.0080054001882672,-0.0056182211264967,-4.73829095426481e-05
891,-0.0065766791813075,-0.0061902953311801,-0.0073508825153112,-0.0076960953883826,-0.0102771669626236,0.0016169094014912
892,-0.0093402890488505,-0.0068359286524355,-0.0114828776568174,-0.0076305787079036,-0.0163545683026314,0.0043402281589806
893,-0.0093091754242777,-0.0089047625660896,-0.0124962134286761,-0.0075254505500197,-0.0164117496460676,0.004653972107917
894,-0.0063878130167722,-0.0114209782332182,-0.0109819928184152,-0.0089429058134555,-0.0111548472195864,0.0002131105720764
895,-0.0044025438837707,-0.0112221380695701,-0.0103716095909476,-0.0115549210458994,-0.0075220572762191,-0.0033905138261616
896,-0.0039701885543763,-0.0081290090456605,-0.010274725034833,-0.0129548152908683,-0.0062566017732024,-0.0033004970755428
897,-0.0033751365263015,-0.0032945657148957,-0.0099296746775507,-0.0128299808129668,-0.0051440838724374,-0.0011622910387814
898,-0.0022429856471717,0.0013890201225876,-0.010248233564198,-0.0128519218415022,-0.0041963094845414,0.0010539846261963
899,-0.0009992612758651,0.002903614891693,-0.0114866457879543,-0.0141933923587203,-0.0038209136109799,-6.66642445139587e-05
900,0.0004683995503,0.0003189171256963,-0.0123670231550932,-0.0162094961851835,-0.0031764197628945,-0.0054401438683271
901,0.0026442783419042,-0.0051741208881139,-0.0109019558876753,-0.0168381407856941,-0.0005592401721514,-0.0120210498571396
902,0.0046044709160924,-0.0104964757338166,-0.0084052756428718,-0.0159092228859663,0.0018759787781164,-0.0171854067593813
903,0.0051200571469962,-0.0121759586036205,-0.0081041241064667,-0.0151168582960963,0.0007190583855845,-0.0206988211721182
904,0.0047384770587086,-0.0109703643247485,-0.0094773266464471,-0.014845765195787,-0.0024866461753845,-0.0244037453085184
905,0.0044058915227651,-0.0101455384865403,-0.0094229122623801,-0.0138704814016819,-0.0040711443871259,-0.0270501617342234
906,0.0038034725002944,-0.0102224703878164,-0.0075061228126287,-0.0115096075460315,-0.0037796332035213,-0.0237347930669785
907,0.0019244112772867,-0.0105989873409271,-0.0069626751355826,-0.0104305278509855,-0.0052397735416889,-0.0171047560870647
908,-0.0009897460695356,-0.011496395803988,-0.0091407690197229,-0.0128479190170765,-0.0093984501436352,-0.0134464846923947
909,-0.0028298897668719,-0.0119123347103596,-0.0107530513778329,-0.0160129126161337,-0.0116705065593123,-0.0117548098787665
910,-0.0028209353331476,-0.0108216600492597,-0.0095042688772082,-0.0170194245874882,-0.0094458181411027,-0.0093233957886695
911,-0.0022839209996163,-0.0088672637939453,-0.0065574427135288,-0.0158433336764574,-0.0052317874506115,-0.0063312132842838
912,-0.0020391475409269,-0.0071828416548669,-0.0040081450715661,-0.0139507493004203,-0.0022319664712995,-0.0041192807257175
913,-0.0021348304580897,-0.0061338255181908,-0.003623379394412,-0.0135367913171649,-0.0016587016871199,-0.0044665155000984
914,-0.0024747964926064,-0.004935463424772,-0.0055142524652183,-0.0149008203297853,-0.0027381321415305,-0.0069514797069132
915,-0.0029172655194997,-0.0030275909230113,-0.0083955163136124,-0.0161157883703709,-0.0043791946955025,-0.0091025838628411
916,-0.003042594064027,-0.0008298296597786,-0.0110823325812817,-0.0159542374312878,-0.0059220823459327,-0.0100038405507803
917,-0.0025553391315043,0.0010018774773925,-0.0123269557952881,-0.013832850381732,-0.0064354999922215,-0.0097386045381426
918,-0.002055250108242,0.0010479652555659,-0.0114591056481004,-0.0096249375492334,-0.0058265998959541,-0.0089015522971749
919,-0.001932825660333,-0.0023623239248991,-0.0093646012246608,-0.0051992926746606,-0.0054880185052752,-0.0093771908432245
920,-0.0016950737917795,-0.0079451743513345,-0.0076326276175677,-0.0031644159462302,-0.0065590040758252,-0.0108804693445563
921,-0.0010976740159094,-0.0122905299067497,-0.0069147390313446,-0.0043091834522783,-0.0079320985823869,-0.0113713443279266
922,0.0001065956821548,-0.014468701556325,-0.0061641437932848,-0.0069423899985849,-0.0069019147194922,-0.0108216116204858
923,0.0018774967174977,-0.0151954172179103,-0.0049806339666247,-0.0088819414377212,-0.00364859867841,-0.0089075118303299
924,0.0030175130814313,-0.0141881331801414,-0.0047119711525738,-0.0097297662869095,-0.001309428946115,-0.0050172167830169
925,0.002594121498987,-0.0116114001721144,-0.006258254405111,-0.010106423869729,-0.0014472225448116,-0.0006052099633961
926,0.0013057728065177,-0.0086667584255337,-0.0089696003124117,-0.0105714900419116,-0.0030437319073826,0.0013941209763288
927,0.000350668648025,-0.0060048401355743,-0.0112448092550039,-0.0113423932343721,-0.0045411149039864,-0.0015461253933608
928,-5.00084024679381e-05,-0.003824520856142,-0.0118602337315679,-0.0114464918151498,-0.0053816572763025,-0.0074652675539255
929,9.01829298527446e-06,-0.0032110775355249,-0.0107578793540597,-0.010406787507236,-0.0055747698061168,-0.012565616518259
930,0.000580214720685,-0.0047337305732071,-0.0087686264887452,-0.0095192743465304,-0.005056160967797,-0.0163377374410629
931,0.0017954793293029,-0.0071207857690751,-0.0065458617173135,-0.0091460412368178,-0.0033068584743887,-0.0198076087981462
932,0.003295044414699,-0.0084493309259414,-0.0049424460157752,-0.0081006195396184,-0.00057681533508,-0.0217117313295603
933,0.0040462031029164,-0.0072222216986119,-0.0048810606822371,-0.0065077585168182,0.0016390449600294,-0.0189710557460785
934,0.0036520904395729,-0.003922292497009,-0.0053277616389095,-0.0056044189259409,0.0024809392634779,-0.011978748254478
935,0.0024455313105136,-0.0012311704922467,-0.0049450821243226,-0.0057201795279979,0.001891681808047,-0.0049131354317069
936,0.0010356560815125,-0.0017131154891103,-0.0040598129853606,-0.0066221021115779,0.000693415349815,-0.0014072224730625
937,-9.49829482124187e-05,-0.0047929482534527,-0.0031331432983279,-0.0073717371560633,0.0003488999791443,-0.0022876965813338
938,-0.0011505427537486,-0.0069848741404712,-0.0023146092426031,-0.0065983729436993,0.0010975726181641,-0.0053712031804025
939,-0.002412243746221,-0.007085028104484,-0.0022503698710352,-0.004759865347296,0.001281198579818,-0.0082602994516491
940,-0.003253330476582,-0.0073097674176096,-0.003461982589215,-0.0040853517130017,-0.0002086540916934,-0.0121741024777293
941,-0.0031776411924511,-0.0088771041482687,-0.0051159649156034,-0.0051828334107995,-0.0021555565763264,-0.0184320416301489
942,-0.0032470696605742,-0.0104590766131878,-0.006221224553883,-0.006891431286931,-0.0036760703660547,-0.0233588553965092
943,-0.0043311975896358,-0.0104504404589534,-0.0070970114320516,-0.0087504256516695,-0.0051723690703511,-0.0216740872710943
944,-0.0053143622353673,-0.0097311288118362,-0.0076331202872097,-0.0105435708537698,-0.0056577152572572,-0.0135287074372172
945,-0.0051507991738617,-0.0099933762103319,-0.0075657553970813,-0.0123201031237841,-0.0045218439772725,-0.0056347106583416
946,-0.0048200245946645,-0.0105839809402823,-0.0081115840002894,-0.0144391972571611,-0.0044413083232939,-0.003044492797926
947,-0.0053390036337077,-0.0101409554481506,-0.0100883143022656,-0.0164407324045897,-0.0071712611243128,-0.0044516869820654
948,-0.0062188520096242,-0.0085021685808897,-0.012593544088304,-0.0173773504793644,-0.0099491598084569,-0.0057850941084325
949,-0.0064612589776516,-0.006612638477236,-0.0137465633451939,-0.0166331306099892,-0.0096389418467879,-0.0047840015031397
950,-0.005355036817491,-0.0058344635181129,-0.0124778607860208,-0.0147517872974277,-0.0067131542600691,-0.0035721396561712
951,-0.0028787599876523,-0.0065286681056022,-0.0095601072534918,-0.0126224858686328,-0.0030179803725332,-0.0041894321329891
952,6.01723331783433e-05,-0.0077209477312862,-0.0067490092478692,-0.010825403034687,0.0001583979756105,-0.0054460237734019
953,0.0022783540189266,-0.0084350071847438,-0.0055216024629771,-0.0098180929198861,0.0021365659777075,-0.0067530791275203
954,0.0031618061475455,-0.008488624356687,-0.0057443594560027,-0.0085466606542468,0.0029444138053804,-0.0086708040907979
955,0.0031376886181533,-0.0094864033162593,-0.0058481739833951,-0.0063593769446015,0.0032913729082793,-0.0134217329323292
956,0.0030853487551212,-0.0124301305040717,-0.0051801297813653,-0.0048522078432142,0.0039386539719998,-0.0217378847301006
957,0.0029140897095203,-0.0144034707918763,-0.0051152608357369,-0.0051257661543786,0.0038917737547308,-0.0281123220920563
958,0.0022018509916961,-0.0133723188191652,-0.0065390286035835,-0.0064396085217595,0.001935236621648,-0.0273943655192852
959,0.0010192898334935,-0.0115318913012743,-0.0081012323498725,-0.0070751700550317,-0.0009487656061537,-0.0202158484607935
960,-0.0005415945779532,-0.010967486537993,-0.0083358138799667,-0.0061715170741081,-0.0029277917928993,-0.0099014481529593
961,-0.0018486561020836,-0.0108723221346736,-0.0074899024330079,-0.0049399570561945,-0.0031015763524919,-0.0009738620137795
962,-0.0025756144896149,-0.010493341833353,-0.0067514260299503,-0.0047277146950364,-0.0019898684695363,0.0027344718109816
963,-0.0038296927232295,-0.0098283719271421,-0.0073643187060952,-0.0053848749957978,-0.0017548893811181,0.002406743587926
964,-0.0052736545912921,-0.0080927219241857,-0.008968980051577,-0.0062379562295973,-0.0027037202380597,0.0002717715979088
965,-0.0050429138354957,-0.0057469164021313,-0.0100020673125982,-0.0068825087510049,-0.0024304951075464,-0.0032212433870881
966,-0.003610499901697,-0.0034273355267942,-0.010794616304338,-0.0074152881279587,-0.0013997800415381,-0.0061842282302677
967,-0.0022401015739888,-0.0004711695946753,-0.0114530473947525,-0.0080820508301258,-0.0008345692767761,-0.0081035438925027
968,-0.0007309266366064,0.002207588404417,-0.0103152394294739,-0.0085341157391667,0.0006775153451599,-0.0105814319103956
969,0.0011205699993297,0.0024406933225691,-0.007011427078396,-0.0083564706146717,0.0037721556145697,-0.0136013133451343
970,0.0027356988284736,0.0008785335230641,-0.0032720153685659,-0.0077269757166504,0.0072462600655853,-0.0147161865606904
971,0.0033342556562274,0.0003305735008325,-0.0012591066770255,-0.0074577033519744,0.0092513067647814,-0.0116795599460602
972,0.002823824994266,0.0014715427532792,-0.0015878038248047,-0.0080377254635095,0.0087638106197118,-0.005862221121788
973,0.0012934559490531,0.0033950880169868,-0.0034839222207665,-0.0084539763629436,0.0056203179992735,0.0001342539035249
974,-0.0007192370831035,0.0049749491736292,-0.0055964644998312,-0.0076031284406781,0.0011948574101552,0.0044521386735141
975,-0.0023763740900903,0.005066976416856,-0.0069341636262834,-0.0057007255963981,-0.0023063598200678,0.006260790862143
976,-0.0035648946650326,0.0041579403914511,-0.0080726267769932,-0.003908775281161,-0.0047669885680079,0.006835795007646
977,-0.0037854607217013,0.0026922007091343,-0.0092220939695835,-0.0033757612109184,-0.0059706373140215,0.0064601115882396
978,-0.0026678584981709,8.78333521541208e-05,-0.0096601648256182,-0.0046597030013799,-0.0050179422833025,0.0034028911031782
979,-0.0012608842225745,-0.002722397679463,-0.0097673116251826,-0.0074127102270722,-0.0030884791631251,-0.0018819839460775
980,-0.0004059631028212,-0.0038514866027981,-0.0094400467351079,-0.0089641464874148,-0.0016666816081851,-0.0049758213572204
981,8.10312703833915e-05,-0.0029880197253078,-0.0078808208927512,-0.0074524874798953,-0.0010789936641231,-0.0041125235147774
982,0.0002173985849367,-0.0014864306431263,-0.0061140446923673,-0.004407656379044,-0.0018668848788365,-0.003420609049499
983,-2.61809855146566e-05,-0.0008548009209334,-0.0055928430519998,-0.001401386456564,-0.0039875940419733,-0.0067955330014228
984,-0.0005951778730377,-0.0011750812409445,-0.0063832579180598,0.0005691539263352,-0.0063400059007108,-0.0128940129652619
985,-0.0016094148159027,-0.0012478351127356,-0.0078744227066636,0.0004776145506184,-0.0081814238801598,-0.0170824117958546
986,-0.0023488460574299,-0.0007938462658785,-0.0089560728520155,-0.0012969888048246,-0.0084535172209143,-0.0172816887497902
987,-0.0015839621191844,-0.0005941214621998,-0.0082481494173407,-0.0035811811685562,-0.0057896166108548,-0.0149124637246132
988,0.0006113547715358,-0.000765690812841,-0.005816975608468,-0.0063007888384163,-0.0009284446132369,-0.0120661603286862
