,AF3,AF4,Fp1,Fp2,AF7,AF8
0,-0.009570550173521,-0.0036383518017828,0.0365848429501057,0.239063382148743,-0.0970409959554672,-0.149906024336815
1,-0.0118102813139558,-0.0100364768877625,0.0383669324219227,0.210418552160263,-0.0988742113113403,-0.150510609149933
2,-0.0108353523537517,-0.020448163151741,0.0392560325562954,0.260593950748444,-0.0985435545444489,-0.150553569197655
3,-0.0074737286195159,-0.0317932702600956,0.0408297479152679,0.342068672180176,-0.0960620567202568,-0.153568029403687
4,-0.0031374308746308,-0.0383411794900894,0.045250691473484,0.46622508764267,-0.0905468687415123,-0.157770469784737
5,0.0024232894647866,-0.0345131754875183,0.0520002506673336,0.5,-0.0830618590116501,-0.155602142214775
6,0.0073900832794606,-0.0242463462054729,0.0558532252907753,0.5,-0.0773864164948463,-0.14543716609478
7,0.0085610467940568,-0.0165238957852125,0.052268248051405,0.5,-0.0772494226694107,-0.134740561246872
8,0.0078333429992198,-0.0113442782312632,0.0453057214617729,0.5,-0.0813382565975189,-0.127073287963867
9,0.0077471965923905,-0.0058892671950161,0.0414362587034702,0.5,-0.0859348997473717,-0.117801256477833
10,0.006814488209784,0.0023832793813198,0.0406536459922791,0.5,-0.0904085338115692,-0.105692766606808
11,0.0030232409480959,0.0163028910756111,0.0393899753689766,0.5,-0.0945927277207375,-0.097716748714447
12,-0.0038785829674452,0.0291130095720291,0.0345637947320938,0.475844204425812,-0.0972730740904808,-0.0995500013232231
13,-0.0093990797176957,0.0326246693730354,0.0273467656224966,0.153333365917206,-0.0963819026947021,-0.108092904090881
14,-0.0069968868046999,0.027113975957036,0.0240739285945892,-0.125102028250694,-0.0889836326241493,-0.117244832217693
15,0.0018690634751692,0.0139761120080948,0.0268849972635508,-0.328374922275543,-0.0769686698913574,-0.125588774681091
16,0.0105066876858473,-0.0046131475828588,0.0317311324179173,-0.49338173866272,-0.0660962834954262,-0.13407139480114
17,0.0160704236477613,-0.0229408200830221,0.0365485474467278,-0.5,-0.0584701970219612,-0.141333073377609
18,0.0191133283078671,-0.0355159901082516,0.0431045331060886,-0.292031496763229,-0.0526607073843479,-0.143865525722504
19,0.0205204449594021,-0.0395047962665558,0.0527321435511112,0.265663415193558,-0.0481189712882042,-0.138421177864075
20,0.0191932208836079,-0.0372665598988533,0.0617112070322037,0.5,-0.0468087419867516,-0.126552805304527
21,0.0146134905517101,-0.0322436206042767,0.0651392117142677,0.5,-0.0494429729878902,-0.114156670868397
22,0.0093234833329916,-0.0210265461355448,0.0623434409499168,0.5,-0.0544606931507587,-0.102175280451775
23,0.0035386974923312,-0.0030524882022291,0.054485697299242,0.5,-0.0608362592756748,-0.088699646294117
24,-0.0035385647788643,0.0115930987522006,0.0462581515312195,0.5,-0.0654953271150589,-0.0781624689698219
25,-0.0096506495028734,0.0147462338209152,0.0429121181368828,0.5,-0.0647966414690018,-0.075663149356842
26,-0.013000126928091,0.0077440398745238,0.0420191287994385,0.5,-0.060346707701683,-0.079448014497757
27,-0.0124797374010086,-0.0021753839682787,0.0401260443031788,0.5,-0.0555677972733974,-0.0838948488235474
28,-0.0089803515002131,-0.0097155747935175,0.038020696491003,0.5,-0.051408763974905,-0.0860878005623817
29,-0.0061745531857013,-0.0145736737176776,0.0353618897497654,0.5,-0.048727560788393,-0.0870987847447395
30,-0.00442985445261,-0.0172457806766033,0.0315133035182953,0.39205414056778,-0.0485142655670643,-0.0871821865439415
31,-0.0024729191791266,-0.021078584715724,0.0268119852989912,0.195753335952759,-0.0495554581284523,-0.0865589007735252
32,-0.0012372932396829,-0.0290745012462139,0.0215911883860826,0.17015828192234,-0.0478975474834442,-0.0883805528283119
33,-0.0017341087805107,-0.0370334759354591,0.0180440582334995,0.320163369178772,-0.0408796668052673,-0.0938763022422791
34,-0.0050236447714269,-0.0392703749239445,0.0173258483409882,0.5,-0.0318946912884712,-0.100311987102032
35,-0.0106714572757483,-0.0347288735210896,0.0184463318437338,0.5,-0.0254852585494518,-0.103237099945545
36,-0.015174456872046,-0.0255651045590639,0.0217521153390408,0.5,-0.0214440543204546,-0.0988670587539673
37,-0.0155775062739849,-0.0162029601633549,0.0265553686767817,0.5,-0.0185669604688883,-0.0887600556015968
38,-0.0110761197283864,-0.0099335955455899,0.0311302598565817,0.5,-0.0168001838028431,-0.0767047628760338
39,-0.0033517263364046,-0.0057905460707843,0.0342524275183678,0.5,-0.0158327594399452,-0.0642572864890099
40,0.0020183140877634,-0.0040588621050119,0.0328892767429352,0.5,-0.0166163556277752,-0.0541398748755455
41,0.0025544851087033,-0.0050518722273409,0.0271838959306479,0.5,-0.018847867846489,-0.0489147379994392
42,0.001753861317411,-0.0064848507754504,0.0217660591006279,0.5,-0.020164854824543,-0.0491018742322922
43,0.0014603661838918,-0.0091731399297714,0.018016280606389,0.5,-0.0216141305863857,-0.0548510514199734
44,0.0024425433948636,-0.0140487346798182,0.0153210461139679,0.5,-0.0250320807099342,-0.0626589059829712
45,0.0053155454806983,-0.0184074398130178,0.0155079057440162,0.5,-0.0278514977544546,-0.0651361346244812
46,0.0082020489498972,-0.0206509381532669,0.0202219597995281,0.5,-0.0273116957396269,-0.0586369708180428
47,0.0097343362867832,-0.0199206043034792,0.0280259698629379,0.5,-0.0246173329651356,-0.0471307560801506
48,0.009194272570312,-0.0146407624706626,0.03502007573843,0.5,-0.0219059474766254,-0.0358630865812302
49,0.0067993155680596,-0.0039227036759257,0.0388647690415382,0.5,-0.0195566806942225,-0.0253638457506895
50,0.0055733006447553,0.009301034733653,0.0398925170302391,0.5,-0.0171814262866974,-0.0172106977552176
51,0.0076465881429612,0.0152702471241355,0.0388970822095871,0.5,-0.0140535579994321,-0.0162985511124134
52,0.0115764429792762,0.0091947922483086,0.0381522811949253,0.5,-0.0094464123249054,-0.0198418125510216
53,0.0140189789235592,-0.0036459693219512,0.0388972423970699,0.5,-0.0062400358729064,-0.0215617474168539
54,0.0120608555153012,-0.0193220693618059,0.0379747450351715,0.5,-0.0096648475155234,-0.0265976525843143
55,0.0068782167509198,-0.035479698330164,0.0330451503396034,0.5,-0.0180912595242262,-0.0427678227424622
56,0.0022012321278452,-0.0478788614273071,0.025427607819438,0.5,-0.0261289719492197,-0.0660076588392258
57,-0.000715977163054,-0.0517957471311092,0.0176819935441017,0.5,-0.0333432853221893,-0.0848107039928436
58,-0.0011985496385023,-0.0441163517534733,0.0131564829498529,0.5,-0.0385942757129669,-0.0906775146722794
59,0.0020127333700656,-0.0274232253432274,0.0136249139904976,0.5,-0.0376571603119373,-0.0814992263913155
60,0.0080074518918991,-0.0057479734532535,0.0179820340126753,0.5,-0.030208570882678,-0.0609348192811012
61,0.0132679054513574,0.0172065086662769,0.0237854681909084,0.5,-0.0205640196800232,-0.0391854345798492
62,0.0141986170783639,0.0296785980463028,0.0265408381819725,0.5,-0.013634086586535,-0.028503991663456
63,0.0112047465518117,0.0216603334993124,0.0239316895604134,0.5,-0.0120207108557224,-0.0314209498465061
64,0.0074861883185803,0.0004388876259326,0.0201160460710526,0.5,-0.0151880187913775,-0.041057500988245
65,0.0044119791127741,-0.0194093268364668,0.0188062936067581,0.5,-0.0208819452673197,-0.051171813160181
66,0.002444670535624,-0.0284444987773895,0.0199723783880472,0.5,-0.0254651680588722,-0.0534024722874165
67,0.0019129369175061,-0.0245323162525892,0.0222776141017675,0.5,-0.026194903999567,-0.0410133451223373
68,0.0021510608494281,-0.0143515942618251,0.0241730250418186,0.5,-0.0231747329235077,-0.0235721562057734
69,0.0036361124366521,-0.0048770289868116,0.0262778457254171,0.5,-0.0161389335989952,-0.0163980890065432
70,0.0052206623367965,0.0022011445835232,0.0273419972509146,0.5,-0.0064505785703659,-0.0222130808979273
71,0.0045015970245003,0.004714589100331,0.0245701111853123,0.5,0.0013259042752906,-0.0333873182535172
72,0.0038053016178309,0.0028248964808881,0.0198584832251072,0.5,0.0054083815775811,-0.0400564856827259
73,0.0056715598329901,0.002398335840553,0.015087659470737,0.5,0.0085281291976571,-0.037753663957119
74,0.0099950190633535,0.009586819447577,0.0105479648336768,0.5,0.0138502418994904,-0.0296705644577742
75,0.0160337872803211,0.0228072591125965,0.0083332676440477,0.199166566133499,0.0210893340408802,-0.0210702735930681
76,0.019895676523447,0.0315274707973003,0.0087869763374328,-0.137200877070427,0.0252922344952822,-0.0135095063596964
77,0.0196779668331146,0.0294971726834774,0.0109290275722742,-0.337812960147858,0.0225224997848272,-0.0018396866507828
78,0.0194126460701227,0.0207328163087368,0.0150007409974933,-0.364338546991348,0.0177329480648041,0.0145690999925137
79,0.0217676367610693,0.0109319910407066,0.0195900276303291,-0.308081179857254,0.0207122899591923,0.0222606882452965
80,0.0260500125586987,0.0006778161041438,0.0234002005308867,-0.186666816473007,0.0358342938125134,0.0109631875529885
81,0.0300288889557123,-0.0128455348312855,0.0271504390984774,0.0198213141411543,0.0576862171292305,-0.0088926367461681
82,0.0304036382585764,-0.0266798492521048,0.0288539323955774,0.23063799738884,0.0738860815763474,-0.0161088183522224
83,0.0250976402312517,-0.0328847840428352,0.0251562856137753,0.299962103366852,0.0737457051873207,-0.006748710758984
84,0.0129447588697076,-0.0315399616956711,0.0166345275938511,0.174890920519829,0.0556948445737362,0.0013474270235747
85,-0.0044943117536604,-0.0302517600357533,0.0076703461818397,-0.0236720982939005,0.0284557268023491,-0.0025493633002042
86,-0.0210567247122526,-0.0314501821994781,0.0038118436932563,-0.174147069454193,0.0042560547590255,-0.0127273835241795
87,-0.0299865771085024,-0.0323352962732315,0.0074127176776528,-0.168689295649529,-0.0096094096079468,-0.0222287271171808
88,-0.0281033758074045,-0.0324493311345577,0.0155493225902319,0.0985602214932442,-0.0125166559591889,-0.0286197662353516
89,-0.0184091236442328,-0.0328705869615078,0.0222410280257463,0.493639975786209,-0.0095431208610534,-0.0334635525941849
90,-0.0077754110097885,-0.032916147261858,0.0224487259984016,0.5,-0.0066036470234394,-0.0399678722023964
91,-0.0007228617323562,-0.030808063223958,0.0171587690711021,0.5,-0.003615851746872,-0.04526462033391
92,0.0011303072096779,-0.0256456322968006,0.0102821504697204,0.5,0.0020434269681572,-0.0428648255765438
93,-0.0022955380845814,-0.0193873234093189,0.0026656505651772,0.5,0.009484626352787,-0.0336247310042381
94,-0.007149860728532,-0.0155678456649184,-0.0040822778828442,0.290002793073654,0.0167891178280115,-0.0226352140307426
95,-0.0094899563118815,-0.0149410609155893,-0.0072459760122001,0.0849474221467972,0.022194366902113,-0.0124809285625815
96,-0.0091787232086062,-0.0154107417911291,-0.0061443294398486,-0.0860296487808228,0.0246483683586121,-0.0054464293643832
97,-0.0064031942747533,-0.0159990843385458,-0.0004515991895459,-0.277597099542618,0.0269133169203997,-0.0041029066778719
98,-0.0026606100145727,-0.0173614695668221,0.0076135150156915,-0.5,0.0319804474711418,-0.0091147664934396
99,2.89231102215126e-05,-0.0165452919900417,0.0146574312821031,-0.5,0.0391576997935772,-0.0164835993200541
100,0.0011585599277168,-0.0084737967699766,0.0193493496626616,-0.5,0.044721458107233,-0.0198485888540745
101,0.0001156060534412,0.0037362438160926,0.0201318077743053,-0.393523693084717,0.0456387251615524,-0.0195160526782274
102,-0.0007206626469269,0.010653818026185,0.0172439999878407,-0.117262631654739,0.0433897599577904,-0.0211283415555954
103,0.0012526205973699,0.0068246247246861,0.0129672363400459,0.201244428753853,0.0403239093720913,-0.0259001925587654
104,0.0047121210955083,-0.0052404231391847,0.0084410300478339,0.458047181367874,0.0369392111897469,-0.0297647994011641
105,0.0097500449046492,-0.0179511439055204,0.0043304786086082,0.5,0.0336133055388927,-0.0294046681374311
106,0.016157940030098,-0.028062729164958,0.000659353507217,0.5,0.0292193293571472,-0.0270335115492344
107,0.0200291611254215,-0.0362269505858421,-0.0026420287322253,0.5,0.02198875695467,-0.02676722407341
108,0.0192139148712158,-0.0401350669562817,-0.0027508856728673,0.5,0.0143106421455741,-0.0267102383077145
109,0.0152858719229698,-0.0368370600044727,0.0038930301088839,0.127133205533028,0.0105306440964341,-0.0202071033418179
110,0.0114929182454944,-0.02778066881001,0.015853013843298,-0.396267890930176,0.0114759504795074,-0.0039428831078112
111,0.0095656048506498,-0.0182227734476328,0.0263375490903854,-0.5,0.0150408279150724,0.0174320284277201
112,0.0066409362480044,-0.0118519086390734,0.0278067346662283,-0.5,0.0178604982793331,0.0346709750592709
113,0.0002525295421946,-0.0070322314277291,0.0196538642048836,-0.5,0.0168305654078722,0.0430881567299366
114,-0.0075064217671752,0.0005515628145076,0.0096771577373147,-0.5,0.0116047719493508,0.0478540994226933
115,-0.014272341504693,0.0084782419726252,0.0032175271771848,-0.5,0.0040205661207437,0.0532554127275944
116,-0.0164280962198973,0.0095036588609218,0.001152932527475,-0.5,-0.0022000311873853,0.0516355857253075
117,-0.0102167241275311,0.0003347740857861,0.0049771363846957,-0.287096381187439,-0.0015899819554761,0.0332063585519791
118,0.0011452492326498,-0.016578059643507,0.0138416197150946,0.156150951981544,0.0076416572555899,0.0008424650295637
119,0.0118772676214576,-0.0334007441997528,0.0243506114929914,0.395725578069687,0.0207418128848076,-0.0305577274411917
120,0.0188686046749353,-0.0437023676931858,0.0310325585305691,0.244142472743988,0.0301668103784323,-0.0497144423425198
121,0.0210738107562065,-0.0432386361062527,0.0285671595484018,-0.186858266592026,0.0300744660198689,-0.0555552057921886
122,0.0203903503715992,-0.029938405379653,0.0184672567993402,-0.5,0.0211654510349035,-0.0503764599561691
123,0.0185289550572634,-0.0139467883855104,0.0060739694163203,-0.5,0.0118846213445067,-0.0416778139770031
124,0.0171909853816032,-0.00775340013206,-0.0047795861028134,-0.5,0.0105379214510322,-0.0387643985450268
125,0.0200531985610724,-0.0100804241374135,-0.0116224670782685,-0.5,0.0166752599179745,-0.04073416441679
126,0.0261194389313459,-0.0151483556255698,-0.0144953075796366,-0.5,0.0223785396665335,-0.0415187403559685
127,0.0289581380784512,-0.0209703352302313,-0.0141646694391966,-0.5,0.0214944444596767,-0.0389814823865891
128,0.0234956368803978,-0.0224892105907202,-0.0101087223738432,-0.416151702404022,0.0147875742986798,-0.0326746255159378
129,0.0104883136227727,-0.0134075516834855,-0.0034640964586287,-0.287174224853516,0.0050209057517349,-0.023722505196929
130,-0.0037588390987366,0.0017813720041886,0.0028949046973139,-0.20098839700222,-0.0070711090229451,-0.0172244310379028
131,-0.0154395243152976,0.0095710568130016,0.0062688249163329,-0.212645262479782,-0.0192720983177423,-0.0181671995669603
132,-0.0247911047190428,0.0028813537210226,0.0046618180349469,-0.466219335794449,-0.0267819240689278,-0.0243229400366545
133,-0.029635664075613,-0.0127807538956404,-0.0009076666319742,-0.5,-0.026762593537569,-0.0261936131864786
134,-0.0286007281392813,-0.0277364421635866,-0.0085071865469217,-0.5,-0.0219184346497059,-0.019445201382041
135,-0.0236742831766605,-0.0361345931887627,-0.019462950527668,-0.5,-0.0177349634468555,-0.0118347788229585
136,-0.0155348619446158,-0.0390087701380253,-0.0334258787333965,-0.5,-0.0152169466018677,-0.0097667695954442
137,-0.0057533127255737,-0.0413595214486122,-0.0451741404831409,-0.5,-0.0118384584784508,-0.0089734392240643
138,0.0024277623742818,-0.0424350537359715,-0.0478182174265385,-0.5,-0.0060929702594876,-0.0032786310184747
139,0.0067774374037981,-0.0374516993761063,-0.0382862687110901,-0.5,0.0014150022761896,0.004186235833913
140,0.0046727112494409,-0.0261473171412945,-0.0236886460334063,-0.5,0.0054995981045067,0.0062479558400809
141,-0.003311115084216,-0.0097760912030935,-0.0136151481419802,-0.5,0.0009745517745614,0.0065558045171201
142,-0.0121593326330185,0.0092543279752135,-0.0100813796743751,-0.5,-0.0103839244693518,0.0124466083943844
143,-0.0174144506454468,0.024143785238266,-0.0114283822476864,-0.5,-0.021308746188879,0.020095294341445
144,-0.0151965208351612,0.0284742414951324,-0.0153235653415322,-0.5,-0.0253095608204603,0.0208153035491705
145,-0.0064590498805046,0.0204047951847315,-0.019109271466732,-0.5,-0.0227546207606792,0.0111456345766783
146,0.0017335136653855,0.0073433117941021,-0.0204299949109554,-0.5,-0.0180228371173143,-0.005089686717838
147,0.0056676119565963,0.0009717500652186,-0.0192913338541985,-0.5,-0.0143498694524169,-0.0188863016664982
148,0.0044593168422579,-0.0004245101008564,-0.0208517909049988,-0.5,-0.0156157864257693,-0.0263719633221626
149,-0.0012539932504296,-0.0063967374153435,-0.0276103876531124,-0.5,-0.0224845483899117,-0.0316177718341351
150,-0.006271131336689,-0.0156646389514208,-0.0349584594368935,-0.5,-0.0268774330615997,-0.0380846187472343
151,-0.0052053867839276,-0.0201219562441111,-0.0385510809719563,-0.5,-0.0202935021370649,-0.0440837852656841
152,0.0020383868832141,-0.0176046770066023,-0.0365360826253891,-0.5,-0.0049636247567832,-0.0436214320361614
153,0.0093741109594702,-0.0149287357926369,-0.0295669920742512,-0.397004365921021,0.0092917382717132,-0.0355132445693016
154,0.013066079467535,-0.016571132466197,-0.021825535222888,-0.417092889547348,0.015103324316442,-0.026239013299346
155,0.0166386123746634,-0.0159332882612944,-0.0167986713349819,-0.408858954906464,0.0112794442102313,-0.0208560135215521
156,0.0218282695859671,-0.0099316714331507,-0.0145364431664348,-0.302330315113068,0.0025271011982113,-0.0209091249853373
157,0.024920916184783,-0.0061986343935132,-0.0128604518249631,-0.178585842251778,-0.0047927675768733,-0.0255949422717094
158,0.0233264286071062,-0.0092275086790323,-0.0096298903226852,-0.0487898699939251,-0.0090600429102778,-0.0310257617384195
159,0.0177020505070686,-0.0154329538345337,-0.0054536485113203,0.0963146612048149,-0.0125657701864839,-0.0350822992622852
160,0.009959259070456,-0.0191050674766302,-0.0030749468132853,0.176149427890778,-0.0164921339601278,-0.0382939651608467
161,0.0021975815761834,-0.0164375808089972,-0.0041522071696817,0.0985753014683723,-0.0200223941355944,-0.0389081425964832
162,-0.0044362754561007,-0.0075244144536554,-0.0083590298891067,-0.0711831524968147,-0.021757036447525,-0.0356733314692974
163,-0.007808890659362,0.0049895285628736,-0.0128792189061642,-0.137558117508888,-0.0192032754421234,-0.0301960911601782
164,-0.0058066211640834,0.0194885823875666,-0.0140723520889878,-0.074260801076889,-0.0109919477254152,-0.0231130551546812
165,-0.0012366492301225,0.0340297073125839,-0.0129447830840945,-0.0703904628753662,-0.0011384055251255,-0.0133448233827949
166,0.002119107870385,0.0469750463962555,-0.01277756690979,-0.202135890722275,0.0047713569365441,-0.0018280298681929
167,0.0037222830578684,0.0548657104372978,-0.0140779297798872,-0.34148833155632,0.0042976946569979,0.0038576514925807
168,0.0052718990482389,0.0484290197491646,-0.0162624046206474,-0.417849510908127,-0.0021825241856277,-0.0030679169576615
169,0.009221258573234,0.0251868702471256,-0.0179809425026178,-0.487561911344528,-0.0111317727714777,-0.0182970371097326
170,0.0129037238657475,-0.0060359691269695,-0.0182273462414742,-0.5,-0.0194002948701382,-0.0345537029206753
171,0.0122751984745264,-0.0346412807703018,-0.0178067162632942,-0.5,-0.0261254291981459,-0.0485190749168396
172,0.009605772793293,-0.0525961145758629,-0.0172645263373852,-0.5,-0.030090119689703,-0.0571661330759525
173,0.0073065808974206,-0.0581221766769886,-0.0173131357878447,-0.5,-0.0308560226112604,-0.059359285980463
174,0.0064165592193603,-0.0537660606205463,-0.017391012981534,-0.454406172037125,-0.0283758342266083,-0.0567264780402184
175,0.0092091253027319,-0.0429695658385754,-0.0147987259551883,0.0004265170719008,-0.0221732351928949,-0.0500958524644375
176,0.0135659519582987,-0.0300577394664288,-0.0094378562644124,0.254391103982925,-0.0138021493330598,-0.0402837432920933
177,0.0151745155453682,-0.0160422567278147,-0.0039354572072625,0.214047968387604,-0.00592504395172,-0.0293660666793585
178,0.0131173925474286,-0.0021495979744941,-0.0021758258808404,-0.114640310406685,-0.0012690793955698,-0.0201557315886021
179,0.0082590375095605,0.007451944053173,-0.0079622287303209,-0.5,-0.0034416317939758,-0.0143504785373807
180,0.0031056264415383,0.01500856410712,-0.0195126906037331,-0.5,-0.0137904863804579,-0.0091597018763423
181,-0.0001653297513257,0.024266866967082,-0.0303872842341661,-0.5,-0.0287381447851658,0.0003134059952571
182,0.0003089569509029,0.0326056107878685,-0.0348773561418056,-0.5,-0.0399127155542374,0.0137604447081685
183,0.0082398522645235,0.0382661744952202,-0.0301365032792091,-0.287190228700638,-0.0390612632036209,0.0211388543248177
184,0.0217159874737263,0.0424357242882252,-0.0197362266480923,0.286112874746323,-0.0283266399055719,0.0110628725960851
185,0.0314771197736263,0.0478452704846859,-0.0130534488707781,0.5,-0.0187286138534546,-0.0133790243417025
186,0.0326439291238785,0.0523988492786884,-0.0152161493897438,0.5,-0.0163560044020414,-0.0378563664853573
187,0.0288275051862001,0.0443065986037254,-0.0221795830875635,0.5,-0.0174555983394384,-0.0553095676004887
188,0.0252944976091385,0.0204019080847502,-0.0262704733759165,0.5,-0.0168359819799662,-0.0681552514433861
189,0.0239211060106754,-0.0054753185249865,-0.022555148229003,0.5,-0.0153373032808304,-0.0767978802323341
190,0.0225293971598148,-0.0230677388608456,-0.0131147708743811,0.0634343773126602,-0.0164251085370779,-0.0803805366158485
191,0.0196177754551172,-0.0343093350529671,-0.0033002181444317,-0.5,-0.0197818428277969,-0.0801466330885887
192,0.0170005243271589,-0.0413383282721043,0.0046641384251415,-0.5,-0.0230498462915421,-0.0757031291723251
193,0.0160775277763605,-0.0415238849818707,0.0107066044583917,-0.5,-0.0261164866387844,-0.0655873343348503
194,0.0183442458510399,-0.0329173393547535,0.015419359318912,-0.5,-0.0290244612842798,-0.0503602623939514
195,0.0222039800137281,-0.0187732055783272,0.017417199909687,-0.5,-0.0319959931075573,-0.0339689217507839
196,0.0228744596242905,-0.003446462098509,0.0136604979634285,-0.5,-0.0368700623512268,-0.0203306060284376
197,0.0203332044184208,0.0105109829455614,0.0047496468760073,-0.5,-0.0437209270894527,-0.0124315703287721
198,0.0153662906959653,0.018272127956152,-0.0071204821579158,-0.5,-0.0514122433960438,-0.0146868582814932
199,0.0085127959027886,0.0181221608072519,-0.0188132803887129,-0.5,-0.0579148903489113,-0.0252865497022867
200,0.003701394656673,0.0154225379228592,-0.0254002884030342,-0.5,-0.059793122112751,-0.0353587754070759
201,0.0032215837854892,0.0150251341983676,-0.0265479981899261,-0.5,-0.0564740002155304,-0.0400104634463787
202,0.0067494418472051,0.0183889716863632,-0.0256913639605045,-0.5,-0.0506003946065903,-0.0383703745901585
203,0.0112087605521083,0.0235660336911678,-0.0246954169124365,-0.5,-0.0455437488853931,-0.0313376672565937
204,0.0119577283039689,0.0267120953649282,-0.0239226333796978,-0.5,-0.0433222390711308,-0.023730393499136
205,0.0097816186025738,0.0263364240527153,-0.021664397791028,-0.5,-0.0421936213970184,-0.0200243089348078
206,0.0085299462080001,0.0225152932107449,-0.016435282304883,-0.5,-0.0397736728191376,-0.0209734793752432
207,0.0087852897122502,0.0167265124619007,-0.010093355551362,-0.5,-0.0368556566536427,-0.0255727097392082
208,0.0093698464334011,0.0123291686177254,-0.004209485836327,-0.5,-0.0354144722223282,-0.0313221327960491
209,0.0086719430983066,0.0095098624005913,0.0006606790120713,-0.5,-0.0356897003948689,-0.0358767472207546
210,0.0053364187479019,0.0063512613996863,0.0025011948309838,-0.5,-0.0356986857950687,-0.0396474860608578
211,0.0011030358728021,0.0054177548736333,0.0003934169362764,-0.5,-0.0338684059679508,-0.0427074432373047
212,-0.0011234614066779,0.0084724891930818,-0.0039443983696401,-0.5,-0.0322799198329449,-0.0441879890859127
213,-0.0009245439432561,0.0115060033276677,-0.007426003459841,-0.5,-0.0342144183814526,-0.0453770011663437
214,-0.0005942927091382,0.0123795531690121,-0.0085130017250776,-0.459097594022751,-0.0399065390229225,-0.0491808280348778
215,-0.0030815890058875,0.0124055631458759,-0.0105734830722213,-0.0269279219210148,-0.0479410216212273,-0.057878490537405
216,-0.0071001332253217,0.012244631536305,-0.0167785882949829,0.166601672768593,-0.056603167206049,-0.06840980052948
217,-0.0080493679270148,0.0117556657642126,-0.0247647818177938,0.0971202030777931,-0.0622263997793198,-0.0711351707577705
218,-0.0041112718172371,0.0121687557548285,-0.0302188321948051,-0.09820307046175,-0.0611761659383774,-0.060685757547617
219,0.0027383521664887,0.0162669867277145,-0.0303435772657394,-0.262615263462067,-0.0547787733376026,-0.043042853474617
220,0.0075664757750928,0.0206134486943483,-0.0259773842990398,-0.352648854255676,-0.0492521114647388,-0.0291759148240089
221,0.0078871790319681,0.0185350906103849,-0.019270034506917,-0.349197953939438,-0.0480137579143047,-0.0267552770674229
222,0.0072163608856499,0.0100488588213921,-0.0100202318280935,-0.237196728587151,-0.0485826171934605,-0.0348798595368862
223,0.0070183640345931,-0.0028057892341166,-0.0004245190648362,-0.0925673171877861,-0.0490814372897148,-0.0471128262579441
224,0.0056980708613991,-0.0176993664354086,0.005435446742922,0.0128476684913039,-0.050036609172821,-0.0585650019347668
225,0.0033634398132562,-0.0301433149725199,0.0074852011166513,0.100281827151775,-0.0520095638930798,-0.0677607208490372
226,-7.0709407737013e-05,-0.0373754240572453,0.0069203455932438,0.204451262950897,-0.0559795722365379,-0.0753477439284325
227,-0.0043415166437625,-0.0361255146563053,0.0038082343526184,0.330055296421051,-0.0626317113637924,-0.0801224187016487
228,-0.0086697936058044,-0.0254392493516207,-0.001387529191561,0.485177665948868,-0.0706616416573524,-0.0805768594145775
229,-0.0130462208762765,-0.0133343478664756,-0.007741070818156,0.5,-0.0768958628177643,-0.0791369080543518
230,-0.0154088996350765,-0.0065169110894203,-0.0121471704915166,0.5,-0.07838174700737,-0.0760316476225853
231,-0.0133921187371016,-0.0037169444840401,-0.0108659081161022,0.5,-0.0742615461349487,-0.0684300512075424
232,-0.0084869638085365,-0.0035435559693723,-0.004669995047152,0.5,-0.0665156096220016,-0.0590607821941376
233,-0.0034049560781568,-0.0063881664536893,0.0026508460287004,0.5,-0.0581769123673439,-0.0537978708744049
234,-0.0003956051077693,-0.0114652868360281,0.0085905557498335,0.27297443151474,-0.0520075745880604,-0.0547909550368786
235,-0.0011187236523255,-0.01621999964118,0.0128630483523011,0.0345370434224606,-0.0505719259381294,-0.0592490397393703
236,-0.004385576583445,-0.0181536022573709,0.0158282071352005,0.0564684793353081,-0.0536655485630035,-0.0614179037511349
237,-0.0081293499097228,-0.0173552688211203,0.0160244982689619,0.166877195239067,-0.0590446032583714,-0.0583119206130505
238,-0.0105220358818769,-0.0138946352526546,0.0134839741513133,0.278187245130539,-0.0645262151956558,-0.0504946932196617
239,-0.0099837547168135,-0.0069679399020969,0.0122220609337091,0.376205950975418,-0.0678491741418839,-0.0397449769079685
240,-0.0084317801520228,0.0010937935439869,0.0133877377957106,0.335579603910446,-0.0691248849034309,-0.0305776186287403
241,-0.0079889744520187,0.0075989132747054,0.0144338719546795,0.0225503817200661,-0.0699940472841263,-0.0268853940069675
242,-0.0080285957083106,0.0126127805560827,0.0138493897393346,-0.458222210407257,-0.0706358924508095,-0.027862761169672
243,-0.0082639195024967,0.0152992140501738,0.0107150375843048,-0.5,-0.0714138522744179,-0.0306274443864822
244,-0.0079566640779376,0.0145172644406557,0.0068165902048349,-0.5,-0.0719085857272148,-0.0316645912826061
245,-0.0075421896763145,0.0115662384778261,0.0053228735923767,-0.5,-0.0694673359394073,-0.0282111167907715
246,-0.0084340423345565,0.0101514533162117,0.0068458043970167,-0.5,-0.0620629899203777,-0.0193286929279566
247,-0.0091369431465864,0.0133541440591216,0.0104928584769368,-0.5,-0.0513361729681492,-0.005511041264981
248,-0.0100615788251162,0.0196218565106392,0.01220135204494,-0.488508284091949,-0.0437551662325859,0.0083156144246459
249,-0.0124968439340591,0.0263707302510738,0.0085419164970517,-0.485714048147202,-0.0440527088940144,0.0152888735756278
250,-0.0135202659294009,0.0302635673433542,0.0010330263758078,-0.470642626285553,-0.0488848201930523,0.0107218185439706
251,-0.0124038718640804,0.0253652073442936,-0.008468403480947,-0.402066797018051,-0.0524883233010769,-0.0054462002590298
252,-0.0112120183184743,0.0111435577273369,-0.0174097456037998,-0.342689841985703,-0.052686981856823,-0.0228598564863205
253,-0.0091122463345527,-0.0052240332588553,-0.0223716031759977,-0.378966897726059,-0.049595408141613,-0.0295365322381258
254,-0.0052836504764854,-0.0142700327560306,-0.0234397985041142,-0.5,-0.0449734181165695,-0.0239498242735863
255,-0.0014609284698963,-0.0116018624976277,-0.0218368340283632,-0.5,-0.0396272838115692,-0.0094161303713917
256,0.0011851921444758,-0.0030387374572455,-0.018302857875824,-0.436016798019409,-0.0310036391019821,0.0094427121803164
257,0.0040596630424261,0.00358024565503,-0.0154126575216651,-0.143365696072578,-0.0195383746176958,0.0248488206416368
258,0.00826096534729,0.004628989379853,-0.0131710544228554,0.273144066333771,-0.0100869331508875,0.0319027081131935
259,0.0106907486915588,-0.0003853553789667,-0.0080559682101011,0.5,-0.0061108963564038,0.0326847545802593
260,0.0078534064814448,-0.0058436761610209,1.48001299749012e-05,0.5,-0.0085946917533874,0.0321595072746277
261,0.001526873325929,-0.0049213729798793,0.0072073047049343,0.5,-0.0155922025442123,0.0332074016332626
262,-0.0042800670489668,0.0004805499047506,0.0097585311159491,0.5,-0.0227645430713892,0.0346186310052872
263,-0.0065654339268803,0.0048369006253778,0.0076732793822884,0.5,-0.0260253734886646,0.0352600440382957
264,-0.003677531145513,0.0073517505079507,0.0052345711737871,0.5,-0.0232041031122208,0.0392112992703915
265,0.0019079664489254,0.0088139176368713,0.0047786505892872,0.5,-0.0158140808343887,0.0499150343239307
266,0.0058750407770276,0.0098396707326173,0.0055255331099033,0.5,-0.007595436181873,0.0629595294594765
267,0.0067355907522141,0.0104607157409191,0.0061593414284288,0.33697646856308,-0.0015236443141475,0.070642814040184
268,0.006278577260673,0.0089644929394125,0.0049690608866512,-0.0437661148607731,0.0015152046689763,0.0703941658139229
269,0.0076588247902691,0.0062724486924707,0.0026521745603531,-0.317923039197922,0.0027161978650838,0.0663188770413399
270,0.0100545361638069,0.0042443429119885,1.74351625901181e-05,-0.459996104240417,0.0029051096644252,0.0617906413972378
271,0.0108315059915185,0.0033588279038667,-0.003821255872026,-0.5,0.0029009254649281,0.0574525445699692
272,0.0115039823576808,0.0065146558918058,-0.006967281922698,-0.378205329179764,0.0044150929898023,0.0555540733039379
273,0.0126928174868226,0.0133745633065701,-0.0077419755980372,-0.0373706519603729,0.006933628115803,0.0562999881803989
274,0.0131805166602135,0.0199219509959221,-0.0073908022604882,0.293274253606796,0.0089134518057107,0.0591735504567623
275,0.0134228002279997,0.0260916966944933,-0.0076470337808132,0.449279755353928,0.0100242160260677,0.0673560127615929
276,0.01304673217237,0.031445138156414,-0.0107269929721951,0.457274466753006,0.0095543703064322,0.0804155319929123
277,0.0119291981682181,0.0334256887435913,-0.0161171816289425,0.420483469963074,0.0082264859229326,0.091402567923069
278,0.0107103893533349,0.0318948961794376,-0.0198504943400621,0.354480862617493,0.009231524541974,0.0931266248226166
279,0.0092242481186986,0.0283978506922722,-0.0199068952351809,0.256988406181335,0.0139785958454013,0.0843308493494987
280,0.0098875844851136,0.0237384960055351,-0.0168937910348177,0.180866688489914,0.0209373719990253,0.0720453932881355
281,0.0142946606501937,0.0165421776473522,-0.0126478979364038,0.116218984127045,0.0282270014286041,0.0640637576580048
282,0.0177063960582018,0.0055234772153198,-0.0087884673848748,0.0089130075648427,0.0340123064815998,0.0619197152554989
283,0.0166522450745106,-0.0065258680842816,-0.0036958528216928,-0.119956269860268,0.0366054028272629,0.0641281083226204
284,0.0129296919330955,-0.0149641148746014,0.0033834662754088,-0.250852048397064,0.0358187258243561,0.0681741535663605
285,0.0081472368910908,-0.0172055102884769,0.0086669232696294,-0.41400545835495,0.0321278460323811,0.0720106884837151
286,0.0026837759651243,-0.0116975726559758,0.0091528464108705,-0.5,0.0248252134770155,0.076604925096035
287,-0.0028568112757057,0.0008386168046854,0.004589709918946,-0.5,0.0134275639429688,0.0819876343011856
288,-0.0068012345582246,0.0144379818812013,-0.0021334912162274,-0.5,0.0013631910551339,0.0871256962418556
289,-0.0076781958341598,0.0217221397906542,-0.0058841775171458,-0.5,-0.0051124063320457,0.0928768664598465
290,-0.0069078174419701,0.0216573085635901,-0.006325333379209,-0.5,-0.0039632990956306,0.0978656336665154
291,-0.005867161322385,0.020219549536705,-0.0062905098311603,-0.5,0.0012917567510157,0.0986752510070801
292,-0.0052488609217107,0.0204824581742287,-0.0063323876820504,-0.5,0.0070785977877676,0.0959841832518578
293,-0.0071264198049902,0.0199786350131035,-0.0057799820788204,-0.5,0.0134842228144407,0.0936282426118851
294,-0.010044801980257,0.0188460275530815,-0.0033952849917113,-0.5,0.0236160084605217,0.0934633761644363
295,-0.010633634403348,0.0181178357452154,-0.0010761672165244,-0.5,0.0360897332429886,0.0935825780034065
296,-0.008615918457508,0.0158402007073164,-0.0028685997240245,-0.459447234869003,0.0442435555160046,0.0915846824645996
297,-0.005117701832205,0.0112086115404963,-0.0070340521633625,-0.215851753950119,0.0462786965072155,0.0886790826916695
298,-0.003383026458323,0.0040228725410997,-0.0100590726360679,0.0322338826954365,0.0437534861266613,0.0869007334113121
299,-0.0047471607103943,-0.0056333667598664,-0.0116105163469911,0.103411205112934,0.0367180779576302,0.0861470699310303
300,-0.0053591825999319,-0.0141282118856907,-0.0107547836378217,0.037338100373745,0.0282574314624071,0.0864539295434952
301,-0.003482636064291,-0.0168828777968884,-0.0070621389895677,-0.044231615960598,0.0233866740018129,0.0879024565219879
302,-5.2430961659411e-05,-0.0114559102803469,-0.002255362458527,-0.121931239962578,0.0234911479055882,0.0905727222561836
303,0.0042938664555549,0.000138631905429,0.0011721422197297,-0.220973253250122,0.0260955952107906,0.0955118238925934
304,0.00799594912678,0.0114729115739465,0.0016166887944564,-0.301664233207703,0.0287510044872761,0.10211606323719
305,0.0119235431775451,0.0204125475138426,0.000505733769387,-0.31418439745903,0.0317013785243034,0.108467079699039
306,0.017538433894515,0.0294963549822569,-0.0004165070131421,-0.313424468040466,0.0361650623381138,0.11210835725069
307,0.0207189936190844,0.0354684852063656,-0.0021298427600413,-0.340509086847305,0.0408490486443043,0.10862448066473
308,0.0176437646150589,0.0319111756980419,-0.004788823891431,-0.289161145687103,0.0430854596197605,0.096989668905735
309,0.0110536785796285,0.019792627543211,-0.0075162569992244,-0.0308058056980371,0.041723158210516,0.0830263718962669
310,0.0053871814161539,0.0076402900740504,-0.0119660897180438,0.389725178480148,0.0360220856964588,0.0736190602183342
311,0.0023812856525182,0.0025154575705528,-0.0187933873385191,0.5,0.0275507178157568,0.0716126337647438
312,0.0008814218454062,0.0024661219213157,-0.0248361229896545,0.5,0.0213209539651871,0.0743547677993774
313,0.0002578246640041,0.0020191327203065,-0.0255909394472837,0.5,0.0214798059314489,0.0774429365992546
314,0.0014101138804107,-0.0002170307270716,-0.019645918160677,0.5,0.0277748182415962,0.079934298992157
315,0.0010961445514112,-0.0034349095076322,-0.0130411917343736,0.404160171747208,0.0339561998844147,0.0814225301146507
316,-0.0037306966260075,-0.0052407649345696,-0.0115892738103867,0.144537597894669,0.034206185489893,0.0814385488629341
317,-0.0106048313900828,-0.0037412375677377,-0.0145268999040127,-0.0454014502465725,0.0292552262544632,0.0812646970152855
318,-0.0171649977564812,-0.0019007525406777,-0.0207382328808308,-0.103976368904114,0.0219839066267014,0.0804503634572029
319,-0.0211980994790792,-0.0029053930193185,-0.0279267691075802,-0.051275297999382,0.0159780792891979,0.0790804028511047
320,-0.0210823602974415,-0.0052052601240575,-0.0320352837443352,0.0340193472802639,0.0152905154973269,0.0791408121585846
321,-0.0173553247004747,-0.0052761621773243,-0.0314281396567822,0.108646996319294,0.0208768174052238,0.0811084285378456
322,-0.0099686700850725,-0.0027578952722251,-0.0272071603685617,0.206837967038155,0.0302243195474148,0.0837549567222595
323,-0.0016215888317674,-0.0021724847611039,-0.0241755191236734,0.367855817079544,0.0388518571853638,0.0845122113823891
324,0.0038706813938915,-0.0038386294618248,-0.025632482022047,0.5,0.0446239300072193,0.0836163982748985
325,0.0066101243719458,-0.0007346027414314,-0.0290399547666311,0.5,0.0477630645036697,0.0845196694135666
326,0.0066922949627041,0.0074677341617643,-0.0316527560353279,0.5,0.0471208356320858,0.0851485878229141
327,0.0034065747167915,0.0126155223697424,-0.0320852212607861,0.5,0.0437722653150558,0.0799035802483559
328,-0.0029846446122974,0.0101371090859175,-0.0286508742719889,0.486298233270645,0.0411240570247173,0.0699980184435844
329,-0.0110830627381802,0.0032655580434948,-0.0217629335820675,0.0312179811298847,0.0400178916752338,0.0616191551089287
330,-0.016972366720438,-0.0007252013892866,-0.0139845553785563,-0.477014303207397,0.0396107770502567,0.0578040070831776
331,-0.0186102967709303,0.0009069581865333,-0.0089688347652554,-0.5,0.0383568927645683,0.0559844970703125
332,-0.0179584622383118,0.0040667816065251,-0.0098072569817304,-0.5,0.034954983741045,0.053383257240057
333,-0.0157068576663733,0.0051733562722802,-0.0145183419808745,-0.5,0.0313146449625492,0.0527085177600384
334,-0.0115857636556029,0.002651349408552,-0.0189561583101749,-0.5,0.0296149235218763,0.0571912974119186
335,-0.0061699473299086,-0.0037580314092338,-0.0226080287247896,-0.5,0.0288712065666914,0.0648691058158875
336,0.0002818223438225,-0.010123667307198,-0.0266862586140633,-0.5,0.0275038760155439,0.0711792409420013
337,0.0054952180944383,-0.0104391295462847,-0.032671295106411,-0.5,0.0251803696155548,0.071793220937252
338,0.0072085494175553,-0.00301866652444,-0.040413610637188,-0.5,0.0230900086462498,0.0661683902144432
339,0.0071677262894809,0.00727429240942,-0.0448692291975021,-0.5,0.0229361243546009,0.0593055374920368
340,0.006452455651015,0.0140710463747382,-0.0423989444971085,-0.5,0.0248029641807079,0.0548212826251984
341,0.0054070381447672,0.0150528056547046,-0.0349473655223846,-0.5,0.028836827725172,0.0528771169483662
342,0.0055698966607451,0.0108730960637331,-0.0261158104985952,-0.5,0.0344120971858501,0.0543389394879341
343,0.0063954535871744,0.0030583185143768,-0.0196483880281448,-0.110567830502987,0.0377508290112019,0.0601631216704845
344,0.0072963689453899,-0.003354700980708,-0.0172916110605001,0.352515190839767,0.0365485511720181,0.0689341649413109
345,0.0076723326928913,-0.0045051178894937,-0.0183071997016668,0.5,0.0328158177435398,0.0752729773521423
346,0.0066161188296973,-0.0032186196185648,-0.0198654346168041,0.5,0.0307909585535526,0.0756328329443932
347,0.0050370809622108,-0.0040234201587736,-0.0181273315101862,0.5,0.0324552655220032,0.0731473490595818
348,0.0021346400026232,-0.0090541653335094,-0.0130077106878161,0.5,0.034228440374136,0.0701195001602173
349,-0.0030285082757473,-0.0153989521786571,-0.0070346901193261,0.5,0.032597940415144,0.0668669790029526
350,-0.0081413807347416,-0.0181199666112661,-0.0028126100078225,0.5,0.0279474519193172,0.0653790682554245
351,-0.0111142424866557,-0.0171748120337725,-0.0031466805376112,0.5,0.0212367679923773,0.0652346611022949
352,-0.0109347375109792,-0.0143641522154212,-0.0075891772285103,0.5,0.013727412559092,0.0647408068180084
353,-0.0078197056427598,-0.010608933866024,-0.0128920888528228,0.5,0.0078353928402066,0.0649425089359283
354,-0.0036259109620004,-0.0063369269482791,-0.0169911459088326,0.5,0.0058803334832191,0.0671697780489922
355,0.0009632374858483,0.0004708892083726,-0.0186117272824049,0.5,0.0091623300686478,0.0702350959181786
356,0.0052455929107964,0.0089211501181125,-0.0183806009590626,0.5,0.0164142046123743,0.0702743232250214
357,0.0076299826614558,0.0134899131953716,-0.0193338114768267,0.5,0.0237285885959864,0.0642451569437981
358,0.0089262733235955,0.0130653148517013,-0.0214877258986235,0.5,0.0281444750726223,0.0548937954008579
359,0.0093991151079535,0.0106315882876515,-0.0225740633904934,0.5,0.0283075030893087,0.0474932342767715
360,0.0072017665952444,0.007157274056226,-0.0226370319724083,0.5,0.0239063929766417,0.0438290052115917
361,0.0036531640216708,0.0031307803001254,-0.0216152053326368,0.5,0.0178582798689604,0.0434298738837242
362,0.0007273982628248,-0.0001788042573025,-0.0190508756786585,0.5,0.0135063976049423,0.0451933704316616
363,-0.0022478383034467,-0.0012903674505651,-0.0156746990978718,0.5,0.0107546485960484,0.0482321232557297
364,-0.0052098520100116,0.0021280087530612,-0.0127311842516065,0.5,0.0079804081469774,0.0519742257893085
365,-0.0080608250573277,0.0098438570275902,-0.0128281190991402,0.5,0.00428945152089,0.0535667762160301
366,-0.0101370690390468,0.0189900863915682,-0.0157007444649935,0.5,0.0011168613564223,0.0512246415019035
367,-0.0098723657429218,0.0272322539240122,-0.0172937903553247,0.5,0.0016199207166209,0.0460835956037045
368,-0.0083001246675849,0.0303167328238487,-0.0169464722275734,0.5,0.0063734017312526,0.0386439524590969
369,-0.0070912302471697,0.0252405796200037,-0.0167474187910557,0.5,0.0115300277248025,0.0307784173637629
370,-0.0074126902036368,0.0141817536205053,-0.0175387430936098,0.40810489654541,0.0127359023317695,0.025239260867238
371,-0.0091951116919517,0.0008359648054465,-0.0182520560920238,0.343830972909927,0.0104392655193806,0.0234761349856853
372,-0.0093077644705772,-0.0099659692496061,-0.0161989387124777,0.297359198331833,0.0087501052767038,0.0292682349681854
373,-0.0067506371997296,-0.014057882130146,-0.0112903397530317,0.25526550412178,0.0091338446363806,0.0443519800901413
374,-0.00285668624565,-0.0112802190706134,-0.0065604895353317,0.18398705124855,0.010364449582994,0.0606440678238869
375,0.0029224085155874,-0.0046435035765171,-0.0036982523743063,0.104140058159828,0.0130413165315986,0.067992627620697
376,0.0101609956473112,0.0005977884866297,-0.0013349979417398,0.131788954138756,0.0184506736695766,0.06589026004076
377,0.0166477914899588,0.0017448451835662,0.0039246981032192,0.256585597991943,0.0249860361218452,0.0603281632065773
378,0.0200510304421186,-0.0003249074216,0.0116165652871132,0.285084366798401,0.0287088882178068,0.0533796548843384
379,0.0194798558950424,-0.0047926884144544,0.0163749903440475,0.160652562975883,0.027247617021203,0.0442957803606987
380,0.0178077202290297,-0.0089309234172105,0.0162359178066254,0.0508369691669941,0.0217916630208492,0.0361934192478657
381,0.0174861811101437,-0.0100542865693569,0.0131471762433648,0.0978782325983047,0.0146146155893803,0.0322737284004688
382,0.0168116856366396,-0.0096532525494694,0.0075276680290699,0.272851943969727,0.0070693586021661,0.0317839793860912
383,0.0150185097008944,-0.009551259689033,0.0007416026783175,0.4598328769207,0.0019289299380034,0.0334499850869179
384,0.0138520430773497,-0.009334709495306,-0.00289221201092,0.5,0.0026680687442421,0.0354502499103546
385,0.0139925023540854,-0.0088118789717555,-0.0016047052340582,0.5,0.0084663452580571,0.0345331877470016
386,0.0157184526324272,-0.0084281070157885,0.001719577354379,0.5,0.0150657678022981,0.0295291300863028
387,0.0186099782586098,-0.0093541974201798,0.0027178123127669,0.394426286220551,0.0190198346972466,0.0215766187757254
388,0.0214977692812681,-0.0115358652547002,0.0004621992120519,0.195696219801903,0.0196383856236935,0.0130616677924991
389,0.0244177486747503,-0.0128103923052549,-0.0015485308831557,0.116023801267147,0.0185723192989826,0.0078158732503652
390,0.0265692435204983,-0.0134601127356291,-0.0022924242075532,0.129725575447083,0.0169637631624937,0.0070743612013757
391,0.0271477811038494,-0.0136208431795239,-0.0032458964269608,0.147336483001709,0.0150691168382764,0.0089214006438851
392,0.0261605195701122,-0.0105138644576073,-0.0040924181230366,0.0849228873848915,0.0137053541839123,0.0121451253071427
393,0.0224442575126886,-0.0045998869463801,-0.0052140192128717,-0.0246624443680048,0.013196918182075,0.0148157607764006
394,0.0173348132520914,0.0007069442071951,-0.0066209221258759,-0.0948602706193924,0.0131526347249746,0.0153613677248359
395,0.0140322148799896,0.0028792696539312,-0.007240290287882,-0.141579478979111,0.012996700592339,0.0146363526582718
396,0.0140477623790503,0.0008921268163248,-0.0073583708144724,-0.2090864777565,0.0126299792900682,0.0135195199400187
397,0.0179485455155373,-0.0031768390908837,-0.0070359460078179,-0.215955331921577,0.0128315519541502,0.0126344338059425
398,0.0228749662637711,-0.0066795414313674,-0.007158413529396,-0.0801571682095528,0.0128082428127527,0.01229103282094
399,0.0257162861526012,-0.0081427581608295,-0.0090244729071855,0.0818392261862755,0.0117033366113901,0.0127945272251964
400,0.0277238674461842,-0.0048903063870966,-0.0110617941245437,0.0839625969529152,0.0112804342061281,0.0152214858680964
401,0.0291361976414919,0.0048627220094203,-0.0108853932470083,-0.0582320503890514,0.0123074967414141,0.0201413985341787
402,0.0286896079778671,0.0177208930253983,-0.0074241608381271,-0.183365285396576,0.0138099072501063,0.0259806979447603
403,0.026392986997962,0.0248727630823851,-0.0014042927650734,-0.23378898203373,0.0158060397952795,0.0291115771979094
404,0.0225005187094212,0.0198710486292839,0.0046536424197256,-0.27799379825592,0.0193522125482559,0.0271182581782341
405,0.0192506443709135,0.0070283594541251,0.0094184372574091,-0.319593876600266,0.0256157908588648,0.0218844525516033
406,0.0192879643291235,-0.0050595845095813,0.0136019317433238,-0.262258887290955,0.0326552540063858,0.0166445858776569
407,0.0216477494686842,-0.0138434171676636,0.0166659373790026,-0.105821013450623,0.0354137867689133,0.0117069073021412
408,0.0241794176399708,-0.0199593231081963,0.0170432347804308,0.0245412718504667,0.032318290323019,0.007205800153315
409,0.026374775916338,-0.0225520040839911,0.0146266063675284,0.0281591657549143,0.026485200971365,0.0055202934890985
410,0.0293026752769947,-0.0208299197256565,0.0114867202937603,-0.0985038205981255,0.0221787374466658,0.0085164159536361
411,0.033952996134758,-0.0157015062868595,0.0105332676321268,-0.283321470022202,0.0218121148645878,0.0160090569406748
412,0.0376196540892124,-0.0106060169637203,0.0114250993356109,-0.428057968616486,0.022697176784277,0.0247929524630308
413,0.0372267812490463,-0.0082350429147481,0.0125246895477176,-0.382326245307922,0.020907498896122,0.0307705719023943
414,0.0340516492724419,-0.0072370371781289,0.0143340369686484,-0.0780810192227364,0.0173158552497625,0.0326755531132221
415,0.0294063333421946,-0.0057268855161964,0.0152213852852583,0.268801778554916,0.014324901625514,0.0296747405081987
416,0.0247726459056139,-0.0025693103671073,0.0130526572465897,0.418554455041885,0.0131508838385344,0.0226336177438498
417,0.0228516012430191,0.0018791264155879,0.0088917864486575,0.411188036203384,0.0148511398583651,0.0157586596906185
418,0.0228715967386961,0.0059056594036519,0.0040000402368605,0.392343908548355,0.0183515921235085,0.0116607351228595
419,0.0232345703989267,0.0086966399103403,0.0013151484308764,0.368968814611435,0.0217752605676651,0.0110564893111587
420,0.0233087595552206,0.0077973389998078,0.0040882751345634,0.285232901573181,0.0233051273971796,0.0131561914458871
421,0.0222020912915468,0.0039773024618625,0.0106555642560124,0.17100602388382,0.0206686500459909,0.0160542856901884
422,0.0202191267162561,0.0033967273775488,0.0167601518332958,0.0794395953416824,0.0149460742250085,0.0190833602100611
423,0.0165597461163998,0.0061190766282379,0.0184707082808018,-0.0169541500508785,0.0093295974656939,0.0206581465899944
424,0.0115682268515229,0.0075432281009852,0.0152679663151503,-0.150067523121834,0.0055893198587,0.0198153741657734
425,0.0088572008535265,0.0066577112302184,0.0114696538075805,-0.234606504440308,0.0045286435633897,0.0184870064258575
426,0.0086123934015631,0.0026577222160995,0.0097141275182366,-0.157704830169678,0.0050668567419052,0.0172723606228828
427,0.0086168562993407,-0.0044777290895581,0.0089806821197271,0.0637909770011902,0.0058784512802958,0.0154674658551812
428,0.0089808078482747,-0.0114175481721759,0.0081839896738529,0.323901891708374,0.0071321469731628,0.013467425480485
429,0.0096421539783477,-0.0157693587243557,0.0064712413586676,0.5,0.0080773159861564,0.0118823442608118
430,0.0107186939567328,-0.0175538416951895,0.0044108848087489,0.5,0.0086529236286878,0.0108771380037069
431,0.0125430263578892,-0.0177783947438002,0.0031550447456538,0.5,0.0101553443819284,0.0099203009158372
432,0.0137320877984166,-0.0169859491288662,0.0020397610496729,0.5,0.0117371305823326,0.009151947684586
433,0.0143918236717582,-0.0133052906021476,0.001967821503058,0.418669313192368,0.01225705165416,0.0114865507930517
434,0.0158797055482864,-0.0052426070906221,0.0045130825601518,0.457086592912674,0.012965451925993,0.0187228433787823
435,0.0180730372667313,0.0041223373264074,0.0077888732776045,0.5,0.0147104877978563,0.0268224161118269
436,0.021766472607851,0.0101155610755086,0.0099361427128315,0.5,0.0169607289135456,0.0296462140977383
437,0.0264296177774668,0.0103403273969889,0.0105874110013247,0.5,0.0194712802767754,0.0245751868933439
438,0.0283237900584936,0.0062899361364543,0.0101210586726666,0.5,0.0213924124836922,0.0157458502799273
439,0.0266526360064745,0.0039480584673583,0.0102189490571618,0.5,0.0207192786037922,0.0102988397702575
440,0.023116834461689,0.0063289734534919,0.0110140647739172,0.5,0.0171337779611349,0.0091403415426611
441,0.0185121856629848,0.009186191484332,0.0116315148770809,0.5,0.0134103121235967,0.0097071276977658
442,0.0135673340409994,0.0074061132036149,0.0116830393671989,0.5,0.0112592997029424,0.0125976735725999
443,0.0095407273620367,0.0004661137936636,0.0104554640129209,0.5,0.0092834178358316,0.0183946155011654
444,0.0092342644929885,-0.0068367794156074,0.0091928411275148,0.5,0.0071236612275242,0.0252580344676971
445,0.0129017364233732,-0.0113010918721557,0.0090427482500672,0.5,0.005901216994971,0.0290628932416439
446,0.0165847521275282,-0.0141360368579626,0.0086454786360263,0.5,0.0054889204911887,0.027234859764576
447,0.0177911370992661,-0.0152019327506423,0.0075942846015095,0.5,0.0056113819591701,0.0230871569365263
448,0.016005540266633,-0.0141499070450664,0.0060534416697919,0.5,0.0067619741894304,0.0201537013053894
449,0.0121707813814282,-0.0120108695700765,0.0041998699307441,0.5,0.0099060703068971,0.0192549731582403
450,0.0084903258830308,-0.0096113327890634,0.0031260149553418,0.5,0.0142929349094629,0.0209077037870884
451,0.0061094220727682,-0.0084674172103405,0.0023837615735828,0.5,0.0162690784782171,0.0230717360973358
452,0.006210918072611,-0.0090711284428834,0.0010108071146532,0.5,0.0145571930333972,0.0237163882702589
453,0.0085193812847137,-0.0093387458473444,-0.0006448240019381,0.5,0.0110219046473503,0.0253611318767071
454,0.0105769587680697,-0.0069687012583017,-0.0023644622415304,0.5,0.006500163115561,0.0297383703291416
455,0.0119997346773744,-0.0018320902017876,-0.0029622085858136,0.5,0.0024967778008431,0.0341643616557121
456,0.0122935026884079,0.0027866198215633,-0.001782581093721,0.5,0.0010358595754951,0.0358923114836216
457,0.0096668228507041,0.0030142802279442,-0.0009338088566437,0.5,0.0013913617003709,0.0346446484327316
458,0.006606051698327,-0.0001031823194352,-0.0009062984609045,0.5,0.0024155045393854,0.0320979990065098
459,0.0060586631298065,-0.0029303645715117,-0.0005626864731311,0.5,0.0038232444785535,0.0294782798737288
460,0.0057719852775335,-0.0042065344750881,-0.0008484915597364,0.5,0.004214743617922,0.0269037317484617
461,0.0036399574019014,-0.0036075320094823,-0.0021276443731039,0.5,0.0031843711622059,0.0258863177150488
462,0.0002583710593171,-0.0019282788271084,-0.0029797088354826,0.5,0.0025967874098569,0.0271236300468445
463,-0.0026741395704448,-0.0006255604093894,-0.0017310683615505,0.48050856590271,0.0039692502468824,0.0293246600776911
464,-0.0034583176020532,0.0005937565001659,0.0032570140901953,0.125063329935074,0.0070331804454326,0.0325071141123772
465,-0.0031535143498331,0.000662422447931,0.0102242669090629,-0.194718390703201,0.0103145856410265,0.0358243323862553
466,-0.0021340802777558,-0.0012991169933229,0.0153916236013174,-0.434303611516953,0.0136024625971913,0.0372965931892395
467,0.0011103220749646,-0.0033331948798149,0.017795542255044,-0.5,0.0177415274083614,0.0371020026504993
468,0.0053091435693204,-0.0034501303452998,0.0184110179543495,-0.5,0.0217733923345804,0.0359743796288967
469,0.0092674726620316,0.0009158295579254,0.0192382391542196,-0.5,0.0240401532500982,0.0351412147283554
470,0.0117740193381906,0.0075858240015804,0.0194454900920391,-0.432343542575836,0.0234707985073328,0.0343385450541973
471,0.0108731016516685,0.0100161731243134,0.0157380402088165,-0.202952057123184,0.0200574286282063,0.0315856412053108
472,0.0096368473023176,0.0091544985771179,0.0105462009087205,0.0348319709300995,0.0159469209611416,0.029327729716897
473,0.0110851489007473,0.0085234781727194,0.0082472143694758,0.279801368713379,0.0125451432541013,0.030114833265543
474,0.0133873652666807,0.0080062616616487,0.0088440869003534,0.408057034015656,0.0092751430347561,0.0310576464980841
475,0.0145500861108303,0.0082437386736273,0.0107746832072735,0.382179528474808,0.0058191334828734,0.0290656723082066
476,0.0135911731049418,0.0079037258401513,0.012722335755825,0.314725160598755,0.0016902947099879,0.0255206935107708
477,0.011241726577282,0.0058243456296622,0.014582347124815,0.267053782939911,-0.0023778935428708,0.0248927772045136
478,0.0087900450453162,0.0044327336363494,0.0163477212190628,0.187339752912521,-0.0042570140212774,0.0281146727502346
479,0.0060871569439768,0.0047666998580098,0.0162676386535168,0.0231871474534273,-0.0040027466602623,0.0309754274785519
480,0.0041137975640595,0.0066734733991324,0.0140775395557284,-0.178064987063408,-0.00286302017048,0.0312909483909607
481,0.0037232530303299,0.0081957094371318,0.0111726308241487,-0.328287094831467,-0.0022073045838624,0.0314213410019875
482,0.0038400599732995,0.0049593797884881,0.0072748395614326,-0.404470026493073,-0.0036096354015171,0.0333829522132874
483,0.0048481202684342,-0.003032230772078,0.0034846770577132,-0.42454931139946,-0.0057525942102074,0.0361072346568108
484,0.0070162690244615,-0.0112767508253455,0.0026841396465897,-0.414492517709732,-0.0055808266624808,0.0371214672923088
485,0.0077658137306571,-0.0171804595738649,0.0042307320982217,-0.406762659549713,-0.002654509851709,0.0347640477120876
486,0.0057153566740453,-0.0205631293356419,0.0055358102545142,-0.438109695911407,0.0011456037173047,0.0298062730580568
487,0.0019553583115339,-0.0212323777377605,0.0056447070091962,-0.5,0.0034516614396125,0.0253635533154011
488,-0.0015647407853975,-0.0194275062531233,0.0051034991629421,-0.5,0.0038888435810804,0.0236743427813053
489,-0.0032565866131335,-0.0172506477683783,0.0045338016934692,-0.43160405755043,0.0042085186578333,0.0235379561781883
490,-0.0041986666619777,-0.0174676924943924,0.003596224123612,-0.24388299882412,0.0043884152546525,0.022087536752224
491,-0.0046664774417877,-0.0190333649516106,0.0040621603839099,-0.0419151112437248,0.0042131571099162,0.0194525010883808
492,-0.0037585995160043,-0.0187252424657345,0.0073087099008262,0.138669326901436,0.0043596685864031,0.0182488653808832
493,-0.003618718124926,-0.0157047118991613,0.0092482538893818,0.239052414894104,0.0033617648296058,0.0194268636405468
494,-0.0043802103027701,-0.0095346365123987,0.0069634420797228,0.178759604692459,0.0011079016840085,0.022533817216754
495,-0.0040468494407832,-0.0020137336105108,0.0019432393601164,-0.0336647368967533,-0.0010056366445496,0.0267476867884398
496,-0.0024312965106219,0.002236776985228,-0.0035793306306004,-0.27896323800087,-0.0031107747927308,0.0312361940741539
497,0.0013295788085088,0.0016475762240588,-0.0068898871541023,-0.422532558441162,-0.0042950129136443,0.0348867513239384
498,0.0056126504205167,-0.0025416857097297,-0.0074410550296306,-0.416270881891251,-0.0046977866441011,0.0360790714621544
499,0.0075159021653235,-0.0075436965562403,-0.0066927946172654,-0.295600265264511,-0.0053978851065039,0.034784622490406
500,0.0075373747386038,-0.0100630847737193,-0.004682223778218,-0.144680798053741,-0.0045191049575805,0.0325119979679585
501,0.0057237357832491,-0.0093146078288555,-0.0017941530095413,-0.0464235246181488,-0.0017363297520205,0.0308770760893822
502,0.0033877720125019,-0.0045384368859231,0.0016205783467739,0.0071933367289602,0.0005739373154938,0.0325163006782532
503,0.0035416288301348,0.0034205059055239,0.0064647020772099,0.0113295521587133,0.0025550937280058,0.0379649549722672
504,0.0052048349753022,0.0088279284536838,0.011783093214035,-0.127066075801849,0.0051586776971817,0.0432597100734711
505,0.0071991509757936,0.0091724377125501,0.0163913052529097,-0.383626520633698,0.0090383691713213,0.0460721999406815
506,0.0105254705995321,0.0078043113462626,0.0206958521157503,-0.5,0.0149342864751816,0.047424677759409
507,0.0144184464588761,0.0065193455666303,0.0234628766775131,-0.5,0.0205912720412016,0.0474219471216202
508,0.0179782062768936,0.0053913611918687,0.0237547177821398,-0.5,0.0233522579073906,0.046371191740036
509,0.0205342024564743,0.0045267157256603,0.0227123536169529,-0.5,0.0228514838963747,0.0458830334246159
510,0.0204926878213882,0.0031275262590497,0.0206562224775553,-0.5,0.0196616351604462,0.0460738353431225
511,0.0187826100736856,0.0015129973180592,0.0180975664407015,-0.5,0.0154051305726171,0.0460307784378529
512,0.0173357240855694,0.0001661657734075,0.0152330910786986,-0.5,0.0118380431085825,0.0450048707425594
513,0.0168724469840527,-0.0011379397474229,0.0112371416762471,-0.5,0.0100161526352167,0.0430019199848175
514,0.017951300367713,-0.0016917407047003,0.0071981009095907,-0.5,0.0102924974635243,0.0413501933217049
515,0.0183679647743702,-0.0015195095911622,0.0040040095336735,-0.5,0.0114147318527102,0.0410072766244411
516,0.0172588191926479,-8.34449892863631e-05,0.0026623692829161,-0.5,0.0127081871032715,0.0433388575911522
517,0.0175524428486824,0.0029163057915866,0.0051725869998335,-0.5,0.0150025133043528,0.0484985895454884
518,0.0183102879673243,0.0034811801742762,0.0092257829383015,-0.396772086620331,0.0173214618116617,0.0530120618641377
519,0.0165050458163023,-0.0012483778409659,0.0106735471636057,0.148319140076637,0.0182100031524897,0.0552508570253849
520,0.0119822854176164,-0.0069081713445484,0.0085829943418502,0.5,0.0184069965034723,0.0566766820847988
521,0.006572974845767,-0.006869753357023,0.0045845080167055,0.5,0.0199113041162491,0.0573063082993031
522,0.0028946823440492,-0.0020673752296716,0.0022720019333064,0.5,0.0238393675535917,0.0571656264364719
523,0.0007259201374836,-3.12704833049793e-05,0.0029782538767904,0.5,0.0275228079408407,0.0587895102798939
524,-0.0008857334032654,-0.0028293549548834,0.0050175772048533,0.308164656162262,0.027677770704031,0.0643010288476944
525,-0.0007353363907895,-0.0053143552504479,0.0083044599741697,-0.03803700953722,0.025113757699728,0.0718884468078613
526,0.0006923549226485,-0.0035582222044467,0.0119635248556733,-0.364188969135284,0.0220054052770138,0.0778514891862869
527,0.0023401496000587,0.001998778199777,0.0132981836795807,-0.5,0.0196620132774115,0.0805829167366028
528,0.0042976094409823,0.0072539756074547,0.0116080017760396,-0.5,0.0186921320855618,0.0797872617840767
529,0.0058409795165062,0.0077892434783279,0.0075959921814501,-0.489290595054626,0.0178530924022198,0.0747646763920784
530,0.0073370193131268,0.0041428310796618,0.0025223791599273,-0.274495273828506,0.0150417443364859,0.0668307468295097
531,0.0100960088893771,0.0014947516610845,-0.0017416320042684,-0.0853255018591881,0.0096727050840854,0.060316875576973
532,0.0124910119920969,0.0037552455905824,-0.0048061213456094,0.0016644505085423,0.0032427131664007,0.0578230284154415
533,0.0124054262414575,0.0090554803609848,-0.0068857087753713,-0.0123639293015003,-0.0015076021663844,0.0577420219779015
534,0.0114087797701359,0.0124931149184704,-0.0070449863560497,-0.0198265053331852,-0.0024000743869692,0.0580863207578659
535,0.012640948407352,0.0120563842356205,-0.0044885864481329,0.0848108753561974,0.0007514831959269,0.0589766092598438
536,0.016667302697897,0.0085689118131995,0.0003464996116235,0.22434164583683,0.006421722471714,0.0606591291725636
537,0.0200649574398994,0.0028540985658764,0.0051947264000773,0.289538085460663,0.0118245156481862,0.0617123953998089
538,0.0202846378087997,-0.0027220649644732,0.0086943758651614,0.364740818738937,0.0147875491529703,0.061156939715147
539,0.0197013039141893,-0.0050583374686539,0.011776058934629,0.5,0.0158267598599195,0.0598576404154301
540,0.0195762198418379,-0.0047791353426873,0.0132369110360742,0.5,0.0160299688577652,0.0584162212908268
541,0.0182741731405258,-0.0030378438532352,0.0124193429946899,0.5,0.0162997003644705,0.0581360496580601
542,0.0155184017494321,0.0002105196326738,0.0115649132058024,0.5,0.0175907276570797,0.0596622228622437
543,0.0115319164469838,0.0027887916658073,0.011057791300118,0.5,0.018494937568903,0.0603223033249378
544,0.0069546117447316,0.0034081856720149,0.0111906165257096,0.5,0.0175949055701494,0.0584167428314686
545,0.001970827113837,0.0030908684711903,0.0130510563030839,0.5,0.016353202983737,0.0547228753566742
546,-0.0029311233665794,0.0037252092733979,0.0159345958381891,0.477150946855545,0.0160231031477451,0.0514608360826969
547,-0.0051194871775806,0.0066563123837113,0.0181844290345907,0.36574998497963,0.0157224666327238,0.0511055327951908
548,-0.0053267516195774,0.0083372201770544,0.0166742298752069,0.367932677268982,0.0138488532975316,0.0519244857132435
549,-0.0058788615278899,0.0052932002581656,0.0101434495300055,0.5,0.0107076168060303,0.0507372207939625
550,-0.0044937934726476,0.0001771261158864,0.0027850759215652,0.5,0.0095969568938016,0.0484295301139355
551,-0.0002277085732202,-0.0044384212233126,-0.0022205386776477,0.5,0.0120037030428648,0.0468770451843739
552,0.0036534192040562,-0.0083765015006065,-0.005380371119827,0.5,0.0152513599023223,0.0464996434748173
553,0.0053008557297289,-0.0113081987947226,-0.0068204132840037,0.5,0.017733171582222,0.0470914468169212
554,0.0055832965299487,-0.0129949664697051,-0.0062808054499328,0.421349912881851,0.0201602689921856,0.0475378185510635
555,0.0070293368771672,-0.0125190978869796,-0.0037614915054291,0.0286881923675537,0.0238413028419018,0.047048781067133
556,0.0109607120975852,-0.0098934872075915,8.98695798241533e-05,-0.187747493386269,0.0295090042054653,0.0456335805356503
557,0.0147347943857312,-0.0076338336803019,0.0033624630887061,-0.227003321051598,0.0351884365081787,0.0430090092122555
558,0.0158973336219788,-0.006977544631809,0.0054279221221804,-0.222661808133125,0.039483904838562,0.0397408418357372
559,0.0147167090326548,-0.0068544880487024,0.006439134478569,-0.260608375072479,0.0424305200576782,0.0372644811868668
560,0.0124684115871787,-0.0066843032836914,0.0054378267377615,-0.304953217506409,0.042043898254633,0.0362944863736629
561,0.0110196117311716,-0.0063938358798623,0.003557325573638,-0.342776566743851,0.0377730280160904,0.0371658802032471
562,0.0099240355193615,-0.0069203614257276,0.0020094024948775,-0.370745241641998,0.0325879193842411,0.039035227149725
563,0.0078942161053419,-0.0080845933407545,0.000802258553449,-0.299727112054825,0.0296483151614666,0.0411527305841446
564,0.0070602023042738,-0.0063626137562096,0.0028863889165222,-0.0967813059687614,0.0302297975867987,0.0450968518853188
565,0.0082816174253821,-0.0014382894150912,0.0084548844024539,0.0760011225938797,0.0324153080582619,0.0499943122267723
566,0.0095827095210552,0.0039158100262284,0.0131535409018397,0.0190446842461824,0.0319041609764099,0.0532631352543831
567,0.0097229490056633,0.0089377220720052,0.0153434155508876,-0.236970216035843,0.0257092099636793,0.0553116127848625
568,0.0080301146954298,0.0129157183691859,0.0154693303629756,-0.5,0.0147441104054451,0.056404884904623
569,0.0048183160834014,0.0160077456384897,0.0142982229590416,-0.5,0.0022613469045609,0.0569950044155121
570,0.0006463405443355,0.018006406724453,0.012597500346601,-0.5,-0.0084059135988354,0.0572542250156403
571,-0.0036539223510772,0.0174505654722452,0.0101418187841773,-0.5,-0.0150041989982128,0.0555789358913898
572,-0.0059623382985591,0.0153274862095714,0.0077444207854569,-0.5,-0.0171540174633265,0.0525168851017952
573,-0.007091736420989,0.0117363594472408,0.0060367295518517,-0.5,-0.0154900411143899,0.0488665625452995
574,-0.0095452042296528,0.0062366863712668,0.0043678265064954,-0.5,-0.0113575421273708,0.0444184616208076
575,-0.0118406321853399,0.0021426207385957,0.0040756817907095,-0.5,-0.0063376072794199,0.0406382158398628
576,-0.0118091022595763,0.0016385347116738,0.0065158242359757,-0.5,-0.001396712847054,0.0385468862950802
577,-0.0105959204956889,0.0031729117035865,0.0096599487587809,-0.5,0.0022360167931765,0.0372004918754101
578,-0.0102373911067843,0.0054425448179245,0.0114556616172194,-0.5,0.0034792432561516,0.0359048992395401
579,-0.0109190614894032,0.0084298215806484,0.0122577054426074,-0.5,0.0026837273035198,0.034960899502039
580,-0.0117505677044392,0.0116984527558088,0.012754968367517,-0.5,0.0003466556372586,0.0348502062261105
581,-0.0134794320911169,0.0128935612738132,0.0119266621768475,-0.5,-0.0040600216016173,0.0357033610343933
582,-0.0169613212347031,0.01032605022192,0.0081852786242961,-0.5,-0.0103978244587779,0.036343727260828
583,-0.0194058828055859,0.0075015216134488,0.0031206558924168,-0.5,-0.0164825581014156,0.0351990796625614
584,-0.0177926979959011,0.0085664670914411,-0.0005289051914587,-0.5,-0.0202297456562519,0.0319783873856068
585,-0.0126591296866536,0.0120969889685512,-0.0031785275787115,-0.5,-0.0214283149689436,0.0273130089044571
586,-0.005952033214271,0.0143883591517806,-0.0048046307638287,-0.5,-0.0202453341335058,0.0229870229959488
587,-0.0010460830526426,0.0133496979251504,-0.0037015767302364,-0.278765290975571,-0.0163423176854849,0.0206154305487871
588,7.72035200498067e-05,0.010139656253159,0.0012573293643072,0.114079520106316,-0.0092171700671315,0.0201883036643267
589,0.0006029712385497,0.0080555416643619,0.0092850485816597,0.491898357868195,-0.0007959595532156,0.021810706704855
590,0.0020774740260094,0.0069192945957183,0.0149731645360589,0.5,0.0033317205961793,0.0245843157172203
591,0.0019330825889483,0.0047056605108082,0.0137724671512842,0.5,0.0008346282411366,0.0267593991011381
592,-0.0003341495175845,0.0017702803015708,0.0078513789921999,0.447734147310257,-0.0040557920001447,0.0276879388839006
593,-0.0019717290997505,-3.20963081321679e-05,0.002866635331884,0.256423652172089,-0.0068600950762629,0.0279542468488216
594,-0.0005343933007679,0.002147875027731,0.0031257993541657,0.150744840502739,-0.0071129025891423,0.0303002223372459
595,0.0013599818339571,0.0070385723374784,0.006874494254589,0.0883497595787048,-0.0078835617750883,0.0353316888213158
596,0.0004107393324375,0.009975491091609,0.0093858391046524,0.0627534911036491,-0.0117396861314774,0.0396569110453129
597,-0.0011087284656241,0.0105401128530502,0.010174616239965,0.0501786731183529,-0.0172229204326868,0.0422352254390717
598,-0.0021916648838669,0.0092821083962917,0.0097641898319125,-0.0623255968093872,-0.0212507918477058,0.0435855500400066
599,-0.0044848681427538,0.0061599249020218,0.0075398203916847,-0.29511421918869,-0.0222394969314337,0.0428913757205009
600,-0.0071712830103933,0.0032223851885646,0.0054532727226615,-0.415166229009628,-0.0201359614729881,0.0407339558005333
601,-0.0094092572107911,0.0009627401595935,0.0052926992066204,-0.231260269880295,-0.015833854675293,0.0379844382405281
602,-0.0109106162562966,-0.00107248860877,0.006209893617779,0.143425658345222,-0.0109666604548693,0.0352170877158642
603,-0.0110106207430363,-0.002203875221312,0.0070001715794205,0.458219140768051,-0.0068475594744086,0.0336463935673237
604,-0.0107131889089942,-0.0024019961711019,0.0068796128034591,0.5,-0.0045851091854274,0.0333817228674889
605,-0.010759430937469,-0.0011740635382011,0.0061073950491845,0.5,-0.0049965628422796,0.0337634868919849
606,-0.011381883174181,0.0008082766435109,0.004411909263581,0.498996645212173,-0.0074891932308673,0.0330570936203003
607,-0.0141980051994324,0.0008655790006741,0.0003132610872853,0.417234241962433,-0.0113833928480744,0.029293742030859
608,-0.0182001702487469,-0.0005642139003612,-0.0042813993059098,0.338407009840012,-0.0155675141140819,0.0243030861020088
609,-0.0210180040448904,-0.0020494174677878,-0.006628377828747,0.301411777734756,-0.0182504840195179,0.0206660144031048
610,-0.023256728425622,-0.0048386054113507,-0.0078851198777556,0.325957447290421,-0.018958942964673,0.0174421351402998
611,-0.0250683166086674,-0.0083146328106522,-0.0088619142770767,0.404871076345444,-0.0185591243207455,0.0146785834804177
612,-0.0260262563824654,-0.0104586165398359,-0.0098207527771592,0.5,-0.0190934147685766,0.0142025826498866
613,-0.025715060532093,-0.0108825862407684,-0.0118250790983438,0.5,-0.0211464297026396,0.0160834975540638
614,-0.0223233848810196,-0.009694093838334,-0.0138589246198535,0.5,-0.0220241565257311,0.0188907366245985
615,-0.0173502787947655,-0.0087269786745309,-0.0150128481909633,0.5,-0.0204961784183979,0.0200292579829693
616,-0.013795250095427,-0.0088202944025397,-0.0148280244320631,0.49350044131279,-0.0178423710167408,0.0194135308265686
617,-0.0120032336562872,-0.0083115566521883,-0.0126159023493528,0.40345972776413,-0.0148084834218025,0.0200322978198528
618,-0.0123455850407481,-0.0073918728157877,-0.0098728872835636,0.355934739112854,-0.0122822439298034,0.0218432601541281
619,-0.0135479317978024,-0.0062180208042264,-0.0069238361902535,0.382906794548035,-0.0109027689322829,0.02294110506773
620,-0.0143478233367205,-0.0050619435496628,-0.0031943363137543,0.455760926008224,-0.0103620560839772,0.0224898494780064
621,-0.0156440548598766,-0.0055304309353232,0.0001181836996693,0.5,-0.0105667570605874,0.0208780206739903
622,-0.0158390756696463,-0.0059487400576472,0.0035186761524528,0.5,-0.0112518761307001,0.0207366105169058
623,-0.0138241918757558,-0.0045226062647998,0.007416455540806,0.5,-0.0123979868367314,0.0230028703808784
624,-0.0117530580610037,-0.0026885657571256,0.0101747261360288,0.5,-0.0137975718826056,0.0252399742603302
625,-0.0109350895509124,-0.0017287265509367,0.0113416193053126,0.321851789951324,-0.0143464310094714,0.0251784548163414
626,-0.0113660208880901,-0.001954102423042,0.0122544942423701,0.0876609310507774,-0.0136731639504433,0.022225433960557
627,-0.0125152431428432,-0.002216390799731,0.0141446683555841,0.0557953901588917,-0.0126246716827154,0.0181240495294333
628,-0.0138124348595738,-0.0014109826879575,0.0158763788640499,0.190350249409676,-0.0119575615972281,0.015060999430716
629,-0.0158821437507868,-0.0005201755557209,0.0143737904727459,0.358949542045593,-0.0121366800740361,0.0134919472038746
630,-0.0179870780557394,0.0005906381993554,0.0095416400581598,0.472193330526352,-0.0132185062393546,0.0137905599549413
631,-0.0179636478424072,0.0031523790676146,0.0053490861319005,0.5,-0.0138050531968474,0.0162719786167145
632,-0.0165453515946865,0.0057656522840261,0.003473618067801,0.5,-0.0132687520235777,0.0192017182707787
633,-0.0145145282149315,0.007112443447113,0.0032253495883196,0.5,-0.0122919920831919,0.0209646970033646
634,-0.0118507659062743,0.0073940362781286,0.0047926972620189,0.5,-0.0111171910539269,0.0221649724990129
635,-0.0114584295079112,0.0049054091796279,0.0063324025832116,0.5,-0.0099616842344403,0.0222311280667782
636,-0.0146854324266315,-0.000897507474292,0.0051203090697526,0.5,-0.0087129268795251,0.0195713248103857
637,-0.0195660032331944,-0.0068613979965448,0.0010609694290906,0.5,-0.0081799728795886,0.0146336294710636
638,-0.0237160455435514,-0.0100885266438127,-0.0035173958167433,0.5,-0.0094871595501899,0.0096529377624392
639,-0.0251491889357567,-0.010814506560564,-0.0060599907301366,0.5,-0.0113780740648508,0.0065166614949703
640,-0.0248628463596106,-0.0115428175777197,-0.0066845421679318,0.5,-0.0131311230361462,0.0050510736182332
641,-0.0237480606883764,-0.0123855583369732,-0.0056017506867647,0.5,-0.0150256650522351,0.0053191799670457
642,-0.0204550344496965,-0.0119247864931822,-0.0019247236195951,0.5,-0.0157340504229069,0.0069325733929872
643,-0.0160748139023781,-0.0108952643349767,0.0024570461828261,0.5,-0.0150651903823018,0.0079874182119965
644,-0.01192397903651,-0.0087982397526502,0.0057293330319225,0.5,-0.0141527075320482,0.0092302318662405
645,-0.0085289916023612,-0.0051009682938456,0.008130669593811,0.5,-0.0131816538050771,0.0114070391282439
646,-0.0077228234149515,-0.0010627883020788,0.0092645501717925,0.5,-0.0126947974786162,0.0124965393915772
647,-0.0085786180570721,0.0037031241226941,0.0100569408386946,0.5,-0.0127318687736988,0.0122991306707263
648,-0.008542837575078,0.0088431499898433,0.0121754985302687,0.5,-0.012117869220674,0.0128672523424029
649,-0.0073348791338503,0.0124166673049331,0.0151089914143085,0.5,-0.0109293516725302,0.0158833246678114
650,-0.0050776395946741,0.0138958785682917,0.0171357281506062,0.423371583223343,-0.0101429121568799,0.0207550153136253
651,-0.0018592401174828,0.0141275553032756,0.0170135721564293,0.42433226108551,-0.0101132513955235,0.0246508158743382
652,0.0019349354552105,0.0150391291826963,0.0159149002283812,0.5,-0.0100978659465909,0.0259589869529009
653,0.005121445748955,0.0175712592899799,0.0157882086932659,0.5,-0.0091316774487495,0.0254651736468077
654,0.005079214926809,0.0201212521642447,0.015590775758028,0.5,-0.0083317700773477,0.0245477203279734
655,0.0017577396938577,0.0210598781704903,0.013881353661418,0.5,-0.0094880107790231,0.0242481287568808
656,-0.0027753498870879,0.0196850001811981,0.0114449309185147,0.5,-0.0126384142786264,0.0245353896170855
657,-0.0077728522010147,0.0148421376943588,0.0082324678078293,0.5,-0.0167269166558981,0.0230251178145409
658,-0.0109217232093215,0.0068741128779947,0.0037719390820711,0.5,-0.0197091624140739,0.0181771460920572
659,-0.0104922410100698,-0.0014535029185935,-0.000919385056477,0.5,-0.0200324952602386,0.0120579050853848
660,-0.0093495212495327,-0.0079712104052305,-0.005424237344414,0.455444812774658,-0.0189890284091234,0.0068794037215411
661,-0.0097754942253232,-0.0116376932710409,-0.0094420155510306,0.314610660076141,-0.0184086952358484,0.0036010378971695
662,-0.011023348197341,-0.0126821901649237,-0.0118721053004265,0.11566037684679,-0.0188990104943514,0.0022636982612311
663,-0.0118828853592277,-0.0119424480944872,-0.0121723739430308,-0.0015131204854697,-0.0201693493872881,0.0023336147423833
664,-0.0124582359567285,-0.0107065765187144,-0.0113975461572409,0.0499422773718834,-0.0209721550345421,0.0027078231796622
665,-0.0151727674528956,-0.0118714328855276,-0.012373398989439,0.207695305347443,-0.0213065948337317,0.0007855384610593
666,-0.0195975564420223,-0.0149657605215907,-0.0152259794995189,0.309230953454971,-0.0216948557645082,-0.0036860432010144
667,-0.0219382364302874,-0.0167257953435183,-0.0169995035976171,0.273290544748306,-0.0214530061930418,-0.0078761894255876
668,-0.0214208979159594,-0.0171462316066027,-0.0172647889703512,0.124098658561707,-0.0204588733613491,-0.0102770254015923
669,-0.0186268128454685,-0.016468733549118,-0.0161229558289051,-0.0758014097809792,-0.0186947751790285,-0.0099072940647602
670,-0.0147310895845294,-0.0142973661422729,-0.0132099324837327,-0.239464670419693,-0.0168573167175055,-0.0065770042128861
671,-0.011717539280653,-0.0115982675924897,-0.0100433100014925,-0.280729711055756,-0.0164269860833883,-0.0028047724626958
672,-0.0088165625929832,-0.0086148213595151,-0.0070424233563244,-0.159953266382217,-0.0161860417574644,-0.0006809405167587
673,-0.0060883890837431,-0.0059896404854953,-0.0041179042309522,0.0601727478206158,-0.015302749350667,-0.0001966349518625
674,-0.0054511632770299,-0.0046750418841838,-0.002237532986328,0.259056568145752,-0.0154512748122215,0.0003753638884518
675,-0.0067762448452413,-0.0044497703202068,-0.0015067496569827,0.415103316307068,-0.0163494106382132,0.0034867348149418
676,-0.008962363936007,-0.0049087293446064,-0.001494986237958,0.5,-0.0168115217238665,0.0090500535443425
677,-0.009511636570096,-0.0040783551521599,-0.000162985510542,0.5,-0.0162304528057575,0.014985335059464
678,-0.0066545261070132,-0.0009139167377725,0.0050991936586797,0.5,-0.013662051409483,0.0196039956063032
679,-0.0030855897348374,0.0014281292678788,0.0121735269203782,0.410357683897018,-0.0100600244477391,0.0213491655886173
680,-0.0006796544766984,0.0015917591517791,0.0167945791035891,0.27510991692543,-0.0078871650621295,0.0203583780676126
681,0.0014824959216639,0.0019056721357628,0.0176114402711391,0.208692222833633,-0.0085652517154812,0.0188736114650965
682,0.0024685063399374,0.0028586499392986,0.014665219001472,0.177460744976997,-0.0119346147403121,0.0177974589169025
683,0.0017354219453409,0.0036773120518773,0.0097776399925351,0.13961797952652,-0.0152820628136396,0.0158667508512735
684,0.0011088128667324,0.0041949138976633,0.0059301299042999,0.0680548548698425,-0.0149314012378454,0.0120558002963662
685,0.0013635407667607,0.0045137181878089,0.0037743027787655,0.0168574396520853,-0.0103609384968877,0.0082498313859105
686,0.002189592923969,0.0056456853635609,0.0031686269212514,0.0023719863966107,-0.003892932087183,0.0073886392638087
687,0.0022408203221857,0.0068375961855053,0.0041605150327086,-0.0356733165681362,0.0016885017976164,0.0084033776074647
688,0.0004660284030251,0.0067585664801299,0.0070940153673291,-0.0484413243830204,0.0042689056135714,0.0094742206856608
689,-0.0017839841311797,0.0060108788311481,0.0116018503904343,0.0628800168633461,0.0028407294303178,0.0107570057734847
690,-0.0047090454027056,0.0033251261338591,0.0134548638015985,0.266950279474258,-0.0027908873744308,0.0101736020296812
691,-0.0082614505663514,-0.0011910152388736,0.0108316345140338,0.475994378328323,-0.0104401065036654,0.0069074849598109
692,-0.0100907487794757,-0.0042542428709566,0.0067679826170206,0.5,-0.0162620823830366,0.0034957900643348
693,-0.0110782440751791,-0.0060510230250656,0.0017503825947642,0.5,-0.018760384991765,0.0002049018657999
694,-0.0124770579859614,-0.0080317854881286,-0.0038703146856278,0.5,-0.0179855171591043,-0.0035268985666334
695,-0.0134045407176018,-0.0101661626249552,-0.0076219085603952,0.403807014226913,-0.0145667707547545,-0.0068232370540499
696,-0.0135898273438215,-0.0121392263099551,-0.0091823572292923,0.273154824972153,-0.0107558872550726,-0.0088667767122387
697,-0.0123754302039742,-0.0119792744517326,-0.0091014709323644,0.118001639842987,-0.0080241234973073,-0.0084735639393329
698,-0.0103963520377874,-0.0091326246038079,-0.0079209161922335,-0.0528490804135799,-0.0063035180792212,-0.0058212638832628
699,-0.0089594228193163,-0.0051943948492407,-0.0060878046788275,-0.242653638124466,-0.0053781005553901,-0.0028116470202803
700,-0.0077237887308001,-0.0012432833900675,-0.0025677063968032,-0.394157916307449,-0.0046966024674475,-0.0003336639201734
701,-0.0068006366491317,0.0013602037215605,0.0015940684825182,-0.411829084157944,-0.0040842066518962,0.0009057649876922
702,-0.0055490308441221,0.0028808768838644,0.0041147959418594,-0.32165601849556,-0.0038979044184088,0.0003586717648431
703,-0.0028699268586933,0.004614733159542,0.0053497273474931,-0.239109456539154,-0.0034415887203067,-0.0008936774684116
704,-0.0005663481424562,0.005412851460278,0.0052406173199415,-0.201707646250725,-0.0021334858611226,-0.0020963104907423
705,0.0005758950719609,0.0050759399309754,0.0038448013365268,-0.158422067761421,-1.07966361611034e-05,-0.0030204597860574
706,0.0023658650461584,0.0054695038124918,0.0037099402397871,-0.0997520610690117,0.0036663990467786,-0.0026843769010156
707,0.0037680133245885,0.0067968950606882,0.0055998126044869,-0.101630665361881,0.0079340925440192,-0.0009900660952553
708,0.0031031591352075,0.0085066081956028,0.0081390542909503,-0.189796030521393,0.0106370840221643,0.0013539534993469
709,0.0007926966645754,0.0097580151632428,0.0102532655000687,-0.309230029582977,0.0113139217719436,0.0038787713274359
710,-0.0031045842915773,0.0087589267641305,0.0105325588956475,-0.432224243879318,0.0104170339182019,0.005284936632961
711,-0.0076421438716352,0.0059731737710535,0.008904468268156,-0.5,0.0092152189463377,0.0053935712203383
712,-0.0118151819333434,0.0026600968558341,0.0057904426939785,-0.5,0.0088007003068924,0.0049553639255464
713,-0.0147053757682443,-0.0011352410074323,0.0016481283819302,-0.5,0.0097454469650983,0.0035381831694394
714,-0.0143259419128299,-0.0047095022164285,-0.0010188930900767,-0.5,0.0127307651564479,0.0012287186691537
715,-0.0121367946267128,-0.0083601772785186,-0.0015773561317473,-0.5,0.0162171181291342,-0.0018997906008735
716,-0.009958965703845,-0.0111232027411461,-0.0015553453704342,-0.5,0.0178540740162134,-0.0048072189092636
717,-0.0067856898531317,-0.01067896746099,-0.0014070518082007,-0.5,0.0179302953183651,-0.005187043454498
718,-0.004979713819921,-0.0090225087478756,-0.0025190324522554,-0.5,0.0175559017807245,-0.0035876003094017
719,-0.0074981530196964,-0.0083349803462624,-0.0056881899945437,-0.5,0.0169045627117157,-0.0019214899512007
720,-0.0135155823081732,-0.0078852949663996,-0.0094890948385,-0.5,0.015415552072227,-0.0005807243869639
721,-0.0202273558825254,-0.0075456309132278,-0.0127900512889028,-0.5,0.0132370479404926,-0.0001099638975574
722,-0.0238019805401564,-0.0066943913698196,-0.0139605794101954,-0.5,0.0121393343433738,-0.0005029586609452
723,-0.0238559413701296,-0.0046506389044225,-0.0121870376169682,-0.5,0.0122847901657224,-0.0001113153266487
724,-0.0227142833173275,-0.0018613655120134,-0.0085596153512597,-0.5,0.012220298871398,0.0018777686636894
725,-0.0208849404007196,0.0013186229625716,-0.0041615827940404,-0.5,0.0119634680449963,0.0042917281389236
726,-0.0195688642561436,0.0032906604465097,-0.0016109328716993,-0.5,0.0114053012803197,0.0053103743121027
727,-0.0193475354462862,0.0031541080679744,-0.0024303151294589,-0.5,0.0095004308968782,0.0053825126960873
728,-0.0189557764679194,0.0020157147664576,-0.0039476528763771,-0.5,0.0064430451020598,0.0063363695517182
729,-0.0191003028303385,-0.0008348282426595,-0.0048424047417938,-0.5,0.0033518271520733,0.0067457179538905
730,-0.0189538951963186,-0.0051570981740951,-0.0054879821836948,-0.5,0.0020288459490984,0.0051508140750229
731,-0.0154227670282125,-0.007216936443001,-0.0039346483536064,-0.5,0.0041032852604985,0.0035519192460924
732,-0.0104244751855731,-0.0061291032470762,-1.32919722091174e-05,-0.463867217302322,0.0082054371014237,0.0023646999616175
733,-0.0077741243876516,-0.0044681979343295,0.0042926426976919,-0.339166194200516,0.0117673017084599,4.13111956731882e-06
734,-0.0070478403940796,-0.0033887405879795,0.0085390340536832,-0.258038103580475,0.0136000756174326,-0.0032992854248732
735,-0.0066586937755346,-0.0025495120789855,0.0120600378140807,-0.177580431103706,0.0127337723970413,-0.0063522849231958
736,-0.0055733663029968,-0.0014670123346149,0.0140983993187547,-0.123398348689079,0.009740394540131,-0.0086427815258503
737,-0.0041089686565101,-0.0013748290948569,0.0142802633345127,-0.137653648853302,0.0065957880578935,-0.0112292962148786
738,-0.003568296553567,-0.0033010288607329,0.0127142127603292,-0.174199551343918,0.0039528990164399,-0.0148625615984201
739,-0.0037369329947978,-0.0051134913228452,0.0113879283890128,-0.176255032420158,0.0020269642118364,-0.0178128592669964
740,-0.0053630541078746,-0.0062500452622771,0.0111642386764288,-0.188691183924675,0.0006516479770652,-0.0195357147604227
741,-0.0081134503707289,-0.0071383123286068,0.0118007147684693,-0.254536420106888,-0.0004341776366345,-0.020506240427494
742,-0.0085926540195941,-0.005927313119173,0.0134791592136025,-0.32917582988739,-0.0002499268157407,-0.019630990922451
743,-0.0074132136069238,-0.0036099904682487,0.0134524898603559,-0.379677683115005,0.0012327923905104,-0.0179750248789787
744,-0.0078946826979517,-0.0024558326695114,0.0092769134789705,-0.406998783349991,0.0023889038711786,-0.0172317549586296
745,-0.0100142145529389,-0.0021149762906134,0.0035424027591943,-0.435487151145935,0.0026387339457869,-0.0167664811015129
746,-0.0120935561135411,-0.002555136103183,-0.000466774450615,-0.470319122076035,0.002379433484748,-0.0169815700501204
747,-0.0128193572163582,-0.0036677855532616,-0.0023366836830973,-0.439758658409119,0.0012322956463322,-0.0178633574396372
748,-0.0123159550130367,-0.0044865868985652,-0.0033275638706982,-0.327753692865372,-0.0009233568562194,-0.0177596174180508
749,-0.0108051812276244,-0.0042349249124527,-0.0044236942194402,-0.203425616025925,-0.0021035112440586,-0.0169257763773203
750,-0.0071065002121031,-0.0028119904454797,-0.005125330761075,-0.0871713012456894,-2.67975474343984e-06,-0.016325743868947
751,-0.002162450691685,-0.0020394769962877,-0.0047203954309225,0.057371761649847,0.004751558881253,-0.0158394332975149
752,0.0012387325987219,-0.0035344900097698,-0.0030304174870252,0.250697642564774,0.0092603974044323,-0.0151562057435513
753,0.0021613962016999,-0.0066998261027038,-0.0001014899971778,0.433090776205063,0.0115188620984554,-0.0142994001507759
754,0.0008178115822374,-0.0109295677393675,0.0021630269475281,0.5,0.0112867951393127,-0.0147318113595247
755,-0.0014645510818809,-0.0147463195025921,0.0021941261366009,0.5,0.0094512486830353,-0.0167935471981764
756,-0.0015069645596668,-0.0152517799288034,0.0022424929775297,0.5,0.0082392729818821,-0.0180200971662998
757,0.0011471465695649,-0.012271479703486,0.0040749767795205,0.5,0.0088210785761475,-0.0170045103877783
758,0.0039073466323316,-0.0084066055715084,0.0064798723906278,0.485520273447037,0.0101109286770225,-0.0142613258212805
759,0.0060838609933853,-0.0053591877222061,0.0086246440187096,0.358519345521927,0.011548419483006,-0.0108249168843031
760,0.0082114664837718,-0.0030008275061845,0.0104983672499657,0.303486913442612,0.0129022616893053,-0.0076402802951633
761,0.0101443398743868,-0.0004451334534678,0.0122703965753317,0.296284168958664,0.0134071847423911,-0.0047248043119907
762,0.0106193888932467,0.0015586515655741,0.0132574122399092,0.240918576717377,0.013041578233242,-0.0027383859269321
763,0.0089032612740993,0.0018201126949861,0.0124301612377167,0.0967807397246361,0.0123873818665743,-0.0022964824456721
764,0.0065134866163134,0.0015674154274165,0.0108329430222511,-0.0951579883694649,0.0121097723022103,-0.0020306387450546
765,0.0033920747227966,0.0007793594850227,0.0090037146583199,-0.271676123142242,0.01240015309304,-0.0019031714182347
766,-0.0005447896546684,-0.0006608991534449,0.0069728442467749,-0.389454215764999,0.0126461973413825,-0.0022572942543774
767,-0.002659163903445,-0.0002153800596715,0.0061956169083714,-0.407309681177139,0.0122358100488782,-0.0016003185883164
768,-0.0029029746074229,0.0013990607112646,0.0065561346709728,-0.305434882640839,0.0112117920070887,-0.0011813911842182
769,-0.0031123559456318,0.0009411097853444,0.0067592416889965,-0.10950656235218,0.0104867462068796,-0.0033218269236385
770,-0.0036035536322742,-0.001960068475455,0.0062472033314406,0.094639003276825,0.0104934955015779,-0.0067934966646134
771,-0.0037113872822374,-0.0051759500056505,0.0053236167877912,0.184826597571373,0.0109425028786063,-0.0092165973037481
772,-0.002405370818451,-0.0068385167978704,0.004531170707196,0.108229845762253,0.0120319565758109,-0.0100614186376333
773,-0.0010474469745531,-0.007700630929321,0.0027119389269501,-0.0667088255286217,0.0135482177138329,-0.0109602492302656
774,-0.0014421247178688,-0.0085663562640547,-0.0005926692974753,-0.234405726194382,0.0146927228197455,-0.0123666618019342
775,-0.0019020527834072,-0.0081769013777375,-0.0028637291397899,-0.350087344646454,0.0162055343389511,-0.0122241387143731
776,-0.0006108273519203,-0.0058077797293663,-0.0022808781359344,-0.379834234714508,0.0205282885581255,-0.0100516928359866
777,0.0026025820989161,-0.0015122649492695,0.0008608155185356,-0.31026765704155,0.0284603219479322,-0.0075726984068751
778,0.007586152292788,0.0037230420857667,0.0056199398823082,-0.247529566287994,0.0374312624335289,-0.0064087081700563
779,0.0123010510578752,0.0067619290202856,0.0090143950656056,-0.295798152685165,0.0429552681744099,-0.0077729984186589
780,0.0145807154476643,0.0059739206917583,0.0084824059158563,-0.38783073425293,0.0423711389303207,-0.0109525071457028
781,0.0149650713428855,0.0038030643481761,0.006444816943258,-0.362077862024307,0.038160502910614,-0.0129660340026021
782,0.0141385300084949,0.0021672423463314,0.005926005076617,-0.219261795282364,0.0347251258790493,-0.0126528218388557
783,0.0121029140427709,0.0007106111734174,0.0067731481976807,-0.137629419565201,0.0331481322646141,-0.0107713462784886
784,0.0095355454832315,-0.0012576624285429,0.0074408547952771,-0.193059116601944,0.0310922637581825,-0.0082416366785764
785,0.0078940838575363,-0.0038822793867439,0.0075487177819013,-0.334056854248047,0.0278421062976122,-0.0070681208744645
786,0.0087675219401717,-0.0050405203364789,0.0092013450339436,-0.5,0.0256875772029161,-0.0076935570687055
787,0.0105412062257528,-0.0036372619215399,0.0118115404620767,-0.5,0.0250130631029606,-0.0092790015041828
788,0.0106509365141392,-0.0011966398451477,0.0125912139192224,-0.5,0.0249511264264584,-0.0117263849824667
789,0.0099189169704914,0.0015186991076916,0.0122333327308297,-0.5,0.0257196798920631,-0.0138500621542335
790,0.0082908058539032,0.0029920630622655,0.0114613613113761,-0.5,0.026411397382617,-0.0150733543559909
791,0.0056726401671767,0.0025840466842055,0.0102185159921646,-0.5,0.0261926203966141,-0.0157294012606144
792,0.004342982545495,0.0018072740640491,0.00958838686347,-0.5,0.0254329405725002,-0.0159738417714834
793,0.0040206862613558,9.31906542973593e-05,0.0092406654730439,-0.441594332456589,0.0241801720112562,-0.0177741963416338
794,0.0031247932929545,-0.0030750292353332,0.0087937265634536,-0.307688623666763,0.0228782705962658,-0.0213025473058224
795,0.001864266814664,-0.0063287322409451,0.0086794663220644,-0.192962840199471,0.0220428854227066,-0.0230038799345493
796,0.0013804024783894,-0.0082894442602992,0.0091045657172799,-0.113717272877693,0.022082133218646,-0.0210995431989431
797,0.002381166210398,-0.0083908727392554,0.010226977057755,-0.101787500083447,0.023824954405427,-0.0173050761222839
798,0.0026012070011347,-0.0082819899544119,0.0104441661387682,-0.154183834791183,0.02693160623312,-0.0144998328760266
799,0.0002275008882861,-0.007614925969392,0.0088715860620141,-0.207259759306908,0.0302629470825195,-0.0141752008348703
800,-0.0025455972645431,-0.0020848724525421,0.007741215173155,-0.228588372468948,0.0325121767818928,-0.0151211721822619
801,-0.0036319971550256,0.0073126554489135,0.0080211702734231,-0.222407981753349,0.0318705216050148,-0.0157292298972607
802,-0.0025535658933222,0.0136659350246191,0.0087037645280361,-0.160592868924141,0.0281329900026321,-0.0160795468837023
803,0.0002062968851532,0.0132029494270682,0.0092388540506362,-0.0698347017168999,0.0228951461613178,-0.0170968696475029
804,0.0022287636529654,0.0063141440041363,0.0087380250915885,-0.0510303676128387,0.0171755496412516,-0.0197656936943531
805,0.0024563597980886,-0.0030279976781457,0.0069677042774856,-0.123533353209496,0.0118877636268735,-0.0235846880823374
806,0.0035068534780293,-0.0086824968457222,0.0059743160381913,-0.198470488190651,0.0085635250434279,-0.0263333003968
807,0.0065895179286599,-0.0094926953315734,0.0070328754372894,-0.234036505222321,0.0078793242573738,-0.0280479025095701
808,0.0103947333991528,-0.0091619556769728,0.0088805137202143,-0.287829965353012,0.0101547334343195,-0.030249796807766
809,0.0141555853188038,-0.00966427475214,0.0101125566288829,-0.336880266666412,0.0145111279562116,-0.0321967490017414
810,0.0171637423336506,-0.0100883357226849,0.0112345991656184,-0.23240253329277,0.017941964790225,-0.0324724167585373
811,0.0194882936775684,-0.0089991856366396,0.0142766963690519,0.0091994730755686,0.0191307123750448,-0.0309015456587076
812,0.0205557104200125,-0.0076124449260532,0.0181818772107363,0.162559285759926,0.018657373264432,-0.0298254061490297
813,0.0194609500467777,-0.0075702676549553,0.0197231415659189,0.145487904548645,0.0169434547424316,-0.0314098559319973
814,0.0178195666521788,-0.0074612949974834,0.0192668102681637,0.0704544633626938,0.0152923278510571,-0.0340877771377563
815,0.0158076547086239,-0.0075941365212202,0.0176574438810349,-0.0340055972337723,0.0147890923544765,-0.0365780554711819
816,0.0132094286382198,-0.0090896310284733,0.0149721307680011,-0.229677379131317,0.0151405641809106,-0.0384314842522144
817,0.0121441408991814,-0.0103145781904459,0.0128539074212313,-0.479776710271835,0.0157094709575176,-0.038514532148838
818,0.0120647214353085,-0.0104027697816491,0.0112858107313514,-0.5,0.015629131346941,-0.0375073440372944
819,0.0106962257996202,-0.0094838393852114,0.0087202722206711,-0.5,0.0141228605061769,-0.0366025902330875
820,0.0079548992216587,-0.0080584036186337,0.0049131717532873,-0.5,0.0115493852645159,-0.0358169116079807
821,0.0053233606740832,-0.0070101907476782,0.0010033337166532,-0.5,0.0092175537720322,-0.0351055078208447
822,0.0038744958583265,-0.0063460203818976,-0.0018211585702374,-0.5,0.0076398872770369,-0.0343316942453384
823,0.0019318956183269,-0.0071045039221644,-0.0038585087750107,-0.5,0.0062780403532087,-0.0333063453435898
824,-0.0018266793340444,-0.0102134551852942,-0.0052130701951682,-0.5,0.0055733416229486,-0.0326800048351288
825,-0.0053479396738112,-0.0140767525881529,-0.0037938859313726,-0.5,0.0069384644739329,-0.033245887607336
826,-0.0073844972066581,-0.0172199327498674,0.0014826360857114,-0.5,0.0105091286823154,-0.0346574373543262
827,-0.0080165909603238,-0.0187774207442999,0.0079952292144298,-0.5,0.0145494565367699,-0.0356716588139534
828,-0.0063536674715578,-0.0177986100316048,0.0119075588881969,-0.5,0.0166354384273291,-0.0354157127439976
829,-0.0027389354072511,-0.0152586586773396,0.0106776086613536,-0.445242673158646,0.0156155303120613,-0.0348171666264534
830,0.0015719183720648,-0.0123774632811546,0.0052073625847697,-0.215226650238037,0.0137364724650979,-0.0350825451314449
831,0.0070388605818152,-0.0083316750824451,0.0004060596693307,0.0711130946874619,0.0148361939936876,-0.0349829532206059
832,0.0135233635082841,-0.0032827395480126,-0.0003696146886795,0.310402870178223,0.0189880598336458,-0.0319844223558903
833,0.0191480834037066,0.0018248563865199,0.0016054242150858,0.431360274553299,0.0224124230444431,-0.0237786695361137
834,0.0223724544048309,0.0055609908886253,0.0036333752796053,0.492091864347458,0.021894508972764,-0.0122547606006265
835,0.022715849801898,0.0054251062683761,0.004213644657284,0.5,0.016891423612833,-0.00402696384117
836,0.0219771228730679,0.0026994976215064,0.0040547540411353,0.5,0.0101867718622088,-0.0021439359989017
837,0.0217893701046705,-0.0005477222148329,0.0029522450640797,0.5,0.005388431251049,-0.005769012030214
838,0.0216741170734167,-0.004652664065361,-0.0003322733391541,0.5,0.0034139431081712,-0.0134892882779241
839,0.0207649692893028,-0.0082283671945333,-0.0037986144889146,0.5,0.0032698910217732,-0.0217045675963163
840,0.0169644523411989,-0.0108089381828904,-0.0061426321044564,0.5,0.0029957557562738,-0.0282095931470394
841,0.0107326162979007,-0.0126916039735079,-0.0078742131590843,0.5,0.001104159397073,-0.0328987762331963
842,0.0057957991957664,-0.0126218497753143,-0.0084401126950979,0.5,-0.0024368360172957,-0.0347217358648777
843,0.0025029946118593,-0.0117895836010575,-0.00927709415555,0.5,-0.0070670279674232,-0.0348986126482487
844,-0.0004305584880057,-0.0124235842376947,-0.0120795471593738,0.497664511203766,-0.0105983475223184,-0.0359539426863194
845,-0.0028920962940901,-0.0144743258133531,-0.0158484280109406,0.273502737283707,-0.0113122155889869,-0.0377658195793629
846,-0.0045492653734982,-0.0157918389886618,-0.0191270746290684,0.0056752902455627,-0.0108773531392217,-0.0385883487761021
847,-0.0052781319245696,-0.0148716727271676,-0.020921440795064,-0.26291036605835,-0.0108974808827043,-0.0376501344144344
848,-0.0065501458011567,-0.0145421857014298,-0.0211702305823565,-0.456803858280182,-0.0105276284739375,-0.0370808653533459
849,-0.0090803736820817,-0.0172965154051781,-0.0207562744617462,-0.5,-0.0090780965983867,-0.0386187359690666
850,-0.010625472292304,-0.0208520088344812,-0.0198283083736897,-0.5,-0.0070975986309349,-0.0406469777226448
851,-0.0102488230913877,-0.0225249733775854,-0.0182620603591204,-0.5,-0.0053761922754347,-0.0411702394485474
852,-0.0091659296303987,-0.0204600561410189,-0.0163654610514641,-0.417763382196426,-0.0040578781627118,-0.0389953069388866
853,-0.0079547753557562,-0.0122696310281754,-0.0139730209484696,-0.282065570354462,-0.0027954506222158,-0.0338046252727509
854,-0.0076089799404144,-0.0005544948508031,-0.0116095189005136,-0.20422226190567,-0.0015821728156879,-0.0285778027027845
855,-0.0085811596363782,0.0079924650490284,-0.0099390344694256,-0.165918618440628,-0.0005833589821122,-0.0259304251521826
856,-0.0086054448038339,0.0118943601846695,-0.0080175101757049,-0.156905353069305,-4.28024577558972e-05,-0.0244120974093676
857,-0.0065721194259822,0.0126560991629958,-0.0060306214727461,-0.250326961278915,-0.000733787601348,-0.0237379837781191
858,-0.003879286115989,0.0103274397552013,-0.0047236555255949,-0.444263488054276,-0.0024257889017462,-0.0248840879648924
859,-0.001670237397775,0.0061385841108858,-0.0035338418092578,-0.5,-0.0040673771873116,-0.0268388483673334
860,-0.0008466482977382,0.0022964377421885,-0.002732771448791,-0.46562460064888,-0.0059794303961098,-0.0284497942775488
861,-0.0009216589387506,0.000146037506056,-0.0020705643109977,-0.20461730659008,-0.0075340792536735,-0.028878977522254
862,-0.0009421727154403,-0.0013203064445406,-0.0008575338870286,0.0092733521014452,-0.0067392587661743,-0.0287587102502584
863,-0.0007261601858772,-0.0035154134966433,0.0006846411270089,0.116827756166458,-0.0031528065446764,-0.0300065111368895
864,0.0006991997943259,-0.0053783701732754,0.0024562273174524,0.195045292377472,0.0018496519187465,-0.032249853014946
865,0.0022831389214843,-0.006577780470252,0.0032169313635677,0.2719746530056,0.0052467309869825,-0.0345595329999924
866,0.0023429282009601,-0.0069321854971349,0.0028884557541459,0.355410128831863,0.0048342226073145,-0.0367163605988026
867,0.0018007775070145,-0.0046594953164458,0.0034443032927811,0.439049422740936,0.0010686226887628,-0.0370553135871887
868,-0.0003179003251716,-0.0010848682140931,0.0033109071664512,0.473520278930664,-0.0055499970912933,-0.035214077681303
869,-0.005656209308654,0.0008480597171001,-0.0012561294715851,0.446032375097275,-0.0143407415598631,-0.0332320779561996
870,-0.0120391547679901,0.0007432185811921,-0.0096650347113609,0.39897683262825,-0.022831704467535,-0.0319739729166031
871,-0.0162140931934118,-0.0008342466899193,-0.017304914072156,0.340606600046158,-0.0284188110381365,-0.0307139866054058
872,-0.0174317862838507,-0.0033418231178075,-0.0209743026643991,0.233959451317787,-0.0302779581397772,-0.0292827878147364
873,-0.0176808256655931,-0.0058422531001269,-0.0216715279966593,0.0784290581941605,-0.0294920112937689,-0.0282589085400105
874,-0.0180772729218006,-0.0072595011442899,-0.0213887710124254,-0.0723752677440643,-0.0274696107953787,-0.0277334731072187
875,-0.0174021366983652,-0.0073598781600594,-0.0201767794787884,-0.164871841669083,-0.025055468082428,-0.0273565426468849
876,-0.0157528929412365,-0.0076807425357401,-0.0180178806185722,-0.207186788320541,-0.0227915588766336,-0.0275868140161037
877,-0.0142818903550506,-0.0088759185746312,-0.0153722353279591,-0.236787483096123,-0.0204434115439653,-0.0284144710749388
878,-0.0128269288688898,-0.0088272793218493,-0.0118605894967914,-0.248835161328316,-0.0177085753530264,-0.0279100853949785
879,-0.0119977230206132,-0.006994598545134,-0.0079500628635287,-0.246831819415092,-0.0155681604519486,-0.0263188183307648
880,-0.0113426567986608,-0.0036275521852076,-0.0037806204054504,-0.201523870229721,-0.0141724534332752,-0.0254145190119743
881,-0.0074470173567533,0.0037322591524571,0.002952130511403,-0.0631999000906944,-0.0117098316550255,-0.0225256402045488
882,-0.0007897729519754,0.0135896746069193,0.0119192050769925,0.0645249560475349,-0.008346707560122,-0.0161536037921906
883,0.0044719628058373,0.0195692908018827,0.019683163613081,0.06951804459095,-0.0061592399142682,-0.0107033820822835
884,0.0070419814437627,0.0187404416501522,0.0237243939191103,0.0034959292970597,-0.0053743855096399,-0.009749474003911
885,0.0074730804190039,0.0133554963395,0.0225647334009409,-0.0584748648107052,-0.005110858939588,-0.0125175379216671
886,0.0070626959204673,0.0077801654115319,0.018087413161993,-0.11869540065527,-0.0048762261867523,-0.015910767018795
887,0.0065273893997073,0.0036009247414767,0.013565756380558,-0.189143374562263,-0.0053021730855107,-0.0184325911104679
888,0.0048210597597062,0.0002263346686959,0.0103469416499138,-0.200802057981491,-0.0068791243247687,-0.0193895827978849
889,0.0025710277259349,-0.0007864451617933,0.0097080860286951,-0.0649792179465294,-0.007360968273133,-0.0171532928943634
890,0.0006533712730742,-0.0001055497414199,0.0096770226955413,0.166033208370209,-0.0047428533434867,-0.014347025193274
891,-0.0002899865503422,-0.0001023775257635,0.0071486947126686,0.33000636100769,-0.0004523305979091,-0.0151445046067238
892,0.0006530546816065,0.0001667307660682,0.0038478763308376,0.326211154460907,0.0018879920244216,-0.0183530077338219
893,0.0007104790420271,0.0007005936931818,0.0011346619576215,0.163195967674255,-0.0001507601409684,-0.0217861514538527
894,-0.0020119885448366,0.0004554679908324,-0.0016146162524819,-0.0846157670021057,-0.0054990570060908,-0.0249287467449903
895,-0.0051030274480581,-0.0001269595813937,-0.0034891748800873,-0.321072041988373,-0.0111270919442177,-0.027138402685523
896,-0.0071337232366204,-0.0006376447272486,-0.004069285467267,-0.468589007854462,-0.0142599632963538,-0.028134161606431
897,-0.0078704105690121,0.0003361072449479,-0.0040323492139577,-0.457975566387177,-0.0144688040018082,-0.026497358456254
898,-0.0073614469729363,0.0030973798129707,-0.0045768385753035,-0.263612389564514,-0.0137866595759988,-0.0215915199369192
899,-0.006508728954941,0.0055152215063571,-0.0070418771356344,0.0169507171958685,-0.0135799562558532,-0.0160268843173981
900,-0.0051695713773369,0.0062452983111143,-0.0104657215997577,0.273864388465881,-0.0130114927887917,-0.0124896839261055
901,-0.0031531923450529,0.0046933125704526,-0.0131103172898293,0.485716491937637,-0.01103734690696,-0.0120427263900638
902,-0.0007609726162627,0.001556169707328,-0.0139993727207184,0.5,-0.0077770808711648,-0.0133530991151929
903,0.0020693012047559,-0.000512457860168,-0.0117297461256385,0.479374349117279,-0.0037050009705126,-0.0127403400838375
904,0.004142805468291,-0.0009284688858315,-0.0069048320874571,0.231408700346947,0.000700790376868,-0.0096923718228936
905,0.0053807636722922,0.000301237538224,-0.0013073984300717,0.0374531038105488,0.0053219380788505,-0.0072384146042168
906,0.0075598997063934,0.0057685025967657,0.0044792778789997,-0.0420512221753597,0.008824429474771,-0.0062585663981735
907,0.0092599084600806,0.0142531227320433,0.007944175042212,-0.143425703048706,0.0079336827620863,-0.0069839567877352
908,0.0092000560835003,0.0201239641755819,0.0074605313129723,-0.364030003547668,0.0031660026870667,-0.0105050662532449
909,0.0091261928901076,0.0205625034868717,0.0053894277662038,-0.5,-0.0013528740964829,-0.0161429438740015
910,0.0095730274915695,0.0168422516435385,0.0042157457210123,-0.5,-0.0040326081216335,-0.0215227846056223
911,0.0112547632306814,0.0129760224372149,0.0056375302374362,-0.5,-0.0042456747032702,-0.0240995511412621
912,0.0142827620729804,0.0115319071337581,0.0086502647027373,-0.5,-0.0016487021930515,-0.0244596395641565
913,0.0169139336794615,0.013246432878077,0.0098362332209944,-0.5,0.0015599948819726,-0.0252979435026646
914,0.0182813182473183,0.0187436584383249,0.0077570113353431,-0.5,0.002460777759552,-0.0264074224978685
915,0.0170418825000525,0.0218822974711657,0.0017975430237129,-0.5,-0.0004665044543799,-0.0276976581662893
916,0.0134875569492579,0.0158951785415411,-0.0065393764525651,-0.5,-0.0059312977828085,-0.0304566118866205
917,0.0100316712632775,0.0034848358482122,-0.0123829580843449,-0.5,-0.0108959078788757,-0.0337925925850868
918,0.0060235448181629,-0.0102666551247239,-0.0151672782376409,-0.5,-0.0141824390739203,-0.0369244553148746
919,0.0012956600403413,-0.021837929263711,-0.0184455718845129,-0.5,-0.0163768660277128,-0.0395550429821014
920,-0.0012251401785761,-0.0283432938158512,-0.0225036237388849,-0.5,-0.0176474843174219,-0.0406661815941334
921,-0.0003878608113154,-0.0291047729551792,-0.025474900379777,-0.5,-0.0183359943330288,-0.0396291762590408
922,0.0025269940961152,-0.024655120447278,-0.0261133722960949,-0.5,-0.0195474121719599,-0.0358214601874352
923,0.0043823923915624,-0.017292644828558,-0.0245419014245272,-0.5,-0.0226681046187878,-0.0305311735719442
924,0.0031325733289122,-0.0105513259768486,-0.022689264267683,-0.5,-0.0281507782638073,-0.0271748583763838
925,0.0012259833747521,-0.0061639309860765,-0.0219098497182131,-0.5,-0.0338897928595543,-0.0266247112303972
926,0.0012643008958548,-0.0044456892646849,-0.0217982698231936,-0.5,-0.0367884896695614,-0.026272963732481
927,0.0038821555208414,-0.0032185169402509,-0.0204919930547476,-0.5,-0.036147303879261,-0.0231548845767975
928,0.0090146893635392,0.0019894056022167,-0.0162409991025925,-0.5,-0.0337183475494385,-0.0170859359204769
929,0.0141251673921943,0.0104682613164186,-0.0111429300159216,-0.5,-0.0316497758030891,-0.0124056544154882
930,0.017430080100894,0.0173146054148674,-0.0081012537702918,-0.5,-0.0311252791434526,-0.0120963137596846
931,0.0205076523125172,0.0206665974110365,-0.0062556453049182,-0.5,-0.0315010584890842,-0.0132126491516829
932,0.0228535309433937,0.0204976461827755,-0.0053462558425962,-0.5,-0.0310105346143246,-0.0128629868850112
933,0.023773267865181,0.0177948903292418,-0.0059356368146836,-0.5,-0.0272782910615206,-0.0118366591632366
934,0.0253375396132469,0.0131882056593895,-0.0067741530947387,-0.5,-0.020292591303587,-0.0136830974370241
935,0.0275005828589201,0.0062289205379784,-0.0073564783670008,-0.5,-0.0143794473260641,-0.020990027114749
936,0.0293175205588341,-0.0001786707580322,-0.0067368168383836,-0.5,-0.0123774157837033,-0.030030645430088
937,0.0305061731487513,-0.0032033070456236,-0.0037100543268024,-0.5,-0.0135779744014144,-0.0354210771620274
938,0.0306622758507729,-0.0035907940473407,0.0010482358047738,-0.5,-0.0167433097958565,-0.0361182801425457
939,0.0295016914606094,-0.0032048132270574,0.0051321238279342,-0.5,-0.0201234389096498,-0.0347214564681053
940,0.0242243874818087,-0.0054538724943995,0.0037606507539749,-0.5,-0.0229200422763824,-0.0360199697315693
941,0.0147823011502624,-0.0090710762888193,-0.003493180964142,-0.5,-0.0261075515300035,-0.0397654436528683
942,0.006474869325757,-0.0071379034779965,-0.01041429489851,-0.5,-0.0303834546357393,-0.0396432057023048
943,0.0013515079626813,-0.0004582162655424,-0.0146519765257835,-0.5,-0.0364039056003094,-0.0351428128778934
944,-0.0007719420827925,0.0038372494745999,-0.0178770422935486,-0.5,-0.0430551134049892,-0.0315276011824608
945,0.0002056603116216,0.0026028943248093,-0.0202902294695377,-0.5,-0.0465081371366978,-0.0307753887027502
946,0.002457684604451,-0.0030076939146965,-0.0215057786554098,-0.5,-0.0449312776327133,-0.0321407504379749
947,0.0051529463380575,-0.0090825418010354,-0.0199990756809711,-0.485573977231979,-0.0401982329785824,-0.0349179245531559
948,0.0076282937079668,-0.012858971953392,-0.0147609151899815,0.0545683614909649,-0.035410650074482,-0.0395548939704895
949,0.008146964944899,-0.014025067910552,-0.0081834718585014,0.5,-0.0320250913500786,-0.0456889569759369
950,0.0069383177906274,-0.0103655830025673,-0.0042571066878736,0.5,-0.029106056317687,-0.0494575425982475
951,0.006699638441205,0.0023455151822418,-0.0046450970694422,0.5,-0.0258118007332087,-0.0479743517935276
952,0.0110862832516432,0.0222256984561682,-0.0056706611067056,0.5,-0.0215850118547678,-0.041468471288681
953,0.0198420565575361,0.037667840719223,-0.0024330639280378,0.5,-0.0161254294216633,-0.0314929001033306
954,0.0273840818554163,0.0395721048116684,0.0040395320393145,0.5,-0.0115033239126205,-0.0215371251106262
955,0.0305251907557249,0.0308681093156338,0.0096085891127586,0.5,-0.0102254813537002,-0.0143075808882713
956,0.030730739235878,0.0190212987363338,0.0125531516969204,0.5,-0.0122587438672781,-0.0101251108571887
957,0.0284466110169888,0.006925927940756,0.0116460481658578,0.412165522575378,-0.0167929958552122,-0.0105320699512959
958,0.0245438031852245,-0.0030052824877202,0.0065890778787434,0.220997527241707,-0.0227498933672905,-0.0158315282315016
959,0.0220982749015093,-0.0062030781991779,-0.0001258763804798,0.0033099250867962,-0.0276875030249357,-0.0224397089332342
960,0.0210184939205647,-0.0026839713100343,-0.0065441043116152,-0.213531643152237,-0.0294500850141048,-0.0281069371849298
961,0.0190663225948811,0.002820779569447,-0.0115936761721969,-0.277598053216934,-0.0268962681293488,-0.0333560332655907
962,0.0155625138431787,0.0063601466827094,-0.0143044944852591,-0.109058924019337,-0.0216307435184717,-0.0380877628922462
963,0.0112688662484288,0.0070153046399354,-0.0143699524924159,0.200211599469185,-0.0174719505012035,-0.0407328121364117
964,0.0074130604043602,0.0045960280112922,-0.0122904432937503,0.460705727338791,-0.0155100896954536,-0.0408275909721851
965,0.0030367455910891,-0.0016571671003475,-0.0112133156508207,0.5,-0.0157551877200603,-0.0399649739265442
966,-0.0020439603831619,-0.0069056148640811,-0.0126058189198375,0.353310495615005,-0.0184442941099405,-0.0375150330364704
967,-0.0048505775630474,-0.0038830253761261,-0.0127546573057771,0.0252002812922001,-0.021024577319622,-0.0317114293575287
968,-0.0043869251385331,0.0052263918332755,-0.009266035631299,-0.203872248530388,-0.0218097474426031,-0.0243715588003397
969,-0.0019331813091412,0.0146242519840598,-0.0033334030304104,-0.136757537722588,-0.0214034169912338,-0.0177675653249025
970,0.0008212852408178,0.022285845130682,0.0018696256447583,0.112950250506401,-0.0202258005738258,-0.0134527329355478
971,0.0022983958479017,0.0255929417908192,0.0027842330746352,0.298206001520157,-0.0193305760622025,-0.013290261849761
972,0.0041995723731815,0.0231758803129196,-8.88178146851715e-06,0.278039425611496,-0.0190885867923498,-0.0161676313728094
973,0.0091170696541667,0.0171551033854485,-0.002338393824175,0.0427938960492611,-0.0184303242713213,-0.0190422292798758
974,0.0158139728009701,0.0106773599982262,-0.0011200922308489,-0.28743240237236,-0.0162726808339357,-0.0201074276119471
975,0.0211421549320221,0.0062510892748832,0.0038180777337402,-0.5,-0.0121445674449205,-0.0186175107955933
976,0.0234344936907291,0.0046554249711334,0.01054622605443,-0.5,-0.0073090754449367,-0.014234596863389
977,0.0237965472042561,0.0060223583132028,0.0165512803941965,-0.432606309652328,-0.0044091162271797,-0.007056129630655
978,0.0240722615271807,0.0099515821784734,0.0194540750235319,-0.394740760326386,-0.0045908545143902,0.000784728967119
979,0.0236899107694626,0.013707117177546,0.0169564094394445,-0.471803486347198,-0.0068286578170955,0.0048197866417467
980,0.022348852828145,0.01508569996804,0.0099993674084544,-0.5,-0.0096780871972441,0.0030465221498161
981,0.0215504970401526,0.0147574655711651,0.0035532840993255,-0.5,-0.0120752295479178,-0.0025347578339278
982,0.0211554672569036,0.013098293915391,-0.0001593024499015,-0.402771204710007,-0.0133058838546276,-0.0102545330300927
983,0.0214688144624233,0.0116984164342284,-0.002129937056452,-0.159932419657707,-0.0120894154533744,-0.0178045704960823
984,0.0231862515211105,0.0132657652720809,-0.0038288380019366,0.101131647825241,-0.0085418792441487,-0.0217036996036768
985,0.0230757836252451,0.0157556477934122,-0.0081174140796065,0.263743430376053,-0.0062811523675918,-0.0237639546394348
986,0.0190332885831594,0.0159040074795485,-0.014490682631731,0.249623164534569,-0.0075326594524085,-0.0294969882816076
987,0.012688348069787,0.0146082919090986,-0.0188309643417597,0.0972276404500008,-0.0107879526913166,-0.0379879549145699
988,0.0057180575095117,0.0138053968548775,-0.0191894937306643,-0.105942688882351,-0.0136842150241137,-0.040487989783287
989,0.0001187757879961,0.0129864234477282,-0.0158037673681974,-0.268447160720825,-0.0143157988786697,-0.0318173766136169
990,-0.0036991504020988,0.0102067785337567,-0.0108054960146546,-0.30596399307251,-0.0132158417254686,-0.0181452296674252
991,-0.0062424107454717,0.0066293128766119,-0.0063950400799512,-0.213229611515999,-0.0117073664441705,-0.0075640501454472
992,-0.0069882804527878,0.0052625709213316,-0.0028368746861815,-0.0641607940196991,-0.0093311527743935,-0.0018456683028489
993,-0.0067705428227782,0.0065885041840374,-0.0011200880398973,0.0647606253623962,-0.0064567765220999,-0.0005401223315857
994,-0.0052935294806957,0.0100799398496747,-0.001217940240167,0.123006746172905,-0.0041719740256667,-0.0023378045298159
995,-0.0023062031250447,0.0142157254740596,-0.001558982534334,0.0766669660806656,-0.0025985192041844,-0.0050655710510909
996,0.0001729033683659,0.0168227907270193,-0.002015575999394,-0.0406278111040592,-0.0015720089431852,-0.0081047797575593
997,0.0038844950031489,0.0184050314128399,-0.0008621177403256,-0.10398080945015,-0.0003366507880855,-0.0100301010534167
998,0.0107354866340756,0.0195965636521578,0.0038795177824795,-0.0334499217569828,0.001661924063228,-0.0083276778459549
999,0.016503332182765,0.0186630245298147,0.0095297647640109,0.137747585773468,0.0033010409679263,-0.0038463955279439
1000,0.0231254063546658,0.0132716801017523,-0.0038888175040483,0.101034879684448,-0.0085842469707131,-0.0217598583549261
1001,0.0230140704661608,0.0157616585493088,-0.0081782517954707,0.263645172119141,-0.0063241249881684,-0.0238209180533886
1002,0.0189698692411184,0.0159101970493793,-0.0145532032474875,0.249522015452385,-0.0075768181122839,-0.0295555219054222
1003,0.0126230232417583,0.0146146724000573,-0.0188953634351492,0.0971232429146767,-0.0108334347605705,-0.0380482412874699
1004,0.005651356652379,0.0138119133189321,-0.0192552506923676,-0.106049440801144,-0.0137306516990066,-0.0405495390295982
1005,5.16625768796075e-05,0.0129929771646857,-0.0158699285238981,-0.268554627895355,-0.0143625177443028,-0.031879298388958
1006,-0.00376579281874,0.0102132810279727,-0.0108711924403906,-0.306070685386658,-0.0132622299715877,-0.0182067155838013
1007,-0.0063082347624003,0.0066357320174574,-0.0064599285833537,-0.213334932923317,-0.0117531837895513,-0.0076247798278927
1008,-0.0070536290295422,0.005268944427371,-0.0029012954328209,-0.0642653182148933,-0.0093766395002603,-0.0019059606129303
1009,-0.0068362327292561,0.0065949191339314,-0.0011848468566313,0.0646555200219154,-0.0065025007352232,-0.0006007310003042
1010,-0.0053603914566338,0.0100864805281162,-0.0012838563416153,0.122899636626244,-0.0042185145430266,-0.0023994948714971
1011,-0.0023746325168758,0.0142224309965968,-0.0016264452133327,0.0765571743249893,-0.0026461498346179,-0.0051287054084241
1012,0.0001031496794894,0.0168296322226524,-0.0020843441598117,-0.0407398752868176,-0.0016205597203224,-0.00816913228482
1013,0.0038141552358865,0.0184119306504726,-0.0009314630297012,-0.10409389436245,-0.0003856068651657,-0.0100949881598353
1014,0.0106653943657875,0.0196034330874681,0.0038104180712252,-0.0335626155138016,0.0016131433658301,-0.0083923321217298
1015,0.0164339821785688,0.0186698138713837,0.0094613963738083,0.137636125087738,0.0032527791336178,-0.0039103627204895
1016,0.017649793997407,0.0151078775525093,0.0133679667487741,0.361217617988586,0.0041343006305396,0.000177568217623
1017,0.0154275484383106,0.0099519919604063,0.0164064913988113,0.5,0.0059751793742179,0.0019633884076029
1018,0.0121523886919022,0.0043449415825307,0.019535543397069,0.5,0.0095622455701232,0.0017944707069546
1019,0.010059823282063,0.0003314140485599,0.0225344598293304,0.5,0.0138944191858172,0.0012190891429781
1020,0.0098871737718582,-0.0004084425454493,0.0246059130877256,0.5,0.0171116888523102,0.0004671794886235
1021,0.0110694011673331,0.0031170542351901,0.0261159501969814,0.455701529979706,0.0183275025337934,-0.0002400782104814
1022,0.0124334478750825,0.0092288274317979,0.0272754039615393,0.214887648820877,0.0185195673257113,-0.0008133957162499
1023,0.0113457422703505,0.012249325402081,0.0249658264219761,-0.0368844792246819,0.0165306329727173,-0.0038942915853112
1024,0.0076453178189694,0.0106413764879107,0.0196641944348812,-0.310783565044403,0.0113957347348332,-0.009400300681591
1025,0.0035623360890895,0.007482583168894,0.0157991703599691,-0.5,0.0058488859795033,-0.0139685533940792
1026,-0.0007913154549896,0.0024661580100655,0.0119644803926349,-0.5,0.0025219586677849,-0.0177095886319876
1027,-0.0043669673614203,-0.0033010265324264,0.0056878603063523,-0.5,0.0025327508337795,-0.0198501329869032
1028,-0.0061785145662725,-0.0038332522381097,-0.0013549841241911,-0.5,0.0046934173442423,-0.0169526748359203
1029,-0.0070027788169682,0.0043878797441721,-0.0067894458770752,-0.5,0.0073969699442386,-0.0100018493831158
1030,-0.0059566223062574,0.017783572897315,-0.0084246210753917,-0.5,0.0117593519389629,-0.0037225475534796
1031,-0.0035889286082238,0.0274155624210835,-0.0076073319651186,-0.5,0.017316235229373,-0.0012620812049135
1032,-0.0018824281869456,0.0280870907008648,-0.0070839570835232,-0.5,0.0209360085427761,-0.0014230794040486
1033,-0.0006782601703889,0.0222883634269238,-0.0058188075199723,-0.406048148870468,0.0219620615243912,-0.0014568886253982
1034,0.0008701382903382,0.0148154208436608,-0.0015946049243211,-0.0556544214487076,0.0225702449679375,0.0001571468892507
1035,0.0048290784470737,0.0106378998607397,0.0073092519305646,0.436519235372543,0.0247338209301233,0.0047554676420986
1036,0.0119103249162436,0.0098319808021187,0.0182830262929201,0.5,0.0268303547054529,0.0087131531909108
1037,0.0185704026371241,0.0082478271797299,0.0244750790297985,0.5,0.0249783098697662,0.0061179902404546
1038,0.0225303694605827,0.0073000979609787,0.0246188454329968,0.5,0.0194488372653723,0.0003017817216459
1039,0.0237882733345032,0.009416195563972,0.0221428256481886,0.5,0.0138645572587848,-0.0023822670336812
1040,0.0222838222980499,0.0121813016012311,0.0186912510544062,0.5,0.0107001150026917,-0.0032770873513072
1041,0.0193291269242764,0.0140898050740361,0.0154434768483043,0.5,0.0101411677896976,-0.0063196886330843
1042,0.0162021871656179,0.0154428342357278,0.012723078019917,0.5,0.0098806219175458,-0.0116749694570899
1043,0.0133200623095036,0.0158343613147736,0.0094715738669037,0.5,0.0078743081539869,-0.0168576426804066
1044,0.011471881531179,0.0150004280731082,0.0059978975914418,0.5,0.0050470833666622,-0.0197315085679293
1045,0.0109276883304119,0.0136043420061469,0.0031381295993924,0.5,0.0030325939878821,-0.0200772285461426
1046,0.0115984352305532,0.0124279530718923,0.0010517966002225,0.5,0.0023464141413569,-0.0191252250224352
1047,0.0123409107327461,0.0105639295652509,-0.0014684909256175,0.5,0.0027807103469967,-0.018492765724659
1048,0.0101714348420501,0.0060736495070159,-0.007270201575011,0.5,0.0031508998945355,-0.0197626203298569
1049,0.0051845349371433,0.0008643702603876,-0.0153848938643932,0.5,0.0025873193517327,-0.021831376478076
1050,-0.0002975213283207,-0.0002874729398172,-0.0220348853617907,0.471672207117081,0.0001609809260116,-0.022509079426527
1051,-0.0066200233995914,0.0007943634409457,-0.0266174767166376,0.286121249198914,-0.0045819533988833,-0.0235060378909111
1052,-0.012428599409759,-0.0001866454258561,-0.0286656692624092,0.178768277168274,-0.0086384881287813,-0.0251625534147024
1053,-0.0153461750596762,-0.0011197823332622,-0.0279710609465837,0.237636268138886,-0.0088533172383904,-0.0247618984431028
1054,-0.0162045657634735,0.0003655606997199,-0.0265170726925135,0.462176531553268,-0.0055475225672125,-0.0225295443087816
1055,-0.0150184724479914,0.0049660722725093,-0.0241393316537142,0.5,-0.001137864543125,-0.0181675851345062
1056,-0.0115041490644217,0.0130078392103314,-0.0198069177567959,0.5,0.0015989337116479,-0.0063283792696893
1057,-0.0068072145804762,0.0229104943573475,-0.0140515007078648,0.5,0.0025275016669184,0.0156087670475245
1058,-0.0014179304707795,0.0314508564770222,-0.0067467181943357,0.5,0.0047822622582316,0.0383121892809868
1059,0.003818100085482,0.0344278216362,0.0021275228355079,0.5,0.0105088818818331,0.0479158163070679
1060,0.0086896019056439,0.0313600227236748,0.0114645250141621,0.5,0.018914382904768,0.0419411361217499
1061,0.0122258774936199,0.0246636774390936,0.0182932410389185,0.5,0.0264695733785629,0.0287535563111305
