,AF3,AF4,Fp1,Fp2,AF7,AF8
0,-0.0222965106368065,0.043610405176878,0.0694719851016998,0.105972655117512,0.0424974113702774,0.167315155267715
1,-0.0176520776003599,0.0437188297510147,0.0627593770623207,0.0991103649139404,0.0505061112344265,0.183538928627968
2,-0.0139251202344894,0.0270920097827911,0.0574159137904644,0.0886202156543732,0.0552014447748661,0.159317940473557
3,-0.0091239139437675,-0.0111084086820483,0.0523914135992527,0.0768154263496399,0.0501787103712559,0.0963140800595284
4,0.0034133484587073,-0.0449406392872334,0.0448288433253765,0.0634774789214134,0.0421004481613636,0.0341256149113178
5,0.0216880030930042,-0.0429298095405102,0.047293197363615,0.0579301081597805,0.0484407693147659,0.0149642620235682
6,0.0371983274817467,-0.0202021338045597,0.0697791129350662,0.0653424188494682,0.0739587768912315,0.0360605157911778
7,0.0518867671489716,-0.007870988920331,0.106568083167076,0.0830849632620811,0.113242663443089,0.0652720183134079
8,0.0706614553928375,-0.0119414962828159,0.139998897910118,0.102314494550228,0.155514508485794,0.0804265961050987
9,0.0901069045066834,-0.01992017775774,0.153533905744553,0.111912287771702,0.1847093552351,0.07993283867836
10,0.0984206199645996,-0.0196504853665829,0.143269032239914,0.105782046914101,0.19360426068306,0.0762553885579109
11,0.082396574318409,-0.0161088947206736,0.115261197090149,0.0826302394270897,0.182131618261337,0.0749694183468819
12,0.0498278811573982,-0.0198311768472195,0.0871667042374611,0.0525069944560528,0.157142892479897,0.0698546916246414
13,0.0230022128671408,-0.0296792574226856,0.0783704519271851,0.0321147367358208,0.131495028734207,0.05830143019557
14,0.0109120169654489,-0.0426153466105461,0.080138124525547,0.0232664979994297,0.101823017001152,0.0404151640832424
15,0.0149270230904222,-0.0526488572359085,0.0714269354939461,0.021901099011302,0.0632335841655731,0.0218727793544531
16,0.0304439179599285,-0.0462593175470829,0.059920709580183,0.0368660353124142,0.0341603308916092,0.0199373457580805
17,0.0399737767875195,-0.0191373452544212,0.0661631077528,0.072712816298008,0.0317937284708023,0.0445316769182682
18,0.0370161160826683,0.0191106703132391,0.0927950814366341,0.117332153022289,0.0559312775731087,0.0872862711548805
19,0.0304252654314041,0.0491166412830353,0.121279641985893,0.146953582763672,0.091098964214325,0.126269489526749
20,0.0241430699825287,0.053388848900795,0.126196160912514,0.141512155532837,0.111219152808189,0.13738888502121
21,0.0213753432035446,0.0387988202273846,0.104047171771526,0.107290372252464,0.110498405992985,0.118621073663235
22,0.0264338720589876,0.0218348186463118,0.0685735568404198,0.0595646016299725,0.104672908782959,0.0864208489656448
23,0.0321837700903416,0.0074118738994002,0.0293747168034315,0.0067435703240335,0.0962736904621124,0.0554378479719162
24,0.0255888272076845,-0.001555455266498,-0.001686813076958,-0.0320961102843285,0.0745039358735085,0.0398272536695004
25,0.0066838846541941,-0.004120965488255,-0.011195114813745,-0.0384562946856022,0.0415115170180798,0.0416237153112888
26,-0.0089567024260759,0.0007147095748223,0.0072806887328624,-0.010646490380168,0.0198472868651152,0.0450400672852993
27,-0.0073332069441676,0.0178293865174055,0.0506735779345036,0.0403268933296204,0.0318258218467236,0.0451961755752563
28,0.0124441524967551,0.0427270606160164,0.102314867079258,0.0909481346607208,0.0765749290585518,0.0518183298408985
29,0.0405308343470097,0.0632728934288025,0.135624244809151,0.117418617010117,0.127514511346817,0.063598059117794
30,0.0607137195765972,0.0667072236537933,0.131678208708763,0.108116038143635,0.153160378336906,0.0649636387825012
31,0.0606023371219635,0.0470203272998333,0.10023421049118,0.0688495486974716,0.145034819841385,0.0501721538603306
32,0.0422494858503342,0.0128626497462392,0.0642731636762619,0.0199859272688627,0.114729449152946,0.0295983459800482
33,0.0138977067545056,-0.0291033741086721,0.0262842457741499,-0.0257953926920891,0.0705061331391335,0.0030946729239076
34,-0.0171805117279291,-0.0724994018673897,-0.0132779590785503,-0.0603534542024136,0.0205959659069777,-0.0335766114294529
35,-0.0406279116868973,-0.0970502570271492,-0.0326992981135845,-0.0655621364712715,-0.0171450525522232,-0.0605651549994946
36,-0.0469671301543713,-0.0903433859348297,-0.0180719159543514,-0.0342663079500198,-0.0304088853299618,-0.053830474615097
37,-0.0360579527914524,-0.0599062219262123,0.0158021524548531,0.0149938259273767,-0.0250010397285223,-0.0148480115458369
38,-0.0199556909501553,-0.019931223243475,0.0478883907198906,0.0571050867438316,-0.012196684256196,0.0362112484872341
39,-0.0112004708498716,0.0168920084834099,0.0678389370441437,0.078505851328373,0.0021756729111075,0.0824550539255142
40,-0.0095877200365066,0.0463009066879749,0.0714728385210037,0.0769304782152176,0.0142299067229033,0.115232020616531
41,-0.0101557429879904,0.0668029859662056,0.0593884401023388,0.0573087260127068,0.0207650139927864,0.12257843464613
42,-0.0162768736481667,0.0674760043621063,0.0368187986314297,0.0274056158959866,0.0208058319985867,0.0958564430475235
43,-0.0286691840738058,0.0405498519539833,0.0124687440693378,-0.0030302631203085,0.0212270803749561,0.0475947186350822
44,-0.0375085324048996,-0.0040389760397374,-0.0106125446036458,-0.0234614089131355,0.0271450374275446,0.0015114581910893
45,-0.0391920134425163,-0.0552685111761093,-0.0415775515139103,-0.0349232703447342,0.0222125202417374,-0.0309295151382685
46,-0.0368116982281208,-0.106310762465,-0.0781794488430023,-0.0457204505801201,-0.0076265004463493,-0.0369889438152313
47,-0.0310259908437729,-0.137187778949738,-0.0992888882756233,-0.0540620535612106,-0.0425700210034847,-0.00895790848881
48,-0.0217372290790081,-0.125080138444901,-0.0949771627783775,-0.0535942390561104,-0.053202860057354,0.0212823729962111
49,-0.010619793087244,-0.0703980997204781,-0.0700020119547844,-0.0403514802455902,-0.0323979668319225,0.0237349830567837
50,-0.0044539929367601,-0.0045744180679321,-0.0324774980545044,-0.017770167440176,0.0046659959480166,0.0043655126355588
51,-0.0041218139231205,0.0410391874611378,0.0067527219653129,0.0031116467434912,0.0394199267029762,-0.0194867961108685
52,0.0023043320979923,0.0625460520386696,0.0421388745307922,0.0222464594990015,0.06680016964674,-0.0266443490982056
53,0.0233578253537416,0.0649384558200836,0.0727269351482391,0.0457832664251328,0.0894310995936394,-0.0087929097935557
54,0.0541689470410347,0.056332241743803,0.100625433027744,0.0736177936196327,0.113337494432926,0.018856106325984
55,0.0755321308970451,0.0492818616330624,0.126781329512596,0.102128125727177,0.140344947576523,0.0471474193036556
56,0.0699627995491028,0.0510445050895214,0.138373538851738,0.117303043603897,0.152427792549133,0.0794074609875679
57,0.0439999662339687,0.0620413757860661,0.121885046362877,0.105160191655159,0.130909115076065,0.108426094055176
58,0.0135111920535564,0.0661172270774841,0.0819088742136955,0.0720857679843903,0.0800552293658257,0.117765463888645
59,-0.0126074105501175,0.0486883707344532,0.0364741832017899,0.0371012277901173,0.0173173937946558,0.103056386113167
60,-0.0266627632081509,0.0238488260656595,0.0067523252218961,0.0172703079879284,-0.0356768220663071,0.0798625573515892
61,-0.0250991676002741,0.0135713908821344,0.0052233799360692,0.0200924165546894,-0.0585970841348171,0.0719851925969124
62,-0.0105328969657421,0.0284444149583578,0.0256676729768515,0.0388537012040615,-0.0449008233845234,0.0927786752581596
63,0.009712484665215,0.061766404658556,0.0489979088306427,0.0564476065337658,-0.0058249500580132,0.125854104757309
64,0.0276741702109575,0.0829987674951553,0.056220967322588,0.0565073490142822,0.034782987087965,0.139047101140022
65,0.0450242348015308,0.0671828761696815,0.0430227853357792,0.0406664051115513,0.0571622438728809,0.123287238180637
66,0.0629040226340294,0.0292883235961199,0.0247879344969988,0.0282976794987917,0.0594608038663864,0.0911350250244141
67,0.0723275318741798,0.0063905152492225,0.0185069460421801,0.0335860438644886,0.0522724464535713,0.0593084841966629
68,0.074158750474453,0.0171607714146376,0.0312297623604536,0.0570182539522648,0.0530376993119717,0.0465409867465496
69,0.0789873227477074,0.0474126823246479,0.0564195103943348,0.0853108912706375,0.069257415831089,0.0544594638049603
70,0.0860381424427032,0.0707551836967468,0.0780947878956795,0.101842507719994,0.0874072015285492,0.0639927908778191
71,0.0918798372149467,0.079617515206337,0.0912866219878197,0.108241692185402,0.0978114977478981,0.06696417927742
72,0.0984357297420502,0.0808916464447975,0.100670717656612,0.111652873456478,0.10409340262413,0.0691926702857018
73,0.104112215340137,0.077955923974514,0.107276000082493,0.107656605541706,0.112301871180534,0.0723603740334511
74,0.10517130792141,0.0742116197943687,0.110257916152477,0.0945244804024696,0.125945836305618,0.0760969147086143
75,0.0964089334011078,0.0711616277694702,0.105184957385063,0.074584074318409,0.134822562336922,0.0801974460482597
76,0.0789920836687088,0.0695671811699867,0.0871535912156105,0.0477450974285603,0.123880118131638,0.085099846124649
77,0.0622764825820923,0.0762942656874657,0.0588592775166035,0.016335416585207,0.0948521047830582,0.0938863530755043
78,0.0463162027299404,0.0959164351224899,0.0273844078183174,-0.0145481443032622,0.0623763427138329,0.105600520968437
79,0.0279720593243837,0.118416294455528,0.0017961435951292,-0.035701222717762,0.0418062880635262,0.108739897608757
80,0.0082210563123226,0.121475838124752,-0.0167964790016413,-0.0474417731165886,0.0354225486516953,0.0868728458881378
81,-0.0086846072226762,0.0952229052782059,-0.0324994400143623,-0.0593825243413448,0.0326944142580032,0.0432770550251007
82,-0.0105898818001151,0.0499165914952755,-0.0371054336428642,-0.0672638341784477,0.0270817261189222,0.0017083790153265
83,-0.000939609715715,-0.0062372195534408,-0.0330072082579136,-0.0710102766752243,0.0119423372671008,-0.0352380834519863
84,0.0006668089190497,-0.0684980824589729,-0.0437907129526138,-0.0832356438040733,-0.014768741093576,-0.0827661678195
85,-0.0047551370225846,-0.113432236015797,-0.0649982914328575,-0.0919228047132492,-0.0315160900354385,-0.121931739151478
86,-0.0019027955131605,-0.109653547406197,-0.0587991289794445,-0.0679089725017548,-0.0188487507402897,-0.114169061183929
87,0.011135408654809,-0.0556390024721622,-0.0138751231133938,-0.0132432198151946,0.0099456589668989,-0.0603969097137451
88,0.0245896428823471,0.0145403295755386,0.0423549115657806,0.0454796403646469,0.0329003036022186,0.0061212931759655
89,0.035239651799202,0.0664341226220131,0.0855538100004196,0.0948091223835945,0.0489216595888138,0.0636752396821976
90,0.0519302636384964,0.0991822779178619,0.113327361643314,0.133750259876251,0.0706633478403091,0.114309474825859
91,0.0752809792757034,0.125735104084015,0.129953935742378,0.159040555357933,0.101220853626728,0.166324555873871
92,0.0905094295740128,0.136461034417152,0.129806324839592,0.160747960209847,0.125567361712456,0.201343178749084
93,0.0926784723997116,0.12309668213129,0.109114326536655,0.133187383413315,0.132431924343109,0.187377855181694
94,0.0894972383975983,0.101705335080624,0.0725821256637573,0.0821403041481972,0.121464759111404,0.130313411355019
95,0.0806244611740112,0.0776225924491882,0.0191367156803608,0.0144181828945875,0.0877890288829803,0.0581876263022423
96,0.0646588057279587,0.0440703108906746,-0.0432775281369686,-0.0537045411765575,0.0378182791173458,-0.0090261176228523
97,0.0436436012387276,0.0130508309230208,-0.0866616293787956,-0.0938389599323273,-0.0083019388839602,-0.0475347824394703
98,0.0215034410357475,0.0032699534203857,-0.0854439288377762,-0.0842182412743568,-0.0377495437860489,-0.0418580807745457
99,0.0107400733977556,0.0203055739402771,-0.0345502011477947,-0.0218492709100246,-0.0394696407020092,0.0014030970633029
100,0.0140705397352576,0.0492928586900234,0.0416594333946705,0.0647446438670158,-0.0138853583484888,0.0598942749202251
101,0.0228581801056862,0.0688820853829384,0.108685821294785,0.135421559214592,0.0231659896671772,0.106360532343388
102,0.0356943868100643,0.0725872665643692,0.149880886077881,0.173863604664803,0.0614908449351788,0.128490403294563
103,0.0480038337409496,0.0606576725840569,0.157540112733841,0.17857800424099,0.0872109457850456,0.125096827745438
104,0.0509557202458382,0.0405352860689163,0.13263900578022,0.153560891747475,0.0850239172577858,0.0983821973204613
105,0.0406862050294876,0.0238309819251299,0.0911861285567284,0.111351385712624,0.06023133918643,0.0588563531637192
106,0.0191558059304953,0.0123808961361647,0.0505820587277412,0.0661836937069893,0.0316412560641766,0.0213336441665888
107,-0.0018548343796283,0.0111287776380777,0.0212078858166933,0.0312442258000374,0.011939974501729,0.0023800968192517
108,-0.0117112090811133,0.0254730973392725,0.0020899483934044,0.0121386609971523,-0.0004486368561629,0.008548435755074
109,-0.0081666242331266,0.0448087528347969,-0.0124075412750244,0.0046495771966874,-0.0105226803570986,0.027931671589613
110,0.0038026657421141,0.0544218309223652,-0.0234059114009142,0.0009971145773306,-0.0167630035430193,0.0426461771130562
111,0.011120805516839,0.0492388978600502,-0.0340815111994743,-0.006471122149378,-0.0204894728958607,0.0451222956180573
112,0.0106878029182553,0.0357578098773956,-0.0438749641180038,-0.0140907894819975,-0.0255640912801027,0.0450146235525608
113,0.0136773781850934,0.0280429106205702,-0.0428874678909779,-0.0093248365446925,-0.02777592651546,0.05344308167696
114,0.0229998994618654,0.033644013106823,-0.0318461656570435,0.0066356109455227,-0.0233580656349659,0.0676480308175087
115,0.03440847620368,0.0477196462452412,-0.0218325760215521,0.0210192147642374,-0.0105754947289824,0.0805117636919022
116,0.0465807467699051,0.0625058710575104,-0.0181517601013184,0.0226592142134905,0.0127135599032044,0.0886508002877235
117,0.0584614984691143,0.071620799601078,-0.0258699469268322,0.0025240152608603,0.0405361354351044,0.0884929224848747
118,0.0719027370214462,0.0693156495690346,-0.047180462628603,-0.0382640361785889,0.0633026957511902,0.0714511126279831
119,0.0796000510454178,0.0516653917729855,-0.0754828006029129,-0.0878738313913345,0.0639091357588768,0.0302127283066511
120,0.0602889060974121,0.0154447657987475,-0.105375811457634,-0.133091315627098,0.0218811873346567,-0.0227337460964918
121,0.0132483299821615,-0.0353633500635624,-0.12925161421299,-0.156853690743446,-0.051063884049654,-0.0630901083350182
122,-0.032724417746067,-0.0806519687175751,-0.133169233798981,-0.145194992423058,-0.111188605427742,-0.0815511494874954
123,-0.0535767339169979,-0.0920062586665154,-0.108974672853947,-0.101565904915333,-0.126359537243843,-0.0739548802375793
124,-0.0476940684020519,-0.0567624904215336,-0.0623920373618603,-0.0419809445738792,-0.0962680205702782,-0.0353761948645115
125,-0.027280330657959,0.0033086840994656,-0.0127603011205792,0.0125190485268831,-0.0450278259813786,0.0158912502229214
126,-0.0025350635405629,0.0518894232809544,0.0205090269446373,0.0445883683860302,-0.0007241903222166,0.05117042735219
127,0.0245296284556389,0.0721382051706314,0.0343574546277523,0.0539944060146809,0.0280064456164837,0.0610800087451935
128,0.0500343292951584,0.0684869959950447,0.0343848653137684,0.0481003783643246,0.0497199632227421,0.050875186920166
129,0.0687245577573776,0.0579643584787846,0.0259329341351986,0.0325627774000168,0.0761652141809464,0.0325621403753757
130,0.0819087699055672,0.0593007057905197,0.0110872136428952,0.0124700097367167,0.105622291564941,0.0199388805776834
131,0.0900451019406319,0.0728547647595406,-0.0154676521196961,-0.0142061654478312,0.117296352982521,0.0195928476750851
132,0.0873602703213692,0.0853346735239029,-0.0480518825352192,-0.0446312762796879,0.0989333167672157,0.0339324958622456
133,0.0665813982486725,0.0934319347143173,-0.0675688907504082,-0.0638499557971954,0.0611192099750042,0.0583176948130131
134,0.0372116565704346,0.100660108029842,-0.058524664491415,-0.0567644648253918,0.0303408894687891,0.0814323723316193
135,0.0282879136502743,0.0966308265924454,-0.0198950991034508,-0.0199277829378843,0.0273287240415812,0.0924614742398262
136,0.0495345219969749,0.0726791620254517,0.0275835506618023,0.0288402419537306,0.0424944907426834,0.081494152545929
137,0.0788979977369308,0.0435729324817657,0.0613023415207863,0.0669820383191109,0.0570069141685963,0.0525001920759678
138,0.0952084213495255,0.0235748160630465,0.0767075642943382,0.0889506861567497,0.0675050243735313,0.0279302131384611
139,0.101102106273174,0.0104513466358185,0.0794487297534943,0.099727064371109,0.0781150162220001,0.025481091812253
140,0.113030180335045,0.0069027175195515,0.0752026587724686,0.105301044881344,0.0888526812195778,0.0488620698451996
141,0.131963536143303,0.0313222333788872,0.0713489726185799,0.110435858368874,0.0960094630718231,0.0922276750206947
142,0.137586131691933,0.0872100219130516,0.0713046044111252,0.109611749649048,0.0986847504973412,0.129650801420212
143,0.119799599051476,0.142617106437683,0.0703504309058189,0.094833143055439,0.101588226854801,0.136171638965607
144,0.0981657058000565,0.165038630366325,0.0662412568926811,0.0740346536040306,0.107119828462601,0.119687646627426
145,0.0938425958156586,0.152975857257843,0.0566358156502247,0.058170273900032,0.109838746488094,0.0990267023444176
146,0.100432060658932,0.130546793341637,0.0377249456942081,0.0432458780705929,0.105926513671875,0.0767761990427971
147,0.0932907313108444,0.116123422980309,0.0096423821523785,0.0186781026422977,0.0874101892113686,0.0432540960609913
148,0.0661977156996727,0.100760966539383,-0.0195018984377384,-0.0110957222059369,0.0537752732634544,-0.001640462083742
149,0.0420947186648846,0.0792838037014008,-0.0260480865836143,-0.0210984069854021,0.0351963303983212,-0.0340830013155937
150,0.0320532247424126,0.0632494315505028,0.0019096180330961,0.0021459371782839,0.0507872924208641,-0.0321794524788857
151,0.028060432523489,0.0559217184782028,0.0417283959686756,0.0409116335213184,0.0768600404262543,-0.001646258868277
152,0.0297423098236322,0.0511358268558979,0.062613308429718,0.0705095157027245,0.0839007720351219,0.0352878272533417
153,0.0425279177725315,0.046170387417078,0.0536648109555244,0.0785813182592392,0.0736006945371628,0.0621003694832325
154,0.0667987018823624,0.0524882562458515,0.0311764124780893,0.0691506117582321,0.0673940405249596,0.0873488187789917
155,0.0880217924714088,0.0783921033143997,0.0136451302096248,0.0538946576416492,0.0629026666283607,0.116508796811104
156,0.0894830599427223,0.108157105743885,0.0016656045336276,0.040203470736742,0.0410789027810097,0.122887142002583
157,0.0772785469889641,0.121583573520184,-0.0042825085110962,0.0354083180427551,0.0111292032524943,0.0955167636275291
158,0.064888522028923,0.111852541565895,-0.0013193109771236,0.0402047634124756,-0.0039818440563976,0.0574935749173164
159,0.0540651232004166,0.0895988866686821,0.005617884453386,0.0473431721329689,-0.0028916117735207,0.0334038771688938
160,0.0419337227940559,0.0715133771300316,0.0107105374336243,0.0541616044938564,0.001283646794036,0.0348951779305935
161,0.0235951896756887,0.0561943240463734,0.007960052229464,0.0546014532446861,-0.0035638189874589,0.047996137291193
162,0.0006196867325343,0.0396852605044842,-0.0044891643337905,0.0412585437297821,-0.018027774989605,0.0478403493762016
163,-0.0141687532886863,0.0335957929491997,-0.0178682915866375,0.0182178895920515,-0.0264703091233969,0.0334038250148296
164,-0.0154813872650266,0.03685537353158,-0.0303930137306452,-0.0132845556363463,-0.0170416627079248,0.0156694836914539
165,-0.0132292648777366,0.0330257005989552,-0.0529150255024433,-0.060581523925066,0.00101026694756,-0.0054922648705542
166,-0.0208483282476664,0.0184557158499956,-0.0880415886640549,-0.11775080114603,0.0066199558787047,-0.0238641873002052
167,-0.0399945825338364,0.0001338502042926,-0.121667504310608,-0.159623771905899,-0.0126995695754886,-0.0293050482869148
168,-0.056818000972271,-0.0183383692055941,-0.137772858142853,-0.166790351271629,-0.0491399094462395,-0.0307280942797661
169,-0.0574072301387787,-0.0345046296715736,-0.132589504122734,-0.143709242343903,-0.0797186121344566,-0.0376814156770706
170,-0.0411416813731194,-0.0439105071127415,-0.111602902412415,-0.105897411704063,-0.0828972831368446,-0.0475919395685196
171,-0.0140458140522242,-0.0467166230082512,-0.0872809067368507,-0.0678818300366402,-0.0574868693947792,-0.0576075091958046
172,0.0173482298851013,-0.0505549423396587,-0.0770540162920952,-0.0446730889379978,-0.0250250250101089,-0.0710568949580193
173,0.0398323722183704,-0.0595088414847851,-0.0846413522958755,-0.0417564660310745,-0.0103567596524954,-0.0942819267511368
174,0.0420759730041027,-0.0684276074171066,-0.0934697762131691,-0.0487827807664871,-0.0190885681658983,-0.121284022927284
175,0.0281922649592161,-0.0717437639832497,-0.0857789888978004,-0.0509441345930099,-0.0350333824753761,-0.133861973881722
176,0.0148633290082216,-0.0615854151546955,-0.0584445260465145,-0.0372614152729511,-0.0395047552883625,-0.115918576717377
177,0.0113624501973391,-0.0291204359382391,-0.019604304805398,-0.0061637437902391,-0.0262598004192114,-0.0657766163349152
178,0.0094740511849522,0.0192872136831284,0.0201990101486444,0.0306008532643318,-0.0043854163959622,-0.0016984690446406
179,0.0046086874790489,0.0665138810873032,0.054766908288002,0.0613909400999546,0.0138989668339491,0.0551978051662445
180,0.003897187532857,0.099828228354454,0.0816575214266777,0.0830073356628418,0.0281257424503565,0.0932814553380013
181,0.0145152043551207,0.117222040891647,0.100218579173088,0.0952687188982964,0.0480328649282455,0.111836507916451
182,0.0387899428606033,0.125815615057945,0.111945472657681,0.0992026105523109,0.0820080786943436,0.121863886713982
183,0.0673881992697716,0.124048009514809,0.103013701736927,0.0847209393978119,0.115016222000122,0.124294146895409
184,0.0829172655940056,0.103480398654938,0.052242536097765,0.0338890664279461,0.115870095789433,0.102980077266693
185,0.0764274224638939,0.0713195949792862,-0.0257973168045282,-0.0443687550723553,0.0829463675618172,0.0575535446405411
186,0.0533594451844692,0.0466734319925308,-0.0867135524749756,-0.110703714191914,0.0456363894045353,0.0144123388454318
187,0.0257942043244839,0.0400860980153084,-0.106680296361446,-0.136935830116272,0.0190659034997225,-0.0077796704135835
188,0.0022040877956897,0.0494313351809978,-0.0965099707245827,-0.129237785935402,-0.0010804682970047,-0.0127158397808671
189,-0.0100527480244637,0.0666184797883034,-0.0773521214723587,-0.107888035476208,-0.0177162569016218,-0.0089825633913278
190,-0.0030359032098203,0.0820187404751778,-0.0584541074931622,-0.0778141543269157,-0.0259616691619158,0.0038582663983106
191,0.020842919126153,0.0932283252477646,-0.0386898927390575,-0.0367608852684498,-0.0134249487891793,0.0408815816044807
192,0.0487491004168987,0.101794309914112,-0.0255817119032145,-0.0018386082956567,0.0145415039733052,0.0962642431259155
193,0.0687151327729225,0.102767795324326,-0.0244001317769289,0.0127067267894745,0.0330680534243584,0.128775432705879
194,0.0760868638753891,0.0931796133518219,-0.0186653081327677,0.0209158435463905,0.0347141399979591,0.121620498597622
195,0.0745226889848709,0.0822597369551659,0.0069457166828215,0.0403321199119091,0.0307134240865707,0.0976253300905228
196,0.0708595514297485,0.0783538520336151,0.0472330488264561,0.0718354061245918,0.0310992375016212,0.0779887139797211
197,0.0686131194233894,0.0728109106421471,0.082790344953537,0.101150579750538,0.0367264822125435,0.0633896738290787
198,0.0707578882575035,0.0584225505590439,0.0985592380166054,0.114469565451145,0.0470867082476616,0.0467646941542625
199,0.0781498998403549,0.0495496764779091,0.100661873817444,0.115233734250069,0.070678673684597,0.0340175367891788
200,0.0817538648843765,0.0592632852494717,0.0989190340042114,0.10943491011858,0.104807555675507,0.035419475287199
201,0.0755086466670036,0.0822545289993286,0.0947543159127235,0.0961093232035637,0.130896762013435,0.0499967336654663
202,0.0618632771074772,0.102366469800472,0.0869748592376709,0.0725207924842834,0.134015917778015,0.0636537671089172
203,0.0408012419939041,0.10232300311327,0.0704614892601967,0.0373421050608158,0.113037012517452,0.0594808384776115
204,0.0221455823630095,0.0834165439009666,0.0471321567893028,0.0027653272263705,0.0862840712070465,0.0399499721825123
205,0.0162809379398823,0.0595579743385315,0.0254041645675898,-0.0169912800192833,0.0681710764765739,0.0215477459132671
206,0.0127779943868518,0.0364107675850391,0.0079190991818904,-0.0242323838174343,0.0524721071124077,0.0110986232757568
207,0.0025429097004234,0.0155010456219316,-0.0053786453790962,-0.0274546202272177,0.0309966094791889,0.0044727381318807
208,-0.0090114511549472,0.0014487113803625,-0.0137181133031845,-0.0279917344450951,0.0056845904327929,0.0003486010537017
209,-0.011445184238255,0.0033635697327554,-0.0168730188161135,-0.0231644995510578,-0.0130916340276599,0.0020797834731638
210,-0.0009424709714949,0.0244959853589535,-0.0187834110110998,-0.0175127610564232,-0.0183185543864965,0.0086271110922098
211,0.0119907986372709,0.0545948781073093,-0.0240834206342697,-0.0181343406438828,-0.0127757163718343,0.0193876028060913
212,0.0200323257595301,0.0855606570839882,-0.0307296589016914,-0.025359908118844,-0.0016645609866827,0.0377862080931664
213,0.0289486441761255,0.114127241075039,-0.0353411324322224,-0.0348488613963127,0.01024529337883,0.0598828755319119
214,0.0449897199869156,0.129284396767616,-0.0375238694250584,-0.0408748239278793,0.0218817554414272,0.0721908286213875
215,0.0687759667634964,0.120056845247746,-0.0337892062962055,-0.0409031473100185,0.0366034135222435,0.0661193579435349
216,0.0894303545355797,0.0844063088297844,-0.0245469938963652,-0.0379028804600239,0.0483794026076794,0.0488248281180859
217,0.0873707234859467,0.0307984240353107,-0.0245784129947424,-0.0425482727587223,0.0408026874065399,0.0255141388624907
218,0.0547161288559437,-0.0178318563848734,-0.0429783798754215,-0.0622181333601475,0.0087745459750294,-0.009838730096817
219,0.0069885561242699,-0.037903506308794,-0.0632292032241821,-0.0819659307599068,-0.0318126864731312,-0.0456506535410881
220,-0.0264250580221415,-0.0205664280802011,-0.058224231004715,-0.0743874311447144,-0.0546095371246338,-0.0489113703370094
221,-0.0254848543554544,0.0267879851162434,-0.0174516290426254,-0.0279507581144571,-0.0408713147044182,-0.0060600345022976
222,0.0016943861264735,0.076390728354454,0.0401085875928402,0.0368805676698685,0.0035530729219317,0.0519576780498028
223,0.0309919342398643,0.100434899330139,0.0873357057571411,0.0884567946195602,0.0546854436397552,0.0845497772097588
224,0.0503008626401424,0.0999472960829735,0.113802835345268,0.114858634769917,0.0930474027991295,0.0850016698241234
225,0.0570676214993,0.0865154415369034,0.112293131649494,0.113570742309093,0.108261965215206,0.0644089579582214
226,0.0491021238267422,0.0659998804330826,0.07916609197855,0.0838547199964523,0.098791278898716,0.0333753563463688
227,0.0311543755233288,0.045163981616497,0.0300351940095425,0.0394223108887672,0.0727423951029778,0.0051887999288737
228,0.0118389632552862,0.0269377697259188,-0.0142588941380382,-0.0006537805893458,0.0382811315357685,-0.0148235689848661
229,-8.36648396216333e-05,0.0130883995443583,-0.0422036424279213,-0.0248191598802805,0.0035177846439182,-0.024431174620986
230,-0.0056478101760149,0.0038698541466146,-0.0594708137214184,-0.0379387736320496,-0.0302004180848598,-0.0168536081910133
231,-0.0145905930548906,0.0020520992111414,-0.0796330869197845,-0.0541357733309269,-0.068634994328022,0.005635863635689
232,-0.0225878972560167,0.0197164192795753,-0.0968827903270721,-0.0687245801091194,-0.0988589152693748,0.0249806828796864
233,-0.0226023942232132,0.0485943257808685,-0.100055336952209,-0.0690272599458694,-0.103563897311687,0.0192411448806524
234,-0.0181791763752699,0.0605372004210949,-0.095780573785305,-0.0610838569700718,-0.0922759994864464,-0.0136239090934396
235,-0.0108231464400887,0.0488535016775131,-0.0872066766023636,-0.0535929873585701,-0.0795237198472023,-0.046909686177969
236,-0.0001569958694744,0.0300457365810871,-0.0690091997385025,-0.0443053729832172,-0.0641600489616394,-0.055813692510128
237,0.0100700277835131,0.017076950520277,-0.0491890981793404,-0.0348302535712719,-0.0464308112859726,-0.0471889786422253
238,0.0123714227229357,0.0050646406598389,-0.036908395588398,-0.0308141279965639,-0.0300582405179739,-0.0435842350125313
239,0.0063898777589201,-0.0149678559973836,-0.0259648002684116,-0.0326407551765442,-0.0123190581798553,-0.0521411672234535
240,-9.02504980331287e-05,-0.0375630334019661,-0.010788400657475,-0.036751888692379,0.0050706146284937,-0.0588991157710552
241,-0.0063724280335009,-0.0507053025066853,0.003577928757295,-0.0374016240239143,0.015162406489253,-0.0492761954665184
242,-0.0155887212604284,-0.0503676421940327,0.0097528640180826,-0.0339689925312996,0.0146388839930296,-0.0296916905790567
243,-0.0205747466534376,-0.0421562232077122,0.0063294335268437,-0.0287745799869299,0.0045064813457429,-0.0152952363714576
244,-0.0146211637184024,-0.0375608913600445,-0.0058831083588302,-0.0226947665214539,-0.0100500024855137,-0.0115079479292035
245,-0.0052403225563466,-0.0399498231709003,-0.0240184664726257,-0.0185054000467062,-0.0238595195114613,-0.0175163559615612
246,-5.3117037168704e-05,-0.0405769534409046,-0.0360374376177788,-0.0131236650049686,-0.0351392142474651,-0.0280490480363369
247,1.09431186956499e-06,-0.0368511006236076,-0.0326868630945683,0.0008151806541718,-0.0438865944743156,-0.0341691970825195
248,-0.0026151938363909,-0.0302733648568392,-0.0161336418241262,0.024392144754529,-0.0455615371465683,-0.023641649633646
249,-0.0016303661977872,-0.01671545766294,0.0059117693454027,0.050159364938736,-0.0324033014476299,0.0082830945029854
250,0.0020444381516426,0.0050401478074491,0.0209403894841671,0.0653329193592072,-0.0093032568693161,0.0489072538912296
251,0.0048089008778333,0.0337037555873394,0.0222185663878918,0.0638765543699265,0.0089958328753709,0.0853718295693398
252,0.0091849658638238,0.0628289058804512,0.0133168110623956,0.0489980988204479,0.0136312246322632,0.104838579893112
253,0.0107824048027396,0.0723789855837822,-0.0047357664443552,0.0218236036598682,-0.0013081597862765,0.0874152183532715
254,0.003321444382891,0.0522809252142906,-0.0282752122730017,-0.0122806280851364,-0.0339227505028248,0.0348279774188995
255,-0.012277452275157,0.0139428414404392,-0.0496497936546803,-0.0429155677556992,-0.0711055770516396,-0.0282393917441368
256,-0.0338859967887402,-0.0282709114253521,-0.0662656351923943,-0.0656095668673515,-0.0993854776024818,-0.0821280777454376
257,-0.0527914129197598,-0.0589098334312439,-0.0732363983988762,-0.0749181658029556,-0.106913268566132,-0.112599812448025
258,-0.0572832189500332,-0.0648525208234787,-0.0654726922512054,-0.0655373856425285,-0.0897655189037323,-0.111947238445282
259,-0.0438213534653187,-0.0434447005391121,-0.0469096526503563,-0.0429134033620358,-0.0571660697460175,-0.0860231220722198
260,-0.0166007578372955,-0.0004110759764444,-0.0237363297492266,-0.0175770372152328,-0.022304855287075,-0.0444582030177116
261,0.0143588436767459,0.0495374351739883,-0.0031878754962235,0.0012207580730319,0.0051348148845136,0.0049062273465097
262,0.0354062840342522,0.0856974422931671,-0.001167194917798,0.0009588314569555,0.0182902794331312,0.0461300164461136
263,0.0363381765782833,0.0921267867088318,-0.0247223824262619,-0.0243516825139523,0.0136785805225372,0.0575479902327061
264,0.022071897983551,0.0678705871105194,-0.0559175126254559,-0.0618444047868252,-0.00684266211465,0.0329182147979736
265,0.0098885046318173,0.0321380272507668,-0.0730947405099869,-0.0893452912569046,-0.0322537943720818,-0.0093992417678237
266,0.0054436237551271,0.0076698064804077,-0.0723585188388824,-0.0909200236201286,-0.0506262481212616,-0.044271033257246
267,0.0001305560872424,-0.0033650638069957,-0.0639090687036514,-0.070348285138607,-0.0627660900354385,-0.0608079880475998
268,-0.0016937294276431,-0.0058736493811011,-0.0523865483701229,-0.0417497381567955,-0.0669442936778069,-0.0542557798326015
269,0.0094629516825079,0.0049523948691785,-0.0334823243319988,-0.0105284480378032,-0.0570153668522835,-0.0218371469527483
270,0.0231733769178391,0.0255825594067574,-0.0121293058618903,0.0179489310830832,-0.0405886322259903,0.0185185130685568
271,0.0251778047531843,0.042633730918169,-0.0031104695517569,0.0285449400544167,-0.030367573723197,0.0388251021504402
272,0.0112592214718461,0.0445223711431026,-0.0176069866865873,0.008262749761343,-0.0346334502100945,0.0294058825820684
273,-0.0124288201332092,0.0242720991373062,-0.0496020093560219,-0.0334012918174267,-0.0538971200585365,0.0042921095155179
274,-0.0294827464967966,-0.0048975115641951,-0.0735907182097435,-0.0656194984912872,-0.073538064956665,-0.0110953571274877
275,-0.0349356085062027,-0.0236240942031145,-0.0772005394101143,-0.0755446627736092,-0.0800815746188164,-0.0116488402709365
276,-0.0394291877746582,-0.0328618995845318,-0.0756850838661194,-0.0817823484539986,-0.0748807266354561,-0.0203395951539278
277,-0.0498271659016609,-0.0416948795318604,-0.0786642506718636,-0.0949824154376984,-0.0653496757149696,-0.0473929196596146
278,-0.0622092597186565,-0.0508212000131607,-0.0761718973517418,-0.100327245891094,-0.0593978017568588,-0.0710058137774467
279,-0.0650770738720894,-0.0524174943566322,-0.0595247521996498,-0.0813004374504089,-0.0581167712807655,-0.0661924183368683
280,-0.0554389618337154,-0.043402124196291,-0.0362246111035347,-0.0432788878679276,-0.0593089945614338,-0.0392180047929287
281,-0.0354603342711926,-0.0252773743122816,-0.0141743617132306,-0.0023372655268758,-0.058532427996397,-0.0127330282703042
282,-0.0012159097241237,0.0032686265185475,0.0103739323094487,0.0341529026627541,-0.0416456125676632,0.0055530630052089
283,0.0385274589061737,0.0298367869108915,0.0339501947164536,0.0569230206310749,-0.0026907480787485,0.0129470629617572
284,0.0658965334296227,0.033612634986639,0.0387837253510952,0.052619893103838,0.0423247888684273,0.0047237565740943
285,0.0677106231451035,0.0131130637601018,0.0104293171316385,0.0185465775430202,0.0625308454036713,-0.0171988122165203
286,0.0397013574838638,-0.0130287958309054,-0.0396826714277267,-0.0285566132515669,0.036690529435873,-0.0398914106190205
287,-0.0003266257990617,-0.0237889997661114,-0.0753851607441902,-0.0576699040830135,-0.018987400457263,-0.0425652228295803
288,-0.0301715712994337,-0.0127605842426419,-0.0746180191636086,-0.051826499402523,-0.0698787569999695,-0.0174209047108889
289,-0.0439917743206024,0.0106010446324945,-0.0527090989053249,-0.0279964338988066,-0.101484417915344,0.0161176305264235
290,-0.0473858006298542,0.0317520350217819,-0.0353691503405571,-0.0121989231556654,-0.117073155939579,0.0322117544710636
291,-0.0487486980855465,0.0403409004211426,-0.0303771272301674,-0.0093830591067671,-0.118142873048782,0.03148602694273
292,-0.0472853258252144,0.0359018929302692,-0.0342703200876713,-0.0138996494933963,-0.107626363635063,0.0328373722732067
293,-0.0403488241136074,0.0243278034031391,-0.0470130853354931,-0.024573190137744,-0.0978056788444519,0.0359305813908577
294,-0.0346483178436756,0.0120683927088976,-0.067424513399601,-0.040406446903944,-0.0949769169092178,0.0239798333495855
295,-0.0328962840139866,0.0025703501887619,-0.0843557044863701,-0.0560998469591141,-0.086339183151722,-0.0038216332904994
296,-0.0279242005199194,-0.0072155753150582,-0.0881306231021881,-0.0630375891923904,-0.0604219436645508,-0.03199502825737
297,-0.0183312706649303,-0.0257574673742056,-0.0858486443758011,-0.0634022057056427,-0.0328887961804867,-0.0540593378245831
298,-0.0141067113727331,-0.0553558953106403,-0.0910308510065079,-0.071947380900383,-0.0303494837135077,-0.073800690472126
299,-0.0227609537541866,-0.0862811282277107,-0.101570300757885,-0.0910596773028374,-0.0549702532589436,-0.0852246582508087
300,-0.0431587286293507,-0.106367245316505,-0.105665169656277,-0.105173982679844,-0.0815512984991074,-0.0803017616271973
301,-0.0599162429571152,-0.10679917037487,-0.0966025814414024,-0.097680076956749,-0.0792336687445641,-0.0664989128708839
302,-0.0521144419908524,-0.090672180056572,-0.0744569152593613,-0.0676911994814873,-0.0470013916492462,-0.0570486970245838
303,-0.0279959868639708,-0.0719171687960625,-0.0527952648699284,-0.0355536006391048,-0.023864209651947,-0.0587573610246181
304,-0.0125212464481592,-0.0524923428893089,-0.0399762317538261,-0.0163628049194813,-0.0311340130865574,-0.0638255998492241
305,-0.0133858779445291,-0.0280582550913095,-0.0223451554775238,-0.0028158428613096,-0.0474242605268955,-0.0580348372459412
306,-0.0260094050318003,-0.0065649123862385,0.0035770810209214,0.0098541667684912,-0.0548696331679821,-0.044381856918335
307,-0.0404895842075348,0.0038661058060824,0.021254900842905,0.0149969514459372,-0.0522871091961861,-0.0341207981109619
308,-0.0483604706823826,0.0032382709905505,0.0201439335942268,0.0095043005421757,-0.0458073131740093,-0.0301144793629646
309,-0.043212566524744,-4.46843478130177e-05,0.0061440793797373,-0.0009976127184927,-0.0439591556787491,-0.0283707417547703
310,-0.0200813841074705,0.008478095754981,-0.0074009858071804,-0.0070299338549375,-0.0454150922596455,-0.0159717798233032
311,0.0091826664283871,0.0314624719321728,-0.0190147366374731,-0.0082228109240531,-0.0445708222687244,0.0154540902003646
312,0.0215995013713837,0.0543640665709972,-0.0434391796588898,-0.017697136849165,-0.0456671565771103,0.0448113828897476
313,0.0032282744068652,0.0513375103473663,-0.0912769064307213,-0.0482335425913334,-0.0631648525595665,0.0338613167405128
314,-0.0363328978419304,0.0067072613164782,-0.14839930832386,-0.09428321570158,-0.098237618803978,-0.0271498933434486
315,-0.0653572455048561,-0.0519014112651348,-0.175596743822098,-0.127091884613037,-0.120668038725853,-0.100898444652557
316,-0.0597307458519936,-0.0850473120808601,-0.146295875310898,-0.119778238236904,-0.100028648972511,-0.141272380948067
317,-0.0229530353099108,-0.0902982130646706,-0.0842465236783028,-0.0809430032968521,-0.0496149584650993,-0.138899400830269
318,0.0214429460465908,-0.0823369696736336,-0.0348186194896698,-0.0426420643925667,-0.0092611815780401,-0.11088503152132
319,0.0459112636744976,-0.0665616393089294,-0.0133111607283354,-0.0233338065445423,0.006917854771018,-0.0666133910417557
320,0.038428720086813,-0.0457219742238522,-0.0046218037605285,-0.0187509376555681,0.0141810709610581,-0.0103577198460698
321,0.010599622502923,-0.0240804646164179,0.0059606372378766,-0.0146083366125822,0.0224960278719664,0.0395220443606377
322,-0.0237630922347307,-0.0059533002786338,0.0162481460720301,-0.0080381669104099,0.0207870081067085,0.0578498467803001
323,-0.0602135770022869,0.0031906280200928,0.0156722906976938,-0.0107474979013205,-0.0058882613666355,0.0364728271961212
324,-0.0905630886554718,0.0021929559297859,0.0017039044760167,-0.0276485346257687,-0.0525888577103615,-0.0091253109276294
325,-0.111962057650089,-0.0059668477624654,-0.0210763197392225,-0.0518765710294247,-0.0998567938804626,-0.0571989864110947
326,-0.127185061573982,-0.0150647303089499,-0.0436105094850063,-0.070277027785778,-0.128083661198616,-0.0889604091644287
327,-0.12830151617527,-0.0181756559759378,-0.0556063801050186,-0.0721257477998734,-0.127423793077469,-0.0910633355379105
328,-0.108625620603561,-0.0226617865264416,-0.0567183159291744,-0.0602308660745621,-0.103649251163006,-0.0693382769823074
329,-0.0752183273434639,-0.0383964776992798,-0.048116859048605,-0.0396557524800301,-0.0657160133123398,-0.0365727692842484
330,-0.0437079295516014,-0.0564860925078392,-0.0306933987885714,-0.0131126921623945,-0.0244810916483402,-0.0017042279941961
331,-0.0230382028967142,-0.0610350258648396,-0.0165633950382471,0.0072445073164999,0.0028996155597269,0.0181881058961153
332,-0.0138611337170005,-0.0529695823788643,-0.0222751870751381,0.0034896731376647,0.0039987014606595,0.0049902568571269
333,-0.0269082877784967,-0.0498991571366787,-0.0578090623021126,-0.0350141935050488,-0.0268741995096207,-0.0456413924694061
334,-0.0654412731528282,-0.0551108345389366,-0.109436713159084,-0.0941611677408218,-0.0812085494399071,-0.109364442527294
335,-0.104066863656044,-0.0571472458541393,-0.139307156205177,-0.135019302368164,-0.126885950565338,-0.147031903266907
336,-0.115831963717937,-0.0590695217251778,-0.126663818955421,-0.132433861494064,-0.134796947240829,-0.146687760949135
337,-0.0926461145281792,-0.0718429908156395,-0.0875136107206345,-0.0988544002175331,-0.102839730679989,-0.125310599803925
338,-0.0479640662670136,-0.0949475541710854,-0.0470842532813549,-0.0603343136608601,-0.0526990368962288,-0.100679472088814
339,-0.011680081486702,-0.117863550782204,-0.0211607553064823,-0.0339409336447716,-0.0189948789775372,-0.078837014734745
340,-0.0018871532520279,-0.12476684898138,-0.0119578028097749,-0.0218013226985931,-0.0184041149914265,-0.0546099171042442
341,-0.0086222281679511,-0.105423741042614,-0.0081888493150472,-0.013013930991292,-0.0332103855907917,-0.0174078680574894
342,-0.0146287363022566,-0.0697315782308578,-0.0041135824285447,-0.0027877090033143,-0.043814055621624,0.0312248636037111
343,-0.0173179470002651,-0.0381304547190666,-0.0049003884196281,0.0029175749514251,-0.0486273169517517,0.0677098855376244
344,-0.0222673527896404,-0.0214931294322014,-0.0136780897155404,-0.003908815793693,-0.0479629598557949,0.0695508792996407
345,-0.0291605927050114,-0.0191145576536655,-0.0289547387510538,-0.0301706176251173,-0.0416551493108273,0.038442075252533
346,-0.0355002842843533,-0.0266322456300259,-0.0461357235908508,-0.0705154910683632,-0.0395288206636906,-0.008294821716845
347,-0.0460828132927418,-0.0423249341547489,-0.0642367824912071,-0.108203418552876,-0.0550133250653744,-0.0563525930047035
348,-0.0601373203098774,-0.0640862956643105,-0.081336185336113,-0.125406682491302,-0.082203596830368,-0.0951738506555557
349,-0.0653592199087143,-0.0826291665434837,-0.0853680297732353,-0.111014761030674,-0.0963455885648727,-0.106376938521862
350,-0.0625684931874275,-0.0936198085546494,-0.0814578458666801,-0.0811855345964432,-0.0944541543722153,-0.0885273516178131
351,-0.0647685006260872,-0.100699685513973,-0.0884501785039902,-0.064290389418602,-0.0981087386608124,-0.0758698433637619
352,-0.0709828361868858,-0.102800950407982,-0.0986190438270569,-0.0605228245258331,-0.109902188181877,-0.0878697708249092
353,-0.0664645731449127,-0.101821660995483,-0.0946915000677109,-0.056226309388876,-0.111463196575642,-0.10640124976635
354,-0.0443463176488876,-0.0994818359613419,-0.0779621973633766,-0.0468679331243038,-0.0940978527069092,-0.11002854257822
355,-0.0187674779444933,-0.0881443172693253,-0.0597197711467743,-0.0346346460282803,-0.0667734667658806,-0.0924709588289261
356,-0.0097038969397544,-0.0655579790472984,-0.0506385713815689,-0.0296616405248642,-0.0465661771595478,-0.0629448741674423
357,-0.0219517424702644,-0.0373488925397396,-0.0495637319982052,-0.0348327048122883,-0.0437040515244007,-0.0343673899769783
358,-0.0455254353582859,-0.0106390258297324,-0.0443730019032955,-0.0389715172350407,-0.0518334433436394,-0.0145321255549788
359,-0.0641556084156036,0.0050233728252351,-0.0323646478354931,-0.0383362248539925,-0.0597184374928474,-0.0087811574339866
360,-0.0659880712628365,0.0034071886911988,-0.0241323746740818,-0.0388643592596054,-0.0655272826552391,-0.0102171096950769
361,-0.0505817756056786,-0.009776228107512,-0.0283291637897491,-0.0414450727403164,-0.0716865509748459,-0.0052720298990607
362,-0.0302200578153133,-0.0205220766365528,-0.0442122779786587,-0.0436970144510269,-0.0766337066888809,0.0022707367315888
363,-0.028255445882678,-0.0260657202452421,-0.0678209140896797,-0.0491573475301266,-0.0819390192627907,0.0048297215253114
364,-0.0546898022294044,-0.0341769494116306,-0.0929069146513939,-0.0588977783918381,-0.0911783277988434,0.014387440867722
365,-0.0860306844115257,-0.0442338213324547,-0.107395052909851,-0.0621688701212406,-0.0968189164996147,0.0357365198433399
366,-0.0980875343084335,-0.0566427446901798,-0.104830093681812,-0.0548558607697487,-0.0887216106057167,0.0394369289278984
367,-0.0967064872384071,-0.0823064297437668,-0.0923660695552826,-0.0503896176815033,-0.0702781528234482,-0.0033127681817859
368,-0.093791589140892,-0.123381614685059,-0.085400216281414,-0.0600803755223751,-0.0572346746921539,-0.0800657272338867
369,-0.0902563631534576,-0.160993069410324,-0.0988712906837463,-0.0860981792211533,-0.0678788051009178,-0.156753748655319
370,-0.0879064425826073,-0.170483812689781,-0.130689829587936,-0.123806565999985,-0.105810232460499,-0.212107852101326
371,-0.0887334123253822,-0.146134808659554,-0.154829457402229,-0.149513229727745,-0.142036706209183,-0.233419731259346
372,-0.0865616574883461,-0.105461575090885,-0.150077730417252,-0.141060754656792,-0.141029477119446,-0.214344456791878
373,-0.0712348073720932,-0.0625272914767265,-0.12209590524435,-0.107091635465622,-0.104675091803074,-0.165913328528404
374,-0.0415415801107883,-0.0155082680284977,-0.0827411636710167,-0.0627907961606979,-0.0597435534000397,-0.103721775114536
375,-0.0074774990789592,0.0274849124252796,-0.0384422540664673,-0.0135274920612574,-0.0265014618635178,-0.0374854281544685
376,0.0225316509604454,0.0482843853533268,0.0051464042626321,0.0343391969799995,-0.0077980472706258,0.0309695173054934
377,0.0411147996783257,0.0435277298092842,0.0444225929677486,0.0733453631401062,0.0038741957396268,0.0994618684053421
378,0.0426491238176823,0.0261677950620651,0.0740287229418755,0.0980087593197823,0.0102465506643057,0.147610291838646
379,0.0367915518581867,0.0195955112576485,0.0921939611434937,0.112276054918766,0.0157210435718298,0.162280067801476
380,0.0364944599568844,0.0386753529310226,0.104901932179928,0.125579357147217,0.03293601796031,0.156828060746193
381,0.0445773266255856,0.0706465616822243,0.112280264496803,0.134877786040306,0.0640624314546585,0.139305084943771
382,0.0574917532503605,0.0902390480041504,0.104508727788925,0.126570582389832,0.0921026989817619,0.104513615369797
383,0.0681522935628891,0.0839705467224121,0.079076960682869,0.100189447402954,0.0968047976493835,0.0591926500201225
384,0.0745886117219925,0.0625080391764641,0.0500093996524811,0.0767679885029793,0.0791537761688232,0.0255983434617519
385,0.0815080180764198,0.0478954166173935,0.0303276777267456,0.0722156763076782,0.0567516572773457,0.0170057453215122
386,0.0889267772436142,0.0498300716280937,0.0185284856706858,0.0757758393883705,0.0387636534869671,0.0224328953772783
387,0.0903546959161758,0.0662590935826302,0.0096400994807481,0.0693254992365837,0.0250971298664808,0.0276524797081947
388,0.0860273540019989,0.0891219228506088,0.0041565303690731,0.0534615144133568,0.0179751142859459,0.0370266623795033
389,0.0854753479361534,0.108533412218094,-0.0003459284489508,0.0382335744798183,0.0187377873808146,0.0531351007521153
390,0.0913365259766579,0.126102089881897,-0.0113472258672118,0.0235379543155432,0.022101754322648,0.0601172372698784
391,0.092548631131649,0.13769856095314,-0.0337679162621498,0.0009658648632466,0.0196158923208714,0.042925164103508
392,0.0830115154385567,0.122409284114838,-0.0638193637132645,-0.0316773802042007,0.0116079924628139,0.0040865102782845
393,0.0736452788114548,0.0816835165023804,-0.0878515392541885,-0.0642668008804321,0.0065418304875493,-0.033497866243124
394,0.0684647560119629,0.0369626991450787,-0.0992544144392014,-0.0920906662940979,-0.0017559382831677,-0.0501710288226604
395,0.0549096837639809,-0.001593527267687,-0.101370751857758,-0.116357028484344,-0.0239265840500593,-0.0531586967408657
396,0.0305435433983803,-0.0255850274115801,-0.0911965742707253,-0.124274738132954,-0.0470414534211159,-0.0574673488736153
397,0.0058048367500305,-0.026623759418726,-0.0673732608556747,-0.105614572763443,-0.055174145847559,-0.0643878355622292
398,-0.0114743690937757,-0.0092477742582559,-0.0377950556576252,-0.0689095705747604,-0.0487992949783802,-0.0640052706003189
399,-0.0191030818969011,0.0098852850496769,-0.0085800336673855,-0.0274831186980009,-0.0304712988436222,-0.0501496605575085
400,-0.0202217679470778,0.0129811549559236,0.018758388236165,0.0068674990907311,-0.0060373353771865,-0.0329507403075695
401,-0.0157040078192949,-0.0020710001699626,0.039812833070755,0.0255933813750744,0.008174929767847,-0.027151009067893
402,-0.0113507099449635,-0.0256164222955704,0.0426151938736439,0.0251812785863876,-0.0032995538786053,-0.033990703523159
403,-0.0194130819290876,-0.0506826937198639,0.0192923732101917,0.0077624460682272,-0.0418008081614971,-0.0458524264395237
404,-0.0350419133901596,-0.0707061067223549,-0.0148366624489427,-0.0134514877572656,-0.0867611765861511,-0.0573223307728767
405,-0.0480218455195427,-0.0803736224770546,-0.0344359837472439,-0.0235773716121912,-0.112509571015835,-0.0656442865729332
406,-0.0544443987309933,-0.0762904360890388,-0.0340076200664043,-0.0190739184617996,-0.110029689967632,-0.0646995976567268
407,-0.0436155721545219,-0.0584483072161675,-0.0280917584896088,-0.0057106814347207,-0.0865925773978233,-0.0474301837384701
408,-0.0190407279878855,-0.0362983644008636,-0.0336936935782433,0.003151363460347,-0.0645685940980911,-0.0219080112874508
409,-0.0047443183138966,-0.01622399315238,-0.0513907708227634,-0.0056274225935339,-0.06040383502841,-0.0080792363733053
410,-0.0119826663285494,0.0052097146399319,-0.0640715211629868,-0.0292801894247532,-0.064684696495533,-0.0115645788609982
411,-0.0274726841598749,0.0309628043323755,-0.0597153268754482,-0.0503408871591091,-0.0633487850427628,-0.0192662961781025
412,-0.0306760240346193,0.0543119162321091,-0.0398574583232403,-0.0522102750837803,-0.0529202334582806,-0.0159504283219576
413,-0.0158322621136904,0.0580797418951988,-0.0138561092317104,-0.0350651331245899,-0.0369597673416138,-0.0015957272844389
414,0.0028008341323584,0.0365900732576847,0.0022393455728888,-0.0172680467367172,-0.0251782275736332,0.0057701505720615
415,0.0076692216098308,0.0059247580356895,0.0011811358854174,-0.0101251639425755,-0.0218477211892605,0.000632896204479
416,-0.0044148750603199,-0.01554218493402,-0.0036877335514873,-0.0051179328002035,-0.0236970074474812,0.0016153451288119
417,-0.0216250363737345,-0.0184402670711279,0.001231366652064,0.0065032015554606,-0.0297587439417839,0.0193240866065025
418,-0.0342424102127552,-0.005652951542288,0.0152323897928,0.0226845666766167,-0.0355341881513596,0.0420484691858292
419,-0.0418628752231598,0.0081007685512304,0.0284946076571941,0.0343698784708977,-0.0347337536513805,0.0513082817196846
420,-0.0445459857583046,0.0147341676056385,0.0291452705860138,0.029770202934742,-0.0303749907761812,0.0381259843707085
421,-0.0439922660589218,0.0173689052462578,0.0164447445422411,0.0090892538428306,-0.027902714908123,0.0168332606554031
422,-0.0412413254380226,0.0129493316635489,-0.0027668112888932,-0.0144273666664958,-0.0274659804999828,0.0058040274307131
423,-0.0302290003746748,-0.0025802517775446,-0.0223946552723646,-0.029237063601613,-0.025822713971138,-0.0032973173074424
424,-0.0086563928052783,-0.024865910410881,-0.0324073024094105,-0.03111975453794,-0.0183937549591064,-0.0250264517962933
425,0.0138649046421051,-0.0485281385481358,-0.0278647914528847,-0.023792989552021,-0.0049049803055822,-0.0553336180746555
426,0.0302093904465437,-0.0591462254524231,-0.0120831821113825,-0.0092926099896431,0.0085447188466787,-0.0760231986641884
427,0.0416871458292007,-0.04268479347229,0.0077762366272509,0.0135319856926799,0.0147149842232466,-0.0699644684791565
428,0.0496841073036194,-0.0075508737936615,0.0190236587077379,0.035033293068409,0.0133478697389364,-0.0361607111990452
429,0.0584699809551239,0.0343962796032429,0.0146639104932547,0.038468636572361,0.0099803647026419,0.0104948403313756
430,0.0640455633401871,0.0707808807492256,0.000476817251183,0.019559234380722,-0.0005409342120401,0.0443173684179783
431,0.0526252947747707,0.0865068957209587,-0.0110215609893203,-0.0063168318010866,-0.0248360056430101,0.0475153177976608
432,0.0298508387058973,0.0879583284258842,-0.0062009030953049,-0.0170797239989042,-0.0473753027617931,0.0315128304064274
433,0.0147492988035083,0.0879760086536407,0.0160567611455917,-0.0068525639362633,-0.0436970330774784,0.0205541402101517
434,0.0153611460700631,0.0911290049552917,0.0456139221787453,0.0107932202517986,-0.0046174176968634,0.0303771514445543
435,0.0241934061050415,0.0997577756643295,0.0701606869697571,0.0222203899174929,0.0451456792652607,0.0645422637462616
436,0.0224408768117428,0.104002222418785,0.0746928080916405,0.0237175729125738,0.0614837557077408,0.101938590407372
437,0.0030902659054845,0.0907808169722557,0.0595720745623112,0.0235349964350462,0.0378695912659168,0.111782640218735
438,-0.0168346632272005,0.0629065185785294,0.0426160655915737,0.0342188812792301,0.010303053073585,0.0930539518594742
439,-0.0194369573146105,0.0362541750073433,0.0327169746160507,0.0510133877396584,0.0060422560200095,0.0609188713133335
440,-0.0042411731556057,0.01903036236763,0.0273749642074108,0.057858120650053,0.0224806368350983,0.0235168766230345
441,0.0183837879449129,0.0031376015394926,0.0263635292649269,0.0564896762371063,0.0400795303285122,-0.0051726987585425
442,0.0390437580645084,-0.0113254487514496,0.0305545497685671,0.0593163929879665,0.0410896800458431,-0.0125677259638906
443,0.0499166399240494,-0.0066319736652076,0.0372510254383087,0.064274363219738,0.0240040756762028,-0.0035954643972218
444,0.04221261292696,0.0186763443052769,0.0439323112368584,0.0645538419485092,0.0010682680876925,0.0104510812088847
445,0.0204646550118923,0.0412047132849693,0.0521897673606873,0.0635906159877777,-0.0130617367103696,0.0239846389740705
446,0.0032221167348325,0.048411663621664,0.0615384429693222,0.0625496432185173,-0.0109808575361967,0.0348453894257545
447,0.0019922715146094,0.0452581718564034,0.0602835901081562,0.0505993589758873,-0.0016583672259002,0.0386448502540588
448,0.0134560903534293,0.0342422910034657,0.0351870208978653,0.0177765637636185,-0.0041652433574199,0.0280950609594584
449,0.0208289381116629,0.0114765297621489,-0.0049388334155082,-0.0257419943809509,-0.0251106154173613,0.0023920731619
450,0.0068810195662081,-0.0222087781876326,-0.0318743325769901,-0.0541479475796223,-0.0524189285933971,-0.0279112588614225
451,-0.0183698795735836,-0.0470236092805862,-0.0259264428168535,-0.0479958206415176,-0.0635843873023987,-0.0439146012067795
452,-0.028149351477623,-0.04205422103405,0.0077383890748024,-0.0097237452864646,-0.0440282560884953,-0.0307033583521843
453,-0.0240967068821192,-0.018126804381609,0.0426982194185257,0.0316853746771812,-0.012986222282052,-0.0017643403261899
454,-0.0223174355924129,0.0010378346778452,0.0594982355833054,0.0509549714624882,0.0034972981084138,0.0193670094013214
455,-0.0174163710325956,0.0101744802668691,0.0654527544975281,0.0558430701494217,0.0152492932975292,0.035966869443655
456,-0.0016793435206636,0.0182320978492498,0.074183963239193,0.0654808133840561,0.0429617241024971,0.0591005720198154
457,0.0167732182890177,0.0322680361568928,0.0843983963131905,0.0811580643057823,0.074970580637455,0.0804892256855965
458,0.0239818673580885,0.0455130338668823,0.0831384733319283,0.0869119316339493,0.0789559781551361,0.080347366631031
459,0.0155502930283546,0.0523663125932217,0.062471404671669,0.0709639191627502,0.0473136603832245,0.0521485321223736
460,0.000835302460473,0.0595017299056053,0.0283326879143715,0.0397899858653545,0.0023638405837118,0.0128104509785771
461,-0.0112265897914767,0.0635427534580231,-0.0078208455815911,0.0077103152871131,-0.0334619134664536,-0.0177216846495867
462,-0.0173158198595047,0.0500879213213921,-0.0370802991092205,-0.0160609018057585,-0.0517396479845047,-0.0335941687226295
463,-0.0145707922056317,0.0195786822587252,-0.0527872145175934,-0.0282446593046188,-0.0521941520273685,-0.0360738188028336
464,-0.0014821672812104,-0.0065688882023096,-0.051749799400568,-0.0307237803936005,-0.0339091047644615,-0.0232064574956894
465,0.0186691712588072,-0.0044624591246247,-0.0374197289347649,-0.0286935269832611,0.0006745293503627,0.002229169011116
466,0.0327838361263275,0.0232754927128553,-0.0182208195328712,-0.0281392820179462,0.0343900807201862,0.0186978299170733
467,0.0273449327796698,0.0438969992101192,-0.0123614342883229,-0.0394234359264374,0.037765197455883,-0.0008582746959291
468,0.0053011015988886,0.0356475412845612,-0.0369175225496292,-0.0703167468309402,-0.0024302338715642,-0.0536750853061676
469,-0.0212973114103079,0.0095933061093092,-0.0726720988750458,-0.102995701134205,-0.06061702221632,-0.10264315456152
470,-0.0391198135912418,-0.011113366112113,-0.0769221037626266,-0.0996453166007996,-0.0918555781245232,-0.109523348510265
471,-0.0326826013624668,-0.0088635878637433,-0.0362866222858429,-0.0459332354366779,-0.0687092393636703,-0.0619278624653816
472,-0.0031348913908004,0.0179376844316721,0.0252934340387583,0.0295270960777998,-0.0058928653597831,0.0115354685112834
473,0.0310980267822742,0.0542360991239548,0.0812491104006767,0.0912219658493996,0.0526213757693768,0.0668352320790291
474,0.058170273900032,0.0797692462801933,0.118935167789459,0.129687666893005,0.0799432769417763,0.0927939862012863
475,0.0744333192706108,0.0792816951870918,0.130827218294144,0.145079791545868,0.082576759159565,0.101646579802036
476,0.0822480693459511,0.0565461665391922,0.116870880126953,0.136138722300529,0.0783257186412811,0.106695920228958
477,0.0818911269307137,0.0321007743477821,0.0853969976305962,0.108586877584457,0.072551853954792,0.107271477580071
478,0.0646345093846321,0.0178646389394999,0.0476769916713238,0.0710500106215477,0.057435866445303,0.0809195786714554
479,0.0341696552932262,0.0123820714652538,0.0240758415311575,0.0394329242408276,0.0343284904956818,0.0288784354925156
480,0.005833450704813,0.0107310255989432,0.0262580066919327,0.0303614642471075,0.0133608328178525,-0.0131812039762735
481,-0.0083749461919069,0.0112188421189785,0.0421625748276711,0.0424979105591774,0.0031658194493502,-0.0216307919472456
482,-0.0034601630177348,0.0187839195132256,0.0571351237595081,0.0585418231785297,0.0127183431759477,-0.0039809918962419
483,0.0088047347962856,0.0273432414978743,0.0613599978387356,0.0577399842441082,0.0349248349666595,0.0117973443120718
484,0.0135906767100096,0.0284034796059132,0.0515805818140507,0.0376376174390316,0.0484401658177376,0.0099796280264854
485,0.0101972995325923,0.031990047544241,0.0345311351120472,0.0140935247763991,0.0466874539852142,-0.000488769437652
486,-0.0033782622776925,0.036734439432621,0.0103328274562955,-0.0093688247725367,0.0316844657063484,-0.0216391403228045
487,-0.0288440547883511,0.0242256186902523,-0.0241235345602036,-0.0385465361177921,0.0015161841874942,-0.062920443713665
488,-0.0512521974742413,-0.0079682758077979,-0.0557879097759724,-0.0623764730989933,-0.0339852757751942,-0.103915512561798
489,-0.0532481670379639,-0.0446049645543098,-0.0698601827025414,-0.0649929717183113,-0.0574779212474823,-0.113711692392826
490,-0.0313483215868473,-0.062775619328022,-0.0664081200957298,-0.0502807758748531,-0.0636384189128876,-0.0876282379031181
491,0.0052003730088472,-0.0501642599701881,-0.0510794222354889,-0.0328803919255733,-0.0553474128246307,-0.0471900850534439
492,0.0383720956742764,-0.0235358309000731,-0.0274008270353079,-0.0182496774941683,-0.0349691323935986,-0.0188801940530539
493,0.0513629391789436,-0.0005772917065769,0.0039468086324632,-0.0019680669065564,-0.0070488932542502,-0.0069868895225226
494,0.0446229167282581,0.0199104864150286,0.0393741428852081,0.0193247422575951,0.02072349563241,0.0070762443356216
495,0.0316897332668304,0.0371244922280312,0.0652420818805695,0.0379562117159367,0.0392152033746243,0.0297693219035864
496,0.0152799757197499,0.0454721041023731,0.0682700797915459,0.0388068221509457,0.0380435213446617,0.0415170639753342
497,-0.0097590880468487,0.0381496734917164,0.0446990914642811,0.0154248671606183,0.0089054210111498,0.0240119192749262
498,-0.0315740779042244,0.0138267036527395,0.0050365510396659,-0.0165704544633627,-0.0385140366852283,-0.0084702521562576
499,-0.0318697281181812,-0.0101120565086603,-0.0253944415599108,-0.031880047172308,-0.0729413032531738,-0.0206237137317657
500,-0.0148263378068805,-0.0175582505762577,-0.0330849997699261,-0.0256271157413721,-0.0724802911281586,-0.0066547929309308
501,0.0007819102029316,-0.0112251108512282,-0.0237079542130232,-0.0100686131045222,-0.0363510921597481,0.010241124778986
502,0.0075247222557663,-0.0037751505151391,-0.0062264539301395,0.0004327586793806,0.0227504167705774,0.0160768646746874
503,0.013082823716104,-0.0056470851413905,0.0007571018068119,-0.0109737319871783,0.0661255940794945,-0.0006889416836202
504,0.0228205863386393,-0.017335120588541,-0.0218042246997356,-0.0450479947030544,0.0559204518795013,-0.0450687184929848
505,0.0232048593461514,-0.0333251170814037,-0.0679468140006065,-0.0800279751420021,-0.0030056114774197,-0.0926517769694328
506,0.0026621515862643,-0.0378425903618336,-0.106229826807976,-0.0941998362541199,-0.0727745518088341,-0.110579520463943
507,-0.0206604823470116,-0.0117929084226489,-0.101679481565952,-0.0749625265598297,-0.107120357453823,-0.0845292806625366
508,-0.0289760157465935,0.0324498750269413,-0.0505596697330475,-0.0269023403525352,-0.0900347977876663,-0.0304456390440464
509,-0.0224603787064552,0.0640706717967987,0.0196029804646969,0.0305155292153358,-0.0432893633842468,0.020313048735261
510,0.0012566210934892,0.0757424235343933,0.0835010707378387,0.0829876586794853,0.013961617834866,0.0520529560744762
511,0.0330240875482559,0.0769865959882736,0.125046074390411,0.119135722517967,0.0676893070340157,0.0634388774633408
512,0.0486945137381554,0.0686303079128265,0.133224979043007,0.126668617129326,0.0972733646631241,0.0569860376417637
513,0.0426194109022617,0.0423354618251324,0.111624710261822,0.106318578124046,0.0954241156578064,0.0365011319518089
514,0.0321950204670429,0.0064471093937754,0.0802271291613579,0.0753403827548027,0.0791914910078049,0.0107735088095069
515,0.0276418086141348,-0.0128116896376014,0.0534944273531437,0.0475664958357811,0.0623615868389606,-0.0039309221319854
516,0.014307539910078,-0.0054279877804219,0.0228973180055618,0.0168732292950153,0.0309880413115025,0.0007493537850677
517,-0.0186021942645311,0.0127992313355207,-0.0199792012572289,-0.0224246475845575,-0.0229277890175581,0.0201258715242147
518,-0.0495433285832405,0.0219214968383312,-0.0582788847386837,-0.0532482340931892,-0.06746656447649,0.0401066914200783
519,-0.0580569095909595,0.0171614773571491,-0.0716172009706497,-0.0585598051548004,-0.0731905028223991,0.0410945564508438
520,-0.0504600331187248,0.009317641146481,-0.0569259151816368,-0.0415117852389812,-0.0488335937261581,0.0211237668991089
521,-0.0330214835703373,0.0076446956954896,-0.0189890656620264,-0.0138846430927515,-0.0096852499991655,-0.0005850692396052
522,-0.0052335727959871,0.0041686194017529,0.0238154642283916,0.0067533506080508,0.0347090288996696,-0.01363012380898
523,0.0313856042921543,-0.0121923098340631,0.0391659401357174,0.0046943118795752,0.0664949342608452,-0.0262778624892235
524,0.0749309360980988,-0.0376416556537151,0.0142206717282534,-0.0139383049681783,0.0686410218477249,-0.0468204729259014
525,0.107846349477768,-0.0615698732435703,-0.0326005220413208,-0.0332592837512493,0.0357920974493027,-0.0724838972091675
526,0.108389034867287,-0.0659049823880196,-0.0708345994353294,-0.0467826463282108,-0.0163582544773817,-0.0896357968449593
527,0.0793607532978058,-0.0423234552145004,-0.0793351158499718,-0.0494114309549332,-0.0569617487490177,-0.0875484645366669
528,0.0354074127972126,-0.0159169528633356,-0.0582643114030361,-0.0364916585385799,-0.0652446448802948,-0.0719150528311729
529,-0.0056434501893818,9.94604488369077e-05,-0.0163407884538174,-0.0073120361194014,-0.0389027968049049,-0.0442949421703815
530,-0.0255597122013569,0.0279704984277487,0.0359897240996361,0.0326645486056805,0.005634072702378,0.0055076493881642
531,-0.0251137726008892,0.0803332552313805,0.0802827253937721,0.0664356425404549,0.0459100790321827,0.0775379464030266
532,-0.0189719516783953,0.141314387321472,0.102383390069008,0.078229583799839,0.0751778185367584,0.147760525345802
533,-0.0149577027186751,0.178038522601128,0.101984158158302,0.0673080533742905,0.0942860990762711,0.175913333892822
534,-0.0059725814498961,0.169807374477386,0.0899155288934708,0.0509193018078804,0.101894795894623,0.152062222361565
535,0.0144961616024375,0.128394976258278,0.0806662291288376,0.0511258207261562,0.100297905504704,0.108094163239002
536,0.0408391840755939,0.0765461623668671,0.0802970826625824,0.0703329220414162,0.0960559025406837,0.0706432461738586
537,0.0676334947347641,0.0331301912665367,0.0853983834385872,0.0924509763717651,0.0963232591748238,0.0441625863313675
538,0.0820586308836937,0.0053413854911923,0.0846994519233704,0.0986247286200523,0.0952275320887566,0.022285558283329
539,0.0716816261410713,-0.0106989145278931,0.0700443685054779,0.0810026824474335,0.0797532126307487,0.0024220084305852
540,0.0468662306666374,-0.0155891245231032,0.046579398214817,0.0469177737832069,0.0509283170104027,-0.0059632384218275
541,0.013948043808341,-0.0158931650221348,0.0163717027753592,0.0024267178960144,0.0132287042215467,-0.0016338457353413
542,-0.0280762445181608,-0.0255795381963253,-0.0244242828339338,-0.0459106713533401,-0.029907213523984,0.001784028019756
543,-0.0575893856585026,-0.0407578907907009,-0.0641233399510384,-0.0779192820191383,-0.0604793168604374,-0.0007404873613268
544,-0.0537978000938892,-0.0368422567844391,-0.0787318348884583,-0.077579990029335,-0.0596335716545582,-0.0034309215843677
545,-0.0238928627222776,-0.0019667705055326,-0.0616806782782078,-0.0527003109455109,-0.0282696206122637,-0.0022788771893829
546,0.0147728370502591,0.0487577095627785,-0.0286614634096622,-0.0234699659049511,0.0192342009395361,0.0053044245578348
547,0.0425220392644405,0.0876275524497032,-0.0040170922875404,-0.0054341508075594,0.0566483363509178,0.0151346558704972
548,0.0422850996255875,0.089416965842247,-0.0062832073308527,-0.0068569704890251,0.0561819225549698,0.0112913595512509
549,0.0187354013323784,0.055636290460825,-0.0309261362999678,-0.0285915452986956,0.0212249550968409,-0.0183185692876577
550,-0.0097212539985775,0.0112035870552063,-0.0569271109998226,-0.057435180991888,-0.0176472440361977,-0.062511719763279
551,-0.0273653194308281,-0.0235704146325588,-0.0599959939718246,-0.0651352778077126,-0.0310298185795546,-0.0904806703329086
552,-0.0275055430829525,-0.0420053191483021,-0.0324719250202179,-0.0407142229378223,-0.0110802687704563,-0.0863616913557053
553,-0.0223326608538628,-0.049907460808754,0.0021104458719492,-0.0106314886361361,0.0164749845862389,-0.0661182329058647
554,-0.0251014288514853,-0.0552560202777386,0.0191054698079824,-0.0025832699611783,0.0226613730192184,-0.0514835119247437
555,-0.0283044092357159,-0.0596676878631115,0.0156528856605291,-0.0177819393575192,0.0074459128081798,-0.0495667196810246
556,-0.0324434824287891,-0.0630049929022789,-0.0003650817961897,-0.0424415282905102,-0.0168298464268446,-0.0532275661826134
557,-0.0488575249910355,-0.0634967908263206,-0.0171919148415327,-0.0609908141195774,-0.0412779487669468,-0.0461852252483368
558,-0.065060943365097,-0.0546550452709198,-0.0215947423130274,-0.0608193278312683,-0.0556678622961044,-0.0181959494948387
559,-0.0601001307368279,-0.0320577509701252,-0.0064152311533689,-0.0369596779346466,-0.0483193136751652,0.0234067905694246
560,-0.037880901247263,-0.0044182445853948,0.021077323704958,-0.0001328404905507,-0.0201623532921076,0.0623546279966831
561,-0.0203079991042614,0.0154602350667119,0.0400844626128674,0.0272555965930223,0.0081979678943753,0.0918969288468361
562,-0.0162936449050903,0.031517218798399,0.0380978100001812,0.0349406935274601,0.0195361003279686,0.115856423974037
563,-0.0144244162365794,0.04719452932477,0.0236988421529531,0.0308225397020578,0.0171310752630234,0.120529241859913
564,0.0031351812649518,0.0533384867012501,0.0152974324300885,0.028004664927721,0.017458925023675,0.0890910029411316
565,0.0417445674538612,0.0518148988485336,0.0234767105430365,0.0361418537795544,0.0346074439585209,0.0465765558183193
566,0.0771701782941818,0.0496881380677223,0.0341750234365463,0.0460007824003696,0.0608811043202877,0.0246446393430233
567,0.0792769342660904,0.0410703085362911,0.0295792054384947,0.040462389588356,0.0725322738289833,0.0114250741899014
568,0.0491915941238403,0.0209122654050589,0.0207319725304842,0.0264816470444202,0.0621145069599152,-0.0145346587523818
569,0.0126431034877896,-0.0013346248306334,0.0265967343002558,0.0249066930264235,0.0443393997848034,-0.0400355644524097
570,-0.007394837681204,-0.015923148021102,0.0461919941008091,0.0409734323620796,0.0357132218778133,-0.041038915514946
571,-0.0063634314574301,-0.0220913998782635,0.0664658471941948,0.0585854277014732,0.042483028024435,-0.0228674225509167
572,0.0044978326186537,-0.0188039895147085,0.0749441608786583,0.0592515543103218,0.054524689912796,-0.0088696079328656
573,0.0173756536096334,-0.0023471298627555,0.0701175853610039,0.0469336099922657,0.0570509545505047,-0.0050576189532876
574,0.0338017120957375,0.0195984896272421,0.0611460506916046,0.0386454574763775,0.0498507469892502,-0.0028572832234203
575,0.0478406846523285,0.0264541618525982,0.0461193285882473,0.0300442222505808,0.0348676666617393,-0.0064294580370187
576,0.0510060526430607,0.0145543552935123,0.0191697124391794,0.0089716780930757,0.0152486879378557,-0.01848454028368
577,0.0459977649152279,0.0003784214495681,-0.0091665862128138,-0.0159042086452246,0.0037479226011782,-0.0252239797264338
578,0.0311386194080114,-0.0080886026844382,-0.0315249599516392,-0.0381220728158951,-0.0042402376420795,-0.0210928115993738
579,0.0016897422028705,-0.0125678721815348,-0.0523649752140045,-0.0624340213835239,-0.0255643371492624,-0.0160310678184032
580,-0.0337930731475353,-0.0140433153137565,-0.0718896314501762,-0.084844708442688,-0.0542985908687115,-0.0219935029745102
581,-0.0520578511059284,-0.0126868169754744,-0.077268972992897,-0.0905322209000587,-0.0618801862001419,-0.0346208140254021
582,-0.0328953601419926,-0.0080648763105273,-0.0537328720092773,-0.0704221725463867,-0.0259263422340155,-0.035351250320673
583,0.0064842542633414,-0.0099512431770563,-0.0207336135208607,-0.0458155833184719,0.0322598777711391,-0.0310846604406834
584,0.0251129474490881,-0.0339861698448658,-0.0194337740540504,-0.0493702962994576,0.0596365109086037,-0.0471880249679089
585,0.0120513271540403,-0.0726738795638084,-0.0500172078609467,-0.0765243098139763,0.0394905433058739,-0.0778349414467812
586,-0.0076803350821137,-0.0991488993167877,-0.0738128870725632,-0.0930847302079201,0.0022128352429717,-0.0900773927569389
587,-0.0105931991711259,-0.097286082804203,-0.0662330240011215,-0.0776789858937263,-0.0220153424888849,-0.0660695135593414
588,0.0027835122309625,-0.0684680640697479,-0.0314566157758236,-0.0349956713616848,-0.0180635638535023,-0.0211574658751488
589,0.0164894293993711,-0.0152317080646753,0.0159333925694227,0.0152138788253069,0.012152886018157,0.0224236417561769
590,0.0181658044457436,0.05436996743083,0.0583651661872864,0.049830999225378,0.0436086393892765,0.0525627322494984
591,0.0032194131053984,0.10978626459837,0.0780595242977142,0.0573049075901508,0.0481724180281162,0.0547622852027416
592,-0.0211859177798033,0.126158401370049,0.074286550283432,0.0495596751570702,0.0247987769544125,0.0312061291188002
593,-0.0344109274446964,0.106671661138535,0.062004953622818,0.0463017150759697,-0.0046103135682642,0.0068580117076635
594,-0.0251309480518103,0.0625243782997131,0.0485469289124012,0.0486061722040176,-0.0244584586471319,-0.0117560233920813
595,-0.0050423750653863,0.012099377810955,0.0340235978364944,0.0479463525116444,-0.0293668825179338,-0.0281378403306007
596,0.0069651887752115,-0.0175951849669218,0.020024323835969,0.0430879108607769,-0.0195346474647522,-0.0246376860886812
597,0.0060599502176046,-0.0188132878392935,0.0082022417336702,0.0317407846450806,-0.0031651698518544,0.0037012486718595
598,0.0027042608708143,-0.0085042044520378,0.0047019952908158,0.0139288809150457,0.0131519082933664,0.0333963185548782
599,0.0033729097340256,-0.0022148992866277,0.0107899224385619,-0.0014589568600058,0.0230114124715328,0.0496215522289276
600,0.0012402542633935,-0.0051195565611124,0.0139233693480492,-0.0061604878865182,0.0162967685610056,0.0501317828893662
601,-0.0065244194120168,-0.0172729305922985,0.0075528998859226,0.0022208727896213,-0.0018079312285408,0.0343469977378845
602,-0.0082727540284395,-0.0304754432290792,0.0014967952156439,0.0180607941001654,-0.0075964918360114,0.012142893858254
603,0.0038670904468745,-0.031916007399559,0.0075197517871856,0.032461941242218,0.0172269307076931,-0.0021367510780692
604,0.0212571490556002,-0.0178781058639288,0.0264309886842966,0.0413482822477818,0.0653442963957787,-0.0063762227073311
605,0.029161287471652,-6.3739562392584e-06,0.0457335114479065,0.0418723560869694,0.103440970182419,-0.0110110649839044
606,0.0269817914813757,0.0104989912360907,0.054503146559,0.0355102084577084,0.108469508588314,-0.0184615105390549
607,0.0283390823751688,0.0170801356434822,0.0515740923583508,0.0272036083042622,0.0909878835082054,-0.0211238153278828
608,0.0342801846563816,0.0181406699120998,0.0299537219107151,0.0072306883521378,0.0593474917113781,-0.0255887378007174
609,0.0320044942200184,0.0054545439779758,-0.0140624763444066,-0.0324562378227711,0.0120719335973263,-0.0408742353320122
610,0.0143914110958576,-0.0133647313341498,-0.0603472292423248,-0.0715058222413063,-0.0328488983213902,-0.0497871153056622
611,-0.0179181359708309,-0.0250037927180529,-0.0859851315617561,-0.0876641944050789,-0.059670589864254,-0.0342385992407799
612,-0.0554071217775345,-0.0227708294987679,-0.0884031504392624,-0.0832777842879295,-0.0754755809903145,-0.0110613936558366
613,-0.0869904682040215,-0.0122158452868462,-0.0797029137611389,-0.074039414525032,-0.0879560336470604,-0.0059784003533422
614,-0.11391557008028,-0.020851781591773,-0.078428715467453,-0.0771835371851921,-0.101090975105762,-0.0215391777455807
615,-0.133285403251648,-0.0665000751614571,-0.0949830412864685,-0.0967223048210144,-0.117674559354782,-0.0532659590244293
616,-0.12699556350708,-0.123920410871506,-0.112341940402985,-0.111973032355309,-0.123949371278286,-0.0898411199450493
617,-0.0912153795361519,-0.153201460838318,-0.104488365352154,-0.106038890779018,-0.100965149700642,-0.105854585766792
618,-0.0491785705089569,-0.139343559741974,-0.0707490593194962,-0.0838222205638886,-0.0578116960823536,-0.0921646803617477
619,-0.0253758076578379,-0.102040976285934,-0.0290180929005146,-0.0518244355916977,-0.0228074844926596,-0.0678304433822632
620,-0.0232768058776855,-0.0723620355129242,0.007187174167484,-0.0136246886104345,-0.0076740263029933,-0.0525736063718796
621,-0.0263598337769508,-0.0577318333089352,0.0375525169074535,0.0277927368879318,-0.0006724903942085,-0.0418611578643322
622,-0.0224877912551165,-0.0441427975893021,0.0672960579395294,0.0694652050733566,0.0106747187674046,-0.0225299727171659
623,-0.0162100661545992,-0.0188542995601892,0.0920771211385727,0.10140410810709,0.0241401363164186,0.0022873345296829
624,-0.0132618797942996,0.0118262246251106,0.101168103516102,0.113468453288078,0.0353368371725082,0.0225933864712715
625,-0.01535798702389,0.0241931844502687,0.0889984145760536,0.101328536868095,0.0430435501039028,0.0291669480502605
626,-0.0183976627886295,0.0158361084759235,0.0634798854589462,0.0686399564146996,0.0460826493799686,0.0159443411976099
627,-0.0161108840256929,0.0093940077349543,0.0351964198052883,0.0247214343398809,0.0392417795956135,-0.0149875460192561
628,-0.0093915155157446,0.0089514777064323,-0.0007725419709458,-0.024468494579196,0.0124277295544744,-0.0560711435973644
629,0.0021161960903555,-0.0007593416376039,-0.0480511449277401,-0.0720793753862381,-0.0265544261783361,-0.0942674428224564
630,0.0136073790490627,-0.0312491729855537,-0.101617351174355,-0.11678297072649,-0.0622900873422623,-0.126940757036209
631,0.0115662012249231,-0.0779887735843658,-0.154333889484406,-0.159722194075584,-0.0955310985445976,-0.156662255525589
632,-0.0081295864656567,-0.110650755465031,-0.183796271681786,-0.184000208973885,-0.123414717614651,-0.163236290216446
633,-0.0382452607154846,-0.100135266780853,-0.171329513192177,-0.173677012324333,-0.136963427066803,-0.132597833871841
634,-0.0635660365223885,-0.0562059246003628,-0.12986133992672,-0.134070187807083,-0.136450573801994,-0.0775873884558678
635,-0.0679587721824646,-0.012921430170536,-0.0883772373199463,-0.0845243185758591,-0.127769693732262,-0.0143874706700444
636,-0.0460277833044529,0.0117096239700913,-0.0685119777917862,-0.0461217649281025,-0.120139896869659,0.0335837565362453
637,-0.0036002097185701,0.0244932845234871,-0.0735253244638443,-0.0251869540661573,-0.118812121450901,0.0461214296519756
638,0.0429241769015789,0.0329220406711102,-0.0956148877739906,-0.0214564260095358,-0.121562741696835,0.0266341064125299
639,0.0717887505888939,0.0380424223840237,-0.122292593121529,-0.0348071679472923,-0.123606659471989,-0.0136799104511738
640,0.0733913779258728,0.0464076027274132,-0.135832712054253,-0.0532905012369156,-0.119980797171593,-0.0611112080514431
641,0.0535659417510033,0.0577074885368347,-0.135819002985954,-0.068700410425663,-0.120682112872601,-0.101012758910656
642,0.0185972191393375,0.0581558682024479,-0.140906170010567,-0.0876193940639496,-0.14233161509037,-0.127505019307137
643,-0.02329739369452,0.0464173331856728,-0.157291650772095,-0.112956620752811,-0.177682280540466,-0.13708159327507
644,-0.0617946870625019,0.0317482352256775,-0.176777988672256,-0.14042042195797,-0.210601344704628,-0.134574919939041
645,-0.0918986648321152,0.0116794621571898,-0.195194944739342,-0.168761909008026,-0.239626362919807,-0.141473382711411
646,-0.110170349478722,-0.0171867199242115,-0.213161498308182,-0.197274208068848,-0.265211641788483,-0.166488200426102
647,-0.118685439229012,-0.0511708185076714,-0.232501864433289,-0.221502095460892,-0.286773055791855,-0.195183292031288
648,-0.121456995606422,-0.0834995433688164,-0.250659465789795,-0.232410550117493,-0.305012613534927,-0.216268762946129
649,-0.116077616810799,-0.105117075145245,-0.25669801235199,-0.222718834877014,-0.311645835638046,-0.226597234606743
650,-0.103432185947895,-0.109971925616264,-0.24493120610714,-0.199248433113098,-0.29742756485939,-0.224743187427521
651,-0.0862206146121025,-0.0923719704151154,-0.222113400697708,-0.173442125320435,-0.26759746670723,-0.206763625144959
652,-0.0671907290816307,-0.055418074131012,-0.201455488801003,-0.152247980237007,-0.240479245781899,-0.168612882494926
653,-0.056688878685236,-0.0218723118305206,-0.197564110159874,-0.149497002363205,-0.232646062970161,-0.120652467012405
654,-0.0561732351779938,-0.0095234727486968,-0.21183517575264,-0.173959225416183,-0.235994905233383,-0.0949451699852943
655,-0.0479544028639793,-0.0154995871707797,-0.233531981706619,-0.217153578996658,-0.227635413408279,-0.122808173298836
656,-0.027991758659482,-0.0354979857802391,-0.260655045509338,-0.268334954977036,-0.218801990151405,-0.19473759829998
657,-0.021381389349699,-0.071172222495079,-0.294454425573349,-0.313955277204514,-0.244696885347366,-0.272549510002136
658,-0.0395398400723934,-0.11158774793148,-0.322902917861938,-0.334323585033417,-0.300308614969254,-0.328025251626968
659,-0.0594179853796959,-0.122415520250797,-0.326216757297516,-0.316427737474442,-0.33662611246109,-0.340886652469635
660,-0.0579839833080769,-0.0815904662013054,-0.298391669988632,-0.266848683357239,-0.321537137031555,-0.30312979221344
661,-0.0400948040187359,-0.0203192438930273,-0.25747287273407,-0.211811199784279,-0.277660965919495,-0.241094872355461
662,-0.024983137845993,0.0166000872850418,-0.220551341772079,-0.17116753757,-0.239103868603706,-0.192123502492905
663,-0.0229014046490192,0.0295437499880791,-0.18563748896122,-0.143454194068909,-0.209431886672974,-0.159046486020088
664,-0.0291244685649872,0.0409017093479633,-0.146534606814384,-0.120357513427734,-0.181198954582214,-0.119519703090191
665,-0.0247859619557858,0.053286399692297,-0.0988295152783394,-0.091846190392971,-0.146193251013756,-0.068659670650959
666,-0.0001162448606919,0.0577402263879776,-0.0444863885641098,-0.0545959882438183,-0.0964500084519386,-0.0258356146514416
667,0.032736100256443,0.0474453344941139,-0.0034323595464229,-0.0270897205919027,-0.0406214147806168,-0.0131765995174646
668,0.0579114221036434,0.016100998967886,-0.0012680607615038,-0.0334569253027439,-0.0085247475653886,-0.0408494770526886
669,0.0631332993507385,-0.0292996224015951,-0.038974903523922,-0.0720260813832283,-0.0228593572974205,-0.0942984968423843
670,0.0483098290860653,-0.0634893178939819,-0.0831446051597595,-0.109172292053699,-0.0660908073186874,-0.138810202479362
671,0.0277147851884365,-0.0719399154186249,-0.100738279521465,-0.113500006496906,-0.100281052291393,-0.153174370527267
672,0.0137556679546833,-0.0671495348215103,-0.0922618806362152,-0.0887992531061172,-0.108665883541107,-0.1434036642313
673,0.0090780314058065,-0.0642874985933304,-0.0771950110793114,-0.0592339672148228,-0.0981855094432831,-0.117163456976414
674,0.002746501006186,-0.0624962970614433,-0.0745403319597244,-0.0497188940644264,-0.0895340144634247,-0.0832180678844452
675,-0.0247038081288338,-0.0591335408389568,-0.101464584469795,-0.0797479301691055,-0.107838287949562,-0.0717112794518471
676,-0.0748653188347816,-0.0604532361030579,-0.151692762970924,-0.136952996253967,-0.150808960199356,-0.0999479070305824
677,-0.12189532071352,-0.0742733478546143,-0.190300837159157,-0.181983843445778,-0.18423667550087,-0.147832468152046
678,-0.137915313243866,-0.105896197259426,-0.193972229957581,-0.19360913336277,-0.178101897239685,-0.191248461604118
679,-0.118189781904221,-0.147238969802856,-0.1673693805933,-0.174811840057373,-0.133160397410393,-0.212596252560616
680,-0.0873232260346413,-0.175385490059853,-0.123786896467209,-0.135016188025475,-0.0808457061648369,-0.195774257183075
681,-0.0672643259167671,-0.16780723631382,-0.0669572055339813,-0.0804690420627594,-0.040767427533865,-0.136117100715637
682,-0.0534909516572952,-0.110957115888596,0.0001060326831066,-0.0189573131501675,0.0003943335905205,-0.0470984056591988
683,-0.0407960899174213,-0.0200652778148651,0.0507970117032528,0.0241245906800032,0.0416184067726135,0.039943341165781
684,-0.0271429978311062,0.0647176206111908,0.061601709574461,0.0338560827076435,0.0594436898827553,0.100614510476589
685,-0.0094516389071941,0.113873146474361,0.0488660037517548,0.0301510319113731,0.0524595826864243,0.129409477114677
686,0.0055335834622383,0.119778208434582,0.0420036688446999,0.0341529026627541,0.0413488745689392,0.125418022274971
687,0.0152429975569248,0.0945733338594437,0.0489160493016243,0.0474796332418919,0.0408883541822433,0.0993788987398148
688,0.0208803564310074,0.0575192496180534,0.0612616874277592,0.0643042847514153,0.0539733357727528,0.0741701051592827
689,0.0203751157969236,0.019704457372427,0.0725061967968941,0.0821662545204163,0.0774164199829102,0.0663987845182419
690,0.022133631631732,-0.0106752933934331,0.0824469476938248,0.0999915972352028,0.102853164076805,0.0755189806222916
691,0.0338493958115578,-0.0311245117336512,0.0887954235076904,0.110517047345638,0.118260391056538,0.0856891050934792
692,0.051726583391428,-0.0450576841831207,0.0873898863792419,0.105460993945599,0.122172296047211,0.0824116617441177
693,0.0701237097382545,-0.0459558144211769,0.0830796882510185,0.087797038257122,0.12517175078392,0.065287671983242
694,0.0809972435235977,-0.0272762756794691,0.0838871747255325,0.0702689960598946,0.131786271929741,0.0475206188857555
695,0.081070177257061,0.0016830288805067,0.0908175185322762,0.0653759241104126,0.141362771391869,0.0442141033709049
696,0.0744659379124641,0.0295871794223785,0.0996693596243858,0.073363371193409,0.154656067490578,0.0604102537035942
697,0.0598366111516953,0.055654376745224,0.100157283246517,0.0745584145188332,0.163814008235931,0.0898426324129105
698,0.0382328033447266,0.0827515348792076,0.0839984565973282,0.0545902661979198,0.153291016817093,0.115694776177406
699,0.0223839581012726,0.0975747853517532,0.0591163784265518,0.0299865324050188,0.117499776184559,0.120555214583874
700,0.0147476466372609,0.0747274905443192,0.0433581583201885,0.0246966164559126,0.0709964707493782,0.101900547742844
701,0.0086414348334074,0.0224303416907787,0.0523105151951313,0.047405481338501,0.0462135449051857,0.0785415321588516
702,0.0116814970970154,-0.0150487460196018,0.0895720273256302,0.0907501801848412,0.0691144615411758,0.0760415196418762
703,0.0312428213655949,-0.014325219206512,0.135702461004257,0.132034063339233,0.126601725816727,0.0996439829468727
704,0.0613928101956844,0.0112820751965046,0.164223983883858,0.153159976005554,0.177877381443977,0.132384985685349
705,0.0841998159885406,0.0337695367634296,0.166507765650749,0.154073551297188,0.190988376736641,0.151837915182114
706,0.0805951729416847,0.0353451259434223,0.154694363474846,0.147128507494926,0.1673993319273,0.153601750731468
707,0.0561612509191036,0.0297041591256857,0.152054667472839,0.151451826095581,0.142677754163742,0.156761348247528
708,0.0292560551315546,0.029752915725112,0.164048686623573,0.170258656144142,0.143493458628654,0.167591586709023
709,0.0100835971534252,0.0287089720368385,0.170462265610695,0.183800041675568,0.160490617156029,0.179945141077042
710,0.0038337574806064,0.0276812613010406,0.159125506877899,0.175725921988487,0.177015781402588,0.192767724394798
711,0.0084620853886008,0.0276893358677626,0.136049166321754,0.142914429306984,0.18683759868145,0.185413777828217
712,0.0182342678308487,0.0209504272788763,0.11338023096323,0.0965780392289162,0.186377748847008,0.14230689406395
713,0.0277016684412956,0.005171375349164,0.101877316832542,0.060709722340107,0.174327090382576,0.0866874977946281
714,0.0279981307685375,-0.0155727453529835,0.0980959460139275,0.051000639796257,0.151022210717201,0.0444265678524971
715,0.009772015735507,-0.0289791151881218,0.0895523279905319,0.061157051473856,0.117618203163147,0.0219107214361429
716,-0.0224052742123604,-0.0240919683128595,0.0796458795666695,0.078550711274147,0.0845483094453812,0.0199070144444704
717,-0.0421456284821033,-0.0081003159284591,0.0875088572502136,0.103886857628822,0.0725798606872559,0.0413036309182644
718,-0.0266502518206835,0.0110003147274256,0.122230246663094,0.141610532999039,0.0957827866077423,0.0853714644908905
719,0.0138751333579421,0.0293242242187262,0.165480569005013,0.178253680467606,0.139512345194817,0.131436228752136
720,0.0514485314488411,0.0369665585458279,0.184738621115685,0.186720222234726,0.171380370855331,0.153720021247864
721,0.073393277823925,0.03733204677701,0.170005440711975,0.159048601984978,0.181496381759644,0.15502567589283
722,0.082380585372448,0.0397657975554466,0.138213455677032,0.1159388422966,0.180280834436417,0.146118849515915
723,0.0827539190649986,0.0322419479489326,0.108755253255367,0.0828898996114731,0.174789071083069,0.125724226236343
724,0.0796920657157898,0.001073125982657,0.0932342782616615,0.073359414935112,0.169505670666695,0.0995609685778618
725,0.0764522701501846,-0.0437675081193447,0.0866601914167404,0.0783394873142242,0.160688832402229,0.0745467618107796
726,0.0677530765533447,-0.0787083655595779,0.0810116454958916,0.0820364579558373,0.143550828099251,0.0555282756686211
727,0.0504849664866924,-0.0852981358766556,0.0846384987235069,0.0873948186635971,0.130855113267899,0.0570244267582893
728,0.0347070917487144,-0.0690475180745125,0.0960015431046486,0.0948827117681503,0.135794058442116,0.074856698513031
729,0.0301540940999985,-0.0503721684217453,0.0981660038232803,0.092737004160881,0.153041750192642,0.0808079838752747
730,0.0323335006833076,-0.0335750952363014,0.0930601581931114,0.0857331454753876,0.17480993270874,0.0740488767623901
731,0.0359441041946411,-0.0124007249251008,0.0973328724503517,0.088169239461422,0.200802132487297,0.0777695551514626
732,0.0407413467764854,0.004591008182615,0.106985628604889,0.0949917063117027,0.212248012423515,0.0871400460600853
733,0.0325334742665291,-0.0017929270397871,0.101515978574753,0.0877107009291649,0.177009716629982,0.0768992453813553
734,0.0024252606090158,-0.0227113030850887,0.0859294235706329,0.0676645040512085,0.107898510992527,0.0609063319861889
735,-0.0313538610935211,-0.0250748954713345,0.0840978696942329,0.0576475784182549,0.0546750128269196,0.0797539725899696
736,-0.0517605841159821,-0.0050225174054503,0.0928826034069061,0.0640370473265648,0.034873366355896,0.120295085012913
737,-0.0574491359293461,0.0151714356616139,0.0916649401187897,0.07401143014431,0.0292989909648895,0.134252488613129
738,-0.0554276406764984,0.0192355792969465,0.0798004418611526,0.0799136236310005,0.0235932040959597,0.114590264856815
739,-0.050764475017786,0.0073756817728281,0.0732799991965294,0.0832598656415939,0.0236296728253365,0.0884971618652344
740,-0.0367703028023243,-0.0068498807959258,0.0796351134777069,0.085618831217289,0.0421306788921356,0.0674265325069427
741,-0.0141084408387542,-0.0235874056816101,0.0903107449412346,0.0837118476629257,0.0764382854104042,0.0394443050026894
742,0.0006474470719695,-0.0534025095403194,0.0956640094518662,0.0786842107772827,0.107081539928913,0.0045421831309795
743,-0.0015702288364991,-0.0927621573209763,0.0938616320490837,0.0749092325568199,0.117513172328472,-0.0190712213516235
744,-0.0161274559795856,-0.132256329059601,0.0845813676714897,0.0684595480561256,0.10490120947361,-0.0253926943987608
745,-0.0317802950739861,-0.156075403094292,0.0717546194791794,0.0571223720908165,0.0789286121726036,-0.0228124149143696
746,-0.037990890443325,-0.143730208277702,0.0660359486937523,0.0522809065878391,0.053984671831131,-0.005524490494281
747,-0.0378127880394459,-0.100820124149323,0.0668075680732727,0.0589733719825745,0.0358989983797073,0.039542268961668
748,-0.0396489426493645,-0.0562528148293495,0.06209472194314,0.0646894872188568,0.0266654249280691,0.0882032364606857
749,-0.0378603748977184,-0.0272433143109083,0.0621771961450577,0.0701995044946671,0.043266661465168,0.0990267470479012
750,-0.016426470130682,-0.0116114597767591,0.0867422819137573,0.0893871337175369,0.0958282500505447,0.0760314837098122
751,0.0274961944669485,0.0001395615399815,0.119275972247124,0.111267283558846,0.153437897562981,0.0524160154163837
752,0.0644327774643898,0.0107068317010999,0.123374663293362,0.109110236167908,0.168378487229347,0.0372724868357182
753,0.0625888481736183,0.0138658573850989,0.0945073589682579,0.0816535875201225,0.128627777099609,0.0222594756633043
754,0.0342882014811039,0.0096714757382869,0.0680917501449585,0.0576419346034527,0.0707077607512474,0.0188366994261742
755,0.0111568318679929,0.0053336755372583,0.0698788091540337,0.0583584979176521,0.037785816937685,0.0452645495533943
756,0.0011894097551703,0.0080832606181502,0.0908441320061684,0.0775561109185219,0.0451830066740513,0.0910767018795013
757,0.0009273239411413,0.0231269113719463,0.113433875143528,0.0989957377314568,0.0823272988200188,0.128615438938141
758,0.0076821586117148,0.0377114601433277,0.120980583131313,0.104005232453346,0.118483655154705,0.132116183638573
759,0.0192463789135218,0.0307951718568802,0.103770047426224,0.0825221836566925,0.129858806729317,0.0936204269528389
760,0.0343721359968185,0.00783306453377,0.0729273557662964,0.0489126741886139,0.121270582079887,0.0382203198969364
761,0.0427079573273659,-0.0119879245758057,0.0450807511806488,0.0209494270384312,0.100564159452915,-0.0058097932487726
762,0.0339128784835339,-0.0254830401390791,0.0247624479234219,0.0012918838765472,0.0714434757828712,-0.034601517021656
763,0.0074388198554515,-0.044817391782999,0.008721767924726,-0.0146206915378571,0.0448210127651691,-0.0550191253423691
764,-0.0288381278514862,-0.0767001956701279,-0.0018207975663244,-0.0228975284844637,0.028122216463089,-0.0642098486423492
765,-0.0544121973216534,-0.10482419282198,0.002827463671565,-0.0060971588827669,0.0249808132648468,-0.0492228642106056
766,-0.0566553398966789,-0.106111630797386,0.0231921672821045,0.0362293347716331,0.0318630859255791,-0.0063017862848937
767,-0.0440653078258038,-0.0763605982065201,0.0489576756954193,0.0796675533056259,0.0398863106966019,0.0498379655182362
768,-0.0232717357575893,-0.0293961800634861,0.0804584696888924,0.11320336163044,0.0571338757872581,0.0998502224683762
769,0.0042360913939774,0.0163540448993444,0.117527477443218,0.139732539653778,0.0913298949599266,0.131325781345367
770,0.0311250779777765,0.0460565090179443,0.144545823335648,0.153028175234795,0.124924637377262,0.136528596282005
771,0.0514077097177505,0.0530945174396038,0.153736382722855,0.152851656079292,0.142826437950134,0.118595510721207
772,0.0633278116583824,0.0395477712154388,0.150325641036034,0.148068577051163,0.146727055311203,0.0886384025216103
773,0.0681513324379921,0.0136623550206423,0.133462011814117,0.133314207196236,0.132976517081261,0.0516905523836613
774,0.0719344764947891,-0.0071864896453917,0.106337249279022,0.101969964802265,0.101755604147911,0.0189934596419334
775,0.0773710608482361,-0.0057519082911312,0.077409416437149,0.0607462823390961,0.0704695135354996,0.008605626411736
776,0.0806202590465546,0.0131590412929654,0.0448066256940365,0.016721174120903,0.0520228706300259,0.0268253609538078
777,0.0784479975700378,0.0298593938350677,0.007144353352487,-0.0227377600967884,0.0404377467930317,0.0588351115584373
778,0.0691127851605415,0.0375580824911594,-0.0270971823483706,-0.0467566475272179,0.0241832453757524,0.0725547671318054
779,0.0557148978114128,0.0439315661787987,-0.0389856919646263,-0.0407516546547413,0.0101618366315961,0.0588692054152489
780,0.0477878041565418,0.0513865575194359,-0.0115904826670885,0.005203484557569,0.0174296833574772,0.0467459969222546
781,0.0504053309559822,0.0575387589633465,0.046550702303648,0.0784530639648438,0.0487774275243282,0.0606009513139725
782,0.0613659881055355,0.0689727589488029,0.108890227973461,0.149672046303749,0.0912332087755203,0.0981926694512367
783,0.0713451057672501,0.0888923555612564,0.15018005669117,0.190223202109337,0.128352731466293,0.139380753040314
784,0.0727847591042519,0.105149291455746,0.154967844486237,0.184696078300476,0.151265442371368,0.159630075097084
785,0.0718713998794556,0.103979505598545,0.129536256194115,0.144407242536545,0.1636793166399,0.149672955274582
786,0.0707178190350533,0.0814238712191582,0.0961458012461662,0.0958357006311417,0.164002105593681,0.120779059827328
787,0.0578682199120522,0.0420414358377457,0.0644887909293175,0.0518649630248547,0.14294196665287,0.0818427428603172
788,0.0291271470487118,-0.007729560136795,0.0295270569622517,0.0134061463177204,0.102472417056561,0.0290039461106062
789,-0.0010184805141761,-0.0551545694470406,-0.0029303370974957,-0.0133285783231258,0.0570731498301029,-0.0288204625248909
790,-0.0160260926932096,-0.0781915709376335,-0.0167396049946547,-0.0188686233013868,0.0232061427086592,-0.0644186437129974
791,-0.0195715501904488,-0.0696224346756935,-0.0118984896689653,-0.0065890289843082,0.0087510580196976,-0.0656841918826103
792,-0.0218472555279732,-0.0449621565639973,-0.0019851161632686,0.0084842266514897,0.0088265286758542,-0.0441223792731762
793,-0.0190187115222216,-0.0219293441623449,0.0078099491074681,0.0189427677541971,0.0135565856471658,-0.0189386326819658
794,-0.0094981929287314,-0.0099209565669298,0.0175983402878046,0.0273118019104004,0.0152717921882868,-0.0060669393278658
795,-0.0024284233804792,-0.0093323495239019,0.027907645329833,0.0368209071457386,0.0142375798895955,-0.000419101153966
796,-0.0045270072296261,-0.0131200291216373,0.041069645434618,0.0468488931655884,0.0137889673933387,0.012744078412652
797,-0.0136329336091876,-0.0153052844107151,0.0528893768787384,0.052164401859045,0.0098387813195586,0.0256102327257395
798,-0.0200520977377892,-0.0193194858729839,0.0535388812422752,0.0469449535012245,0.0002393238682998,0.021232957020402
799,-0.0160528123378754,-0.0229293592274189,0.0436261743307114,0.0345259495079517,-0.0038960189558565,0.0096049299463629
800,-0.0075479443185031,-0.0169688872992992,0.032991249114275,0.0242319870740175,0.0019558735657483,0.0178521052002907
801,-0.0021052903030067,-0.0060080713592469,0.030909301713109,0.0245079677551985,0.0103345289826393,0.0504076704382896
802,0.0016403589397668,-0.0022016980219632,0.0349997580051422,0.0333505421876907,0.016785828396678,0.0811769217252731
803,-0.0001299564173677,-0.0078966086730361,0.0239932220429182,0.0297156069427729,0.0165289528667927,0.0833843052387238
804,-0.0125550720840693,-0.0151375522837043,-0.0088871987536549,0.001994309714064,0.0091042518615722,0.0543771497905254
805,-0.0324350707232952,-0.0254455134272575,-0.0501191541552544,-0.0415657125413418,-0.0088296644389629,0.0047369939275085
806,-0.0544897168874741,-0.0522574260830879,-0.0911722928285599,-0.0865586325526237,-0.0431595295667648,-0.0535094514489174
807,-0.0709353387355804,-0.0956615135073662,-0.117329716682434,-0.109614096581936,-0.0766835138201714,-0.103220008313656
808,-0.0752163529396057,-0.136752039194107,-0.112962156534195,-0.0987181589007378,-0.0840188935399055,-0.135622248053551
809,-0.0669141411781311,-0.150271683931351,-0.0820857957005501,-0.0643009096384048,-0.061506949365139,-0.14949993789196
810,-0.0505416356027126,-0.127026855945587,-0.0420289635658264,-0.0198798310011625,-0.028748981654644,-0.138987496495247
811,-0.0395159162580967,-0.0896143093705177,-0.0120130861178041,0.0157045032829046,-0.0138407219201326,-0.110391184687614
812,-0.0443338602781296,-0.060448382049799,-0.0047189341858029,0.02159508690238,-0.0307040121406317,-0.0840785577893257
813,-0.0590388253331184,-0.0337103083729744,-0.0135200452059507,0.0018188660033047,-0.0657331421971321,-0.0673862621188164
814,-0.0671840384602547,9.44986895774491e-05,-0.0155957462266088,-0.0164652075618505,-0.0893170535564423,-0.0466829426586628
815,-0.0548743158578873,0.0352738536894321,0.0026610870845615,-0.0129097271710634,-0.0819989368319511,-0.0066496445797383
816,-0.0241038259118795,0.0571729578077793,0.0338078290224075,0.0117223793640733,-0.0480873472988606,0.0455875508487225
817,0.0073046102188527,0.0506880842149258,0.0580931082367897,0.0397898927330971,-0.0087470132857561,0.0765781179070473
818,0.0225183181464672,0.0164314042776823,0.0614017844200134,0.0533315241336823,0.0201690569519997,0.0644290447235107
819,0.0214084312319756,-0.028822161257267,0.0431513860821724,0.0463302321732044,0.0362608879804611,0.0242427736520767
820,0.0146415624767542,-0.069457121193409,0.0076915710233151,0.017110088840127,0.0358193479478359,-0.020957987755537
821,0.0053280782885849,-0.0920223146677017,-0.0300740711390972,-0.0246812272816896,0.0201148614287376,-0.050651092082262
822,-0.0130349192768335,-0.0877303630113602,-0.0441712662577629,-0.0497865229845047,0.0034056871663779,-0.0373871549963951
823,-0.0397740453481674,-0.0637359991669655,-0.0269891209900379,-0.0400793291628361,-0.0062134843319654,0.015583124011755
824,-0.0672029331326485,-0.0403752885758877,-0.0003027978527825,-0.0121730472892523,-0.0109039107337594,0.0598511956632137
825,-0.0917372032999992,-0.0355432033538818,0.0148228257894516,0.0044423942454159,-0.0114276949316263,0.0551880933344364
826,-0.105434313416481,-0.046277429908514,0.0188887380063534,0.0003849555214401,-0.0096431607380509,0.0086136860772967
827,-0.103681497275829,-0.0605992488563061,0.0144005520269275,-0.0156562440097332,-0.0150905391201377,-0.0456828139722347
828,-0.0946707054972649,-0.0791263654828072,-0.0063951662741601,-0.0347271040081978,-0.035649299621582,-0.0860609039664268
829,-0.079300157725811,-0.0964224860072136,-0.0385922454297543,-0.0447960123419762,-0.0614482127130032,-0.1074148863554
830,-0.0530518665909767,-0.0882469117641449,-0.0606587491929531,-0.0355259217321873,-0.0734123662114143,-0.105802416801453
831,-0.0217725522816181,-0.0456743687391281,-0.0570212081074715,-0.0103147532790899,-0.0611201301217079,-0.0781743377447128
832,0.0040802787989378,0.0042413766495883,-0.031436625868082,0.0168643016368151,-0.029892111197114,-0.0341048836708069
833,0.0170968174934387,0.0347515605390072,0.001289494219236,0.0351432301104069,0.0021823865827173,0.006208530627191
834,0.0223777499049902,0.0485131666064262,0.0356271639466286,0.048644632101059,0.0261465180665255,0.0341908112168312
835,0.0312027763575315,0.0575642846524715,0.0703846663236618,0.0653807073831558,0.0470647513866425,0.0558665506541729
836,0.0421819984912872,0.0628241971135139,0.0957733616232872,0.0817289054393768,0.0661861300468445,0.0722208768129349
837,0.0510030202567577,0.0606775842607021,0.104917332530022,0.0888549908995628,0.080131471157074,0.0762962251901627
838,0.0579018145799637,0.0499274358153343,0.0988183245062828,0.0824408158659935,0.0873310565948486,0.0655037239193916
839,0.0634262710809708,0.034132543951273,0.0808672159910202,0.0664331540465355,0.089078389108181,0.0501208156347275
840,0.0747126117348671,0.0253397710621357,0.0573943182826042,0.0488525107502937,0.0898546725511551,0.0450321733951569
841,0.0905917137861252,0.0284547489136457,0.0273001007735729,0.0255716219544411,0.0849668756127357,0.0437968038022518
842,0.0878182798624039,0.0321693830192089,-0.0172460395842791,-0.0161237493157387,0.0577001944184303,0.0242937579751015
843,0.0532106384634972,0.0310549326241016,-0.0660016685724258,-0.0690434798598289,0.0080007622018456,-0.0134174153208733
844,0.0059732748195529,0.0283796004951,-0.0936013460159302,-0.103761106729507,-0.0380359254777431,-0.0459379218518734
845,-0.0251806266605854,0.0251742918044329,-0.087166465818882,-0.099835641682148,-0.0546693541109562,-0.0572405904531479
846,-0.0260010045021772,0.0242308080196381,-0.0532096102833748,-0.0635840222239494,-0.0356961525976658,-0.0502518340945244
847,-0.0032720835879445,0.0241578351706266,-0.0109941279515624,-0.0176723394542933,0.0038925616536289,-0.0301799401640892
848,0.0204412043094635,0.0215347278863192,0.0180307105183601,0.0164058711379766,0.0399705842137337,0.0063254656270146
849,0.0305433850735426,0.018847843632102,0.0270872004330158,0.0314243212342262,0.0619808323681355,0.0430787801742554
850,0.0305058639496565,0.0086048180237412,0.0213128998875618,0.0322375409305096,0.0707911029458046,0.04038055986166
851,0.0269718766212463,-0.0210404396057129,0.0065275602973997,0.0237387735396624,0.0634749755263329,-0.0086039351299405
852,0.0244898963719606,-0.0590105019509792,-0.0066264034248888,0.0103696826845407,0.0411528795957565,-0.064709335565567
853,0.018351923674345,-0.0845443531870842,-0.0099042151123285,-0.0021052870433777,0.009472100995481,-0.0968501791357994
854,0.0020452148746699,-0.0897782444953918,-0.0046511315740644,-0.0061594229191541,-0.0240161344408989,-0.101383350789547
855,-0.0180077105760574,-0.0763149186968803,0.0074235154315829,0.0048938603140413,-0.046219389885664,-0.0826591700315475
856,-0.0304995011538267,-0.0508759990334511,0.0262345969676971,0.0269935745745897,-0.0461688861250877,-0.0518039353191853
857,-0.0284787137061358,-0.0262810382992029,0.0424571372568607,0.042024303227663,-0.0266341734677553,-0.0290080234408379
858,-0.0183430649340153,-0.0147969638928771,0.0388910286128521,0.0345498397946358,-0.0072126849554479,-0.0256365854293108
859,-0.0103317610919476,-0.0127185937017202,0.0194870606064796,0.016917472705245,0.0016516940668225,-0.0265418421477079
860,-0.0041978978551924,-0.010236456990242,0.005169166252017,0.0072131915949285,0.0077955247834324,-0.0206171832978725
861,0.0004284062888473,-0.012357335537672,-0.0002145705075236,-0.0009825202869251,0.010584894567728,-0.0249036829918623
862,0.0007769720978103,-0.0265943929553032,-0.0030627560336142,-0.015036559663713,0.0063937036320567,-0.044294685125351
863,0.0007844890933483,-0.0470861010253429,-0.0035946327261626,-0.0296060927212238,0.0064219492487609,-0.0593841597437859
864,0.0075745559297502,-0.061049547046423,-0.0041141253896057,-0.0407900847494602,0.0126976799219847,-0.0572224892675877
865,0.0162406116724014,-0.0614379122853279,-0.0131746437400579,-0.0508509129285812,0.0036755653563886,-0.0432972982525826
866,0.0090982690453529,-0.0494472458958626,-0.0327717512845993,-0.0617112331092358,-0.0319858305156231,-0.0342337489128113
867,-0.0157301370054483,-0.0253823790699244,-0.0496860146522522,-0.0655505210161209,-0.0734804347157478,-0.0372631810605526
868,-0.0329633690416813,0.0077328588813543,-0.0447509251534939,-0.0499282293021679,-0.087485745549202,-0.0402448959648609
869,-0.024066623300314,0.0364201962947845,-0.0125596262514591,-0.0146706262603402,-0.0585471093654633,-0.0295284427702427
870,0.0006484619225375,0.0449593588709831,0.0239816345274448,0.0204637665301561,-0.0090499389916658,-0.0125187579542398
871,0.0177412461489439,0.0305995363742113,0.0378203205764294,0.0355613492429256,0.0211507640779018,-0.0068883588537573
872,0.0179716311395168,0.0077907838858664,0.0296241845935583,0.0305455159395933,0.0183296483010054,-0.0132168736308813
873,0.0108267171308398,-0.0103662256151438,0.0151527896523476,0.0174579527229071,-0.0006405926542356,-0.0188925247639418
874,0.0051634642295539,-0.0245304182171822,0.0063766902312636,0.0102764349430799,-0.014651651494205,-0.0167905855923891
875,-0.0011115327943116,-0.0384405292570591,0.0058044157922267,0.0125145968049765,-0.0190540049225092,-0.0120379980653524
876,-0.0088304718956351,-0.0429826825857162,0.0121470112353563,0.019751138985157,-0.0166542623192072,-0.0041308179497718
877,-0.0107488175854087,-0.0261036437004805,0.024670735001564,0.0314686447381973,-0.0073418570682406,0.0229224022477865
878,-0.0062105399556458,0.0078172422945499,0.0345444716513157,0.0403641015291214,0.0025849209632724,0.0811336413025856
879,-0.0012766849249601,0.0478818416595459,0.0362103655934334,0.0358808226883411,0.0096113216131925,0.154073417186737
880,-0.0022290972992777,0.0759719088673592,0.031008517369628,0.0154248028993607,0.0131663354113698,0.183228880167007
881,-0.0130954813212156,0.0692922249436378,0.0126857263967395,-0.0197386667132378,0.0042511648498475,0.123998805880547
882,-0.0308145210146904,0.0292081329971552,-0.0223060380667448,-0.0614938288927078,-0.0219134148210287,0.0118133360520005
883,-0.0496795810759068,-0.0178003087639809,-0.0591784380376339,-0.0925657153129578,-0.0550191551446915,-0.0804486274719238
884,-0.0592358596622944,-0.0417006313800812,-0.0714540258049965,-0.0965215638279915,-0.0736589133739471,-0.116354390978813
885,-0.0547161586582661,-0.0364723093807697,-0.0530817061662674,-0.0758572742342949,-0.0705308690667152,-0.109768502414227
886,-0.0426066480576992,-0.0250214114785194,-0.0275417882949114,-0.0492404960095882,-0.061968419700861,-0.0930964648723602
887,-0.0217518042773008,-0.0202814694494009,-0.0082554491236805,-0.0243704337626696,-0.053515363484621,-0.0779887959361076
888,0.0026201938744634,-0.0177679974585772,0.0103593710809946,0.0002872690965887,-0.0374376215040684,-0.06015869602561
889,0.0160878039896488,-0.0177974719554186,0.02900087274611,0.0205787885934114,-0.0177743751555681,-0.0433090068399906
890,0.0234108455479145,-0.0193813797086477,0.0395922847092152,0.0317718610167503,-0.0051932847127318,-0.0331275165081024
891,0.0310158021748066,-0.016115153208375,0.03521578758955,0.0317977331578732,-0.0022715562954545,-0.0281379967927933
892,0.0283689219504595,-0.0013233791105449,0.0195920076221228,0.0202632155269384,-0.0015669385902583,-0.0219141617417336
893,0.0110789714381099,0.0198348127305508,-0.0042120665311813,-0.0049373595975339,-0.00073735503247,-0.015396885573864
894,-0.0104665085673332,0.0247202534228563,-0.0382564105093479,-0.0429479852318764,-0.0099809216335415,-0.0208609905093908
895,-0.0261735655367374,0.0034183193929493,-0.0720725432038307,-0.0787419304251671,-0.0321080684661865,-0.0411882437765598
896,-0.0342288203537464,-0.0283742733299732,-0.0901225507259369,-0.0960592553019524,-0.0527861900627613,-0.0632790923118591
897,-0.0375319682061672,-0.0536830350756645,-0.0895971730351448,-0.0949838235974312,-0.0609504692256451,-0.0734000280499458
898,-0.0380117855966091,-0.0612811893224716,-0.0740819573402405,-0.0840608105063438,-0.0579617395997047,-0.0608338378369808
899,-0.0369855761528015,-0.0507829822599888,-0.0518463291227818,-0.0746618956327438,-0.0528581254184246,-0.0306041352450848
900,-0.0413236804306507,-0.0465782023966312,-0.0388305149972439,-0.0805214419960976,-0.0638586580753326,-0.0183647852391005
901,-0.0560770928859711,-0.0647149160504341,-0.0390209145843983,-0.0975353419780731,-0.0952233895659447,-0.0468804091215134
902,-0.0729821771383286,-0.0830119848251343,-0.0364237576723099,-0.0987344831228256,-0.118364453315735,-0.0840842127799988
903,-0.0786785557866097,-0.0738861039280891,-0.0183804910629988,-0.0668636038899422,-0.103705286979675,-0.0793375298380852
904,-0.0683473572134972,-0.0369652435183525,0.0094571067020297,-0.0156551897525787,-0.0585667788982391,-0.0232369024306536
905,-0.0509179085493088,0.0051179770380258,0.0299988184124231,0.0243697576224804,-0.0227997917681932,0.0377231910824776
906,-0.0372369028627872,0.0344023630023003,0.0335668697953224,0.0350104346871376,-0.0214392468333244,0.0591667257249355
907,-0.0256345011293888,0.0558086335659027,0.0293660070747137,0.026774950325489,-0.0384821705520153,0.0521360263228416
908,-0.0139534017071128,0.0767909958958626,0.0254063345491886,0.0145395994186401,-0.0515687875449657,0.0430724173784256
909,-0.0069330926053226,0.0933835431933403,0.0173375196754932,-0.0029997662641108,-0.054818507283926,0.0336214788258076
910,-0.0083788353949785,0.0922764912247658,0.0004863845824729,-0.0282878633588552,-0.0535903573036194,0.0130965197458863
911,-0.0168304536491632,0.0587637536227703,-0.0251570083200932,-0.0527911484241486,-0.0582645386457443,-0.0226135924458504
912,-0.0162372663617134,0.0087528424337506,-0.0455349683761597,-0.0566559918224812,-0.0609282590448856,-0.0522734448313713
913,0.0069562490098178,-0.0235783457756042,-0.0427716821432114,-0.0315251834690571,-0.0429179184138775,-0.0514830611646175
914,0.0403317995369434,-0.0269648097455502,-0.0191673338413239,0.0048757251352071,-0.0076210047118365,-0.0279486402869225
915,0.0671948939561844,-0.0087933549657464,0.0117158656939864,0.0339289233088493,0.0306230001151562,-0.0024673317093402
916,0.0839952826499939,0.0173624139279127,0.0395929962396622,0.0512935481965542,0.0697904899716377,0.0182819068431854
917,0.0927457362413406,0.0401747040450573,0.0577565394341946,0.0575754083693028,0.111277423799038,0.0378219485282898
918,0.0969543755054474,0.055008877068758,0.0603491589426994,0.0510273985564709,0.138259261846542,0.051964495331049
919,0.0966280549764633,0.0576610900461674,0.0433049313724041,0.0307235829532146,0.125984773039818,0.0458957143127918
920,0.0907929390668869,0.0483523979783058,0.0135874375700951,0.0004242038994561,0.0771405622363091,0.0147378714755178
921,0.0798525214195251,0.0328798592090607,-0.013887376524508,-0.0349354967474937,0.0203687157481909,-0.0275159310549498
922,0.0605359338223934,0.018591932952404,-0.0352913625538349,-0.0731303319334984,-0.0252461843192577,-0.0638209283351898
923,0.0353808701038361,0.0106428014114499,-0.055132944136858,-0.105876043438911,-0.0575681403279305,-0.087599940598011
924,0.0139581430703402,0.0039543383754789,-0.0672215893864632,-0.11542434245348,-0.0758344680070877,-0.0980548933148384
925,0.000506188662257,-0.0060460516251623,-0.0603120252490044,-0.0933824181556702,-0.0791765302419662,-0.0890305936336517
926,-0.0036008993629366,-0.0075935530476272,-0.0298512503504753,-0.0457080379128456,-0.0644018650054932,-0.0491642318665981
927,0.0002742151264101,0.0086561655625701,0.0147259272634983,0.0095497919246554,-0.0362744964659214,0.0133649921044707
928,-0.0007088616257533,0.031248090788722,0.0454092137515545,0.0412632003426552,-0.0221376288682222,0.0615659467875957
929,-0.0157350338995457,0.0485978610813618,0.0453142635524273,0.0379774682223797,-0.0368984900414944,0.0733994618058205
930,-0.038103811442852,0.052839107811451,0.0238308180123568,0.0185733418911695,-0.0621825642883778,0.0588154792785645
931,-0.0586242154240608,0.0376850850880146,-0.00405592052266,0.0003324717690702,-0.0752980411052704,0.0414090417325497
932,-0.0707436800003052,0.0158029887825251,-0.0262146349996328,-0.0098469899967312,-0.0688310861587524,0.0388857834041119
933,-0.0741115659475327,-0.0010650396579876,-0.0360516048967838,-0.0111271422356367,-0.0506003051996231,0.0377519838511944
934,-0.0683020949363709,-0.0159309543669224,-0.031740166246891,-0.0068121463991701,-0.0229720361530781,0.021605784073472
935,-0.0512711927294731,-0.0358820222318172,-0.0235408991575241,-0.0083105703815817,0.0106865661218762,-0.0087592871859669
936,-0.0355251245200634,-0.0675862804055214,-0.0342668294906616,-0.0332456640899181,0.0250139385461807,-0.0577669218182564
937,-0.0341132692992687,-0.0984180271625519,-0.0671635344624519,-0.0794299691915512,0.0019562165252864,-0.118047393858433
938,-0.0464102998375893,-0.111784867942333,-0.105587311089039,-0.125403538346291,-0.0543244928121567,-0.169775426387787
939,-0.0635124295949936,-0.11288221180439,-0.136213257908821,-0.154943183064461,-0.124195128679276,-0.203096136450768
940,-0.0691469386219978,-0.103311389684677,-0.144092053174973,-0.158425748348236,-0.172032341361046,-0.208857342600822
941,-0.0570905767381191,-0.0753317698836327,-0.120404906570911,-0.133417800068855,-0.173058822751045,-0.181736782193184
942,-0.0356963314116001,-0.0344183966517448,-0.0752993002533913,-0.0904369279742241,-0.131863296031952,-0.12738986313343
943,-0.0091897584497928,0.011327832005918,-0.0238492023199797,-0.0432379320263863,-0.0683929249644279,-0.0549595057964325
944,0.016259228810668,0.0642790868878365,0.0192531663924456,-0.0033963918685913,-0.0079874852672219,0.0212306845933199
945,0.0284363813698292,0.115641735494137,0.0303814001381397,0.0109683815389872,0.0246142949908972,0.0750553831458092
946,0.0248648691922426,0.140082001686096,0.0003291319007985,-0.009522303007543,0.0250757392495871,0.0825125053524971
947,0.0151547938585281,0.122936546802521,-0.0394396558403969,-0.040140625089407,0.0146640604361892,0.0510058850049973
948,0.0122685506939888,0.0798815861344337,-0.0485472977161407,-0.0425934307277203,0.0163265448063612,0.0152628030627966
949,0.0197938960045576,0.0398887619376183,-0.020101223140955,-0.0087074600160121,0.0345775038003922,0.0018438668921589
950,0.0304158646613359,0.008840998634696,0.0178807731717825,0.030649371445179,0.0525450594723225,0.0077550909481942
951,0.0391951203346252,-0.0222191996872425,0.0335460752248764,0.0452822260558605,0.049083411693573,0.0170839447528124
952,0.0388345122337341,-0.054220162332058,0.01699448376894,0.0339297316968441,0.0164980031549931,0.0169130694121122
953,0.0195257905870676,-0.0830344036221504,-0.0208693500608206,0.0068839527666568,-0.0339679233729839,-0.0008781324722804
954,-0.0099201025441288,-0.0941016599535942,-0.0516154803335667,-0.0212974119931459,-0.0720217451453209,-0.0240360181778669
955,-0.035582959651947,-0.0764167085289955,-0.0552672520279884,-0.039945375174284,-0.0814114436507225,-0.0387998297810555
956,-0.0601833201944828,-0.0436066836118698,-0.0449660271406174,-0.0542806833982468,-0.0784238278865814,-0.05447131767869
957,-0.0854378789663315,-0.0195249449461699,-0.0411052145063877,-0.0679891407489777,-0.0811809599399567,-0.0784711465239525
958,-0.103561520576477,-0.0180700607597828,-0.0465440601110458,-0.0768953859806061,-0.0924431085586548,-0.103119879961014
959,-0.103859670460224,-0.0285893864929676,-0.0479367896914482,-0.0734883397817612,-0.0997969731688499,-0.114782303571701
960,-0.0836319327354431,-0.028885692358017,-0.0321363173425198,-0.0496430061757565,-0.0869572311639786,-0.101939901709557
961,-0.0534994080662727,-0.0098034208640456,-0.0015320406528189,-0.00705939065665,-0.0510380528867245,-0.0632576271891594
962,-0.0184406973421574,0.0377975590527058,0.0337777398526669,0.0424308255314827,0.0013802280882373,0.0013850264949724
963,0.0217013470828533,0.113803721964359,0.0624715909361839,0.0815823152661324,0.0554064437747002,0.08413065969944
964,0.0609392188489437,0.176630839705467,0.0760620385408401,0.0984705239534378,0.0917525440454483,0.148971080780029
965,0.0931894481182098,0.187187939882278,0.0810912624001503,0.099544882774353,0.108886204659939,0.170282483100891
966,0.111513935029507,0.158761531114578,0.0845023989677429,0.0951059013605118,0.11604031175375,0.161649093031883
967,0.109611928462982,0.123637586832047,0.0794878751039505,0.0841422379016876,0.113449200987816,0.139152005314827
968,0.0871178656816483,0.0943856760859489,0.0633589401841164,0.0653976202011108,0.0995849221944809,0.107339709997177
969,0.0500667281448841,0.0664018020033836,0.0416128262877464,0.043287742882967,0.0763035863637924,0.0742919072508812
970,0.0156790297478437,0.0356940515339375,0.0173425078392029,0.0208924934267998,0.0494894944131374,0.0467758923768997
971,0.0027639036998152,0.006834456231445,-0.0069361361674964,-0.0012344201095402,0.0282948669046164,0.0206053778529167
972,0.0072943256236612,-0.0164155662059784,-0.0305111054331064,-0.0242630038410425,0.0073674623854458,-0.0117690907791257
973,0.008631257340312,-0.0314691551029682,-0.0555230900645256,-0.0479690581560135,-0.0279546771198511,-0.0462037213146687
974,0.0010120334336534,-0.0333991982042789,-0.0772554352879524,-0.0645311027765274,-0.0706924125552177,-0.0623402781784534
975,-0.0082738269120454,-0.0247233677655458,-0.0873094946146011,-0.0691909193992615,-0.0974336639046669,-0.0505896769464016
976,-0.0177907235920429,-0.0088032195344567,-0.0840186476707459,-0.068718247115612,-0.098705917596817,-0.0309913512319326
977,-0.030980022624135,0.0117455013096333,-0.0733828991651535,-0.0713833644986153,-0.0883072465658188,-0.0249664764851332
978,-0.0533896386623383,0.0212317779660225,-0.0688349381089211,-0.0831017419695854,-0.088970959186554,-0.0402419604361057
979,-0.0830069407820702,0.0082056624814868,-0.0760599300265312,-0.0988857299089432,-0.106881640851498,-0.0727234110236168
980,-0.109335884451866,-0.0213575419038534,-0.084203377366066,-0.104384109377861,-0.128286719322205,-0.105948805809021
981,-0.123046413064003,-0.0540882647037506,-0.0817843079566956,-0.0939476639032364,-0.136350810527802,-0.121844351291656
982,-0.116893634200096,-0.0738711506128311,-0.0631925165653229,-0.0679245740175247,-0.119015142321587,-0.109000749886036
983,-0.097242183983326,-0.0722553431987762,-0.0317469201982021,-0.0328133553266525,-0.0819914788007736,-0.0772222504019737
984,-0.0795735195279121,-0.0508130006492138,0.0017460796516388,-0.0004637474776245,-0.0458041839301586,-0.045930415391922
985,-0.0710953027009964,-0.015806470066309,0.0275643989443779,0.0241145044565201,-0.022216921672225,-0.0111223310232162
986,-0.0705696120858192,0.018069127574563,0.0390579365193844,0.0387333147227764,-0.0100641883909702,0.0304763000458479
987,-0.0658250376582146,0.036780696362257,0.0424723140895367,0.0442762896418571,-0.0009326767176389,0.0575454644858837
988,-0.0427126623690128,0.0346463732421398,0.0466587357223034,0.044940035790205,0.0087442211806774,0.0560938976705074
989,-0.0056937504559755,0.0125800659880042,0.0369212068617344,0.0370291285216808,0.0097188679501414,0.031794186681509
990,0.0242771226912737,-0.0173826068639755,-0.0031936487648636,0.0144275091588497,-0.0050700209103524,-0.0038363169878721
991,0.0286198649555445,-0.0386414900422096,-0.0570479407906532,-0.0177725628018379,-0.0325271710753441,-0.0358743146061897
992,0.0113478833809495,-0.0429373495280743,-0.0909038335084915,-0.0433464497327805,-0.0608288832008839,-0.0501379780471325
993,-0.0030120778828859,-0.0367094911634922,-0.0915803015232086,-0.049090813845396,-0.0734709724783897,-0.0469820983707905
994,-0.0058221966028213,-0.0332569666206837,-0.072584442794323,-0.0374345853924751,-0.0677559077739716,-0.0385751761496067
995,-0.0120659861713648,-0.0320329926908016,-0.0523635186254978,-0.0223126616328955,-0.0564172491431236,-0.0296071581542492
996,-0.0283463131636381,-0.0274767559021711,-0.0433546490967274,-0.0178276281803846,-0.0511354878544807,-0.0171436704695225
997,-0.0504281222820282,-0.0291089247912169,-0.0513190999627113,-0.0304145980626345,-0.058930728584528,4.70207714897697e-06
998,-0.0711764022707939,-0.0368526466190815,-0.0683680549263954,-0.0530129969120026,-0.0750852152705193,0.0137756010517478
999,-0.0793183147907257,-0.028976071625948,-0.0785811319947243,-0.0700898021459579,-0.0840926989912987,0.0122091267257929
1000,0.0472032949328423,0.0490691773593426,0.0142474537715316,0.0201848242431879,0.010413215495646,0.0905505865812302
1001,0.0468027591705322,0.0367199145257473,0.0397614873945713,0.0479944311082363,0.0267315544188023,0.0909368097782135
1002,0.0555407367646694,0.035020899027586,0.0679808557033539,0.0735972076654434,0.0487228222191334,0.0827572643756866
1003,0.0676488950848579,0.0388361588120461,0.0871678739786148,0.0941410437226295,0.0689847320318222,0.0706314742565155
1004,0.0690906196832657,0.0385938175022602,0.0841977372765541,0.0990840494632721,0.0778156742453575,0.0493774563074112
