,AF3,AF4,Fp1,Fp2,AF7,AF8
0,-0.0627676993608475,-0.0214022323489189,0.0021251810248941,0.5,-0.0664683505892754,0.0267386361956596
1,-0.0455252453684807,0.0401558130979538,-0.0185041464865208,0.5,-0.0505838021636009,0.0442407578229904
2,-0.0260753054171801,0.0723066031932831,-0.0325413346290588,0.5,-0.019172104075551,0.0454013757407665
3,-0.020062318071723,0.0384444035589695,-0.0486975647509098,0.5,-0.0046986551024019,0.0094893295317888
4,-0.0367067828774452,-0.0381266511976719,-0.0687977150082588,0.5,-0.0293048769235611,-0.0459613315761089
5,-0.0657967999577522,-0.0990519151091576,-0.0802978351712227,0.5,-0.0708085373044014,-0.083791546523571
6,-0.0907463356852531,-0.111044131219387,-0.0716288015246391,-0.5,-0.0919363349676132,-0.087730772793293
7,-0.0909614786505699,-0.0724602490663528,-0.0329747796058655,-0.5,-0.0717950537800789,-0.0524161942303181
8,-0.0629427060484886,-0.0130703244358301,0.0183626972138882,-0.5,-0.0226936191320419,0.0081693977117538
9,-0.0255724750459194,0.0195634923875332,0.0483548529446125,-0.5,0.0262971110641956,0.0598839893937111
10,0.0093767317011952,0.0161674320697784,0.0575760044157505,-0.5,0.0605524703860283,0.0839196369051933
11,0.0351612642407417,0.0048493263311684,0.0642272382974625,-0.5,0.0728018283843994,0.0808602273464203
12,0.0402884893119335,0.0075343130156397,0.0697051212191582,-0.5,0.0575671344995499,0.0644309297204018
13,0.0257153045386076,0.0269565638154745,0.067996971309185,-0.5,0.0235905107110739,0.0536439903080463
14,0.0078525496646761,0.0452391654253006,0.0557805895805359,-0.5,-0.0118686864152551,0.0528582185506821
15,0.0013281082501635,0.042358722537756,0.037987943738699,0.128302872180939,-0.0349413640797138,0.0614217482507229
16,0.0074056191369891,0.0224415957927704,0.0266439523547888,0.340725690126419,-0.0394408479332924,0.073458343744278
17,0.016370952129364,0.0033596644643694,0.0291259922087193,-0.0106742456555367,-0.0281773079186678,0.0719720274209976
18,0.0252144020050764,-0.0017579471459612,0.0438007302582264,-0.212721645832062,-0.0103390868753195,0.057542622089386
19,0.0379024483263493,0.0102626467123628,0.0602016448974609,-0.0116074020043015,0.0047907722182571,0.045404601842165
20,0.0449795462191105,0.0259698592126369,0.0618423521518707,0.350604742765427,0.0109600415453315,0.0367148630321026
21,0.0366883687674999,0.0324095450341702,0.0447084307670593,0.5,0.0153646925464273,0.0280732642859221
22,0.0225708074867725,0.0337510518729687,0.0206089112907648,0.5,0.0318803675472736,0.017256623134017
23,0.0105741648003459,0.0320051982998848,-0.0046496223658323,0.5,0.0470820553600788,-0.0084266765043139
24,-0.0014485318679362,0.0162614192813635,-0.0303514841943979,0.5,0.03286999091506,-0.0563041381537914
25,-0.0116146495565772,-0.0210469923913479,-0.0508684441447258,0.5,-0.0087798470631241,-0.112351849675179
26,-0.0143867721781135,-0.0687997043132782,-0.0580299980938435,-0.137909516692162,-0.0484923310577869,-0.14782227575779
27,-0.009108668193221,-0.104776322841644,-0.0457857362926006,-0.5,-0.0642969980835915,-0.141526326537132
28,-0.0030331818852573,-0.113424673676491,-0.015219516120851,-0.5,-0.050715621560812,-0.0979950651526451
29,-0.0007131077582016,-0.0963174179196358,0.0235745441168547,-0.5,-0.0141746336594224,-0.0333549380302429
30,-0.0063035544008016,-0.0724526420235634,0.0479610040783882,-0.5,0.0178867429494858,0.0334157086908817
31,-0.0263329222798347,-0.0554219596087933,0.0431946516036987,-0.5,0.0213386453688145,0.0765238925814629
32,-0.0518327429890633,-0.0440387390553951,0.0259128324687481,-0.5,0.0058964039199054,0.0834821909666061
33,-0.0700264573097229,-0.0401566326618195,0.0158345066010952,-0.5,-0.0145750623196363,0.0591415651142597
34,-0.0813384130597115,-0.0392407216131687,0.0133897233754396,-0.5,-0.0407303795218468,0.0158979929983616
35,-0.0883315876126289,-0.0283967033028603,0.0164792966097593,-0.5,-0.0655206367373466,-0.0144146792590618
36,-0.0883769616484642,-0.0090932929888367,0.0300977136939764,-0.5,-0.0695865675806999,0.0004479403432924
37,-0.0761661231517792,0.0119891874492168,0.0553762912750244,-0.5,-0.0436533652245998,0.0464230217039585
38,-0.0521960183978081,0.0327141657471657,0.0783381313085556,-0.5,-0.0028434463310986,0.0778055787086487
39,-0.0237724538892508,0.0485689602792263,0.0867938101291656,-0.5,0.0332879237830639,0.0755455940961838
40,0.006308477371931,0.0556104406714439,0.0828932225704193,-0.5,0.057718351483345,0.0519162751734257
41,0.0353750623762608,0.0478396564722061,0.0665349587798119,-0.5,0.0674856677651405,0.0197267755866051
42,0.0515798516571522,0.0222571324557066,0.0331222973763943,-0.5,0.0590569786727428,-0.0102383187040687
43,0.0497612841427326,-0.0029630467761308,-0.0091367792338132,-0.5,0.0356147363781929,-0.0224936529994011
44,0.034965705126524,-0.0063899252563715,-0.0401532836258411,-0.5,0.008439527824521,-0.0159015450626612
45,0.0105040287598968,0.0071203988045454,-0.0463347546756268,-0.5,-0.0097024999558925,-0.0097915669903159
46,-0.0089865792542696,0.0197009909898043,-0.0278017800301313,-0.5,-0.0102254776284099,-0.0136848893016577
47,-0.0030134271364659,0.0218218769878149,0.0033206918742507,-0.5,0.0045412629842758,-0.0209306459873915
48,0.0279553886502981,0.0204143207520247,0.0323654562234879,-0.5,0.0280081331729889,-0.0237984638661146
49,0.0647336170077324,0.0241430420428514,0.0523222200572491,-0.5,0.053902443498373,-0.0185236912220716
50,0.0817614197731018,0.0201801750808954,0.0590524338185787,-0.5,0.0674512907862663,-0.0081453751772642
51,0.0734988301992416,0.0067498874850571,0.0544853657484055,-0.5,0.0629129856824875,0.0069288266822695
52,0.057470940053463,0.0069506918080151,0.0451744943857193,-0.5,0.0486699566245079,0.0282446034252644
53,0.0368997678160667,0.0228197295218706,0.0301103107631207,-0.5,0.0259812772274017,0.0504780039191246
54,0.0080468989908695,0.0355437360703945,0.0084786117076873,-0.5,-0.0041101756505668,0.0649552866816521
55,-0.0268253087997437,0.039150595664978,-0.0152689162641764,-0.5,-0.0357341319322586,0.0579978823661804
56,-0.0665121451020241,0.0400334075093269,-0.0362229757010937,-0.5,-0.0635479912161827,0.0224306266754866
57,-0.0995637699961662,0.0286589916795492,-0.0535549707710743,-0.5,-0.081028126180172,-0.0293118078261614
58,-0.108486264944077,-0.0112329171970487,-0.0636879950761795,-0.5,-0.0821449607610703,-0.0702954083681107
59,-0.0826156511902809,-0.0577184036374092,-0.0526621341705322,-0.5,-0.0585303939878941,-0.0758824944496155
60,-0.0318423621356487,-0.0744263529777527,-0.0227792654186487,-0.5,-0.0134775042533875,-0.0494970604777336
61,0.0081489365547895,-0.0641692653298378,-0.0010895710438489,-0.5,0.0243240725249052,-0.0225569829344749
62,0.01659831777215,-0.0528632886707783,-3.43661049555521e-05,-0.5,0.0333468653261662,-0.0188481826335192
63,0.0105424299836159,-0.0505515895783901,-0.0055916081182658,-0.5,0.0212414860725403,-0.0286531466990709
64,0.0081661697477102,-0.0470925681293011,-0.0042593469843268,-0.5,0.0025932430289685,-0.029805401340127
65,0.0104762958362699,-0.0288048218935728,0.0084647387266159,-0.5,-0.0132422978058457,-0.0156313888728619
66,0.0147652048617601,0.007717119064182,0.0310859121382236,-0.5,-0.0188436955213547,0.0075551527552306
67,0.0204420145601034,0.052611343562603,0.052851140499115,-0.5,-0.0096652572974562,0.0321863926947117
68,0.0329209454357624,0.0906998813152313,0.0632451474666595,-0.5,0.0155022507533431,0.0584628321230412
69,0.0588052608072758,0.111049003899097,0.063688188791275,-0.5,0.0509830825030804,0.0891242176294327
70,0.0882174074649811,0.107715904712677,0.0563366301357746,-0.325832933187485,0.0788268446922302,0.109148509800434
71,0.102183699607849,0.0853190869092941,0.0359114371240139,0.5,0.0805138573050499,0.097518727183342
72,0.098090186715126,0.0605336390435696,0.0040418049320578,0.5,0.0558712258934975,0.0676593035459518
73,0.0895686149597168,0.0505787134170532,-0.0217691585421562,0.5,0.0232954155653715,0.0539391301572323
74,0.0849051922559738,0.0622949227690697,-0.0231008362025023,0.5,0.0043634595349431,0.0605570822954178
75,0.0780104920268059,0.0861740037798882,-0.0015567378140986,0.5,0.0114596169441938,0.0696604177355766
76,0.06716388463974,0.111145317554474,0.0281602125614882,0.5,0.0413761399686337,0.0802111998200417
77,0.0621588416397572,0.134420275688171,0.0524546131491661,0.5,0.0733436420559883,0.0963531136512756
78,0.0649546384811401,0.143110886216164,0.0600091479718685,0.5,0.0909698531031609,0.104181744158268
79,0.063766747713089,0.115706317126751,0.0491286925971508,0.5,0.092888742685318,0.0817030593752861
80,0.0458744652569294,0.0497556254267693,0.0267460476607084,0.5,0.0770162492990494,0.0237876661121845
81,0.0175344794988632,-0.0302490722388029,-0.00104113179259,0.5,0.0445183478295803,-0.0431671738624573
82,-0.0010301371803507,-0.093364343047142,-0.0261780377477407,0.5,0.0041804788634181,-0.0901526585221291
83,-0.0108810365200043,-0.125152602791786,-0.0403413027524948,0.5,-0.0378892980515957,-0.114655926823616
84,-0.0246658809483051,-0.127183154225349,-0.0414418019354343,0.5,-0.0739553272724152,-0.118207931518555
85,-0.0346392169594765,-0.100745305418968,-0.0264198407530785,0.5,-0.0818573981523514,-0.0910596325993538
86,-0.0318874716758728,-0.0504368431866169,0.0067521128803491,0.5,-0.0484484434127808,-0.0393349900841713
87,-0.0258043203502893,0.002569789532572,0.0433207713067532,0.5,-0.0016562882810831,0.0096750622615218
88,-0.0262250006198883,0.0325609482824802,0.0542152859270573,0.5,0.0174041092395782,0.0358318798243999
89,-0.0253852847963572,0.0264058951288462,0.022633483633399,0.5,0.0039218231104314,0.0357522331178188
90,-0.0069184796884656,-0.0059263361617922,-0.0296656358987093,0.5,-0.0098482789471745,0.0243141427636147
91,0.0260881371796131,-0.02851203083992,-0.064036525785923,0.5,-0.0055913282558322,0.02657769061625
92,0.0518985949456692,-0.0165156349539757,-0.0676606222987175,0.5,0.0006835381500422,0.0465317107737064
93,0.0563772358000278,0.0119458325207233,-0.0463392287492752,0.5,0.0056972941383719,0.0632299259305
94,0.0394754111766815,0.0262275785207748,-0.0087431101128459,0.5,0.0241354219615459,0.0621507354080677
95,0.017573269084096,0.0247423183172941,0.0330079607665539,0.5,0.0485921762883663,0.0512064509093761
96,0.0136414775624871,0.0276258159428835,0.0737708881497383,0.5,0.0623867250978947,0.0468808971345425
97,0.0296466555446386,0.0389403030276299,0.107861891388893,0.5,0.0637680441141129,0.0525232776999474
98,0.0516401678323746,0.0489346720278263,0.122789338231087,0.5,0.0611871965229511,0.0592161007225513
99,0.0673537850379944,0.0580896958708763,0.11539950221777,0.5,0.0598870366811752,0.0630930662155151
100,0.0692267715930939,0.0618106499314308,0.089081384241581,0.5,0.0513618439435959,0.0643532946705818
101,0.0630964785814285,0.0499484874308109,0.050263300538063,0.5,0.0325085185468197,0.0578525699675083
102,0.0593666918575764,0.0306611061096191,0.0156789887696505,0.5,0.0134451240301132,0.0421791896224022
103,0.0592752993106842,0.0228658355772495,-0.0008933536591939,0.5,-0.0021099690347909,0.0242309644818306
104,0.0637818947434425,0.0322875119745731,-0.0001915027678478,0.5,-0.0109010795131326,0.0116989025846124
105,0.0728713124990463,0.043808039277792,0.0089904377236962,0.5,-0.0042578689754009,0.0110058058053255
106,0.0854421630501747,0.0498748049139977,0.0180935468524694,0.5,0.0206381529569626,0.0222065784037113
107,0.101588703691959,0.0531888902187347,0.0187282208353281,0.5,0.0583073981106281,0.0324215106666088
108,0.10630875825882,0.0297322459518909,-0.002944242209196,0.5,0.0891906097531319,0.0186942294239998
109,0.0860487744212151,-0.0373420007526875,-0.0492921806871891,0.5,0.0881055518984795,-0.0278866998851299
110,0.0556327477097511,-0.112092763185501,-0.0962707549333572,0.5,0.0499483235180378,-0.0847471281886101
111,0.0292735397815704,-0.145422980189323,-0.115623004734516,0.5,-0.0095237074419856,-0.120310738682747
112,0.0061351149342954,-0.119081437587738,-0.0947273746132851,0.5,-0.0619813725352287,-0.116331189870834
113,-0.0085651036351919,-0.0497327223420143,-0.0396253652870655,0.5,-0.0758709833025932,-0.0714279487729073
114,-0.0079728243872523,0.0267043579369783,0.0285534914582968,0.5,-0.0432383865118027,-0.0021916110999882
115,0.0017103884601965,0.0810098424553871,0.0878195315599442,0.5,0.0090747708454728,0.0719422474503517
116,0.0056341532617807,0.103898525238037,0.123519472777843,0.5,0.0461313091218472,0.136444613337517
117,-0.0029925836715847,0.101674064993858,0.128876194357872,0.5,0.0571438409388065,0.171100810170174
118,-0.0158709976822138,0.0867490246891975,0.110246315598488,0.5,0.054428718984127,0.163295164704323
119,-0.0233638416975737,0.0653085336089134,0.0826360732316971,0.5,0.0472723282873631,0.12050137668848
120,-0.0279375426471233,0.0355149693787098,0.0576792806386948,0.5,0.0357823446393013,0.0600352585315704
121,-0.0341400802135468,0.0049010636284947,0.0401107966899872,0.5,0.0238398145884275,0.006041323300451
122,-0.0387581139802933,-0.0115765416994691,0.0237178727984428,0.5,0.0123211983591318,-0.0173812843859196
123,-0.0331661701202393,-0.011169046163559,-0.0013270998606458,0.5,-0.0013811081880703,-0.0014874399639666
124,-0.012203055433929,-0.0049291020259261,-0.0330189764499664,0.5,-0.0106514701619744,0.0305462814867496
125,0.0129975061863661,-0.0102757504209876,-0.0642789155244827,0.5,-0.011983796954155,0.0331244617700577
126,0.0307737123221159,-0.0322618670761585,-0.0871380642056465,0.5,-0.0083755236119031,-0.000160499184858
127,0.0382274352014065,-0.0569455251097679,-0.096307635307312,0.5,-0.0043347296305,-0.032631803303957
128,0.0298271086066961,-0.0687218084931374,-0.0935805588960648,-0.5,-0.0060832658782601,-0.0494123324751854
129,0.0127793615683913,-0.0558466427028179,-0.0736632272601128,-0.5,-0.0058609889820218,-0.0542158782482147
130,0.0034675169736146,-0.024894792586565,-0.0370288640260696,-0.5,0.0015854147495701,-0.0457074791193008
131,0.00456512439996,0.0030254630837589,0.0026806625537574,-0.5,0.0077403089962899,-0.0262541174888611
132,0.011590220965445,0.0272260084748268,0.0403813757002354,-0.5,0.016606954857707,0.0057467478327453
133,0.0161671973764896,0.0495260953903198,0.068710133433342,-0.5,0.0287673510611057,0.0435104891657829
134,0.0118533233180642,0.058407224714756,0.0755113139748573,-0.5,0.0309295989573002,0.0667079463601112
135,0.0051371059380471,0.054458349943161,0.0669478625059128,-0.5,0.0223959386348724,0.0703717023134232
136,0.0043639526702463,0.0429771207273006,0.0557507760822773,-0.5,0.011570880189538,0.0612643696367741
137,0.0178402233868837,0.0244624856859446,0.0423825420439243,-0.5,0.010254854336381,0.0433495901525021
138,0.0437627136707306,-0.0001942407252499,0.0233648009598255,-0.5,0.0321092084050179,0.019010242074728
139,0.0589394569396973,-0.0223019458353519,0.0027134108822792,-0.5,0.0683307573199272,-0.009910381399095
140,0.0486360229551792,-0.0259787105023861,-0.0148219633847475,-0.5,0.0848684385418892,-0.0399309545755386
141,0.0165790598839521,-0.0175490509718657,-0.0384575128555298,-0.5,0.0487242341041565,-0.070720486342907
142,-0.0287291761487722,-0.0219696834683418,-0.0729426816105843,-0.5,-0.0368730798363686,-0.096303291618824
143,-0.069279246032238,-0.0380448363721371,-0.097861610352993,-0.5,-0.120855137705803,-0.0908427983522415
144,-0.0859874337911606,-0.0330776311457157,-0.0952137559652328,-0.5,-0.148929342627525,-0.0354579910635948
145,-0.0736577585339546,0.0089916633442044,-0.0682927146553993,-0.5,-0.107778631150723,0.0488100536167622
146,-0.0407132171094418,0.0621048659086227,-0.028157863765955,-0.5,-0.0296130049973726,0.116659633815289
147,-0.0069477949291467,0.0900252014398575,0.0140285473316908,-0.5,0.0370026044547558,0.137049973011017
148,0.0134064350277185,0.0841336995363235,0.0534882396459579,-0.5,0.0716148614883423,0.114587642252445
149,0.0265466757118702,0.0617527738213539,0.0923450067639351,-0.5,0.0887248441576958,0.0795833468437195
150,0.041714258491993,0.0376465395092964,0.126965537667274,-0.5,0.10433978587389,0.0512118861079216
151,0.0566525720059872,0.0186075959354639,0.147060260176659,-0.5,0.114652574062347,0.028062840923667
152,0.0628795549273491,0.0081926910206675,0.143516004085541,-0.5,0.107093431055546,0.0052978103049099
153,0.0553483441472054,0.0016958297928795,0.111666172742844,-0.5,0.0788471251726151,-0.0196494553238153
154,0.0408150032162666,-0.0054435268975794,0.0585667975246906,-0.5,0.0395180806517601,-0.0411950498819351
155,0.0301875974982977,-0.0124029899016023,0.0050234962254762,-0.5,-0.0007096116314642,-0.0511253997683525
156,0.0322485528886318,-0.0120192114263773,-0.0270373784005642,-0.5,-0.0288073047995567,-0.0430158339440823
157,0.0542633011937141,0.0048438524827361,-0.0311638750135899,-0.5,-0.0274978540837765,-0.0106747942045331
158,0.083853617310524,0.0274348109960556,-0.0254764221608639,-0.5,-0.0060952394269406,0.0275489129126072
159,0.0920872688293457,0.0332357212901115,-0.0333997011184692,-0.5,0.0039957109838724,0.0276769008487463
160,0.0715076103806496,0.0199020523577929,-0.055027037858963,-0.5,-0.0072513385675847,-0.0274176504462957
161,0.042253103107214,0.0068716462701559,-0.0720149874687195,-0.5,-0.0296850968152285,-0.0928615108132362
162,0.0195262674242258,0.0168730616569519,-0.0715567916631699,-0.5,-0.0546980649232864,-0.104852363467216
163,0.0003337128437124,0.051579374819994,-0.057380348443985,-0.5,-0.0737262368202209,-0.0492848828434944
164,-0.017415614798665,0.0846878737211227,-0.0331995151937008,-0.5,-0.0754887983202934,0.0432327724993229
165,-0.0285255964845419,0.0924293547868729,0.0053524305112659,-0.5,-0.0575338453054428,0.130445674061775
166,-0.0348617695271969,0.0761645436286926,0.0514927096664906,-0.5,-0.029829254373908,0.174862504005432
167,-0.040459405630827,0.0490737147629261,0.0851528942584991,-0.5,-0.0027752707246691,0.172954648733139
168,-0.0353506729006767,0.0238697342574596,0.0938525497913361,-0.5,0.0222624409943819,0.147913247346878
169,-0.0103833982720971,0.0091780023649334,0.082477867603302,0.219752088189125,0.0477221459150314,0.108430124819279
170,0.0184767805039883,-0.0034198020584881,0.0552107356488705,0.5,0.0608258880674839,0.0484997555613518
171,0.0302081629633904,-0.0254353415220976,0.0106240510940552,0.5,0.0437696650624275,-0.0214720666408539
172,0.0230743698775768,-0.0459657236933708,-0.0399938710033894,0.5,0.0042687617242336,-0.0729875862598419
173,0.0058332909829914,-0.0490134097635746,-0.0782817080616951,0.5,-0.0368835106492043,-0.0885092169046402
174,-0.0133040407672524,-0.0385039858520031,-0.0951384454965591,0.5,-0.0724510699510574,-0.0815319195389748
175,-0.0301233027130365,-0.0278782173991203,-0.088934525847435,0.5,-0.100263707339764,-0.0773376077413559
176,-0.0345373265445232,-0.0178396012634039,-0.0559343732893467,0.5,-0.105283670127392,-0.0720087885856628
177,-0.0140134375542402,-0.0016697971150279,0.0034855930134654,0.5,-0.0714821293950081,-0.0431433506309986
178,0.0247369315475225,0.0178490411490202,0.0674060359597206,0.5,-0.0058354632928967,0.0041043604724109
179,0.0628324300050735,0.0291620939970016,0.104049772024155,0.5,0.0645895823836327,0.0397403761744499
180,0.0835820063948631,0.0192655436694622,0.0971058830618858,0.5,0.104360319674015,0.0410428866744041
181,0.0778463557362556,-0.0040719606913626,0.0583034344017506,0.5,0.0961731746792793,0.0166210494935513
182,0.057000819593668,-0.0037583003286272,0.0198643803596497,0.5,0.0624878518283367,0.0004930355935357
183,0.0401724390685558,0.0347730480134487,-0.0071594147011637,0.5,0.0300438646227121,0.005942974705249
184,0.0313217006623745,0.0722467005252838,-0.0371529832482338,0.5,0.0038675002288073,0.0184606034308672
185,0.024808133020997,0.0706611350178719,-0.0638086497783661,0.5,-0.017995024099946,0.0327972397208214
186,0.0144117325544357,0.0408343002200127,-0.0619118623435497,0.5,-0.0348271355032921,0.0529444850981236
187,-0.003009591018781,0.00913698785007,-0.029442785307765,0.5,-0.0455529987812042,0.067036546766758
188,-0.0205992516130209,-0.0162469036877155,0.0119748553261161,0.5,-0.0435543768107891,0.0609615556895733
189,-0.0233644712716341,-0.0292863640934229,0.0509769506752491,0.110432840883732,-0.0148988869041204,0.0471859723329544
190,-0.0089989248663187,-0.0225577130913734,0.0877851322293282,-0.5,0.0334442369639874,0.0444094203412533
191,-0.0027320524677634,-0.0077664698474109,0.108674049377441,-0.5,0.0637445822358131,0.0459046922624111
192,-0.0274272616952658,-0.007126941345632,0.0901916772127151,-0.5,0.0495265536010265,0.0298876632004976
193,-0.064421758055687,-0.0226210653781891,0.035514809191227,-0.5,0.0074294423684477,-0.0087793227285146
194,-0.0832998529076576,-0.0400623269379139,-0.0254316329956055,-0.5,-0.0353671014308929,-0.053931999951601
195,-0.0882120057940483,-0.0557762198150158,-0.0779670551419258,-0.5,-0.0780690610408783,-0.0935283154249191
196,-0.0907162725925446,-0.0676804557442665,-0.117335759103298,-0.5,-0.118196122348309,-0.118539370596409
197,-0.0856928527355194,-0.0702631548047066,-0.126377210021019,-0.5,-0.131473168730736,-0.116350628435612
198,-0.0684441402554512,-0.0673292800784111,-0.0905294716358185,-0.5,-0.0999191999435425,-0.083211362361908
199,-0.0415837168693542,-0.0525653176009655,-0.0094029549509286,-0.5,-0.0278254970908165,-0.020617863163352
200,-0.0201036594808102,-0.020481713116169,0.0905450582504272,-0.5,0.0567735508084297,0.0595424957573414
201,-0.0153107885271311,0.0105731198564172,0.165543332695961,-0.5,0.121257036924362,0.133615866303444
202,-0.0228001978248358,0.0202343538403511,0.184970751404762,-0.5,0.148200213909149,0.176734417676926
203,-0.0394594743847847,0.0056884260848164,0.146024793386459,-0.5,0.132629305124283,0.171095535159111
204,-0.0585291348397732,-0.0173934306949377,0.0786367356777191,-0.5,0.0890759006142616,0.127934828400612
205,-0.0648036599159241,-0.033922728151083,0.018393499776721,-0.5,0.0418764464557171,0.0772970095276833
206,-0.051015380769968,-0.0396052189171314,-0.0185637585818768,-0.5,0.0072622499428689,0.0351478196680546
207,-0.0276529975235462,-0.0337454080581665,-0.0296227186918259,-0.5,-0.0056618792004883,0.006519513670355
208,-0.0165539979934692,-0.0216980464756489,-0.0271017886698246,-0.5,0.0020385312382131,-0.0097261192277073
209,-0.0275839436799288,-0.0097601022571325,-0.0288496799767017,-0.5,0.0147546511143446,-0.0269256737083197
210,-0.0421045236289501,0.0014668442308902,-0.0343517288565636,-0.5,0.0143071319907904,-0.0503561906516552
211,-0.0348475314676762,0.0136877782642841,-0.0293250400573015,-0.5,0.005966851953417,-0.0625404566526413
212,-0.0051643541082739,0.0294557344168425,-0.0065757068805396,-0.5,0.0118976412340999,-0.045645710080862
213,0.0238455906510353,0.0387744456529617,0.0210411511361599,-0.5,0.0270576123148203,-0.0163721106946468
214,0.0353703945875168,0.0279190614819527,0.0325465835630894,-0.5,0.0270335040986538,-0.0069751972332596
215,0.0373125970363617,0.0089139183983206,0.0251787211745977,-0.5,0.0140501083806157,-0.0156904701143503
216,0.0408424027264118,-0.0033302409574389,0.0085728196427226,-0.5,0.003248160937801,-0.0251724887639284
217,0.047498282045126,-0.0148793710395694,-0.0116481287404895,-0.5,-0.005078547168523,-0.0332150496542454
218,0.0604897700250149,-0.0250649880617857,-0.0271285269409418,-0.5,-0.0049866237677633,-0.0352722145617008
219,0.0772989243268967,-0.0161412451416254,-0.0302765760570765,-0.5,0.0148370079696178,-0.0213739201426506
220,0.0797710418701172,0.0103839505463839,-0.0324839651584625,-0.5,0.0386064611375332,0.0037179486826062
221,0.0562659353017807,0.0298685356974602,-0.053251501172781,-0.5,0.0375280752778053,0.0270285811275244
222,0.0188393201678991,0.0375771708786488,-0.0915947183966637,-0.5,0.0084163276478648,0.035040657967329
223,-0.01547628082335,0.0401868224143982,-0.119351029396057,-0.5,-0.0280347820371389,0.0137753169983625
224,-0.0390325449407101,0.0309117566794157,-0.106088146567345,-0.5,-0.050996970385313,-0.029651639983058
225,-0.0498775690793991,0.0101645635440946,-0.0538706667721272,-0.5,-0.0530301406979561,-0.0660432279109955
226,-0.0451679676771164,-0.0042235567234456,0.0100097134709358,-0.5,-0.0376607850193977,-0.0712706223130226
227,-0.023086354136467,0.0034007132053375,0.0644953101873398,-0.5,-0.010751124471426,-0.0429827272891998
228,0.006188163999468,0.0262720342725515,0.0993580296635628,-0.5,0.019588777795434,0.0011191893136128
229,0.0311388373374939,0.0420019812881947,0.110159128904343,-0.5,0.0462098978459835,0.0374932177364826
230,0.0498961433768272,0.0318640246987343,0.0930431112647057,-0.5,0.067211277782917,0.0507445335388184
231,0.0661712884902954,-0.003219291800633,0.0467577129602432,-0.5,0.0824157297611237,0.0398727022111416
232,0.0892781019210815,-0.0353879146277905,-0.0084588816389441,0.5,0.0934619531035423,0.0214237775653601
233,0.115859687328339,-0.0364395976066589,-0.0417062304913998,0.5,0.0975955575704575,0.0127510577440262
234,0.127929493784904,-0.0050111780874431,-0.0445168800652027,0.5,0.0843722820281982,0.0137774730101228
235,0.120461151003838,0.0440108217298985,-0.0271208360791206,0.5,0.0533288605511189,0.0231781154870987
236,0.10200771689415,0.0959867388010025,0.0012304292758926,0.5,0.0215933080762625,0.0431636907160282
237,0.0830437317490578,0.135460719466209,0.0334203466773033,0.5,0.0092930002138018,0.0659989342093468
238,0.0690843835473061,0.144504442811012,0.0589479431509972,0.5,0.0223843120038509,0.0800727009773254
239,0.0588161908090115,0.117154836654663,0.0657745823264122,0.5,0.0441981106996536,0.0810536593198776
240,0.0508780367672443,0.0717934742569923,0.0429625511169434,0.5,0.0494528152048588,0.0733782947063446
241,0.0400038287043571,0.0323728732764721,-0.0090991705656051,0.5,0.0283929444849491,0.0585364289581776
242,0.0194533858448267,0.0012351173209026,-0.0701699405908585,0.5,-0.0130636803805828,0.0255691669881344
243,-0.0067595695145428,-0.0260158609598875,-0.117049813270569,0.5,-0.0612352937459946,-0.031138626858592
244,-0.030925527215004,-0.0404872447252274,-0.135121405124664,0.5,-0.0943869352340698,-0.0915785804390907
245,-0.0512966327369213,-0.0402556024491787,-0.117000386118889,0.5,-0.0938177853822708,-0.125948846340179
246,-0.064462885260582,-0.0340230539441109,-0.0668033435940742,0.5,-0.0614714361727238,-0.122336380183697
247,-0.0626399368047714,-0.0284327305853367,-0.0050568766891956,0.5,-0.0201353915035725,-0.0906444117426872
248,-0.0430570654571056,-0.0240756943821907,0.0435119569301605,0.5,0.0123478919267654,-0.0493197627365589
249,-0.0130697591230273,-0.0172556061297655,0.0669818297028542,0.5,0.03477868065238,-0.0161978751420975
250,0.0122862569987774,-0.0159253403544426,0.0631840154528618,0.5,0.0487048141658306,-0.0062906136736273
251,0.0236090179532766,-0.0285276900976896,0.0387410596013069,0.5,0.0573636144399643,-0.0210711807012558
252,0.0229840464890003,-0.0436207614839077,0.0098598394542932,0.5,0.063297875225544,-0.0448838025331497
253,0.012294820509851,-0.0437346883118153,-0.0117122577503324,0.5,0.0631049126386642,-0.0564645491540432
254,-0.0075601716525852,-0.0188224650919437,-0.0252553801983595,0.5,0.0535996332764626,-0.0416014492511749
255,-0.0362491197884083,0.0246575139462948,-0.0370159819722176,0.5,0.0248766131699085,-0.0112668415531516
256,-0.0701619610190392,0.0576181150972843,-0.0506168827414513,0.5,-0.0265150479972363,0.0132185164839029
257,-0.0887294933199883,0.060589499771595,-0.0519307777285576,0.5,-0.0700117275118828,0.0404948145151138
258,-0.0768470168113709,0.0475313328206539,-0.0269539467990398,0.5,-0.0753851309418678,0.0768382251262665
259,-0.0450980439782143,0.0391189306974411,0.012594161555171,0.5,-0.0501753985881805,0.0941585972905159
260,-0.0050548487342894,0.0394551642239094,0.0458288975059986,0.5,-0.0140267256647348,0.0852536931633949
261,0.0371570251882076,0.0413490012288094,0.0605296269059181,0.5,0.0237381812185049,0.0709390640258789
262,0.0705499649047852,0.0367300435900688,0.0537533648312092,0.5,0.0579963065683842,0.0507845021784306
263,0.0847821235656738,0.0197622515261173,0.0321806557476521,0.5,0.0832026079297066,0.0131118530407548
264,0.0768258422613144,-0.0094588370993733,0.005489925853908,0.5,0.0959010869264603,-0.0331308022141457
265,0.0541478581726551,-0.0387254357337952,-0.0168427769094706,0.5,0.0955846235156059,-0.0670724958181381
266,0.0209612436592579,-0.0509102083742619,-0.0293272901326418,0.5,0.0755534470081329,-0.0849695429205894
267,-0.026479197666049,-0.0409131236374378,-0.0382149033248425,0.5,0.0291119907051325,-0.0952679365873337
268,-0.0781040340662003,-0.0202645007520914,-0.0524624958634377,0.5,-0.031629603356123,-0.099358007311821
269,-0.116757579147816,-0.0143400337547064,-0.077832892537117,0.5,-0.0883636996150017,-0.10583933442831
270,-0.135860309004784,-0.0374312251806259,-0.10859028249979,0.5,-0.127466961741447,-0.11900869011879
271,-0.126718670129776,-0.0633362531661987,-0.119406297802925,0.5,-0.126765817403793,-0.117712832987309
272,-0.0877419486641884,-0.064327746629715,-0.0992207378149033,0.5,-0.0815239101648331,-0.0935307294130325
273,-0.0458604618906975,-0.0488410107791424,-0.0686624646186829,0.5,-0.0270466562360525,-0.0639306455850601
274,-0.0288554206490517,-0.0289998203516006,-0.0466900020837784,0.5,0.0063963755965232,-0.0365293547511101
275,-0.034213162958622,-0.000107275605842,-0.0379715003073215,0.5,0.0187879092991352,-0.0080221444368362
276,-0.0391410253942013,0.043028648942709,-0.0376469194889069,0.5,0.0188447181135416,0.0258218478411436
277,-0.0287727955728769,0.088730588555336,-0.0308248102664948,0.5,0.0144165186211467,0.0661767050623894
278,-0.0069145634770393,0.111177369952202,-0.0061472514644265,0.5,0.0188935343176126,0.0959375575184822
279,0.0203034933656454,0.0934119522571564,0.028768552467227,0.5,0.0440583564341068,0.0904903560876846
280,0.0461338721215725,0.0370770171284676,0.0435907952487469,0.5,0.0699136704206467,0.0444717146456242
281,0.0586038045585155,-0.030108442530036,0.0233188364654779,0.5,0.0633810684084892,-0.009476494975388
282,0.0544369928538799,-0.0621259026229382,0.0007590824388898,0.5,0.0339700318872929,-0.0263719111680985
283,0.0372313447296619,-0.047632597386837,0.0060452641919255,0.5,0.0155560439452529,-0.0094336662441492
284,0.0147575456649065,-0.020313136279583,0.0282464474439621,0.5,0.0198567379266024,0.0077492925338447
285,0.0014152377843856,-0.0041767838411033,0.0484810583293438,0.5,0.0381561405956745,0.0168341509997845
286,-0.0011669857194647,0.0058873393572866,0.0591756515204906,0.5,0.057050745934248,0.0215936675667763
287,-0.0025494743604213,0.0213429387658834,0.0556950084865093,0.5,0.0637416020035744,0.0163712222129107
288,-0.0045130858197808,0.0417153127491474,0.0353268496692181,0.5,0.0465188175439835,-0.0012338763335719
289,-0.0016300192801281,0.058832086622715,0.000691061723046,0.5,0.0065516619943082,-0.023865569382906
290,0.0086009930819273,0.0697333738207817,-0.0359732955694199,0.5,-0.034877959638834,-0.0450044050812721
291,0.0111722182482481,0.0655909702181816,-0.0636954382061958,0.5,-0.0647705867886543,-0.0698619186878204
292,-0.0106215234845877,0.0355925634503365,-0.0847334787249565,0.5,-0.0905833914875984,-0.0918551832437515
293,-0.0402025245130062,-0.0008010928286239,-0.0924166440963745,0.5,-0.104043267667294,-0.0743108615279198
294,-0.0501837767660618,-0.0106106121093035,-0.0692675784230232,0.5,-0.0840348601341248,-0.0092818178236484
295,-0.0449067242443562,0.002058319048956,-0.0260689444839954,0.5,-0.0443999655544758,0.0522353053092957
296,-0.0429003871977329,0.0113291395828128,0.0058559607714414,0.5,-0.0163695681840181,0.0678616240620613
297,-0.0441276207566261,0.0107630603015423,0.0154596362262964,0.5,0.0035655100364238,0.0403900071978569
298,-0.031738143414259,0.0052344407886266,0.0175709035247564,0.5,0.0396896004676819,-0.006569133605808
299,0.0008490814943797,-0.005591251887381,0.030406890437007,0.5,0.0901825726032257,-0.0492281019687653
300,0.0301903486251831,-0.0264490433037281,0.0476243533194065,0.5,0.123132288455963,-0.0794909745454788
301,0.0383711233735085,-0.0546437241137028,0.0490244254469872,0.5,0.114912860095501,-0.100455105304718
302,0.0341834351420403,-0.0778006464242935,0.0334903076291084,0.5,0.0734462216496468,-0.105368614196777
303,0.0225746426731348,-0.0911750793457031,0.0078793186694383,0.5,0.0172919929027557,-0.08320152759552
304,0.0059121171943843,-0.0893674865365028,-0.0275176279246807,0.5,-0.0418519414961338,-0.0367381386458874
305,-0.0113942818716168,-0.0609416142106056,-0.0668836683034897,0.5,-0.0922549888491631,0.0176236480474472
306,-0.0306831914931536,-0.0145253445953131,-0.0980972349643707,0.5,-0.123273938894272,0.0624080076813698
307,-0.0474681109189987,0.0314398780465126,-0.106526002287865,0.5,-0.127488911151886,0.0855592861771584
308,-0.0580191724002361,0.0665208175778389,-0.0848439931869507,0.5,-0.106105789542198,0.0794330686330795
309,-0.0598472356796265,0.0841087400913239,-0.0439432039856911,0.5,-0.0679524317383766,0.050412904471159
310,-0.0427623353898525,0.0858447030186653,-0.0008964491426013,0.5,-0.0193548649549484,0.0172078311443329
311,-0.0107626188546419,0.0761806145310402,0.0288294423371553,0.5,0.024753212928772,-0.0099572651088237
312,0.0169516950845718,0.0579085983335972,0.0330790393054485,0.5,0.0411543697118759,-0.0306272022426128
313,0.0302499961107969,0.0330761298537254,0.0145269120112062,0.5,0.0241264812648296,-0.0466453172266483
314,0.0293388608843088,0.0047749183140695,-0.0092255724593997,0.5,-0.0029796231538057,-0.0528144203126431
315,0.0164618901908398,-0.0162181854248047,-0.0193597823381424,0.5,-0.0086106890812516,-0.0358482226729393
316,-0.0046302415430545,-0.023633835837245,-0.008241482079029,0.5,0.0114882504567504,-0.0035882145166397
317,-0.0264243874698877,-0.0269020851701498,0.0140646789222956,0.5,0.031637080013752,0.0149695733562112
318,-0.0397189371287823,-0.0319114774465561,0.0275095850229263,0.5,0.0339840166270733,0.0090069882571697
319,-0.0409595556557179,-0.0373228341341019,0.0192495696246624,0.5,0.0248390417546034,-0.0127209378406405
320,-0.037718016654253,-0.0498741716146469,-0.0109091345220804,0.5,0.0097759272903204,-0.0437621772289276
321,-0.0420582853257656,-0.0703374594449997,-0.0518087111413479,0.5,-0.0171949472278357,-0.074324443936348
322,-0.0571819767355919,-0.0829253271222115,-0.0867880657315254,0.5,-0.0539981797337532,-0.0900606513023376
323,-0.0691046938300133,-0.0736738070845604,-0.104322165250778,0.5,-0.0801463201642036,-0.0796785429120064
324,-0.0627993568778038,-0.0422127991914749,-0.10155026614666,0.5,-0.0780139192938805,-0.0410286374390125
325,-0.0497729368507862,-0.0047157597728073,-0.0833299607038498,0.5,-0.0527709051966667,0.002015262376517
326,-0.0488297566771507,0.0091881789267063,-0.0620056428015232,0.5,-0.0240104682743549,0.0153074394911528
327,-0.0616703480482101,-0.0175631232559681,-0.0515308976173401,-0.5,-0.0105490116402507,-0.0042461683042347
328,-0.0878485217690468,-0.0670395866036415,-0.053456224501133,-0.5,-0.0182384252548218,-0.0352182015776634
329,-0.125267922878265,-0.0988064184784889,-0.0586911104619503,-0.5,-0.0381060279905796,-0.062449149787426
330,-0.158657506108284,-0.0845129191875458,-0.0600710399448872,-0.5,-0.0581402517855167,-0.0777111575007439
331,-0.162994757294655,-0.0300229173153639,-0.0452484376728535,-0.5,-0.0652927830815315,-0.0714742392301559
332,-0.1222263276577,0.0344379134476185,-0.0013716606190428,-0.5,-0.0471987351775169,-0.036042395979166
333,-0.0518720000982285,0.0766534209251404,0.0561994053423405,-0.5,-0.009473206475377,0.0161983966827393
334,0.0182935632765293,0.0844555348157883,0.0964329242706299,-0.5,0.0346749052405357,0.0567764565348625
335,0.0738236010074615,0.0724046900868416,0.106207720935345,0.5,0.080503910779953,0.0743682906031609
336,0.106923572719097,0.0591797940433025,0.0904389470815659,0.5,0.113399289548397,0.0770307406783104
337,0.110056303441525,0.0502824075520039,0.0611295439302921,0.5,0.111125327646732,0.0740575343370438
338,0.0859936997294426,0.042834933847189,0.0274232160300016,0.5,0.0724451243877411,0.0730760097503662
339,0.0532992146909237,0.0291580744087696,-0.0086643835529685,0.5,0.0242828223854303,0.0714446976780891
340,0.033968061208725,0.0040466524660587,-0.0446938052773476,0.5,-0.006887889932841,0.0520372055470943
341,0.0241017565131187,-0.0261762179434299,-0.0751250609755516,-0.5,-0.0254766307771206,0.0100628044456244
342,0.0030921571888029,-0.052773728966713,-0.0961230620741844,-0.5,-0.0477659553289413,-0.0357606075704098
343,-0.0272947959601879,-0.0734181329607964,-0.105996832251549,-0.5,-0.0676768198609352,-0.0668499022722244
344,-0.0467997752130032,-0.0896725803613663,-0.106314234435558,-0.5,-0.0701883882284164,-0.0835688784718513
345,-0.0551505014300346,-0.101393699645996,-0.0973336920142174,-0.5,-0.0571112520992756,-0.0977560356259346
346,-0.0781339928507805,-0.11244947463274,-0.0784812942147255,-0.5,-0.0457664206624031,-0.120360150933266
347,-0.123349115252495,-0.125472471117973,-0.0563734993338585,-0.5,-0.0498016364872456,-0.148323193192482
348,-0.159678161144257,-0.119037702679634,-0.0330814346671104,-0.5,-0.0587133169174194,-0.147326216101646
349,-0.159022092819214,-0.0727347359061241,-0.0056392778642475,-0.5,-0.0550810173153877,-0.0886600837111473
350,-0.128660902380943,-0.0024375331122428,0.0218372214585543,-0.5,-0.0419568680226803,0.0001812384143704
351,-0.0895221382379532,0.0619511306285858,0.0471484586596489,-0.5,-0.0241340026259422,0.0740262717008591
352,-0.0508158765733242,0.102338165044785,0.0724864155054092,-0.5,0.0043004234321415,0.116972304880619
353,-0.0123653803020716,0.114082328975201,0.0958919823169708,-0.5,0.0405066199600697,0.130333483219147
354,0.0270195379853249,0.110124260187149,0.1117123067379,-0.5,0.0729498639702797,0.126776039600372
355,0.0549553036689758,0.102729789912701,0.10817164182663,-0.5,0.086261048913002,0.113278195261955
356,0.0582716763019562,0.0905675739049912,0.0811639651656151,-0.5,0.0706288143992424,0.0846020206809044
357,0.0510572344064713,0.0823276564478874,0.0502485893666744,-0.5,0.0428063794970512,0.0511863455176353
358,0.0494894944131374,0.0826373174786568,0.0285041071474552,-0.5,0.0250290986150503,0.0242356229573488
359,0.0518954768776894,0.0700761899352074,0.0066176834516227,-0.5,0.0123234242200851,7.40176838007756e-05
360,0.0538570657372475,0.0312972255051136,-0.0211770832538605,-0.5,-0.0146640529856086,-0.0217850264161825
361,0.0508087836205959,-0.0163239967077971,-0.0457253828644753,-0.5,-0.0552223734557629,-0.0376662462949753
362,0.0439054854214191,-0.0477020554244518,-0.0518057458102703,-0.5,-0.0831209644675255,-0.0392187498509884
363,0.0430538505315781,-0.0518995746970177,-0.030867075547576,-0.5,-0.0737763270735741,-0.0174325574189425
364,0.0493377111852169,-0.0349534414708614,0.0073422128334641,-0.5,-0.0289807990193367,0.0146216126158834
365,0.0475997440516949,-0.0149100804701447,0.0393544174730778,-0.5,0.0195600483566523,0.0264222640544176
366,0.0204399339854717,-0.0044199451804161,0.0456375628709793,-0.5,0.0338985845446587,0.0055565652437508
367,-0.0322749689221382,-0.0015888779889792,0.0199176445603371,-0.5,0.004422313068062,-0.0293166693300009
368,-0.0821147486567497,-0.0059916339814662,-0.0187987182289362,-0.5,-0.0390536934137344,-0.0497636459767818
369,-0.0982620492577553,-0.0186953544616699,-0.0359900966286659,-0.5,-0.0637344196438789,-0.0382210277020931
370,-0.0859646797180176,-0.0327734127640724,-0.0247975047677755,-0.5,-0.0718623921275139,-0.0028157494962215
371,-0.0668435841798782,-0.0358645729720593,-0.0009468058124184,-0.5,-0.0728347674012184,0.0358341298997402
372,-0.0515937246382236,-0.0200746487826109,0.0263179503381252,-0.5,-0.0594938024878502,0.0693675130605698
373,-0.0438782423734665,0.0044466559775173,0.0485186129808426,-0.5,-0.0308607313781977,0.0905881449580193
374,-0.0358814336359501,0.0184052549302578,0.0601189360022545,-0.5,0.0060447198338806,0.0901275798678398
375,-0.018316175788641,0.0120698418468237,0.063114270567894,-0.5,0.0429554246366024,0.0669411420822144
376,0.0085859643295407,-0.0048803840763866,0.0625243559479713,-0.5,0.0688894093036652,0.0310032367706299
377,0.0433426201343536,-0.0142558077350259,0.0559681728482246,-0.5,0.0723345130681992,-0.0043505933135747
378,0.0735389292240143,-0.015111300162971,0.0281813759356737,-0.5,0.0441902689635754,-0.0386911556124687
379,0.0765231922268867,-0.0163609124720097,-0.0198246743530035,-0.5,-0.007309986744076,-0.0736694186925888
380,0.0470566339790821,-0.0173719227313995,-0.060652207583189,-0.5,-0.0553854927420616,-0.101928398013115
381,0.0047065140679478,-0.0152174243703485,-0.0722550377249718,-0.5,-0.0817228332161903,-0.115196384489536
382,-0.0209100656211376,-0.0062522375956177,-0.0514863431453705,-0.5,-0.0824836269021034,-0.0969282910227776
383,-0.020593885332346,0.0096141900867223,-0.0158715695142746,-0.5,-0.0626573488116264,-0.041694987565279
384,-0.0098562594503164,0.0214211661368608,0.0090628415346145,-0.5,-0.0371965393424034,0.0224047210067511
385,0.003179423045367,0.0301654543727636,0.022046035155654,-0.5,-0.0142888892441988,0.0731714591383934
386,0.0129492403939366,0.0487551353871822,0.0351597517728806,-0.5,0.0046343826688826,0.10500879585743
387,0.0061771911568939,0.0641035661101341,0.044311098754406,-0.5,0.0103282248601317,0.101585783064365
388,-0.0140409087762237,0.0471883751451969,0.0438998676836491,-0.5,-0.000395072158426,0.0656431093811989
389,-0.0289772022515535,0.0034382082521915,0.0418606624007225,-0.5,-0.0117681939154863,0.0384578406810761
390,-0.0320418626070023,-0.0342097952961922,0.0410253703594208,-0.5,-0.0099234674125909,0.0383136905729771
391,-0.0323167555034161,-0.0529513731598854,0.0345419943332672,-0.5,-0.0002494653163012,0.0370905064046383
392,-0.0393258258700371,-0.0623109713196754,0.0181809887290001,-0.5,0.0015058666467666,0.0172477532178164
393,-0.0502125434577465,-0.0624474324285984,-0.0036607531365007,-0.5,-0.0135445576161146,-0.0082651432603597
394,-0.0537943094968796,-0.0466787442564964,-0.0152167035266757,-0.5,-0.0357738845050335,-0.0289255175739527
395,-0.0501268208026886,-0.0233280044049025,-0.0106967566534877,-0.5,-0.0532166920602322,-0.0485912598669529
396,-0.0475620552897453,-0.0078358286991715,-0.0070316214114427,-0.5,-0.0645056143403053,-0.0644359067082405
397,-0.0474257990717888,-0.0065748156048357,-0.0150121366605163,-0.5,-0.0659795254468918,-0.07005774974823
398,-0.0416740477085114,-0.0134421782568097,-0.0203585289418697,-0.5,-0.0480043813586235,-0.0717078521847725
399,-0.0203918628394604,-0.0241903495043516,-0.0096351131796836,-0.5,-0.0056907916441559,-0.0758511424064636
400,0.0148345390334725,-0.0444377288222313,0.0022624612320214,-0.5,0.0425217524170876,-0.0848907083272934
401,0.0518330596387386,-0.0674561038613319,0.001724560977891,-0.5,0.06414495408535,-0.0944096297025681
402,0.0747559294104576,-0.0768887624144554,-0.0037736701779067,-0.5,0.0462566204369068,-0.0927774086594582
403,0.0764064192771912,-0.0655917301774025,-0.0087931137531995,-0.5,0.0075728483498096,-0.0728787258267403
404,0.0723947063088417,-0.0307201314717531,-0.0053944899700582,-0.5,-0.0159630235284567,-0.0285277292132378
405,0.0783973783254623,0.021715309470892,0.0140630146488547,0.5,-0.0087898913770914,0.0357499234378338
406,0.0887507945299149,0.0786548033356667,0.0385765582323074,0.5,0.0150733189657331,0.0944285318255425
407,0.0912728756666183,0.118775390088558,0.0476048700511456,0.5,0.0326746813952923,0.116848759353161
408,0.0738665908575058,0.11147790402174,0.0253455173224211,0.5,0.0164172872900963,0.090168870985508
409,0.0336980484426022,0.0606832094490528,-0.0184428654611111,0.5,-0.0303613487631083,0.041281521320343
410,-0.0078400764614343,0.0118309054523706,-0.0483034178614616,0.413751929998398,-0.0583905726671219,0.0096516190096736
411,-0.0300475396215916,-0.0055664116516709,-0.0449865646660328,-0.5,-0.0432681478559971,0.0019054996082559
412,-0.0383964069187641,-0.0066935252398252,-0.0233559384942055,-0.5,-0.0136088272556663,0.0026089698076248
413,-0.0410474985837936,-0.0258480403572321,-0.0064944420009851,-0.5,0.0042703575454652,-0.0050656166858971
414,-0.0280245821923018,-0.0735980570316315,-0.0028899896424263,-0.5,0.0145204216241837,-0.0317829549312592
415,-0.0092150866985321,-0.125674441456795,-0.013225163333118,-0.5,0.0149717889726162,-0.0775236934423447
416,-0.0199454352259636,-0.152114659547806,-0.0408649742603302,-0.5,-0.0156701169908047,-0.134582564234734
417,-0.0572544559836388,-0.139515161514282,-0.0747326985001564,-0.5,-0.071930006146431,-0.175411224365234
418,-0.0802411437034607,-0.0905744731426239,-0.0800512954592705,-0.5,-0.110985033214092,-0.160677596926689
419,-0.0738221406936646,-0.0253328550606966,-0.041099414229393,-0.5,-0.105649150907993,-0.090330459177494
420,-0.0566561743617058,0.0258944164961576,0.0128640225157142,-0.5,-0.0726726427674294,-0.0051584467291832
421,-0.0380291491746902,0.0554225221276283,0.0533688999712467,-0.5,-0.0311993453651667,0.0660863518714905
422,-0.0136732570827007,0.0728569254279137,0.0765624493360519,-0.5,0.0154263135045767,0.112727366387844
423,0.0139168137684464,0.0722676143050194,0.0813217312097549,-0.5,0.0491327978670597,0.128950476646423
424,0.0385798960924149,0.0515016578137875,0.0675771832466125,-0.5,0.0508523024618626,0.122708894312382
425,0.0532313510775566,0.0224906038492918,0.0387340076267719,-0.5,0.0330073162913322,0.110420502722263
426,0.0525616556406021,-0.0075902841053903,-0.0031751412898302,-0.5,0.0188283007591963,0.0941585227847099
427,0.0334816947579384,-0.0317617692053318,-0.0526144094765186,-0.5,0.0026341204065829,0.0542134493589401
428,-0.0006651742733083,-0.0405118651688099,-0.0926875919103622,-0.5,-0.0330306142568588,-0.0096287578344345
429,-0.0239900872111321,-0.0309156216681004,-0.0965309292078018,0.340586483478546,-0.069790743291378,-0.057495404034853
430,-0.0120897106826305,-0.0087962448596954,-0.0504968278110027,0.5,-0.0724548697471619,-0.060533195734024
431,0.0264745932072401,0.0161205120384693,0.0279828831553459,0.5,-0.0369910374283791,-0.0279495287686586
432,0.0649159103631973,0.0314659141004086,0.102901950478554,0.5,0.0114058442413807,0.0155892139300704
433,0.0780002400279045,0.0228143502026796,0.138648748397827,0.5,0.0450177676975727,0.0396320261061192
434,0.0660786479711533,-0.0052948766387999,0.124237939715385,0.5,0.0640497878193855,0.0267197974026203
435,0.05296765640378,-0.0246384628117085,0.0795252695679665,0.5,0.0873840674757957,-0.0093381535261869
436,0.0423079654574394,-0.0217113979160786,0.0231307744979858,0.5,0.100147157907486,-0.0491628795862198
437,0.0178038738667965,-0.0153723824769259,-0.0375677198171616,0.5,0.0677935555577278,-0.0791319534182549
438,-0.0210220795124769,-0.0206831842660904,-0.0861618742346764,0.5,-0.0030160991009324,-0.0798401162028313
439,-0.0551276579499245,-0.0305501073598862,-0.103988192975521,0.5,-0.0731341987848282,-0.0556275360286236
440,-0.0732440948486328,-0.0452473647892475,-0.0944952741265297,0.428697288036346,-0.119830846786499,-0.0447861775755882
441,-0.0820116102695465,-0.0701893195509911,-0.0741869509220123,0.289776891469955,-0.141819715499878,-0.0600971952080727
442,-0.0851053670048714,-0.090587705373764,-0.0492585003376007,0.5,-0.140529036521912,-0.0679950714111328
443,-0.0737187936902046,-0.083458736538887,-0.0196506883949041,0.5,-0.117483668029308,-0.0374422371387482
444,-0.0448927730321884,-0.0476320646703243,0.0062725329771637,0.5,-0.075853168964386,0.0207359883934259
445,-0.0119431549683213,-0.0071195508353412,0.0190189313143492,0.5,-0.0245842561125755,0.0688177943229675
446,0.0140980361029506,0.0172466598451138,0.0227744057774544,0.5,0.0208488833159208,0.0851281359791756
447,0.0343483984470367,0.0239766594022512,0.0279166884720325,0.5,0.0490008108317852,0.0698329135775566
448,0.0532844662666321,0.0269864723086357,0.0405596829950809,0.5,0.0597107112407684,0.0369845703244209
449,0.0740329399704933,0.0425075702369213,0.0633403286337852,0.5,0.0645617544651031,0.0170330852270126
450,0.0917045846581459,0.0644522979855537,0.0886217951774597,0.5,0.0697653293609619,0.0232707988470793
451,0.100864127278328,0.0708034709095955,0.0989434421062469,0.5,0.0669855698943138,0.0358565710484982
452,0.10809126496315,0.0647309795022011,0.0915254652500153,0.5,0.060135118663311,0.042936272919178
453,0.115887880325317,0.0708371326327324,0.083344042301178,0.5,0.0712236762046814,0.0535344295203686
454,0.111235916614532,0.092787891626358,0.0754589140415192,0.5,0.0989146679639816,0.0616607256233692
455,0.0852459222078323,0.110983341932297,0.0423659831285477,0.5,0.103859446942806,0.0430340468883514
456,0.0493364110589027,0.111133195459843,-0.02167091332376,0.5,0.0589000396430492,-0.0021160235628485
457,0.0129882898181677,0.0826704129576683,-0.0924531519412994,0.5,-0.0238642804324627,-0.056957520544529
458,-0.0358067378401756,0.0115622086450458,-0.153263613581657,0.5,-0.116984345018864,-0.121353566646576
459,-0.0953880399465561,-0.0848609358072281,-0.183836281299591,0.5,-0.184160128235817,-0.174062311649323
460,-0.137698635458946,-0.153710722923279,-0.156905755400658,0.5,-0.19463087618351,-0.162438526749611
461,-0.148374944925308,-0.162066265940666,-0.0759364664554596,0.5,-0.149364218115807,-0.0749361962080002
462,-0.132857635617256,-0.118187226355076,0.0234419833868742,-0.434636265039444,-0.0750991553068161,0.036499347537756
463,-0.101872578263283,-0.048384889960289,0.100459441542625,-0.5,-0.0075858966447413,0.114185385406017
464,-0.0730259642004967,0.0119020668789744,0.134954839944839,-0.5,0.026564434170723,0.137197330594063
465,-0.062391921877861,0.0349111184477806,0.13273198902607,-0.5,0.025023739784956,0.11914150416851
466,-0.0671766623854637,0.0308926478028297,0.109984464943409,-0.5,0.0075469748117029,0.083893358707428
467,-0.0670710504055023,0.0286524035036564,0.0848836079239845,-0.5,0.0019126769620925,0.0464287325739861
468,-0.0469701327383518,0.0378124825656414,0.0678494721651077,-0.5,0.0218857936561108,0.0160589497536421
469,-0.011893829330802,0.052233699709177,0.0514553375542164,-0.266534239053726,0.0514355190098286,-0.0036760393995791
470,0.0220248159021139,0.0594435036182404,0.0264316815882921,0.5,0.0632807984948158,-0.018070911988616
471,0.0428349934518337,0.0512936636805534,-0.0002094962401315,0.5,0.0533868856728077,-0.0301241874694824
472,0.0490665957331657,0.0387630425393581,-0.0191012732684612,0.5,0.0358078181743622,-0.035236831754446
473,0.04953882843256,0.0339481718838215,-0.0321863368153572,0.5,0.012752722017467,-0.028710812330246
474,0.0493839830160141,0.0303938668221235,-0.0426161848008633,0.5,-0.0161776710301638,-0.0165229346603155
475,0.043749812990427,0.0177891720086336,-0.052248764783144,0.5,-0.0362653322517872,-0.0194472782313824
476,0.0364784672856331,0.0011188654461875,-0.0595878846943378,0.5,-0.0384403355419636,-0.0436268225312233
477,0.0357332862913609,-0.0095593361184001,-0.0549316965043545,0.5,-0.0292113516479731,-0.0637601241469383
478,0.0380035080015659,-0.0224757120013237,-0.0360942296683788,0.5,-0.0137292742729187,-0.0608269013464451
479,0.0374611429870129,-0.0477566383779049,-0.0145226260647178,0.5,0.0048662321642041,-0.0407253950834274
480,0.0277571864426136,-0.0705716535449028,0.0020529432222247,0.5,0.0201127603650093,-0.0142575548961759
481,0.0021006104070693,-0.0712726190686226,0.0175663661211729,0.5,0.0285749863833189,0.0157223083078861
482,-0.0362951867282391,-0.0531983785331249,0.0338008813560009,0.5,0.0257302988320589,0.0510436408221722
483,-0.0774381384253502,-0.0254721976816654,0.0436487533152103,0.5,0.0066804145462811,0.090733140707016
484,-0.110330604016781,0.0152918063104153,0.0371163077652454,0.5,-0.0228080973029137,0.119168296456337
485,-0.124338679015636,0.0586845837533474,0.0082641700282692,0.5,-0.0459080711007118,0.106793358922005
486,-0.118571095168591,0.0749151483178139,-0.0347604304552078,0.5,-0.047276396304369,0.0451355651021004
487,-0.0981469824910164,0.0547117702662945,-0.0697951018810272,0.5,-0.0278508774936199,-0.0349005870521069
488,-0.0645336210727692,0.0164621863514185,-0.0764303430914879,0.5,0.0020452358294278,-0.0980693772435188
489,-0.0278431698679924,-0.0262267552316189,-0.0568159781396389,0.5,0.0306951701641083,-0.135935887694359
490,-0.0040639801882207,-0.0664996057748795,-0.0329242274165154,0.5,0.0396428965032101,-0.154933422803879
491,0.0082626333460211,-0.0927700772881508,-0.0238507594913244,-0.0702591314911842,0.0149184977635741,-0.158314809203148
492,0.0249350275844336,-0.0943041667342186,-0.0322871915996075,-0.5,-0.0313454568386078,-0.142393082380295
493,0.0516303665935993,-0.0629158839583397,-0.0422890670597553,0.284804910421371,-0.0620287470519543,-0.0988860875368118
494,0.0749779939651489,-0.0125665161758661,-0.0384202599525452,0.5,-0.0546117462217808,-0.0351018011569977
495,0.0772251039743423,0.0252805985510349,-0.021621173247695,0.5,-0.0270905550569296,0.0217082016170025
496,0.0597687661647797,0.0491202399134636,0.0075304820202291,0.5,-5.54132238903549e-05,0.0612681172788143
497,0.0435399524867535,0.0728259012103081,0.0497894696891308,0.5,0.0284995120018721,0.0920018628239632
498,0.0443386286497116,0.0954906046390533,0.0953624248504639,0.5,0.0626832991838455,0.118553921580315
499,0.0579918026924133,0.108104772865772,0.125541061162949,0.5,0.0948883444070816,0.145609602332115
500,0.0626946017146111,0.0923632830381393,0.112351730465889,0.5,0.0989735201001167,0.157102644443512
501,0.0459278896450996,0.0526612550020218,0.0536333620548248,0.5,0.0581703670322895,0.122091092169285
502,0.0176867749541998,0.0137494774535298,-0.01061150431633,0.5,-0.0040647541172802,0.0412711575627327
503,-0.0156236421316862,-0.0220948047935963,-0.0493434481322765,0.5,-0.0539011918008327,-0.0574164874851704
504,-0.053521953523159,-0.0503519959747791,-0.065367229282856,0.5,-0.0804320722818375,-0.143851816654205
505,-0.0897151380777359,-0.062345702201128,-0.0783000290393829,0.5,-0.0969776511192322,-0.196457654237747
506,-0.113480769097805,-0.0655091479420662,-0.0929658338427544,0.5,-0.107663974165916,-0.207366228103638
507,-0.106486305594444,-0.0517665185034275,-0.0918752774596214,0.5,-0.0910047218203545,-0.182346925139427
508,-0.0683249235153198,-0.0193612463772297,-0.0731116533279419,0.5,-0.0500510260462761,-0.141548335552216
509,-0.0335868634283543,0.0032381545752286,-0.0572011284530163,0.5,-0.0248992424458265,-0.10311858355999
510,-0.0194788333028555,0.0098209148272872,-0.0533099137246609,0.5,-0.0324104167521,-0.0650362297892571
511,-0.0042024012655019,0.0128416139632463,-0.0484487563371658,0.5,-0.0448982603847981,-0.0183407440781593
512,0.0233205370604992,0.0106572061777115,-0.0297303944826126,0.5,-0.0349273644387722,0.0306093152612448
513,0.0460400022566319,0.0024370613973587,-0.0073644248768687,0.5,-0.0138250710442662,0.0590973421931267
514,0.046230286359787,-0.0074001583270728,-0.003643351374194,0.5,-0.0123439887538552,0.0462044849991798
515,0.0295503754168749,-0.0123074287548661,-0.0153098786249757,0.5,-0.0293358024209738,-0.0007270111236721
516,0.0221821423619986,-0.0036719790659844,-0.0163527876138687,0.5,-0.0340046286582947,-0.042326558381319
517,0.0336189940571785,0.0136467777192593,-0.0032504429109394,0.5,-0.0231577455997467,-0.0527480915188789
518,0.0439927130937576,0.0252245720475912,0.0014624802861362,0.5,-0.0245048142969608,-0.0414998605847359
519,0.0385686904191971,0.0305678639560938,-0.0150366388261318,0.5,-0.0450255461037159,-0.029466649517417
520,0.0184590425342321,0.031350165605545,-0.0488103590905666,0.444546103477478,-0.0738629549741745,-0.042942862957716
521,-0.0103324055671692,0.0240083336830139,-0.0902579426765442,-0.5,-0.109026029706001,-0.0885521024465561
522,-0.0393892601132393,0.0168801583349705,-0.124808147549629,-0.5,-0.141511753201485,-0.132801309227943
523,-0.0649334192276001,0.0188117064535618,-0.141423255205154,-0.5,-0.153805121779442,-0.1450235247612
524,-0.0886983275413513,0.0208794362843037,-0.149715706706047,-0.5,-0.151409730315208,-0.138693913817406
525,-0.112473838031292,0.0086625618860125,-0.168118581175804,-0.5,-0.159213587641716,-0.149716749787331
526,-0.130055323243141,-0.0193935334682465,-0.192196056246758,0.5,-0.184258624911308,-0.184547290205956
527,-0.129098862409592,-0.0483256503939629,-0.198817148804665,0.5,-0.209620490670204,-0.211761027574539
528,-0.107297949492931,-0.0503030940890312,-0.181848540902138,0.5,-0.220091819763184,-0.199780330061913
529,-0.0727903842926025,-0.0162150748074055,-0.161999627947807,0.5,-0.216062158346176,-0.154638096690178
530,-0.0378343649208546,0.0163230355829,-0.159228026866913,0.5,-0.204268276691437,-0.117467865347862
531,-0.0159613788127899,0.0079189771786332,-0.172999560832977,0.5,-0.191961377859116,-0.117642268538475
532,-0.0095799071714282,-0.0272601321339607,-0.186599746346474,0.5,-0.180415660142899,-0.140495613217354
533,-0.0086244065314531,-0.0450854822993279,-0.182665273547173,0.5,-0.161708638072014,-0.15010093152523
534,-0.0061608618125319,-0.0270610023289919,-0.160347774624825,0.5,-0.137275531888008,-0.130235701799393
535,-0.0053175827488303,0.0042884098365902,-0.143483757972717,0.5,-0.129113659262657,-0.10337833315134
536,-0.0100167263299227,0.0190510731190443,-0.158626154065132,0.5,-0.154264122247696,-0.103366389870644
537,-0.0136244669556618,0.0152421677485108,-0.19924733042717,0.5,-0.193694293498993,-0.131861045956612
538,-0.0067732883617281,0.0077039287425577,-0.233001545071602,0.5,-0.216824144124985,-0.165104821324348
539,0.0055317678488791,0.0057393857277929,-0.241244167089462,0.5,-0.217530533671379,-0.178947657346725
540,0.0158041324466467,0.0143580352887511,-0.229671806097031,0.5,-0.201410889625549,-0.165594771504402
541,0.0301673281937838,0.0338346138596535,-0.209318712353706,0.5,-0.172225400805473,-0.139768466353416
542,0.0492412149906158,0.0609302781522274,-0.18917390704155,0.5,-0.135175451636314,-0.118671208620071
543,0.0602407455444336,0.0942019522190094,-0.173216372728348,0.5,-0.0982631891965866,-0.10804595053196
544,0.0539728440344334,0.118267305195332,-0.162056788802147,-0.412051409482956,-0.0791637748479843,-0.108199000358582
545,0.025243042036891,0.106716878712177,-0.164168640971184,-0.5,-0.0979392901062965,-0.12424723803997
546,-0.0236147660762072,0.060001328587532,-0.180749341845512,-0.5,-0.148159712553024,-0.154115870594978
547,-0.0733752325177193,0.0089570004492998,-0.196560189127922,-0.5,-0.196915924549103,-0.17787216603756
548,-0.0990381166338921,-0.0176558997482061,-0.198391914367676,-0.5,-0.214837580919266,-0.176645129919052
549,-0.0931431129574776,-0.0201799683272839,-0.185908332467079,-0.5,-0.199691489338875,-0.156148806214333
550,-0.0781273171305656,-0.0249581802636385,-0.169571235775948,-0.5,-0.173460826277733,-0.145267486572266
551,-0.0735265910625458,-0.0315573513507843,-0.150737389922142,-0.5,-0.142654165625572,-0.144564002752304
552,-0.0697635784745216,-0.0133252516388893,-0.122555941343308,-0.5,-0.0949504822492599,-0.121980898082256
553,-0.0591096803545952,0.0108782704919577,-0.099252313375473,-0.5,-0.0428936965763569,-0.0863721594214439
554,-0.0501954331994057,-0.0006771526532247,-0.0955138877034187,-0.5,-0.0164850279688835,-0.0775027126073837
555,-0.0469362176954746,-0.0411479622125626,-0.094033420085907,-0.5,-0.0234827231615782,-0.103523336350918
556,-0.0438011735677719,-0.0707927644252777,-0.0810453593730927,-0.5,-0.0448464043438435,-0.139507547020912
557,-0.0379271432757378,-0.0667843297123909,-0.0685380846261978,-0.5,-0.0554519817233086,-0.145912185311317
558,-0.0292782597243786,-0.036902166903019,-0.0646459609270096,-0.5,-0.0481815785169601,-0.109824575483799
559,-0.0151333902031183,0.0094733238220214,-0.0624208450317383,-0.5,-0.0357698574662209,-0.0607562549412251
560,0.0026159726548939,0.0662960335612297,-0.0550561770796776,-0.5,-0.0293455775827169,-0.0186379421502352
561,0.0220465641468763,0.113443024456501,-0.0418894849717617,-0.5,-0.0214694812893867,0.0228883177042007
562,0.0488278158009052,0.131058886647224,-0.0257557034492493,-0.5,0.0020707813091576,0.0591655075550079
563,0.0819902569055557,0.10907044261694,-0.0112675232812762,-0.5,0.0385098531842232,0.0692117661237717
564,0.110756270587444,0.0603187493979931,0.0045151626691222,-0.5,0.076775498688221,0.0555066205561161
565,0.118559785187244,0.0210364423692226,0.0216138828545809,-0.5,0.10146202892065,0.043565858155489
566,0.0816549882292748,0.0112867364659905,0.0214291512966156,-0.5,0.0876807868480682,0.0336746200919151
567,0.0008627111092209,0.0104257855564356,-0.0023283283226192,-0.5,0.0371658578515053,0.0050983210094273
568,-0.0770760998129845,-0.0116514880210161,-0.0190181713551283,-0.5,-0.0054495390504598,-0.0302104242146015
569,-0.111329443752766,-0.0505551509559155,-0.0037270016036927,-0.5,-0.0059415833093226,-0.0422477796673775
570,-0.107438214123249,-0.0793612971901894,0.0253594871610403,-0.5,0.0185984838753939,-0.032984796911478
571,-0.0902447402477264,-0.0810685977339745,0.0432575941085815,-0.5,0.0361606068909168,-0.0087856641039252
572,-0.0788417682051659,-0.0605163276195526,0.0467965938150883,-0.5,0.0381366722285748,0.0368890985846519
573,-0.0782368630170822,-0.0379700511693954,0.0369199439883232,-0.5,0.0305415522307158,0.083905853331089
574,-0.0768504217267036,-0.0279471818357706,0.0232077781111002,-0.5,0.0263746231794357,0.096299484372139
575,-0.0640197023749352,-0.0307107418775558,0.0250597037374973,-0.5,0.0384618416428566,0.0679513290524483
576,-0.0354923829436302,-0.0361880622804165,0.0471497438848019,-0.5,0.0755297318100929,0.0269316304475069
577,0.0065408027730882,-0.0353317484259605,0.073700487613678,-0.5,0.130927577614784,0.0005939400289207
578,0.0463806986808777,-0.0267192330211401,0.086188055574894,-0.5,0.169686809182167,-0.0024272121954709
579,0.0712365061044693,-0.0032770030666142,0.0838396102190018,-0.5,0.168545290827751,0.0230373609811068
580,0.0846319049596787,0.0412617027759552,0.0797007828950882,-0.5,0.145509034395218,0.0762242078781128
581,0.0952119901776314,0.0940202549099922,0.0816585645079613,-0.5,0.127079263329506,0.140999674797058
582,0.108411692082882,0.14453649520874,0.0846574380993843,-0.5,0.119727775454521,0.20023837685585
583,0.117316983640194,0.196507915854454,0.0802614763379097,-0.5,0.11913001537323,0.236191153526306
584,0.108067400753498,0.231223747134209,0.0733812376856804,-0.5,0.123110748827457,0.222568958997726
585,0.0849547162652016,0.211444199085236,0.0746633186936378,-0.5,0.123671807348728,0.154559075832367
586,0.0612637028098106,0.138431772589684,0.0823584869503975,-0.5,0.110185369849205,0.0754515528678894
587,0.0404875874519348,0.054630558937788,0.087449312210083,-0.5,0.0896994695067406,0.0377842523157597
588,0.0225066561251879,-0.0049731507897377,0.0875965729355812,-0.5,0.077071525156498,0.0502016507089138
589,0.0050288471393287,-0.0342028550803661,0.0841516703367233,-0.5,0.0720154494047165,0.0823289379477501
590,-0.0134317325428128,-0.0433694273233414,0.0749720633029938,-0.5,0.0688595473766327,0.102604575455189
591,-0.0230084490031004,-0.0404775254428387,0.0636325627565384,-0.5,0.0728981420397758,0.0999026596546173
592,-0.0150948269292712,-0.0295557156205177,0.061714231967926,-0.5,0.0936724320054054,0.0831096693873405
593,0.0051654619164764,-0.0171599425375462,0.0735870599746704,-0.5,0.128587901592255,0.0713582262396812
594,0.0246247332543135,-0.0113982474431396,0.0870693325996399,-0.5,0.152430787682533,0.0686763897538185
595,0.0229803044348955,-0.0156297776848078,0.0879707485437393,-0.5,0.138131991028786,0.0613134689629078
596,-0.0014891541795805,-0.0227220691740513,0.0813123807311058,-0.5,0.0973451733589172,0.0504460521042347
597,-0.0205570198595524,-0.0259492658078671,0.0818144008517265,-0.5,0.0698418393731117,0.0465903989970684
598,-0.0157388839870691,-0.0233946181833744,0.0937018021941185,-0.5,0.0737685710191727,0.0528929904103279
599,0.0086530176922678,-0.007033472880721,0.114595256745815,-0.5,0.0997609868645668,0.0757494196295738
600,0.0411895513534546,0.0279804114252329,0.141747653484344,-0.5,0.133912369608879,0.116907857358456
601,0.072388269007206,0.0746121779084206,0.17436283826828,-0.5,0.166140958666801,0.16834719479084
602,0.0950519591569901,0.118694640696049,0.207034915685654,-0.5,0.188554510474205,0.216833710670471
603,0.0999236106872559,0.13618391752243,0.216933131217957,-0.5,0.190846771001816,0.236856684088707
604,0.0862758830189705,0.110919713973999,0.187244176864624,-0.5,0.168466806411743,0.210704132914543
605,0.0615103393793106,0.0601001307368279,0.12812976539135,-0.5,0.129155978560448,0.152692720293999
606,0.0334561355412006,0.0146798649802804,0.0650141984224319,-0.5,0.0909603610634804,0.0974142104387283
607,0.014274830929935,-0.0123615749180317,0.0235107038170099,-0.5,0.070589505136013,0.0710959658026695
608,0.0073418724350631,-0.0254609510302544,0.0127864200621843,-0.5,0.06711545586586,0.0795044377446175
609,0.0048945345915854,-0.02859160117805,0.0251783598214388,-0.5,0.0747486054897308,0.110013589262962
610,0.0012405667221173,-0.0205434840172529,0.0437062010169029,-0.5,0.0867791175842285,0.122858218848705
611,-0.008284879848361,-0.0049495208077132,0.0565634444355965,-0.5,0.0931475609540939,0.0903979539871216
612,-0.0220184810459614,0.0071264863945543,0.0675292685627937,-0.5,0.0922327116131783,0.0379483103752136
613,-0.0302783045917749,0.0008026665309444,0.0741099119186401,-0.5,0.0785752311348915,-0.0002154200628865
614,-0.0273795388638973,-0.023254593834281,0.0720365196466446,-0.5,0.0529092885553837,-0.010824085213244
615,-0.011941209435463,-0.0405572578310966,0.0714398473501205,-0.397485315799713,0.0404646173119545,0.0076759397052228
616,0.0112022813409567,-0.0326138101518154,0.0784812197089195,0.5,0.0558915622532368,0.0487283654510975
617,0.0306073985993862,-0.004107610322535,0.0937468558549881,0.5,0.0872505381703377,0.100832387804985
618,0.0401797816157341,0.0239941217005253,0.117085561156273,0.203591123223305,0.115680150687695,0.142577946186066
619,0.0367950573563576,0.0304295159876347,0.134804770350456,-0.5,0.120884113013744,0.149154722690582
620,0.0251989867538214,0.019154803827405,0.135185852646828,-0.5,0.100682497024536,0.120180808007717
621,0.025513855740428,0.0157593674957752,0.129521444439888,-0.5,0.0816783159971237,0.0843240842223167
622,0.0488402508199215,0.0349974557757378,0.13098107278347,-0.5,0.0842799097299576,0.0683314427733421
623,0.0845234915614128,0.0707336589694023,0.138589352369308,-0.5,0.105110056698322,0.0851398333907127
624,0.114406138658524,0.104929320514202,0.145524486899376,-0.5,0.130745425820351,0.13453297317028
625,0.121264360845089,0.120678998529911,0.13809509575367,-0.5,0.140615314245224,0.185943633317947
626,0.107392109930515,0.114909373223782,0.109052456915379,-0.5,0.124614633619785,0.199679717421532
627,0.0964451804757118,0.0955968275666237,0.0747541934251785,-0.5,0.105278633534908,0.172064036130905
628,0.0911703631281853,0.0707579553127289,0.0521633252501488,-0.5,0.103703029453754,0.12604184448719
629,0.0706115216016769,0.0423750765621662,0.0421541407704353,-0.5,0.107163079082966,0.0800348743796349
630,0.030379394069314,0.0102358525618911,0.0428578108549118,-0.5,0.0979057624936104,0.0409850776195526
631,-0.0106063652783632,-0.0171407349407673,0.0529622472822666,-0.5,0.0787958279252052,0.0096300384029746
632,-0.0381657630205154,-0.0324407331645489,0.0595042668282986,-0.5,0.0532664358615875,-0.0168995261192322
633,-0.0581811666488647,-0.0509199313819408,0.0433440804481506,-0.5,0.0153840389102697,-0.0446282438933849
634,-0.0734831392765045,-0.0819921791553497,0.0101755857467651,-0.5,-0.0238445308059454,-0.0683794543147087
635,-0.0748765915632248,-0.105490051209927,-0.0154883088544011,0.214347198605537,-0.0411022678017616,-0.0690435469150543
636,-0.0627534836530685,-0.105711244046688,-0.0250022895634174,0.5,-0.0321206711232662,-0.0387283228337765
637,-0.0437673926353455,-0.0843400061130524,-0.020500460639596,0.5,-0.0107824532315135,0.0078551787883043
638,-0.0163401514291763,-0.043485514819622,0.0030795477796345,0.5,0.0167914945632219,0.0536367259919643
639,0.0185416396707296,0.0074523682706058,0.0447447821497917,0.5,0.0539899915456772,0.0948874428868294
640,0.0527319945394993,0.0464217998087406,0.0832817181944847,0.5,0.0932919383049011,0.130199149250984
641,0.0807695165276527,0.0663374066352844,0.101112224161625,0.5,0.123260296881199,0.147415518760681
642,0.100637033581734,0.0757775455713272,0.103222198784351,0.5,0.140292167663574,0.134971559047699
643,0.113425344228745,0.071529895067215,0.0998550653457642,0.5,0.145025610923767,0.100733891129494
644,0.117922015488148,0.0518730245530605,0.0948089957237244,0.5,0.139646083116531,0.0630178824067116
645,0.109529376029968,0.0359201207756996,0.0910531580448151,0.5,0.123828083276749,0.0387362167239189
646,0.0862881764769554,0.0370213948190212,0.0872066244482994,0.5,0.0946261361241341,0.0361051894724369
647,0.0523068234324455,0.0448961816728115,0.0744446739554405,0.5,0.0563938766717911,0.0451977998018265
648,0.0209849737584591,0.0480565577745438,0.0597185641527176,0.242190569639206,0.0298351682722569,0.0605526193976402
649,0.0013004227075725,0.0410782136023045,0.0651639327406883,-0.5,0.0334828458726406,0.0839081779122353
650,-0.0132311405614018,0.0168762318789959,0.0825119391083717,-0.5,0.0523277968168259,0.0958718731999397
651,-0.0316259413957596,-0.017448116093874,0.0773185417056084,-0.5,0.0519442446529865,0.0745433494448662
652,-0.0537902042269707,-0.0379228256642818,0.0404171496629715,0.243051588535309,0.0198879670351744,0.0292491726577282
653,-0.0761572569608688,-0.0327919572591782,-0.0064351055771112,0.5,-0.028855187818408,-0.006447316147387
654,-0.0998702347278595,-0.0128492955118418,-0.040791604667902,0.5,-0.0738948732614517,-0.0155413271859288
655,-0.123451128602028,-0.0028393247630447,-0.0542624741792679,0.5,-0.102431230247021,-0.0177433900535107
656,-0.12840947508812,-0.0153977870941162,-0.0420076623558998,0.5,-0.100354619324207,-0.0255922134965658
657,-0.0959119126200676,-0.0308607444167137,6.43542734906077e-05,0.5,-0.0565325394272804,-0.0218098945915699
658,-0.0392620339989662,-0.0335363559424877,0.0611565373837948,0.5,0.0172321889549494,0.0032607614994049
659,0.0179310329258442,-0.0278408154845238,0.122037798166275,0.5,0.0983973890542984,0.0445770733058453
660,0.0673567578196526,-0.0186821203678846,0.161889657378197,0.0101023223251104,0.160745844244957,0.0854159295558929
661,0.0929627195000649,-0.0121715879067779,0.157603487372398,-0.5,0.172943666577339,0.0953174531459808
662,0.0789277926087379,-0.0073657664470374,0.103927709162235,-0.5,0.126843795180321,0.0687995180487633
663,0.0372166037559509,0.0026064137928187,0.0248813461512327,0.5,0.0474535599350929,0.0270655937492847
664,-0.0070077939890325,0.016361441463232,-0.0391011983156204,0.5,-0.0251529943197966,-0.0142024653032422
665,-0.031785424798727,0.0349116399884224,-0.0569600500166416,0.5,-0.0561158210039139,-0.0354752205312252
666,-0.0272086393088102,0.0563391931355,-0.0313234925270081,0.5,-0.0404113344848156,-0.0186358746141195
667,-0.0034229722805321,0.061330072581768,0.0058450698852539,0.5,-0.0083570322021842,0.0258832462131977
668,0.0290683787316084,0.0415007285773754,0.0278021097183228,0.5,0.0138616170734167,0.0696804523468018
669,0.0619440264999866,0.0140185756608844,0.0341049134731293,0.5,0.0269827023148537,0.08706084638834
670,0.0733318328857422,-0.0072646499611437,0.0327325090765953,0.5,0.0293912030756474,0.0723051875829697
671,0.0541411377489567,-0.0196947641670704,0.0292476732283831,0.5,0.0244102627038956,0.0502991937100887
672,0.0216024462133646,-0.0205206107348204,0.0279762502759695,0.5,0.031236419454217,0.038131806999445
673,-0.0091677363961935,-0.014610268175602,0.0251247137784958,0.5,0.044856283813715,0.0145391141995788
674,-0.0356590263545513,-0.0233204495161772,0.0151136377826333,0.5,0.037043210119009,-0.0405547842383385
675,-0.0579408667981625,-0.060284711420536,-0.0020570601336658,0.5,-0.000574470963329,-0.107084728777409
676,-0.0696264281868935,-0.0939417332410812,-0.0157625041902065,0.5,-0.0411728098988533,-0.139128237962723
677,-0.0672264099121094,-0.0760641917586327,-0.0111639034003019,0.5,-0.0591960996389389,-0.113136559724808
678,-0.0561800748109818,-0.0124058229848742,0.0119841303676367,0.5,-0.0572168119251728,-0.0454079359769821
679,-0.0326720960438252,0.0478785410523415,0.0443385429680347,0.5,-0.0384306907653809,0.0431605987250805
680,0.0096399635076522,0.0741552338004112,0.0724269598722458,0.5,-0.0053945980034768,0.12537544965744
681,0.0596523098647594,0.0673400461673737,0.080718070268631,0.5,0.0253172814846039,0.159570798277855
682,0.0966616198420525,0.0478408709168434,0.0673415660858154,0.5,0.0408984981477261,0.137413933873177
683,0.105177842080593,0.0316441170871258,0.038006916642189,0.5,0.0347311608493328,0.0874545127153397
684,0.0896690115332603,0.0187926217913628,0.0001730641524773,0.5,0.0071249613538384,0.0431652925908566
685,0.0721607133746147,0.0140775367617607,-0.024643188342452,0.5,-0.0216689631342888,0.0265504345297813
686,0.0602979585528374,0.0207623112946749,-0.0205506552010775,0.5,-0.0308019053190947,0.0254996474832296
687,0.0455740951001644,0.0317400470376015,-0.0011345323873683,0.5,-0.0180176012217999,0.0133382482454181
688,0.0276344213634729,0.0370088219642639,0.0115528656169772,0.5,0.008589319884777,-0.0134566128253937
689,0.0093318866565823,0.0258594155311584,0.0141763957217336,0.5,0.0368204154074192,-0.0425677597522736
690,-0.0070950798690319,-0.000689658569172,0.0134264566004276,0.5,0.0542909316718578,-0.065053254365921
691,-0.0168734900653362,-0.0324447825551033,0.0089335143566131,0.5,0.0530698858201504,-0.0798658058047295
692,-0.0254303943365812,-0.065619632601738,-0.0013749639037996,0.5,0.0301876105368137,-0.0932372733950615
693,-0.0408872663974762,-0.0963350161910057,-0.0144799835979939,0.5,-0.0092774573713541,-0.105861805379391
694,-0.0550463460385799,-0.116419866681099,-0.021850049495697,0.5,-0.0432823225855827,-0.104034386575222
695,-0.056267149746418,-0.117747135460377,-0.013596884906292,0.5,-0.0457906499505043,-0.076999269425869
696,-0.0453089103102684,-0.0930992811918259,0.00971663556993,0.5,-0.0190337430685759,-0.0316173955798149
697,-0.0360507629811764,-0.0522721894085407,0.0325711853802204,0.5,0.0083469292148947,0.011275552213192
698,-0.0408791601657867,-0.020900359377265,0.0371055006980896,0.5,0.0159583203494549,0.0316136330366135
699,-0.0483559034764767,-0.009019567631185,0.0226929951459169,0.5,0.0072217141278088,0.028257692232728
700,-0.0514246113598347,-0.0105317831039429,-0.0025113993324339,0.5,-0.0153770679607987,0.0177240278571844
701,-0.0632073432207108,-0.0191433914005756,-0.0328141860663891,0.5,-0.0536374822258949,0.0136676635593176
702,-0.0756736919283867,-0.0240085031837225,-0.048409141600132,0.5,-0.0855644270777702,0.0174630247056484
703,-0.0611688755452633,-0.0139481145888567,-0.0273556150496006,0.5,-0.0815767049789429,0.0295335669070482
704,-0.0112558081746101,0.0090102460235357,0.0193207953125238,0.5,-0.0441150963306427,0.0444587282836437
705,0.0491778291761875,0.026819035410881,0.053423747420311,0.5,-0.003801109502092,0.0417923405766487
706,0.0920681431889534,0.0279090069234371,0.053337287157774,0.5,0.025607243180275,0.0181497316807508
707,0.109333015978336,0.0235657561570406,0.030819371342659,0.5,0.0509625896811485,-0.0016532805748283
708,0.0906879529356956,0.0182911790907383,0.0049503315240144,0.5,0.0577344782650471,-0.0094071961939334
709,0.0361315608024597,0.0066031515598297,-0.0108897527679801,0.5,0.0283685643225908,-0.0192065387964249
710,-0.0240814834833145,-0.0002446710132062,-0.0087489401921629,0.5,-0.0164354648441076,-0.0290334783494473
711,-0.0644920244812965,0.0007389722741208,0.0062602264806628,0.5,-0.0431019179522991,-0.0274578370153904
712,-0.0853512808680534,-0.00971470028162,0.0210207030177116,0.5,-0.0449574738740921,-0.0188808925449848
713,-0.100852712988853,-0.0377749986946583,0.0249661561101675,0.5,-0.0420187190175056,-0.0142412660643458
714,-0.123177222907543,-0.0656100586056709,0.0145138567313552,0.5,-0.052410040050745,-0.0151955112814903
715,-0.149232506752014,-0.0771787613630295,-0.0015184504445642,-0.5,-0.060724750161171,-0.0171884763985872
716,-0.165861025452614,-0.0811809822916985,-0.0098766051232814,-0.5,-0.0338394567370415,-0.0235980283468962
717,-0.168259233236313,-0.100024379789829,-0.0129350116476417,-0.5,0.0150504959747195,-0.0488328337669373
718,-0.163970291614532,-0.132747426629066,-0.0196706298738718,-0.5,0.0316468365490437,-0.0859252065420151
719,-0.1550123244524,-0.149479866027832,-0.02670968323946,-0.5,-0.0015663357917219,-0.0940131768584251
720,-0.131222382187843,-0.124638222157955,-0.0303646046668291,-0.5,-0.0515196025371552,-0.0468396469950676
721,-0.0887483283877373,-0.0621687024831772,-0.0326589271426201,-0.5,-0.0825627148151398,0.0288328733295202
722,-0.0435185208916664,0.0025496629532426,-0.0385950542986393,-0.5,-0.0929440706968308,0.0743867009878159
723,-0.0112863909453154,0.042059849947691,-0.0479735545814037,-0.5,-0.0984637141227722,0.0623758509755135
724,0.013123613782227,0.0624017752707005,-0.043057307600975,0.5,-0.092402383685112,0.0215663723647594
725,0.0383802428841591,0.0686558037996292,-0.0154751464724541,0.5,-0.0639951303601265,-0.0095314076170325
726,0.0608596466481686,0.0609508454799652,0.0183428786695004,0.5,-0.0252429936081171,-0.0208066403865814
727,0.0751536414027214,0.0545119754970074,0.0472435429692268,0.5,0.0114456489682198,-0.0131014054641128
728,0.0812335461378098,0.0580771528184414,0.0660864114761353,0.5,0.0415616855025291,0.0106691978871822
729,0.0782442390918732,0.0543511547148228,0.0572487041354179,0.5,0.0573579780757427,0.0309006217867136
730,0.0582431592047215,0.020771024748683,0.0086177289485931,0.5,0.0461980402469635,0.0228802300989628
731,0.0186325144022703,-0.0339584201574326,-0.0574781373143196,0.5,0.0004890547133982,-0.013427596539259
732,-0.0242609474807978,-0.0732388943433762,-0.0901359766721725,0.5,-0.05743158608675,-0.044874157756567
733,-0.0580190122127533,-0.0800475999712944,-0.0672864615917206,0.5,-0.0912413895130157,-0.0503322221338749
734,-0.0829264596104622,-0.0713905021548271,-0.0159789267927408,0.5,-0.0860227271914482,-0.0403902977705002
735,-0.0926924124360085,-0.0619070716202259,0.0395055301487446,0.5,-0.0481329038739204,-0.0113647282123566
736,-0.0863686352968216,-0.0507679469883442,0.0807502791285515,0.5,-0.0048439037054777,0.0396778173744679
737,-0.0744515582919121,-0.0402852706611156,0.0752021595835686,0.5,0.0119825955480337,0.0696877092123032
738,-0.0628244504332542,-0.0313183851540089,0.0233280621469021,0.5,0.0022602039389312,0.051372904330492
739,-0.0529823750257492,-0.0191581603139639,-0.0299737323075533,0.5,-0.0149804428219795,0.0148176774382591
740,-0.0417051091790199,-0.0026092287153005,-0.0524090155959129,0.5,-0.0360415689647198,-0.0156901776790619
741,-0.0259962026029825,0.015966571867466,-0.043906707316637,0.5,-0.0592102780938149,-0.0414037629961967
742,-0.0061493054963648,0.025591554120183,-0.0214893445372581,0.5,-0.071324035525322,-0.0624538064002991
743,0.0197351761162281,0.0220116022974253,-0.0019147974671796,0.5,-0.0630797520279884,-0.0720476284623146
744,0.0427705086767673,0.0199333038181067,0.006212671753019,0.5,-0.0414112508296967,-0.0599296614527702
745,0.0473055206239223,0.0211969371885061,0.0015883719315752,0.5,-0.0245779380202293,-0.0243095830082893
746,0.0330922901630402,0.0132330562919378,-0.001876684022136,0.5,-0.0171292442828417,0.018472496420145
747,0.0139357317239046,0.0006339665269479,0.013735487125814,0.5,-0.0034817124251276,0.0478645674884319
748,0.0033950337674468,-0.0006905546179041,0.0505782030522823,0.5,0.0275613330304623,0.0616828352212906
749,0.0020737948361784,0.0103193707764149,0.0878593176603317,0.5,0.0604338496923447,0.0642786547541618
750,-0.0032117646187543,0.0074796467088162,0.0879095122218132,-0.410753279924393,0.0599022433161736,0.0434830188751221
751,-0.0206254795193672,-0.0275711510330439,0.0444689840078354,-0.5,0.0246714185923338,-0.0014915608335286
752,-0.0424979589879513,-0.0693613961338997,0.0008604314061813,-0.5,-0.0009964391356334,-0.0385512970387936
753,-0.0597321912646294,-0.0896950587630272,-0.0143219102174044,-0.5,-0.0024755401536822,-0.0471442155539989
754,-0.0727943629026413,-0.0897359997034073,-0.0150246424600482,-0.5,-0.010433416813612,-0.0402929596602917
755,-0.0839361101388931,-0.0796206593513489,-0.0193026550114155,0.5,-0.0395512878894806,-0.0316683948040009
756,-0.0900623872876167,-0.0668283700942993,-0.03055240213871,0.5,-0.0728126019239426,-0.022185180336237
757,-0.0834625139832497,-0.0495495274662972,-0.0456520840525627,0.5,-0.0917713940143585,-0.0117763131856918
758,-0.063413217663765,-0.021955044940114,-0.0616618953645229,0.5,-0.0969950631260872,-0.0100478492677212
759,-0.0383819192647934,0.0127937328070402,-0.0703867897391319,0.5,-0.0940989330410957,-0.0261548608541489
760,-0.0075282976031303,0.0499224364757538,-0.0548300519585609,0.5,-0.0712115094065666,-0.0445908717811108
761,0.0355743765830994,0.0935308411717415,-0.0122438380494714,0.5,-0.0174738969653845,-0.0401432812213898
762,0.0844471380114555,0.146191671490669,0.033062532544136,0.5,0.0492196716368198,-0.0140153141692281
763,0.120058640837669,0.179309174418449,0.0512099303305149,0.5,0.0941568166017532,0.0021289312280714
764,0.130352482199669,0.157824888825417,0.0296004377305508,0.5,0.0974656045436859,-0.0146393505856395
765,0.12166378647089,0.098332367837429,-0.0146654602140188,0.5,0.0682323947548866,-0.0494435541331768
766,0.0959698334336281,0.0413006506860256,-0.0508326143026352,0.5,0.0271173864603043,-0.0780246034264565
767,0.0444222986698151,-0.0048748226836323,-0.0739625915884972,0.5,-0.0167240854352713,-0.0970555171370506
768,-0.0152675043791533,-0.0432566255331039,-0.0866973325610161,0.5,-0.052420362830162,-0.106501959264278
769,-0.0446348339319229,-0.0635827407240868,-0.0682378187775612,0.5,-0.0542562566697598,-0.0960801020264626
770,-0.0385607145726681,-0.0689671188592911,-0.0188839621841908,0.5,-0.0153379030525684,-0.0676612555980682
771,-0.0227155368775129,-0.0816411226987839,0.0237379167228937,0.5,0.0369646102190018,-0.0416727662086487
772,-0.0177508853375912,-0.114253103733063,0.0322831347584724,0.5,0.068275511264801,-0.037644162774086
773,-0.0253144335001707,-0.150321796536446,0.0103686591610312,0.5,0.0658735036849976,-0.0520960614085197
774,-0.0262394733726978,-0.164103612303734,-0.02464878000319,-0.5,0.0445479676127434,-0.070132814347744
775,-0.0117694241926074,-0.153528988361359,-0.0551352128386498,-0.5,0.0202411878854036,-0.0909146070480347
776,0.0024171406403183,-0.121669046580791,-0.0592145584523678,-0.5,0.0021561102475971,-0.104537330567837
777,0.0056459917686879,-0.0610002242028713,-0.0245122238993645,-0.5,0.0032663710881024,-0.0885558873414993
778,-0.0029381464701145,0.0071977539919316,0.028605543076992,-0.5,0.0220740213990211,-0.0482512265443802
779,-0.0181322321295738,0.0445022284984589,0.0678179338574409,-0.5,0.0403958708047867,-0.0135728353634477
780,-0.0277459919452667,0.0488978251814842,0.0828608870506287,-0.5,0.0500929355621338,-0.0033066689502447
781,-0.0200656875967979,0.0439213551580906,0.0848356634378433,-0.5,0.0662920698523521,-0.0095396619290113
782,0.0066616768017411,0.0392323024570942,0.0797385051846504,-0.5,0.103095069527626,-0.0162784140557051
783,0.0324298776686192,0.0173001382499933,0.0572082214057446,-0.5,0.13755951821804,-0.0262468848377466
784,0.0310369282960892,-0.0333785563707352,0.0131748262792826,-0.5,0.128910720348358,-0.0505778901278973
785,0.0050239651463925,-0.0902596265077591,-0.0370840281248093,-0.5,0.0699864476919174,-0.0810307040810585
786,-0.0207166597247124,-0.128359213471413,-0.073195181787014,-0.5,-0.0054392493329942,-0.0976125299930573
787,-0.037545457482338,-0.139567628502846,-0.0886079967021942,-0.5,-0.0619163438677788,-0.094529315829277
788,-0.05007503926754,-0.11496315151453,-0.0846885964274406,-0.5,-0.0857734754681587,-0.0694476738572121
789,-0.056595828384161,-0.0585972927510738,-0.0566747300326824,-0.5,-0.079377681016922,-0.0246654022485018
790,-0.0532079786062241,-0.0027423347346484,-0.0031812274828553,-0.5,-0.0483542010188103,0.014414663426578
791,-0.0427715145051479,0.0164458341896534,0.0516126379370689,-0.5,-0.00209173373878,0.0190320946276188
792,-0.0371175669133663,-0.018789092078805,0.0605592131614685,-0.5,0.0298777539283037,-0.0196035783737898
793,-0.0374470613896847,-0.0863307639956474,0.0146367624402046,-0.5,0.0232364572584629,-0.077128142118454
794,-0.0331873744726181,-0.136432155966759,-0.0437625348567963,-0.5,-0.0095485877245664,-0.118023969233036
795,-0.0247212611138821,-0.141991317272186,-0.0867617726325989,-0.5,-0.0413201190531254,-0.135733515024185
796,-0.017739150673151,-0.105163857340813,-0.108305603265762,-0.5,-0.049502182751894,-0.134767711162567
797,-0.0062044374644756,-0.0391570702195168,-0.102453924715519,-0.5,-0.0263992119580507,-0.108702003955841
798,0.0183667466044426,0.0406301915645599,-0.0756312981247902,-0.5,0.007664443925023,-0.0529765374958515
799,0.0447696261107922,0.122244402766228,-0.0426743365824223,-0.5,0.0242868736386299,0.0286131612956524
800,0.0525873899459839,0.18438820540905,-0.0115629965439439,-0.5,0.0189902354031801,0.109735861420631
801,0.0446375571191311,0.203552022576332,0.0141935143619776,-0.5,0.0142310513183475,0.15230156481266
802,0.0439602769911289,0.172782689332962,0.027264142408967,-0.5,0.0278595052659512,0.145654007792473
803,0.0615986548364162,0.0974350571632385,0.0249879937618971,-0.5,0.0483388304710388,0.0988447144627571
804,0.0899803042411804,0.004483335185796,0.0212292596697807,-0.5,0.0600256696343422,0.0256970636546612
805,0.114990070462227,-0.0693517178297043,0.032378301024437,-0.5,0.0681276544928551,-0.0463207438588142
806,0.120085127651691,-0.109910972416401,0.056911151856184,-0.5,0.0786552429199219,-0.0921041443943977
807,0.0999388471245766,-0.122070126235485,0.0737351626157761,-0.5,0.0798040106892586,-0.110071361064911
808,0.0714940801262856,-0.117242336273193,0.0632639527320862,-0.5,0.0638888403773308,-0.111907832324505
809,0.0574353523552418,-0.104344539344311,0.0310991331934929,-0.5,0.0469153188169003,-0.103312455117702
810,0.0547906756401062,-0.0807379335165024,-0.0025225598365068,-0.5,0.0429033897817135,-0.0818741321563721
811,0.0413710363209248,-0.0453715957701206,-0.0271235667169094,-0.5,0.0408221669495106,-0.0499370209872723
812,0.0138279777020216,-0.0136520061641932,-0.0454082749783993,-0.5,0.0196929816156626,-0.0227193329483271
813,-0.0134135158732533,0.0005958144902251,-0.0616876371204853,-0.5,-0.0212792046368122,-0.0159150660037994
814,-0.0271298065781593,0.003008920000866,-0.0745585635304451,-0.5,-0.0589847601950169,-0.0273845549672842
815,-0.0207628831267357,0.0103524131700397,-0.0815945342183113,-0.5,-0.0785504728555679,-0.0381836928427219
816,-0.0052847610786557,0.0322470180690289,-0.0816071480512619,-0.5,-0.0874395966529846,-0.0348530821502209
817,-0.0062948842532932,0.0594252236187458,-0.0713653862476349,-0.5,-0.0952687934041023,-0.013776714913547
818,-0.0277758929878473,0.0744543820619583,-0.048839557915926,-0.5,-0.0963309034705162,0.0325071252882481
819,-0.0399599336087704,0.0717957988381386,-0.0164643283933401,-0.5,-0.0735883712768555,0.0963840782642365
820,-0.0201072730123997,0.0625771507620811,0.0246284771710634,-0.5,-0.0144552700221539,0.14509904384613
821,0.0261262338608503,0.0584962889552116,0.0731186494231224,-0.5,0.0702454969286919,0.159162878990173
822,0.0766516327857971,0.0538541898131371,0.113441199064255,-0.5,0.137492194771767,0.141104310750961
823,0.10499419271946,0.0359347797930241,0.125897943973541,-0.5,0.150095909833908,0.0980752632021904
824,0.0961091592907906,0.0091004027053713,0.112425595521927,-0.5,0.113320015370846,0.0478733219206333
825,0.0591973029077053,-0.015610558912158,0.0817351415753365,-0.5,0.0530086494982243,0.0046625141985714
826,0.0241015404462814,-0.0358690246939659,0.0360158085823059,-0.5,-0.0007189984899014,-0.0302611105144024
827,0.0127300685271621,-0.0487984716892242,-0.016547242179513,-0.5,-0.0255795661360025,-0.0535474829375744
828,0.0165587309747934,-0.0569927953183651,-0.0657533630728722,-0.5,-0.0328892841935158,-0.0709257796406746
829,0.0167691297829151,-0.0678227096796036,-0.100938409566879,0.5,-0.0479212068021297,-0.096032403409481
830,0.0046269805170595,-0.0791663900017738,-0.118907310068607,0.5,-0.0786615908145905,-0.129961207509041
831,-0.0165689270943403,-0.0813737809658051,-0.126426950097084,0.5,-0.113860167562962,-0.154672175645828
832,-0.0299340710043907,-0.064758688211441,-0.11898110806942,0.5,-0.130046248435974,-0.135543122887611
833,-0.0196710377931595,-0.0186754688620567,-0.0901509970426559,0.5,-0.110010169446468,-0.0546748265624046
834,0.0090063288807869,0.0566120035946369,-0.0529754646122456,0.5,-0.065809853374958,0.0441887713968754
835,0.0356203466653824,0.114655040204525,-0.0250521190464497,0.5,-0.0301702134311199,0.0864570364356041
836,0.0493556819856167,0.104384623467922,-0.0059200143441557,0.5,-0.015568807721138,0.0561670735478401
837,0.0561043061316013,0.0462606213986874,0.0178942549973726,0.5,-0.0028946192469447,0.0028772940859198
838,0.0674761086702347,0.0008181799785234,0.0478333197534084,0.5,0.0213802102953196,-0.0240940470248461
839,0.0891652554273605,0.0037389297503978,0.0661522522568703,0.5,0.0440175049006939,-0.0025025559589266
840,0.112629354000092,0.0461749657988548,0.0622729696333408,0.5,0.0502416454255581,0.0593411326408386
841,0.122750528156757,0.091379389166832,0.0469038262963295,0.5,0.043377373367548,0.120156921446323
842,0.115535169839859,0.104199483990669,0.0349714197218418,0.5,0.0376296155154705,0.140099793672562
843,0.104332804679871,0.0769564434885979,0.0358129180967808,0.5,0.0479748584330082,0.114463709294796
844,0.095264807343483,0.0335634164512157,0.0466327108442783,0.5,0.073336124420166,0.0563882924616337
845,0.0679716244339943,-0.0135200144723058,0.0461724027991295,0.5,0.0886097699403763,-0.0208692289888859
846,0.0097057847306132,-0.0701200217008591,0.0179535504430532,0.5,0.0733376890420914,-0.0983823239803314
847,-0.0568971075117588,-0.128014430403709,-0.0335001647472382,-0.5,0.033384382724762,-0.166389495134354
848,-0.100236907601357,-0.173539817333221,-0.0887323245406151,-0.5,-0.0108250370249152,-0.223258942365646
849,-0.113775499165058,-0.199481949210167,-0.122689731419086,-0.5,-0.0453655235469341,-0.252115368843079
850,-0.114078283309937,-0.199365705251694,-0.124456405639648,-0.5,-0.0688290372490883,-0.232645317912102
851,-0.109258130192757,-0.164608895778656,-0.0995942652225494,-0.5,-0.0744390413165092,-0.162249624729156
852,-0.0960929244756699,-0.0943702906370163,-0.0635679438710213,-0.5,-0.0607987940311432,-0.0679096728563309
853,-0.078833632171154,-0.0146494107320905,-0.0368860512971878,-0.5,-0.0427748896181583,0.0003412663936614
854,-0.0589887499809265,0.0331157855689526,-0.0273837503045797,-0.5,-0.0254914201796055,0.0124247828498483
855,-0.0335957407951355,0.0348463878035545,-0.0326321944594383,-0.5,-0.009001038968563,-0.0181425921618938
856,-0.0050882496871054,0.0169855821877718,-0.0506147593259811,-0.5,0.0012137747835367,-0.0543930493295193
857,0.0243732761591673,0.0144053166732192,-0.0694393515586853,-0.5,0.0084265414625406,-0.0535782724618912
858,0.0490085929632187,0.0345399491488934,-0.0735157132148743,0.5,0.01746716350317,-0.0015771518228575
859,0.064687006175518,0.0562330670654774,-0.0602189265191555,0.5,0.029736140742898,0.0539633259177208
860,0.0855657607316971,0.0613933727145195,-0.0315662808716297,0.5,0.0586783848702908,0.0595314428210258
861,0.118948593735695,0.0483070760965347,0.0066024870611727,0.5,0.109702296555042,0.0176593586802483
862,0.142852574586868,0.0158983413130045,0.0356047339737415,0.5,0.153600633144379,-0.0420190542936325
863,0.138928785920143,-0.0350292846560478,0.0399493500590324,0.5,0.163226634263992,-0.098380483686924
864,0.112843953073025,-0.0893393456935883,0.0207864381372929,0.5,0.142958760261536,-0.139409303665161
865,0.0769825875759125,-0.125769004225731,-0.0156099526211619,0.5,0.103904314339161,-0.166645124554634
866,0.0366065911948681,-0.133221641182899,-0.0640389025211334,0.5,0.0482102036476135,-0.193647935986519
867,-0.0089320261031389,-0.120276868343353,-0.11097077280283,0.5,-0.018362095579505,-0.224822655320168
868,-0.0494712814688683,-0.102255143225193,-0.13631409406662,0.5,-0.0694606974720955,-0.241200357675552
869,-0.0689435005187988,-0.0874843150377274,-0.1376783400774,0.5,-0.0803986564278603,-0.227215960621834
870,-0.0700834840536118,-0.0806177705526352,-0.129811346530914,0.5,-0.0586130954325199,-0.188673987984657
871,-0.0581743754446507,-0.0693657472729683,-0.115939572453499,0.5,-0.0186817608773708,-0.133358493447304
872,-0.0280290711671114,-0.0394196249544621,-0.0926048681139946,0.5,0.0355186462402344,-0.0783758237957954
873,0.0221114959567785,-0.0047826096415519,-0.0540877245366573,0.5,0.101657874882221,-0.0411468297243118
874,0.0832439363002777,0.0134372925385833,0.0041555948555469,0.5,0.165965154767036,-0.0158894993364811
875,0.127473890781403,0.0037354051601141,0.0508104115724564,0.5,0.19030687212944,-0.0039583081379532
876,0.131442084908485,-0.0257926862686872,0.0451206602156162,0.5,0.153971016407013,-0.0135919712483883
877,0.107369631528854,-0.0448652431368828,1.41942027767072e-05,0.5,0.0904539674520493,-0.0280779823660851
878,0.0857590362429619,-0.0456770583987236,-0.0371510833501816,0.5,0.0444666594266891,-0.033778864890337
879,0.0823303386569023,-0.0482186377048492,-0.0387694798409939,0.5,0.0357905812561512,-0.0379971973598003
880,0.0871702805161476,-0.0551818944513798,-0.008748235180974,0.5,0.0626006796956062,-0.0446440316736698
881,0.0833241939544678,-0.0482343919575214,0.0305122286081314,0.5,0.103283070027828,-0.050919983536005
882,0.0640118420124054,-0.0253722388297319,0.0544373616576195,0.5,0.129012361168861,-0.0556637570261955
883,0.0263132285326719,-0.0103110577911139,0.0482824482023716,0.5,0.122005440294743,-0.0642691403627396
884,-0.0249878838658333,-0.0118092643097043,0.0152108259499073,0.5,0.085653193295002,-0.0741249173879623
885,-0.0703847780823708,-0.0105444202199578,-0.0230194423347712,0.5,0.0463891476392746,-0.0711777433753014
886,-0.0968566909432411,-0.0002501165145076,-0.0480646565556526,0.5,0.0255507938563824,-0.0656189322471619
887,-0.10544054210186,0.0015394977526739,-0.0581906773149967,0.5,0.0164035130292177,-0.0792899653315544
888,-0.090952642261982,-0.0186565797775984,-0.0546944551169872,0.5,0.0112294256687164,-0.102864526212215
889,-0.0504173003137112,-0.0643359273672104,-0.0417580492794514,0.5,0.0146423662081361,-0.121339961886406
890,0.0035029747523367,-0.11864073574543,-0.0236655231565237,0.5,0.0278161782771349,-0.134323433041573
891,0.0542970411479473,-0.148357525467873,0.0003804907610174,0.5,0.0504311509430408,-0.135289683938026
892,0.0879975184798241,-0.146067872643471,0.0141040366142988,0.5,0.0766063258051872,-0.12619748711586
893,0.102038085460663,-0.133293777704239,0.0004696323012467,0.5,0.0942720845341682,-0.122266948223114
894,0.104210034012794,-0.124071501195431,-0.0199021007865667,0.5,0.100632071495056,-0.121331252157688
895,0.0938027501106262,-0.11160721629858,-0.0192021019756794,0.5,0.0973643064498901,-0.104435667395592
896,0.0682592391967773,-0.0824637934565544,-0.000788705132436,0.5,0.0827764347195625,-0.0635042637586594
897,0.0358633436262608,-0.0268875230103731,0.0198376830667257,-0.315277278423309,0.0597327388823032,-0.0135246021673083
898,0.0084519470110535,0.0493787378072739,0.0425824262201786,-0.5,0.0408054776489735,0.0266404133290052
899,-0.0098753981292247,0.109770901501179,0.0695035085082054,-0.5,0.032252375036478,0.0452706031501293
900,-0.0263619404286146,0.117027282714844,0.0836752131581306,-0.5,0.0227831434458494,0.0322031304240227
901,-0.0402570962905884,0.0777762979269028,0.0727749541401863,-0.5,0.0091746971011161,-0.0020465401466935
902,-0.0419135726988316,0.0268428009003401,0.0481842234730721,-0.5,0.0039081126451492,-0.0331760011613369
903,-0.0341147072613239,-0.0104376059025526,0.0257006157189608,-0.5,0.0115018570795655,-0.055031705647707
904,-0.0229637864977121,-0.0338704288005829,0.0081036426126956,-0.5,0.0243989024311304,-0.0729639604687691
905,-0.0084060635417699,-0.0589804947376251,-0.0089754564687609,-0.5,0.0363968834280968,-0.0886488556861877
906,0.002186567755416,-0.0913799405097961,-0.0232787057757378,-0.5,0.0450441092252731,-0.101285457611084
907,0.0042798030190169,-0.119845502078533,-0.0223038028925657,-0.5,0.0526517331600189,-0.104361474514008
908,0.0087889824062585,-0.13320218026638,-0.0016098219202831,-0.5,0.0615445747971535,-0.0887209624052048
909,0.0176335126161575,-0.129506856203079,0.0166340097784996,-0.5,0.0582861229777336,-0.0602010600268841
910,0.0239904951304197,-0.102920733392239,0.0165968239307404,-0.5,0.0366463959217072,-0.0333564952015877
911,0.0333485789597034,-0.0505455732345581,0.0143725946545601,-0.5,0.0181949399411678,-0.007584142498672
912,0.0528018176555634,0.0100336465984583,0.0280343145132065,-0.5,0.0248459707945585,0.0261058956384659
913,0.0776168927550316,0.0572637990117073,0.0524935238063335,-0.5,0.0542181879281998,0.0564489439129829
914,0.0933132320642471,0.0764602497220039,0.0625411495566368,-0.5,0.0790732651948929,0.0599760040640831
915,0.0888058245182037,0.0619121007621288,0.0416504815220833,-0.5,0.0719525516033173,0.0346607938408852
916,0.0665047243237495,0.0266395565122366,0.0030609231907874,-0.5,0.0348073840141296,-0.0048219715245068
917,0.0371011532843113,-0.0070509072393178,-0.0246365144848824,-0.5,-0.0066055115312337,-0.0411293096840382
918,0.0126381423324347,-0.0257559083402157,-0.0227588247507811,-0.5,-0.0289800520986319,-0.0578912533819675
919,-0.0051315822638571,-0.0375865958631039,0.0001841821358539,0.408483445644379,-0.0258145146071911,-0.0599480047821999
920,-0.0275193434208632,-0.0603183321654797,0.0190850682556629,0.5,-0.0101792393252254,-0.068899005651474
921,-0.0578060783445835,-0.0849191099405289,0.0158224701881409,0.5,-0.0069862850941717,-0.0868968963623047
922,-0.0820024311542511,-0.0815491229295731,-0.0094836363568902,0.5,-0.0288744140416384,-0.0924994572997093
923,-0.0864253863692284,-0.0456665009260178,-0.0312232729047537,0.5,-0.0560058020055294,-0.0691119506955147
924,-0.0746588259935379,0.0025291356723755,-0.0251826029270887,0.5,-0.0646665915846825,-0.0227965228259563
925,-0.0615732446312904,0.0538841523230076,0.0001386462390655,0.5,-0.0585506558418274,0.027835400775075
926,-0.045340821146965,0.105980314314365,0.0307293348014355,0.23255467414856,-0.0411502942442894,0.0770446211099625
927,-0.0158358495682478,0.137692555785179,0.0599425584077835,-0.5,-0.0106192650273442,0.115864031016827
928,0.0143888313323259,0.130915328860283,0.0723577812314034,-0.5,0.0148199060931802,0.12029243260622
929,0.0308619253337383,0.0993211045861244,0.0611897818744183,-0.5,0.0168390199542046,0.0983431413769722
930,0.034424152225256,0.0647618994116783,0.0351264663040638,-0.5,-0.0028085147496312,0.0783740133047104
931,0.0340427197515965,0.0402456410229206,0.0097573073580861,-0.5,-0.0254034530371428,0.0626495406031609
932,0.0435179024934769,0.0266453884541988,0.0069460957311093,-0.5,-0.0253290310502052,0.0444692857563496
933,0.0605898834764957,0.004742631688714,0.0278155878186226,-0.5,-0.0008245192002505,0.0246545281261206
934,0.0670345723628998,-0.0310752987861633,0.0471755340695381,-0.5,0.0246930178254843,0.010866223834455
935,0.0560645163059235,-0.0557648800313473,0.0495052039623261,-0.5,0.0383441150188446,0.0092088310047984
936,0.0305798202753067,-0.0587987899780273,0.0373886078596115,-0.5,0.0385699048638344,0.0047562173567712
937,-0.0046701445244252,-0.0553319416940212,0.0225311741232872,-0.5,0.0237911529839039,-0.0179843660444021
938,-0.0374786071479321,-0.0516199059784412,0.0222456995397806,-0.5,0.0056816469877958,-0.0404286831617355
939,-0.0609300136566162,-0.0437727272510529,0.0404111258685589,-0.5,0.0005538709810934,-0.0385409519076347
940,-0.0789362564682961,-0.0372180789709091,0.0584985129535198,-0.5,0.0054374895989894,-0.0223880410194397
941,-0.0910369753837585,-0.0384281799197197,0.0585053078830242,-0.5,0.0066583873704075,-0.010166666470468
942,-0.0956209227442741,-0.0419929772615433,0.0405172444880009,-0.5,-0.003571237437427,-0.0015695691108703
943,-0.0935204327106476,-0.0389398485422134,0.0204509776085615,-0.5,-0.0219319276511669,0.0106396013870835
944,-0.0804270580410957,-0.0237788110971451,0.0171287041157484,-0.5,-0.0314745120704174,0.0215680841356516
945,-0.0577177479863167,0.0071178073994815,0.0268784482032061,-0.5,-0.0256507601588964,0.0171972438693047
946,-0.0363532081246376,0.039994515478611,0.0215803701430559,-0.5,-0.0255163330584764,0.0045530460774898
947,-0.0275497287511826,0.0416896007955074,-0.016734154894948,-0.5,-0.0513947680592537,-0.0002421896060695
948,-0.0318594127893448,0.0091376826167106,-0.0657037496566772,-0.5,-0.0899873599410057,0.0019682187121361
949,-0.0303204394876957,-0.017895296216011,-0.078046627342701,-0.5,-0.104790113866329,0.0159352123737335
950,-0.0081354454159736,-0.0095070181414485,-0.0389701686799526,-0.5,-0.0806325599551201,0.0501911118626595
951,0.0253531970083714,0.0347052402794361,0.0180522501468658,-0.5,-0.035625696182251,0.094132125377655
952,0.0531686022877693,0.10276110470295,0.0541081130504608,-0.5,0.002840831875801,0.126752436161041
953,0.0632069483399391,0.165436923503876,0.0561849325895309,-0.5,0.0160807650536299,0.128814890980721
954,0.0546009205281734,0.184359580278397,0.0447820872068405,0.5,0.0080190692096948,0.104728855192661
955,0.0370432697236538,0.14709934592247,0.0430956967175007,0.5,-0.0067811668850481,0.0770120769739151
956,0.01885986328125,0.0729579031467438,0.0400418825447559,0.5,-0.024176225066185,0.0506992228329182
957,0.0068978709168732,-0.005731142591685,0.01895154081285,0.5,-0.0380069129168987,0.022607346996665
958,0.0061793704517185,-0.0621005706489086,-0.0110642733052373,0.5,-0.0371174737811089,-0.0030057153198868
959,0.0162192191928625,-0.08328827470541,-0.0350756905972958,0.5,-0.0242419559508562,-0.0224339086562395
960,0.0282271690666676,-0.0708584487438202,-0.0512047335505486,0.5,-0.0144776180386543,-0.0274427980184555
961,0.0241945888847113,-0.048448983579874,-0.0637617185711861,0.5,-0.0196197796612978,-0.0105446893721819
962,-0.0013424451462924,-0.0443470776081085,-0.0703492388129234,0.5,-0.0432476475834847,0.0138701973482966
963,-0.0302035640925169,-0.0462318509817123,-0.0590305142104626,0.5,-0.0786201357841492,0.0286425426602364
964,-0.0434879139065742,-0.0189884603023529,-0.0200779475271702,0.5,-0.106301583349705,0.0371332764625549
965,-0.0358704775571823,0.0325376875698566,0.037661612033844,0.5,-0.107398428022861,0.0439099632203579
966,-0.0152086857706308,0.0698903948068619,0.0855286866426468,0.5,-0.0847828760743141,0.0374770537018776
967,0.006534073036164,0.0679702833294868,0.0995919108390808,0.5,-0.0600719451904297,0.0066209533251822
968,0.0311537217348814,0.0400412976741791,0.0893478691577911,0.5,-0.0425639823079109,-0.0305456649512053
969,0.0634283125400543,0.0244555305689573,0.0844346135854721,0.5,-0.018135093152523,-0.0384345762431622
970,0.0841074660420418,0.042376808822155,0.0875742733478546,0.5,0.0177622940391302,-0.004538363777101
971,0.0720552355051041,0.0861861258745193,0.0725477114319801,0.5,0.0421153753995895,0.0566355288028717
972,0.0350271984934807,0.12542761862278,0.0305759031325579,0.5,0.035256914794445,0.115711599588394
973,-0.0048203133046627,0.12553483247757,-0.0137609047815204,0.5,0.0103799002245069,0.139971628785133
974,-0.0304127726703882,0.0801196694374084,-0.037095557898283,0.5,-0.008423376828432,0.114681653678417
975,-0.0427193976938725,0.0068670376203954,-0.0383263900876045,0.5,-0.0230689160525799,0.0530663393437862
976,-0.0538857281208038,-0.0640744641423225,-0.0206140652298927,0.5,-0.0449377819895744,-0.0066371466964483
977,-0.0710463225841522,-0.108983226120472,0.0059741507284343,0.5,-0.0731221809983253,-0.0366329103708267
978,-0.0941809415817261,-0.122769914567471,0.0194255337119102,-0.5,-0.10350888222456,-0.0390325002372265
979,-0.106870301067829,-0.104171246290207,0.0142110763117671,-0.5,-0.12389450520277,-0.0174084529280663
980,-0.0911331027746201,-0.0577395297586918,0.0052093174308538,-0.5,-0.116487331688404,0.0179724395275116
981,-0.0512235835194588,0.0128141809254885,0.002316623693332,-0.5,-0.0831170529127121,0.045445654541254
982,-0.0067509575746953,0.101013667881489,-0.0003473912074696,-0.5,-0.0490008406341076,0.0585271120071411
983,0.0228383503854275,0.169365331530571,-0.0128327086567879,-0.5,-0.0361558869481087,0.0541682057082653
984,0.0354061350226402,0.17649707198143,-0.0299600716680288,-0.5,-0.0380996130406857,0.0256035085767508
985,0.047172237187624,0.125741869211197,-0.0356631502509117,-0.5,-0.0305860880762339,-0.0125389471650124
986,0.0641877427697182,0.0545880310237408,-0.0247141793370247,-0.5,-0.011011908762157,-0.0317003950476646
987,0.066653847694397,-0.0059425332583487,-0.0101355975493789,0.5,-0.0048492276109755,-0.0266788247972727
988,0.0405101589858532,-0.0489135310053825,-0.0104026850312948,0.5,-0.0266455598175526,-0.0220700092613697
989,0.0001050527280312,-0.0735013782978058,-0.0246739070862532,0.5,-0.0578211471438408,-0.0236846618354321
990,-0.0323411002755165,-0.0786934942007065,-0.0379558205604553,0.5,-0.0766299143433571,-0.0049824952147901
991,-0.0504614561796188,-0.0760518983006477,-0.0462097376585007,0.5,-0.0864870846271515,0.0313645899295807
992,-0.0647791400551796,-0.0727907121181488,-0.0498164631426334,0.5,-0.0921930000185966,0.043413121253252
993,-0.0766810178756714,-0.0628737136721611,-0.0423844195902348,0.5,-0.0744546428322792,0.0203904751688242
994,-0.0712378099560738,-0.0469476096332073,-0.0197396352887154,0.5,-0.0180733129382133,-0.0052630477584898
995,-0.0436728559434414,-0.0292143300175667,0.0089730136096477,0.5,0.052318099886179,-0.0179305355995893
996,-0.0044001308269798,-0.0026575680822134,0.0276415310800076,0.5,0.0961608961224556,-0.0245916396379471
997,0.0335225760936737,0.0370915308594704,0.0306402388960123,0.5,0.0940916016697884,-0.0267953313887119
998,0.0598406232893467,0.0797867551445961,0.0273470431566238,0.5,0.0553646124899387,-0.0221209116280079
999,0.0701041668653488,0.106177143752575,0.0276948045939207,0.5,0.0087397694587707,-0.0115817692130804
1000,0.0227543246001005,0.169391140341759,-0.0129120592027903,-0.5,-0.0362765192985535,0.0540773384273052
1001,0.0353208556771278,0.176523238420486,-0.0300405919551849,-0.5,-0.0382220186293125,0.0255113113671541
1002,0.0470845736563206,0.125768750905991,-0.0357459299266338,-0.5,-0.0307119078934193,-0.0126337185502052
1003,0.0640974566340446,0.0546157360076904,-0.0247994586825371,-0.5,-0.0111415144056082,-0.0317980200052261
1004,0.0665616989135742,-0.0059142336249351,-0.0102226687595248,0.5,-0.0049815396778285,-0.026778494939208
1005,0.0404174849390984,-0.0488850474357605,-0.0104902721941471,0.5,-0.0267786514014006,-0.0221702717244625
1006,1.30670377984643e-05,-0.0734730884432793,-0.0247608553618193,0.5,-0.0579532720148563,-0.0237841941416264
1007,-0.0324319489300251,-0.078665554523468,-0.0380416885018349,0.5,-0.0767604038119316,-0.0050807897932827
1008,-0.050551675260067,-0.076024167239666,-0.046294990926981,0.5,-0.086616650223732,0.0312669984996319
1009,-0.0648698806762695,-0.0727628469467163,-0.0499021895229816,0.5,-0.0923232808709145,0.0433149896562099
1010,-0.0767734199762344,-0.0628453567624092,-0.0424717180430889,0.5,-0.0745873004198074,0.020290557295084
1011,-0.0713324099779129,-0.0469185970723629,-0.0198290105909109,0.5,-0.018209109082818,-0.005365336779505
1012,-0.0437692739069462,-0.029184753075242,0.0088818967342376,0.5,0.0521796755492687,-0.0180348102003336
1013,-0.0044973213225603,-0.0026277317665517,0.0275496616959572,0.5,0.0960213392972946,-0.0246967747807503
1014,0.0334257781505585,0.0371212773025036,0.0305487234145403,0.5,0.0939525738358498,-0.0269000642001629
1015,0.0597448833286762,0.0798161998391151,0.0272565241903067,0.5,0.0552270896732807,-0.0222245045006275
1016,0.0700093433260918,0.106206312775612,0.0276051554828882,0.5,0.0086035598069429,-0.0116843655705452
1017,0.0625362768769264,0.0994550809264183,0.0271863266825676,-0.5,-0.0263570975512266,-0.0048083020374178
1018,0.0448054112493992,0.0715544521808624,0.0215076543390751,-0.5,-0.0445921681821346,-0.0025319484993815
1019,0.0285239424556494,0.047324150800705,0.0145912198349833,-0.5,-0.0452519692480564,0.0076805385760963
1020,0.0092504136264324,0.026392437517643,0.0063115851953625,-0.5,-0.0398208126425743,0.0261687655001879
1021,-0.0172890461981297,0.0003244878025725,-0.002452599350363,-0.5,-0.0423557832837105,0.041240930557251
1022,-0.0423559993505478,-0.0301629845052958,-0.0096264919266104,-0.5,-0.0527959614992142,0.0431459099054337
1023,-0.0589016042649746,-0.0623870082199574,-0.0205420888960361,-0.5,-0.0594487115740776,0.0302459560334682
1024,-0.0680249333381653,-0.0914595127105713,-0.0349018387496471,-0.5,-0.0528724007308483,0.0119451694190502
1025,-0.0814736485481262,-0.113877631723881,-0.0438842140138149,-0.5,-0.0394826643168926,-0.0096626430749893
1026,-0.10760959982872,-0.124260857701302,-0.0454118177294731,-0.5,-0.03654420748353,-0.042905118316412
1027,-0.137823343276978,-0.109203740954399,-0.0452653057873249,-0.5,-0.0546417683362961,-0.0764744877815247
1028,-0.158999115228653,-0.0696217641234398,-0.0556154139339924,-0.5,-0.0875607207417488,-0.0915632396936417
1029,-0.157950535416603,-0.02631551399827,-0.0838565975427628,-0.5,-0.117606930434704,-0.0871629640460014
1030,-0.128486528992653,0.0063902889378368,-0.114377088844776,-0.5,-0.129785627126694,-0.0696715116500854
1031,-0.0884728953242302,0.0250299740582705,-0.121783249080181,-0.5,-0.121733509004116,-0.0527358725667
1032,-0.0518851950764656,0.0323724932968616,-0.0893028751015663,-0.5,-0.0948619171977043,-0.0412036292254925
1033,-0.0121240206062794,0.0374773256480694,-0.021491464227438,-0.5,-0.0506506860256195,-0.015226136893034
1034,0.0260486118495464,0.0431615635752678,0.0471543520689011,-0.5,-0.0036344998516142,0.0359626635909081
1035,0.0528219379484653,0.0509910359978676,0.089319609105587,-0.5,0.0335010103881359,0.102622888982296
1036,0.0742369145154953,0.073133647441864,0.111687988042831,-0.5,0.0623816810548306,0.16804575920105
1037,0.0924741625785828,0.10788344591856,0.123639918863773,-0.5,0.0818881839513779,0.20220223069191
1038,0.0924869328737259,0.128395512700081,0.117543369531631,-0.5,0.0833600535988808,0.179394125938416
1039,0.0644969418644905,0.116139627993107,0.0877349972724915,-0.5,0.0614886283874512,0.117465488612652
1040,0.0240229573100805,0.0825040936470032,0.0443514063954353,-0.5,0.0219841618090868,0.0660243034362793
1041,-0.003498459700495,0.045431274920702,-0.0012644538655877,-0.5,-0.0217453688383102,0.0405126735568047
1042,-0.017336955294013,0.0101417228579521,-0.046495296061039,-0.5,-0.0575250349938869,0.0096456594765186
1043,-0.0322480723261833,-0.0171713251620531,-0.0807075724005699,-0.5,-0.070617102086544,-0.0387130342423916
1044,-0.0469963103532791,-0.0352883376181126,-0.0875722765922546,-0.5,-0.0541976988315582,-0.080909326672554
1045,-0.0565107986330986,-0.0552345216274261,-0.0700854808092117,-0.5,-0.0300228130072355,-0.100509256124496
1046,-0.0618179365992546,-0.0813427194952965,-0.0456072613596916,-0.5,-0.0211426690220833,-0.101089738309383
1047,-0.0652570873498917,-0.106858618557453,-0.026605024933815,-0.5,-0.0296293050050735,-0.0922185629606247
1048,-0.063539057970047,-0.113450534641743,-0.0118775414302945,-0.5,-0.0427876077592373,-0.0685458183288574
1049,-0.0431978143751621,-0.0824552327394485,0.0081944512203335,-0.5,-0.0362947322428226,-0.013237745501101
1050,-0.0065733329392969,-0.0198013801127672,0.0302573069930077,-0.5,-0.0049286088906228,0.060756754130125
1051,0.0264720972627401,0.0586755201220512,0.0427671931684017,0.406377822160721,0.0282305292785168,0.115561567246914
1052,0.0506516695022583,0.142697095870972,0.0465569607913494,0.5,0.0473897978663445,0.13777968287468
1053,0.0717525035142899,0.207959428429604,0.0468719378113747,0.5,0.0505274571478367,0.139298737049103
1054,0.087064653635025,0.223721921443939,0.0428428426384926,0.5,0.0389436110854149,0.131140187382698
1055,0.0911281704902649,0.192029356956482,0.0345830954611301,0.5,0.0203451495617628,0.118391707539558
1056,0.0806545242667198,0.140518888831139,0.0231283195316792,0.5,-0.0028474337887018,0.0939154550433159
1057,0.0475803874433041,0.0833269357681274,0.0042851376347243,0.5,-0.0390629917383194,0.0423347800970078
1058,-0.007363012060523,0.0251823030412197,-0.0231925938278437,0.5,-0.0840185210108757,-0.0269977021962404
1059,-0.0582532584667206,-0.0256430245935917,-0.0490034632384777,0.5,-0.115825220942497,-0.0783527046442032
1060,-0.0763536021113396,-0.0589884035289288,-0.0562829151749611,0.5,-0.117815278470516,-0.0872546210885048
1061,-0.0650118887424469,-0.0672955885529518,-0.0377994477748871,0.5,-0.0932065919041634,-0.0608050860464573
1062,-0.0514794662594795,-0.0575316362082958,-0.0055873710662126,0.5,-0.0565805584192276,-0.0196666326373816
1063,-0.0424583479762077,-0.0397454164922237,0.0238960012793541,0.5,-0.0148431798443198,0.0314249210059643
1064,-0.0275597870349884,-0.0127248708158731,0.0429218076169491,0.5,0.0264211054891348,0.0894096121191978
1065,-0.0102681601420045,0.0225397665053606,0.0554710105061531,0.5,0.0604129508137703,0.136993005871773
1066,0.0075777694582939,0.0545992441475391,0.0692303106188774,0.0054247002117335,0.0932509303092957,0.155563652515411
1067,0.0229404084384441,0.0678785741329193,0.071985088288784,-0.5,0.119074553251266,0.131027117371559
1068,0.0263048764318228,0.0581310428678989,0.0481636263430119,-0.5,0.111240491271019,0.0700803250074387
1069,0.0225542243570089,0.0421072579920292,0.0077519104816019,-0.5,0.0596057251095772,0.0043098917230963
1070,0.0160714220255613,0.0375291183590889,-0.0259068962186575,-0.5,-0.0165117811411619,-0.0329625643789768
1071,0.0059542837552726,0.0437979474663734,-0.0349612832069397,-0.5,-0.0849936679005623,-0.0295277666300535
1072,-0.0021567845251411,0.0552202388644218,-0.0197455566376448,-0.5,-0.121646724641323,0.0042360057123005
1073,-0.0033508480992168,0.0814985185861588,0.0087578548118472,-0.5,-0.116932481527328,0.0545165576040745
1074,-0.0038349980022758,0.12037418782711,0.0368996895849705,-0.5,-0.0829251334071159,0.0969603657722473
1075,-0.0196135137230158,0.138034477829933,0.045292466878891,0.5,-0.0539763867855072,0.101870507001877
1076,-0.0491678453981876,0.116180136799812,0.0259405523538589,0.5,-0.0519963428378105,0.068341501057148
1077,-0.0704841092228889,0.0665910840034485,-0.0099424496293067,0.5,-0.0720759928226471,0.013353350572288
1078,-0.0814050436019897,-0.003675723215565,-0.0527538880705833,0.5,-0.107455857098103,-0.054790087044239
1079,-0.094265952706337,-0.0864857882261276,-0.0950078144669533,0.5,-0.146672457456589,-0.125508472323418
1080,-0.0974557846784592,-0.14717410504818,-0.113224379718304,0.5,-0.161074817180634,-0.172426968812943
1081,-0.0768805369734764,-0.148741856217384,-0.0906450748443604,0.5,-0.134134069085121,-0.171697378158569
1082,-0.0395914502441883,-0.0927788838744164,-0.0403105542063713,0.5,-0.0765427649021149,-0.112529560923576
1083,0.0072350241243839,-0.0115507273003459,0.0146890031173825,0.5,-0.0057022250257432,0.006980431266129
1084,0.0578977949917316,0.0708237215876579,0.0567860119044781,0.5,0.0592932999134064,0.144546777009964
1085,0.0991166159510612,0.140111029148102,0.0750559493899345,0.5,0.0950779244303703,0.215698435902596
1086,0.114352256059647,0.177262499928474,0.0658204630017281,0.5,0.0854683220386505,0.184098079800606
1087,0.0991459488868713,0.179835006594658,0.0387278683483601,0.5,0.044496662914753,0.0997826531529427
1088,0.0741922184824944,0.164335370063782,0.0161989517509937,0.5,0.0132384346798062,0.0295152962207794
1089,0.0583910308778286,0.138530999422073,0.0114007741212845,0.5,0.0083129536360502,-0.0036378018558025
1090,0.0479509234428406,0.10541870445013,0.0202686041593552,0.5,0.0075981179252266,-0.005473565775901
1091,0.0302090309560299,0.0717914551496506,0.0312187448143959,0.5,-0.0095238732174038,0.0106424763798714
1092,-0.0045691053383052,0.0378409884870052,0.0286258980631828,0.5,-0.0452886633574963,0.0234026610851288
1093,-0.046539593487978,0.0071411128155887,0.0134412031620741,0.5,-0.0820000395178795,0.0251504741609097
1094,-0.0673729628324509,-0.0082993172109127,0.0093935076147317,0.5,-0.093940906226635,0.0298094749450684
1095,-0.0585544891655445,-0.011380379088223,0.0205052476376295,0.5,-0.0841784924268723,0.0386318527162075
1096,-0.0431762859225273,-0.0130107570439577,0.0243706218898296,0.5,-0.0751695409417152,0.0407188907265663
1097,-0.0397406257688999,-0.0132144764065742,0.0117076272144914,0.5,-0.0688082277774811,0.0341144129633904
1098,-0.0440281815826893,-0.0130936969071627,-0.0076302359811961,0.5,-0.0591783262789249,0.017495408654213
1099,-0.0443544574081898,-0.0111116170883179,-0.024927657097578,0.5,-0.055074155330658,0.0014662696048617
1100,-0.0377561673521996,-0.0027047640178352,-0.0418880805373192,0.5,-0.065142847597599,-0.0019408874213695
1101,-0.0272532179951668,0.0042358264327049,-0.0592453591525555,0.5,-0.078606866300106,-0.0072095091454684
1102,-0.0102019105106592,0.0069460552185773,-0.0655287131667137,0.5,-0.07515899091959,-0.0213152654469013
1103,0.0164673663675785,0.0170527417212725,-0.0518041476607323,0.5,-0.0510951057076454,-0.0198467522859573
1104,0.047720693051815,0.0378467887639999,-0.0282912701368332,0.5,-0.0251820478588343,0.0109862331300974
1105,0.0709445476531982,0.0676186308264732,-0.0076547688804566,0.5,-0.0160126946866512,0.0518555194139481
1106,0.0777927115559578,0.109809160232544,0.0147275291383266,0.5,-0.0140201346948743,0.0833899080753326
1107,0.0720132812857628,0.152734979987144,0.0446698889136314,0.5,0.0043056183494627,0.100240617990494
1108,0.0583111047744751,0.169908195734024,0.0732104331254959,0.5,0.0397342331707478,0.100651010870934
1109,0.0391577370464802,0.149352237582207,0.0865214914083481,0.5,0.0729501694440842,0.0876702293753624
1110,0.0232319179922342,0.108792945742607,0.0782823860645294,0.5,0.0872619450092316,0.0669181868433952
1111,0.0108400555327535,0.0735990330576897,0.0463266931474209,0.5,0.0685847923159599,0.0389361418783665
1112,-0.0144155211746693,0.0385259836912155,-0.0028963801451027,0.5,0.0124778402969241,0.0041963155381381
1113,-0.0524212382733822,-0.0089202458038926,-0.0428839661180973,0.5,-0.0545197241008282,-0.0254874061793089
1114,-0.086961917579174,-0.0545752644538879,-0.0550095811486244,0.5,-0.0974316671490669,-0.040123712271452
1115,-0.108486227691174,-0.0814175680279732,-0.0512458235025406,0.5,-0.110242575407028,-0.0451700873672962
1116,-0.10548984259367,-0.0777847841382027,-0.0421199500560761,0.5,-0.103690281510353,-0.0429326966404915
1117,-0.0781465023756027,-0.0484929829835892,-0.0207997355610132,0.5,-0.0836029127240181,-0.0298117157071829
1118,-0.0438593737781048,-0.0194275993853807,0.010590847581625,0.5,-0.0597523599863052,-0.0079928310588002
1119,-0.0141595862805843,-0.002257072366774,0.0344032160937786,0.5,-0.0484865382313728,0.0189881436526775
1120,0.009425688534975,0.0114599773660302,0.0437203049659729,0.5,-0.0492414943873882,0.0531885921955109
1121,0.035610094666481,0.0353182777762413,0.0520962812006474,0.5,-0.0398397892713547,0.0984982624650002
1122,0.0721941292285919,0.0780988037586212,0.0684898644685745,0.5,-0.0068975589238107,0.138662725687027
1123,0.107259355485439,0.132075667381287,0.0815238207578659,0.5,0.036617748439312,0.147341713309288
1124,0.11505376547575,0.168356567621231,0.0730154514312744,0.5,0.0623439811170101,0.120451867580414
1125,0.079580269753933,0.15661609172821,0.0356501825153828,0.5,0.0470951311290264,0.0667704939842224
1126,0.0150734204798937,0.0996555015444756,-0.0191118307411671,0.5,-0.005790458060801,-0.00242101540789
1127,-0.0470417328178883,0.0283514689654112,-0.0647065937519073,0.5,-0.0654226318001747,-0.0624429695308208
1128,-0.0872500166296959,-0.0291561689227819,-0.0763829797506332,0.5,-0.0986379012465477,-0.0859751552343369
1129,-0.102082334458828,-0.0544495582580566,-0.050844069570303,0.5,-0.0896372869610786,-0.070089116692543
1130,-0.0957302451133728,-0.041055541485548,-0.0086170015856623,0.5,-0.0463341176509857,-0.0372194685041904
1131,-0.0739741697907448,-0.0043211318552494,0.0286963600665331,0.5,0.0053238114342093,-0.0078448764979839
1132,-0.0411820635199547,0.0276113580912352,0.0505447909235954,0.5,0.0390131585299969,0.0144804492592812
1133,-0.0045977379195392,0.0416620410978794,0.0446463488042355,0.5,0.0376249738037586,0.0309812277555466
1134,0.0226711444556713,0.0466897785663605,0.0094932643696665,0.5,0.0025395029224455,0.0430933982133865
1135,0.0326615199446678,0.0536062009632587,-0.0294255595654249,0.5,-0.0412056595087051,0.0594764724373817
1136,0.030263626947999,0.0634621530771255,-0.046379093080759,0.5,-0.0665959268808365,0.0791718140244484
1137,0.0214742012321949,0.0674115344882011,-0.0332930758595467,0.5,-0.0656164735555649,0.0894800499081612
1138,0.0107139144092798,0.0562635138630867,0.0014941929839551,0.5,-0.0482346788048744,0.084962509572506
1139,0.0029597589746117,0.0319622606039047,0.0291850976645947,0.5,-0.034881979227066,0.0605517998337746
