,AF3,AF4,Fp1,Fp2,AF7,AF8
0,-0.0035132053308188,0.0593285299837589,-0.0645865872502327,-0.5,-0.0300423353910446,-0.0175641998648643
1,-0.0196967236697674,0.0731667578220367,-0.0840931162238121,-0.5,-0.0516594164073467,-0.0136529142037034
2,-0.0242342557758093,0.0656448900699615,-0.0843740552663803,-0.5,-0.0673758760094643,-0.001855474198237
3,-0.0245003867894411,0.0525753200054169,-0.0675457939505577,-0.5,-0.0635310634970665,0.0095213325694203
4,-0.029765460640192,0.0438182055950165,-0.0377703830599785,-0.5,-0.0420244932174683,0.0131548214703798
5,-0.0349890477955341,0.024208951741457,-0.0116980541497469,-0.5,-0.0237406529486179,0.006729464046657
6,-0.0301700476557016,-0.0151242986321449,0.0016902680508792,-0.5,-0.0168381128460169,-0.0002826544223353
7,-0.0107406815513968,-0.0513691417872906,0.015812573954463,-0.5,-0.0087809255346655,0.0049329623579978
8,0.0195950660854578,-0.0619705431163311,0.038285281509161,-0.5,0.008491332642734,0.0225395895540714
9,0.0413717776536942,-0.0550678893923759,0.0513719841837883,-0.5,0.0174936428666115,0.0387957245111465
10,0.0360128134489059,-0.0492975115776062,0.0418932661414146,-0.5,0.0009684705873951,0.0404372736811638
11,0.011577844619751,-0.052944865077734,0.0179976485669613,-0.5,-0.0300791431218386,0.0281588993966579
12,-0.0088078342378139,-0.057456012815237,-0.0009740485693328,-0.5,-0.0509394593536854,0.0100560085847974
13,-0.0128039289265871,-0.0439838990569115,0.0018723607063293,-0.5,-0.0479239113628864,-0.0034884363412857
14,-0.0028700667899102,-0.0069224224425852,0.0246659368276596,-0.5,-0.0296143312007189,-0.0034463789779692
15,0.0094728441908955,0.0306397266685963,0.0474460124969482,-0.5,-0.0182367991656065,0.0018969652010127
16,0.0074301469139754,0.0366351902484894,0.0491723865270615,-0.5,-0.0294127725064754,-0.0098656071349978
17,-0.0138143450021744,0.0124532366171479,0.028898049145937,-0.5,-0.0554450042545795,-0.0344968698918819
18,-0.037097904831171,-0.0121886804699898,0.0043972344137728,-0.5,-0.0725851580500603,-0.040817279368639
19,-0.0438048392534256,-0.0253097452223301,-0.0165738724172115,-0.5,-0.0727906003594399,-0.0268327463418245
20,-0.029922466725111,-0.0272088013589382,-0.035056509077549,-0.5,-0.0649885013699532,-0.0111991548910737
21,-0.0015526533825323,-0.0059472918510437,-0.040491621941328,-0.5,-0.0538821965456009,0.0068414988927543
22,0.0291170310229063,0.0362044163048267,-0.0181402787566185,-0.5,-0.0364713929593563,0.0342272073030472
23,0.0475985296070576,0.0720157101750374,0.0293010845780373,-0.5,-0.0112163471058011,0.0657437294721603
24,0.0498621761798859,0.0884123370051384,0.0802767425775528,-0.5,0.0167190283536911,0.0916979759931564
25,0.0448731929063797,0.0928111374378204,0.117296785116196,-0.5,0.0414446629583836,0.113485343754292
26,0.0338354483246803,0.0902101993560791,0.129137486219406,-0.5,0.0474334247410297,0.13800722360611
27,0.0056233219802379,0.0788707807660103,0.105432286858559,-0.5,0.0153619833290577,0.1569814234972
28,-0.036650225520134,0.0513028167188168,0.0565886572003365,-0.5,-0.0412445776164532,0.147752285003662
29,-0.0655573755502701,0.0092593971639871,0.0124909915030003,-0.5,-0.0783282965421677,0.102909408509731
30,-0.0562240034341812,-0.0280837081372738,-0.0068360408768057,-0.5,-0.068787045776844,0.047783400863409
31,-0.0212158393114805,-0.049536794424057,-0.006825799588114,-0.5,-0.0330296121537685,0.0097184833139181
32,0.0012644687667489,-0.0580104105174541,-0.0045332903973758,-0.5,-0.0106727099046111,-0.0092964153736829
33,-0.0022928118705749,-0.0544050745666027,-0.006544065196067,-0.5,-0.0143558960407972,-0.0203415378928185
34,-0.0140838781371713,-0.0375952012836933,-0.0054558487609028,-0.5,-0.0256080701947212,-0.0310923419892788
35,-0.0167183745652437,-0.013116218149662,0.0086861765012145,-0.5,-0.0170825012028217,-0.036989089101553
36,-0.0066152457147836,0.0026164413429796,0.0319924391806126,-0.5,0.0128875393420458,-0.0249429978430271
37,0.0100267864763737,0.0004313182434998,0.0476847179234028,-0.5,0.0338016003370285,0.0128527600318193
38,0.0229537803679705,-0.0048617953434586,0.0455316714942455,-0.5,0.0241393987089396,0.0630255937576294
39,0.0243975352495909,0.0043123490177094,0.0295463539659977,-0.5,-0.0091279800981283,0.0895832553505898
40,0.0131290312856436,0.0230791326612234,0.0086740208789706,-0.5,-0.0493886433541775,0.0684212446212769
41,-0.0077623301185667,0.0393470451235771,-0.0126474304124713,-0.5,-0.0862082093954086,0.0188561491668224
42,-0.0302824359387159,0.0500281788408756,-0.0348868779838085,-0.5,-0.111957177519798,-0.0221523568034172
43,-0.0423507988452911,0.0488448403775692,-0.0530751496553421,-0.5,-0.118782222270966,-0.0421176962554455
44,-0.0399109050631523,0.0347193628549576,-0.0548824109137058,-0.5,-0.106881231069565,-0.0434392057359219
45,-0.0279245302081108,0.0240212194621563,-0.0347749814391136,-0.5,-0.0851578935980797,-0.0273739565163851
46,-0.0112281739711761,0.0235973540693522,0.0006198425544425,-0.5,-0.0604283325374126,0.0016190625028684
47,-0.0002352176961721,0.0209494214504957,0.038766622543335,-0.5,-0.0365083403885365,0.0419331453740597
48,-0.0041858432814478,0.0173170547932386,0.0715281069278717,-0.5,-0.0188306234776974,0.0885216593742371
49,-0.0127795692533255,0.0277920477092266,0.0989408493041992,-0.5,-0.0060942387208342,0.124075137078762
50,-0.0056127114221453,0.0520100742578506,0.121762737631798,-0.5,0.0099091799929738,0.137611195445061
51,0.0209404919296503,0.0752374678850174,0.132302820682526,-0.5,0.0265490934252739,0.131582036614418
52,0.0425813421607018,0.0786844044923782,0.113707922399044,-0.5,0.0240059439092875,0.105395257472992
53,0.0321090295910835,0.0483936369419098,0.0568170808255672,-0.5,-0.0159522742033005,0.0599976629018784
54,-0.0019632992334663,-0.005277163349092,-0.017026336863637,-0.5,-0.0770252272486687,0.0100826313719153
55,-0.0248147416859865,-0.0478798933327198,-0.0643695816397667,-0.5,-0.114017955958843,-0.0236861445009708
56,-0.02425217628479,-0.0576143190264702,-0.0673730000853539,-0.5,-0.111721590161324,-0.0327377170324326
57,-0.0114213833585382,-0.0441369377076626,-0.0473407655954361,-0.5,-0.0915239155292511,-0.0251772720366716
58,0.0105714043602347,-0.0220647305250168,-0.0230697467923164,-0.5,-0.0644680187106133,-0.0071200509555637
59,0.0382374376058578,0.0039763106033206,0.0026311282999813,-0.5,-0.0327812656760216,0.0185040216892958
60,0.0540046133100986,0.0264120176434517,0.0251340735703707,-0.5,-0.0078376410529017,0.0399382151663303
61,0.041894968599081,0.0396957248449326,0.0356214977800846,-0.5,-0.0029233926907181,0.0455715693533421
62,0.0119666559621692,0.0599364154040813,0.0297774784266949,-0.44952192902565,-0.019968943670392,0.0385208874940872
63,-0.0097266547381877,0.0994067341089249,0.0166238285601139,-0.417469382286072,-0.0423481799662113,0.0368318744003773
64,-0.0156793612986803,0.132789760828018,0.0135524831712246,-0.483905792236328,-0.0505964271724224,0.0574446581304073
65,-0.0112643046304584,0.129029333591461,0.0282854083925486,-0.5,-0.0415916293859482,0.0914528295397758
66,-0.0046099382452666,0.0866132006049156,0.0451617948710918,-0.312240928411484,-0.0302233006805182,0.101889975368977
67,-0.0073869251646101,0.0220146328210831,0.0453794822096825,0.341514080762863,-0.0313127599656582,0.0669016912579536
68,-0.0083898957818746,-0.0399467647075653,0.0402947254478931,0.5,-0.0374562852084637,0.0139980092644691
69,0.0109222307801247,-0.0744567289948463,0.0461108312010765,0.5,-0.0354115143418312,-0.0174586344510317
70,0.0329830572009087,-0.0777011066675186,0.050025936216116,0.5,-0.0343948155641556,-0.0240133367478848
71,0.030577776953578,-0.0596219077706337,0.0392940305173397,0.5,-0.0480346493422985,-0.018227506428957
72,0.0080975107848644,-0.0280371587723494,0.0242415014654398,0.5,-0.0669147968292236,0.0024879730772227
73,-0.0141898635774851,0.0045114746317267,0.0174183677881956,0.5,-0.0716866999864578,0.0482336468994617
74,-0.0282101761549711,0.0253158304840326,0.0183206666260958,0.5,-0.0603857934474945,0.104459308087826
75,-0.0371393524110317,0.0377339124679565,0.0166714172810316,0.5,-0.0503480508923531,0.123581543564796
76,-0.0401939824223518,0.0568518824875355,0.0057942196726799,0.5,-0.0487461388111115,0.0827773883938789
77,-0.0255952589213848,0.0799959450960159,-0.0122651979327202,0.5,-0.0383009575307369,0.0119214989244938
78,0.010672983713448,0.0797084495425224,-0.0371284373104572,0.5,-0.0128928450867534,-0.0543473921716213
79,0.043299313634634,0.0449653789401054,-0.0687601193785667,0.5,-0.0010982907842844,-0.106746233999729
80,0.0408618152141571,-0.0010352471144869,-0.101203449070454,0.5,-0.0297288503497839,-0.147013574838638
81,0.010136678814888,-0.0297904536128044,-0.116480529308319,0.5,-0.076954074203968,-0.15930213034153
82,-0.0108748804777861,-0.0315646342933178,-0.0933491140604019,0.5,-0.0907704010605812,-0.121519446372986
83,-0.0042657563462853,-0.0206870622932911,-0.0372204035520554,0.5,-0.0547801852226257,-0.0521830134093761
84,0.0179640613496304,-0.0183092504739761,0.026737168431282,0.5,0.003634643740952,0.0015725864795967
85,0.0422282889485359,-0.0279693435877562,0.0769892483949661,0.5,0.0542810074985027,0.0153596960008144
86,0.0590417757630348,-0.039799552410841,0.0937627404928207,0.5,0.0756604745984077,-0.0027653428260237
87,0.0593167468905449,-0.0498196296393871,0.0702594444155693,0.5,0.0566669404506683,-0.035435501486063
88,0.0462396293878555,-0.0600395575165749,0.0258115287870169,0.5,0.0114010395482183,-0.0739859938621521
89,0.0327809266746044,-0.0668176487088203,-0.0171417463570833,0.5,-0.0327174440026283,-0.114534176886082
90,0.0191514082252979,-0.0633305609226227,-0.052025131881237,0.5,-0.0651010796427727,-0.143443211913109
91,-0.0008520989213138,-0.0463399179279804,-0.0752913132309914,0.5,-0.0853977724909782,-0.136228233575821
92,-0.0197050999850035,-0.0083104586228728,-0.0803519114851952,0.5,-0.0848077610135078,-0.085200347006321
93,-0.0275914445519447,0.0578634329140186,-0.0773381292819977,0.5,-0.0697398111224175,-0.0265366025269032
94,-0.0271929148584604,0.127083897590637,-0.0902025625109673,0.5,-0.0671668499708176,-0.0097915697842836
95,-0.0203702189028263,0.148573264479637,-0.117674991488457,0.5,-0.0813247337937355,-0.0427336655557156
96,-0.0097121661528945,0.103622145950794,-0.140634521842003,0.5,-0.0984199941158295,-0.100561454892159
97,-0.0072417650371789,0.0289673935621977,-0.153299957513809,0.5,-0.115216940641403,-0.165958791971207
98,-0.0074898190796375,-0.0265311319380999,-0.150798186659813,0.5,-0.121264137327671,-0.219102576375008
99,0.0071430997923016,-0.0479599945247173,-0.129238694906235,0.5,-0.103211671113968,-0.232970759272575
100,0.0297393091022968,-0.0478365533053875,-0.103070639073849,0.5,-0.0758423358201981,-0.210646495223045
101,0.0415860265493393,-0.043285645544529,-0.0856957957148552,0.5,-0.0639190599322319,-0.180428147315979
102,0.0408917143940926,-0.0452354550361633,-0.069198414683342,0.5,-0.0662137046456337,-0.148604825139046
103,0.0395419858396053,-0.0505089350044727,-0.0431874990463257,0.5,-0.0643063634634018,-0.102646216750145
104,0.0483875684440136,-0.0486504435539246,-0.0116077717393637,0.5,-0.0490619726479054,-0.0436511151492596
105,0.0643850639462471,-0.0362814627587795,0.0126624638214707,0.5,-0.0276896636933088,0.0115531673654914
106,0.0722280070185661,-0.0229547973722219,0.0158921014517546,0.5,-0.0159821379929781,0.0310304686427116
107,0.063981294631958,-0.0191299505531788,-0.0120179923251271,0.5,-0.0243288390338421,-0.0129795698449016
108,0.040043767541647,-0.0226120557636023,-0.0857226476073265,0.5,-0.0595363974571228,-0.108249127864838
109,-0.0001889946288429,-0.0250306855887175,-0.206035554409027,0.5,-0.127833381295204,-0.216038063168526
110,-0.0459161475300789,-0.0206443499773741,-0.31772169470787,0.5,-0.209577903151512,-0.297268837690353
111,-0.0748106390237808,-0.0102842804044485,-0.35014283657074,0.287275642156601,-0.263069123029709,-0.32250702381134
112,-0.0712587535381317,0.0015001363353803,-0.292456865310669,-0.278378009796143,-0.261578768491745,-0.289265841245651
113,-0.0345717817544937,0.0162526667118073,-0.187879055738449,-0.5,-0.202951610088348,-0.220914542675018
114,0.0176026690751314,0.0360580831766129,-0.0909518003463745,-0.5,-0.11029963940382,-0.148593857884407
115,0.0624152943491936,0.0478807277977467,-0.04292007163167,-0.5,-0.0355857945978642,-0.102009505033493
116,0.0856704339385033,0.0314530655741692,-0.0586509667336941,-0.5,-0.0292564276605845,-0.0991770029067993
117,0.0783361047506332,-0.0152471242472529,-0.117932699620724,-0.5,-0.0882027968764305,-0.128744572401047
118,0.045324694365263,-0.065997838973999,-0.173094242811203,-0.5,-0.15538977086544,-0.151923149824142
119,0.0078361257910728,-0.0845275670289993,-0.184375807642937,-0.5,-0.182252958416939,-0.138391315937042
120,-0.0156197855249047,-0.0557590872049332,-0.153478130698204,-0.5,-0.167043790221214,-0.0964248478412628
121,-0.0189946833997965,0.0011998820118606,-0.111443616449833,-0.5,-0.133447989821434,-0.0502832122147083
122,-0.0130113288760185,0.0484523624181747,-0.0854757502675056,-0.5,-0.105675607919693,-0.0239752326160669
123,-0.0105038657784462,0.0600492246448994,-0.0778813287615776,-0.411098718643188,-0.092528760433197,-0.0362264290452003
124,-0.0030257997568696,0.0443522557616234,-0.0663368999958038,-0.5,-0.0774277821183205,-0.0668348893523216
125,0.0157593283802271,0.0285321846604347,-0.0445510521531105,-0.5,-0.0531553402543068,-0.0892302170395851
126,0.0313152819871902,0.0174426678568125,-0.0344792306423187,-0.5,-0.0397064983844757,-0.116164192557335
127,0.0326260030269623,-0.0052221110090613,-0.0435346253216267,-0.5,-0.0441112667322159,-0.154718697071075
128,0.021670326590538,-0.0448209829628468,-0.0665544793009758,-0.5,-0.0570351518690586,-0.186072453856468
129,0.0041044764220714,-0.0876817777752876,-0.102799862623215,-0.5,-0.0770190432667732,-0.199424371123314
130,-0.0128081813454628,-0.103218376636505,-0.13239686191082,-0.5,-0.0968187525868416,-0.189953044056892
131,-0.0237736608833075,-0.0740546584129334,-0.129941195249558,-0.5,-0.0965050831437111,-0.15169170498848
132,-0.0233425032347441,-0.0216672755777836,-0.098663218319416,-0.5,-0.0666336491703987,-0.0872225686907768
133,-0.0060155084356665,0.0209413524717093,-0.0609468147158623,-0.5,-0.0225888844579458,-0.0119559485465288
134,0.0169431325048208,0.0335115045309067,-0.0389238558709621,-0.5,0.0039930730126798,0.0386296883225441
135,0.0268780626356602,0.0131359687075019,-0.0447856076061726,-0.5,-0.0076431105844676,0.0365821495652199
136,0.0270829144865274,-0.0218167845159769,-0.0625646039843559,-0.5,-0.037334144115448,0.0070824669674038
137,0.0383370891213417,-0.0362156480550766,-0.0521598421037197,-0.5,-0.0378651358187199,0.0070182317867875
138,0.0656080842018127,-0.0133869023993611,-0.0042453156784176,-0.5,0.0057895304635167,0.046545471996069
139,0.0857215970754623,0.0243374370038509,0.0423559434711933,-0.5,0.0596978366374969,0.0753739401698112
140,0.0783044919371605,0.0523950904607773,0.0619774647057056,-0.5,0.0896628648042679,0.0656265318393707
141,0.0479562506079674,0.0634946823120117,0.0651715323328972,-0.5,0.0874542221426964,0.0421630777418613
142,0.009604837745428,0.0547489710152149,0.061894915997982,-0.5,0.0577476024627686,0.0267551392316818
143,-0.0212199967354536,0.0321077033877373,0.0578334890305996,-0.230460464954376,0.021624106913805,0.0195593032985926
144,-0.0316186062991619,0.0137235801666975,0.0676455125212669,0.345738261938095,0.0115293310955167,0.0278560575097799
145,-0.0234147682785988,0.0098094902932643,0.0964014679193497,0.5,0.0373197719454765,0.0573717877268791
146,-0.0102920746430755,0.0103783253580332,0.123219005763531,0.5,0.0778118297457695,0.0856769904494286
147,-0.0034743230789899,0.0036215046420693,0.124129183590412,0.5,0.107985563576221,0.0926041528582573
148,-0.0053422399796545,-0.0030153288971632,0.103250160813332,0.5,0.119086496531963,0.0966088771820068
149,-0.0099571533501148,0.0020316781010478,0.0749655589461327,0.5,0.111578270792961,0.114142961800098
150,-0.0107774576172233,0.008253838866949,0.0422912426292896,0.5,0.0917777940630913,0.120904475450516
151,-0.0053742555901408,0.0036743502132594,0.0170411318540573,0.5,0.0795915052294731,0.0994192808866501
152,0.0035886687692254,0.0008218896691687,0.0130473524332047,0.5,0.0863034725189209,0.0703900083899498
153,0.0067150555551052,0.0084597887471318,0.0185462944209576,0.324422299861908,0.0909126251935959,0.0604140274226666
154,-0.0012447463814169,0.0135879507288337,0.0178343113511801,0.195241704583168,0.0735175162553787,0.0756903514266014
155,-0.0157066844403744,0.0085683837532997,0.0153970960527658,0.115573264658451,0.0462136790156364,0.0923422947525978
156,-0.0280788354575634,0.0019971618894487,0.0180852878838778,0.0752318575978279,0.033267006278038,0.0779928788542748
157,-0.0234812777489424,0.0005687492666766,0.0230198986828327,0.0638920217752457,0.0418699607253075,0.0397397838532925
158,0.0089361006394028,0.0006426347536034,0.0321314558386803,0.0601938590407372,0.0595180466771126,0.0220707803964615
159,0.0530862361192703,-0.0008351535070687,0.0563075505197048,0.0547545291483402,0.0781325846910477,0.0492885746061802
160,0.0822871774435043,0.0027374462224543,0.0968543961644173,0.0840662196278572,0.102039985358715,0.10069028288126
161,0.0887769237160683,0.0175155270844698,0.138434916734695,0.294647455215454,0.129770681262016,0.138632521033287
162,0.07456124573946,0.0317345485091209,0.165186733007431,0.5,0.152018800377846,0.145993173122406
163,0.0492778718471527,0.02920887991786,0.175001755356789,0.5,0.17046582698822,0.139568865299225
164,0.0290447995066643,0.0161688104271889,0.169674575328827,0.5,0.183802664279938,0.141660571098328
165,0.01517513114959,0.0157150123268366,0.148684725165367,0.5,0.173223078250885,0.156215995550156
166,0.0005354258464649,0.0388044081628323,0.117200560867786,0.0231038834899664,0.136021554470062,0.169933825731277
167,-0.0125596718862653,0.0689136162400246,0.0839753299951553,-0.5,0.0958312079310417,0.159478366374969
168,-0.0136518394574523,0.0774370059370995,0.0537277460098267,-0.5,0.0748271867632866,0.114798568189144
169,-0.000272932666121,0.0470927618443966,0.0299772396683693,-0.5,0.0778618305921555,0.0587103925645351
170,0.0164770409464836,-0.0087876869365572,0.0267923567444086,-0.5,0.0947104021906853,0.0334087051451206
171,0.0259593371301889,-0.0544136799871922,0.0492618083953857,-0.5,0.111130572855473,0.0521397739648819
172,0.0211252942681313,-0.0729667320847511,0.0728020891547203,0.223362475633621,0.1129085496068,0.0807809680700302
173,0.0056590917520225,-0.0769283473491669,0.0770889595150948,0.5,0.0949342623353004,0.0886802896857262
174,-0.0058805737644434,-0.0768905282020569,0.0714960545301437,0.5,0.0718919485807419,0.0842631235718727
175,-0.0079455068334937,-0.068365789949894,0.0776704847812653,0.5,0.062837265431881,0.0916926488280296
176,-0.001458108308725,-0.0459980852901936,0.106890894472599,0.5,0.0736906230449677,0.117737352848053
177,0.0094836987555027,-0.0146954953670502,0.14544951915741,0.5,0.0923927426338196,0.146215870976448
178,0.0121489176526666,0.0113003412261605,0.163896471261978,0.5,0.097221814095974,0.158515840768814
179,0.0037262891419231,0.0239121150225401,0.153287440538406,0.5,0.0856340974569321,0.160327807068825
180,-0.0004499383794609,0.0323939211666584,0.137482061982155,0.5,0.079389750957489,0.176492750644684
181,0.0079947337508201,0.0471704043447971,0.135410994291306,0.5,0.088710680603981,0.206356644630432
182,0.0192067977041006,0.0647245571017265,0.139180764555931,0.5,0.101427033543587,0.219831988215446
183,0.0193936303257942,0.0744100511074066,0.131932809948921,0.5,0.10127354413271,0.201923623681068
184,0.0060725207440555,0.0714561715722084,0.109191961586475,0.5,0.0837644040584564,0.169125273823738
185,-0.0086973123252391,0.0584112294018269,0.0833596438169479,0.5,0.0635790154337883,0.146813064813614
186,-0.0150612639263272,0.0331339351832867,0.0601664148271084,0.5,0.0480366535484791,0.131567537784576
187,-0.0161405559629202,-0.0020479192025959,0.0385413728654385,0.5,0.0312681086361408,0.103547088801861
188,-0.0160686355084181,-0.0257768649607897,0.0276260953396559,0.5,0.02071438357234,0.0727283582091331
189,-0.0157709196209908,-0.0269624944776297,0.0295947138220072,0.5,0.0280473548918962,0.0625539347529411
190,-0.0172745585441589,-0.0254670195281506,0.0420149266719818,0.5,0.0563332587480545,0.0717306137084961
191,-0.0165445357561111,-0.0386244244873524,0.0683431252837181,0.5,0.0921902284026146,0.0846947208046913
192,-0.008199855685234,-0.0518883727490902,0.0930822938680649,0.5,0.104427881538868,0.0934032052755356
193,0.0076693780720233,-0.0395528189837933,0.0943662226200104,0.5,0.0882905274629593,0.105010010302067
194,0.029582230374217,-0.0068331728689372,0.0801093652844429,0.5,0.0739570334553719,0.136755630373955
195,0.0468434356153011,0.0171454325318336,0.0661434829235077,0.5,0.0689660161733627,0.177497640252113
196,0.0456969328224659,0.0198922231793404,0.0522212572395802,0.5,0.0548730231821537,0.185987144708633
197,0.0282763317227364,0.006647047586739,0.0416606590151787,0.5,0.0300968214869499,0.149836882948875
198,0.0087478859350085,-0.0110097415745258,0.0491593070328236,0.5,0.0122853526845574,0.100011244416237
199,-0.0036949054338038,-0.0155436471104622,0.0821541324257851,0.5,0.0164522025734186,0.0779245719313622
200,-0.0155843896791339,0.0022477600723505,0.125854402780533,0.5,0.0335402451455593,0.104431942105293
201,-0.0380216240882874,0.0348111018538475,0.153479442000389,0.5,0.0389689728617668,0.160598769783974
202,-0.0646850094199181,0.0677664056420326,0.153064906597137,0.5,0.029370404779911,0.202729001641274
203,-0.0727394074201584,0.0891637206077576,0.137240961194038,0.5,0.0272777788341045,0.208679690957069
204,-0.0464133098721504,0.0904931873083115,0.125371798872948,0.5,0.0498015768826008,0.190832450985909
205,0.0040318062528967,0.0659585222601891,0.11928890645504,0.5,0.0859760269522667,0.159123107790947
206,0.05093839392066,0.0180647931993008,0.108070865273476,0.5,0.114651694893837,0.113791346549988
207,0.0734136402606964,-0.0397148430347443,0.0905535966157913,0.5,0.127400025725365,0.0665133446455002
208,0.069561131298542,-0.0844106674194336,0.0770982131361961,0.5,0.123599074780941,0.0382101126015186
209,0.0495667494833469,-0.0960462912917137,0.0765694007277489,0.5,0.106671936810017,0.0451348796486855
210,0.0267258491367102,-0.073602095246315,0.0875957906246185,0.5,0.085439570248127,0.0933394059538841
211,0.0101419035345316,-0.0287796184420586,0.0947612971067429,0.5,0.0636817291378975,0.160417214035988
212,-0.0076854871585965,0.0159375164657831,0.0787219479680061,0.5,0.0319818407297134,0.18816639482975
213,-0.0388348400592804,0.0379066318273544,0.0404794737696648,0.5,-0.0146560408174992,0.1446742862463
214,-0.0733781382441521,0.0453915633261204,0.0036609536036849,0.5,-0.0571688190102577,0.0724819302558899
215,-0.0808221995830536,0.0548099391162395,-0.0145045006647706,0.5,-0.066333957016468,0.031303446739912
216,-0.0492444150149822,0.0518071763217449,-0.0193497352302074,0.5,-0.0404522828757763,0.0272676385939121
217,-0.0082124108448624,0.0231050420552492,-0.0178315564990044,0.5,-0.0100554656237364,0.0359017550945282
218,0.013159928843379,-0.0148996189236641,-0.0015188512625172,0.5,0.0082086287438869,0.0586385950446129
219,0.0131803248077631,-0.0396594665944576,0.028828265145421,0.5,0.0202506631612778,0.107109107077122
220,-0.0022524027153849,-0.0334173738956451,0.0534741580486298,0.5,0.0270566958934069,0.155689299106598
221,-0.0233122333884239,0.0065377536229789,0.0682326406240463,0.5,0.0310420878231525,0.166882902383804
222,-0.0354215316474438,0.0517605654895306,0.0862462893128395,0.5,0.0401465781033039,0.144536808133125
223,-0.0337875708937645,0.0723944008350372,0.113267160952091,0.5,0.0623934529721737,0.121823392808437
224,-0.023689903318882,0.0624305605888367,0.14293697476387,0.5,0.0997353047132492,0.113899439573288
225,-0.009301446378231,0.0279034338891506,0.158369511365891,0.5,0.129859760403633,0.111626043915749
226,0.0071972166188061,-0.0143352244049311,0.150594428181648,0.5,0.127530589699745,0.110265828669071
227,0.0205896478146315,-0.0416051857173443,0.131548166275024,0.5,0.106844164431095,0.112052127718925
228,0.022634468972683,-0.0334281399846077,0.112423375248909,0.5,0.0955954641103745,0.117829829454422
229,0.012270356528461,0.0250097364187241,0.0917642414569855,0.5,0.0878565162420273,0.129956737160683
230,-0.0053292633965611,0.105848543345928,0.0638627707958221,0.5,0.0580861531198025,0.142489895224571
231,-0.0330832861363888,0.146273583173752,0.0226586256176233,0.5,-0.0026413397863507,0.137786626815796
232,-0.0665467903017998,0.129865691065788,-0.0240527894347906,0.5,-0.0708667188882828,0.120882757008076
233,-0.0811749845743179,0.0909226387739182,-0.0479206889867783,0.5,-0.103909604251385,0.117329783737659
234,-0.0683610588312149,0.0451576896011829,-0.0351454019546509,0.5,-0.0814476758241653,0.11913151293993
235,-0.0437926724553108,-0.014584775082767,-0.0068245008587837,0.5,-0.0262567084282637,0.107178010046482
236,-0.016958037391305,-0.0768698900938034,0.0170686841011047,0.5,0.0251401234418154,0.0879451856017113
237,0.0083701014518737,-0.108873464167118,0.0402612164616585,0.5,0.0580569952726364,0.0689938887953758
238,0.0200477950274944,-0.0932060703635216,0.0628070086240768,0.5,0.0692033246159554,0.0519662015140057
239,0.004843802191317,-0.0506316497921944,0.0706653296947479,0.5,0.0520607531070709,0.0359752215445042
240,-0.0301514714956284,-0.0185787156224251,0.0592005029320717,0.161879703402519,0.0160689894109964,0.0215472653508186
241,-0.0571123287081718,-0.0168840903788805,0.0359217710793018,-0.5,-0.017388291656971,0.0136365061625838
242,-0.0578540489077568,-0.0280647128820419,0.0180371999740601,-0.5,-0.0293882787227631,0.0199494063854218
243,-0.0355148240923882,-0.019653195515275,0.0273033957928419,-0.5,-0.0083591574802994,0.0444091781973839
244,-0.0045653898268938,0.0085777509957552,0.0617058165371418,-0.5,0.0341355614364147,0.0730340629816055
245,0.0127259148284793,0.0273090004920959,0.0938746780157089,-0.5,0.0679880455136299,0.0892938748002052
246,0.0054471008479595,0.0230987425893545,0.102407224476337,-0.5,0.0705444887280464,0.0981058478355408
247,-0.013437201268971,0.0208068024367094,0.0917923375964165,-0.5,0.0465808622539043,0.115029945969582
248,-0.027797743678093,0.0483825616538525,0.0778323411941528,-0.5,0.0189043078571558,0.141689419746399
249,-0.0361301638185978,0.0978987291455269,0.0609472468495369,-0.5,-0.0035089440643787,0.164129719138145
250,-0.0458344146609306,0.14514696598053,0.0321666039526463,-0.5,-0.0279095508158207,0.165092647075653
251,-0.0562989637255669,0.171294078230858,0.0003293056506663,-0.5,-0.048658762127161,0.136849999427795
252,-0.0543934181332588,0.156958058476448,-0.012827574275434,-0.5,-0.0500277690589428,0.0911630988121033
253,-0.0328948013484478,0.0973179787397385,-0.0106724621728063,-0.5,-0.0329930447041988,0.0467037819325924
254,-0.001890146988444,0.0186891723424196,-0.0158999040722847,-0.5,-0.0064820684492588,0.0155908642336726
255,0.0292290206998587,-0.0438620410859585,-0.0243172943592072,-0.5,0.0291653443127871,0.0144580220803618
256,0.0628703013062477,-0.0753257349133492,-0.0197815485298634,-0.5,0.0633386820554733,0.0472927540540695
257,0.0919066742062569,-0.0769532322883606,-0.0095670577138662,-0.5,0.0699424296617508,0.0758179202675819
258,0.0873864889144897,-0.0586264431476593,-0.004825766198337,-0.5,0.0430255718529224,0.0611418485641479
259,0.0409629195928574,-0.0385675393044949,-0.0016896803863346,-0.5,0.0078844157978892,0.0167175140231848
260,-0.0124736372381449,-0.0239091236144304,0.0103993900120258,-0.5,-0.0127460323274136,-0.0152226183563471
261,-0.0478539764881134,-0.0108973141759634,0.0297845918685198,-0.5,-0.024598928168416,-0.0157780740410089
262,-0.0668877437710762,0.0022900304757058,0.043705128133297,-0.5,-0.0418547056615353,0.0079532144591212
263,-0.0673942565917969,0.0257127936929464,0.0504323951900005,-0.5,-0.0572174564003944,0.0490225367248058
264,-0.0538434535264969,0.0656110420823097,0.0543880313634872,-0.5,-0.0571705065667629,0.0981728583574295
265,-0.0440023578703403,0.098017081618309,0.0506381019949913,-0.5,-0.0487008169293404,0.129336565732956
266,-0.0433156229555607,0.093763068318367,0.0364611111581326,-0.5,-0.0431357026100159,0.121901005506516
267,-0.0418187715113163,0.0597577393054962,0.0212646685540676,-0.5,-0.0343242734670639,0.0893464535474777
268,-0.0297239236533642,0.0257417745888233,0.0149927856400609,-0.5,-0.0147469528019428,0.0597563534975052
269,-0.005633061286062,0.0137984594330192,0.0219083819538355,-0.5,0.0119645604863763,0.0495797842741013
270,0.0233459305018187,0.024644760414958,0.0374630950391293,-0.5,0.0382338836789131,0.0586790814995766
271,0.045533798635006,0.0351335965096951,0.0457096882164478,-0.5,0.0503601245582104,0.0714253634214401
272,0.0523941591382027,0.0256901606917381,0.0388695150613785,-0.5,0.0401329733431339,0.0767755731940269
273,0.048534918576479,0.0061006625182926,0.0305937081575394,-0.5,0.0244130790233612,0.0773385465145111
274,0.0441069230437279,-0.0054898909293115,0.031275101006031,-0.5,0.0239987503737211,0.0710897073149681
275,0.0421037822961807,-0.0062986873090267,0.0310854371637106,-0.5,0.0372172929346561,0.0475952439010143
276,0.0417837016284466,0.0010128899011761,0.0235391557216644,-0.5,0.0518633835017681,0.0084201982244849
277,0.0425642393529415,0.0139907849952579,0.0173962749540806,-0.5,0.0627604499459267,-0.0209792964160442
278,0.0419627651572227,0.0260706599801779,0.0116298105567694,-0.5,0.0673664808273315,-0.0227685272693634
279,0.0331908948719502,0.0287794973701239,-0.0096839154139161,-0.5,0.05793072655797,-0.0162164699286222
280,0.0122307930141687,0.0131553029641509,-0.0526898130774498,-0.5,0.0300345029681921,-0.0341003611683846
281,-0.0155375180765986,-0.0223917495459318,-0.111354358494282,-0.5,-0.0143783511593938,-0.0863602980971336
282,-0.0390051603317261,-0.0687049031257629,-0.173237904906273,-0.5,-0.0718173310160637,-0.151803821325302
283,-0.0436249896883965,-0.108458243310452,-0.202371492981911,-0.482124775648117,-0.115975022315979,-0.188920006155968
284,-0.0216338578611612,-0.112482294440269,-0.15722219645977,-0.5,-0.101302444934845,-0.158591076731682
285,0.0131753841415048,-0.0675826892256737,-0.0503392443060875,-0.5,-0.0245579313486815,-0.0674189478158951
286,0.0358345881104469,-0.0058949026279151,0.0546414889395237,-0.5,0.0609029941260815,0.0268425848335028
287,0.0385958440601826,0.0303551908582449,0.109897814691067,-0.5,0.106133349239826,0.0765263289213181
288,0.0340803377330303,0.0319548062980175,0.115649148821831,-0.5,0.105972900986671,0.0863467827439308
289,0.032990600913763,0.0147564224898815,0.0974653288722038,-0.5,0.0840137526392937,0.0860536992549896
290,0.031785175204277,-0.0095264371484518,0.0727265477180481,-0.5,0.0608185715973377,0.077515721321106
291,0.0206618867814541,-0.0378981679677963,0.0449301861226559,-0.5,0.0413902066648006,0.0393049493432045
292,0.0010655786609277,-0.0599803701043129,0.0211744476109743,-0.5,0.0265235230326653,-0.0185388382524252
293,-0.0125159695744514,-0.0607483573257923,0.0100325923413038,-0.5,0.0211870018392801,-0.0566849410533905
294,-0.0086282473057508,-0.0364767499268055,0.0098665375262498,-0.5,0.0338406078517437,-0.0581187903881073
295,0.0081741102039814,-0.0011544174049049,0.0119870649650693,-0.5,0.0618569068610668,-0.0432274527847767
296,0.0216693375259638,0.0214998051524162,0.0046864408068358,-0.5,0.0774547457695007,-0.0419998839497566
297,0.0223670769482851,0.0213000420480967,-0.0149083575233817,-0.5,0.0600331760942936,-0.0555054619908333
298,0.0149773461744189,0.0150757320225239,-0.0319183804094791,-0.5,0.0288229286670685,-0.0553433448076248
299,0.005326026584953,0.0316194258630276,-0.0365730486810207,-0.5,0.0074684903956949,-0.0313208177685738
300,-0.0075616952963173,0.067671425640583,-0.0392146743834019,-0.5,-0.0107473395764828,-0.0122601864859462
301,-0.0191095843911171,0.0785613134503365,-0.0497223921120167,-0.5,-0.03043975494802,-0.0251343920826912
302,-0.0194413010030985,0.0420747846364975,-0.063989631831646,-0.5,-0.0326998643577099,-0.0580271109938622
303,-0.0061362162232399,-0.0151624483987689,-0.0717608332633972,-0.5,-0.0116626378148794,-0.0786474794149399
304,0.0133924409747124,-0.0648979097604752,-0.0723670497536659,-0.5,0.009988248348236,-0.0814170613884926
305,0.0229991413652897,-0.108944773674011,-0.0788140147924423,-0.5,0.006992916110903,-0.0925382971763611
306,0.0143754249438643,-0.14688915014267,-0.0910069271922112,-0.5,-0.0249554552137852,-0.114575885236263
307,0.0013091942528262,-0.150461331009865,-0.0839921087026596,-0.5,-0.0615908205509186,-0.108255490660667
308,-0.0019746939651668,-0.109099745750427,-0.0415302775800228,-0.5,-0.0737617760896683,-0.0535283796489239
309,0.0046305647119879,-0.0516694635152817,0.0240520462393761,-0.243689671158791,-0.0535887628793716,0.0231800489127636
310,0.0233265738934278,-0.0009993556886911,0.0882225781679153,-0.274150043725967,-0.0093167331069707,0.0886029228568077
311,0.0566755868494511,0.0394561775028706,0.130701288580894,-0.5,0.0426158234477043,0.122033052146435
312,0.0880587697029114,0.0698305666446686,0.142715081572533,-0.5,0.08629360049963,0.113563969731331
313,0.0930150672793388,0.0910769253969193,0.127859637141228,-0.5,0.116023689508438,0.0739222168922424
314,0.0711992233991623,0.0946737676858902,0.0974150896072388,-0.5,0.127370715141296,0.0264432821422815
315,0.0429984964430332,0.0714758262038231,0.060690738260746,-0.5,0.115621082484722,-0.011408063583076
316,0.020669013261795,0.0251206532120705,0.0145070618018508,-0.5,0.0822499468922615,-0.0394783467054367
317,0.001207347260788,-0.0306162554770708,-0.0440703444182873,-0.5,0.0306099634617567,-0.0733891725540161
318,-0.0240248832851648,-0.0778804421424866,-0.100753121078014,-0.5,-0.0312678031623363,-0.116122961044312
319,-0.0536595657467842,-0.107809364795685,-0.130457565188408,-0.5,-0.0839432403445244,-0.145715996623039
320,-0.0688793957233429,-0.114703603088856,-0.113816902041435,-0.5,-0.102423451840878,-0.138713821768761
321,-0.0576644651591778,-0.0908466875553131,-0.0567379966378212,-0.5,-0.0811117812991142,-0.0933069214224815
322,-0.0328559689223766,-0.0425151325762272,0.0095627447590231,-0.5,-0.0433967486023903,-0.0297788996249437
323,-0.0117657305672765,0.011263913474977,0.0540638230741024,-0.5,-0.0134396133944392,0.0330508910119534
324,0.0038575525395572,0.0569611676037312,0.068840429186821,-0.5,0.004788564518094,0.0898120179772377
325,0.0231295693665743,0.092681996524334,0.0666498616337776,-0.5,0.0200086534023285,0.129793807864189
326,0.0480552352964878,0.113275714218616,0.0543443225324154,-0.5,0.0318013057112694,0.134625121951103
327,0.0624682456254959,0.104019083082676,0.0257424954324961,-0.5,0.025849524885416,0.0933316648006439
328,0.0505352579057217,0.0595354363322258,-0.016541700810194,-0.5,-0.001454722136259,0.0112196775153279
329,0.024682430550456,-0.002112264977768,-0.0498250089585781,-0.5,-0.0303043723106384,-0.0760101452469826
330,0.0125156566500664,-0.0508428625762463,-0.0488225929439068,-0.5,-0.0387512631714344,-0.121686972677708
331,0.0205033645033836,-0.0678929910063744,-0.0116418702527881,-0.5,-0.0225437041372061,-0.111381761729717
332,0.0321181565523148,-0.0574923753738403,0.035990085452795,-0.5,0.0052506988868117,-0.0685879588127136
333,0.0338527038693428,-0.0403712317347527,0.0593452826142311,-0.5,0.0212231390178204,-0.0269730910658836
334,0.0227440148591995,-0.0338476523756981,0.0387550331652164,-0.5,0.0071759191341698,-0.0108174541965127
335,-0.0004454762674868,-0.0405303649604321,-0.0164626315236092,-0.5,-0.0297914650291204,-0.0290595535188913
336,-0.0256706364452839,-0.0515759103000164,-0.0702493861317635,-0.5,-0.0613110326230526,-0.0610104277729988
337,-0.0367772541940212,-0.0547429323196411,-0.086012490093708,-0.177340134978294,-0.067135713994503,-0.0675022304058075
338,-0.0320124477148056,-0.0450302213430405,-0.0677541270852089,0.125952884554863,-0.0571475960314274,-0.0333534926176071
339,-0.0266295671463013,-0.0255855638533831,-0.052909292280674,0.284854859113693,-0.0561672449111938,0.007364195305854
340,-0.0259582828730345,-0.0043616699986159,-0.0471058040857315,0.379465907812119,-0.0612521581351757,0.0133036132901907
341,-0.0172166470438242,0.0082091689109802,-0.0217701345682144,0.455217272043228,-0.0487041585147381,-0.004889391362667
342,0.0056347399950027,0.0122529342770576,0.0251935310661793,0.5,-0.0162328593432903,-0.013400861993432
343,0.0327915661036968,0.0219572298228741,0.0721900165081024,0.5,0.0203383378684521,-0.0009420263231731
344,0.0514664612710476,0.0460372492671013,0.101872116327286,0.5,0.0473016910254955,0.0269257146865129
345,0.0570593439042568,0.0784825161099434,0.0993707031011581,0.5,0.0541468560695648,0.0569063685834408
346,0.054571520537138,0.101070590317249,0.0626793056726456,0.5,0.0377552509307861,0.0665885135531425
347,0.0480999499559402,0.0870150998234749,0.00640404317528,0.5,0.0071282079443335,0.0352692790329456
348,0.0356454588472843,0.0264701973646879,-0.0533595122396946,0.5,-0.0298027377575636,-0.0316474549472332
349,0.0161578543484211,-0.0554280020296574,-0.100692868232727,0.5,-0.0647894144058228,-0.10401875525713
350,-0.0080871675163507,-0.121227905154228,-0.120939858257771,0.5,-0.0866614058613777,-0.154825642704964
351,-0.0299914088100195,-0.143065050244331,-0.108891099691391,0.5,-0.0959169864654541,-0.167472615838051
352,-0.0403030700981617,-0.116332985460758,-0.0748860985040665,0.5,-0.0978456661105156,-0.135778486728668
353,-0.0381799452006817,-0.0661658346652985,-0.03894417360425,0.482043743133545,-0.0915349572896957,-0.0741263180971146
354,-0.0315875485539436,-0.0170848406851292,-0.0061240997165441,-0.5,-0.0717420130968094,-0.002925612963736
355,-0.0268437042832375,0.0253869257867336,0.0342878550291061,-0.5,-0.036177821457386,0.0637743398547173
356,-0.0200003292411566,0.0564714409410954,0.0779588222503662,-0.5,0.0039192643016576,0.1104546636343
357,-0.0040484382770955,0.0689387023448944,0.100124441087246,-0.5,0.0274164993315935,0.131899803876877
358,0.0187631137669086,0.068935714662075,0.0879940167069435,-0.5,0.0234307385981083,0.133934259414673
359,0.0345965921878815,0.064439594745636,0.0489732250571251,-0.5,-0.0030848616734147,0.105872213840485
360,0.0313741825520992,0.0477319732308388,-0.0038764963392168,-0.5,-0.0401191264390945,0.0395589657127857
361,0.0211046505719423,0.020691704005003,-0.0487134642899036,-0.5,-0.0700587779283524,-0.0345180854201317
362,0.0228312108665705,-0.0023119347169995,-0.0676419511437416,0.5,-0.0798886194825172,-0.0813366249203682
363,0.0266048721969128,-0.0238730274140835,-0.0677992478013039,0.5,-0.0736124590039253,-0.101455323398113
364,0.0143145313486457,-0.0440178960561752,-0.0656856521964073,0.5,-0.0624682791531086,-0.114418916404247
365,-0.008697616867721,-0.0463341437280178,-0.0604380220174789,0.5,-0.0514483824372292,-0.122909352183342
366,-0.0300314836204052,-0.0325176455080509,-0.0422998666763306,0.5,-0.0413808226585388,-0.111181825399399
367,-0.0415717549622059,-0.0190749485045671,-0.0110603077337146,0.5,-0.0323770754039288,-0.0755429342389107
368,-0.0398944020271301,-0.0052781151607632,0.0219864081591368,0.5,-0.0295174401253462,-0.0287660248577595
369,-0.0390633046627045,0.013589303009212,0.0353590399026871,0.5,-0.0441674366593361,0.0094512086361646
370,-0.0502808317542076,0.023978041484952,0.0185638256371021,0.5,-0.0723025128245354,0.0200791787356138
371,-0.0594546608626843,0.01085782982409,-0.0136640872806311,0.5,-0.0928545668721199,0.0041276882402598
372,-0.0551883950829506,-0.0218993034213781,-0.0420664735138416,0.5,-0.0967341810464859,-0.0182403791695833
373,-0.0383290909230709,-0.0536438412964344,-0.0487027317285538,0.5,-0.0820972174406052,-0.0261853244155645
374,-0.009810771793127,-0.0645363703370094,-0.0218576826155186,0.5,-0.0412379689514637,-0.0077656074427068
375,0.0160992220044136,-0.0526270382106304,0.0187469162046909,0.5,0.0147733557969332,0.0316043235361576
376,0.0259513221681118,-0.0280080363154411,0.0404572896659374,0.5,0.0537253953516483,0.0626081973314285
377,0.0305715873837471,0.0007010879926383,0.0348017066717148,0.5,0.0549463145434856,0.0578295178711414
378,0.0397649593651295,0.0234314184635878,0.0102314343675971,0.5,0.0228070076555014,0.0228168945759535
379,0.0430141985416412,0.0275291055440903,-0.020247396081686,0.5,-0.022559167817235,-0.0156260058283806
380,0.0289650894701481,0.015357525087893,-0.0387551970779896,0.5,-0.0613709017634392,-0.0298325307667255
381,0.0038048371206969,0.0071617201901972,-0.0388998426496983,0.5,-0.0838364660739899,-0.0168234538286924
382,-0.0155092757195234,0.0139313908293843,-0.0383275151252747,0.5,-0.0890460833907127,-0.0098345456644892
383,-0.0233749635517597,0.0206854976713657,-0.0517859868705273,0.5,-0.0862671434879303,-0.0304513927549124
384,-0.0294330380856991,0.0110171409323812,-0.0703751742839813,0.5,-0.0875379741191864,-0.06103141233325
385,-0.0393826179206371,-0.0095724575221538,-0.0809459611773491,0.5,-0.093967504799366,-0.0760102793574333
386,-0.0487010888755322,-0.0300185084342957,-0.0828961208462715,0.5,-0.100693754851818,-0.0711242705583572
387,-0.0475851967930794,-0.0381413213908672,-0.0789826735854149,0.5,-0.102237567305565,-0.0570208802819252
388,-0.0318810604512692,-0.0233074780553579,-0.0644976496696472,0.5,-0.0945285931229591,-0.0378119945526123
389,-0.0115641839802265,0.0055164159275591,-0.0389374084770679,0.5,-0.082317017018795,-0.0159436389803886
390,0.0065069613046944,0.0327499732375145,-0.0106741422787309,0.5,-0.0653616189956665,0.0026051697786897
391,0.0244162585586309,0.0461263284087181,0.0146381817758083,0.5,-0.0338735021650791,0.0136335883289576
392,0.0350462570786476,0.037106491625309,0.0368830040097237,0.5,0.0069501656107604,0.0143117969855666
393,0.0306066330522299,0.0151379257440567,0.056110542267561,0.5,0.0395288541913033,0.0115191414952278
394,0.0204431246966124,-0.0027981456369161,0.0675344988703728,0.5,0.0580720379948616,0.0204280093312263
395,0.0195476189255714,-0.0092898234724998,0.0657050609588623,0.5,0.0669634565711021,0.0388080812990665
396,0.0314084254205227,-0.0067242332734167,0.0480345897376537,0.5,0.0637414157390594,0.0413958206772804
397,0.037907250225544,-0.0052510006353259,0.0127053698524833,0.5,0.0352098159492016,0.0146567756310105
398,0.0206465944647789,-0.0116063468158245,-0.0264281835407019,0.5,-0.0185447670519352,-0.0248879790306091
399,-0.0070380424149334,-0.0211779233068228,-0.040431197732687,0.5,-0.0696333721280098,-0.045021053403616
400,-0.0221667289733887,-0.0237958673387766,-0.0243367161601782,0.5,-0.0963061079382896,-0.0260853301733732
401,-0.024300429970026,-0.0188588928431273,-0.0021698852069675,0.5,-0.105241134762764,0.0135206542909145
402,-0.0232557617127895,-0.0159390941262245,0.0085148923099041,0.5,-0.107104763388634,0.0379099696874619
403,-0.0192456543445587,-0.010773204267025,0.0090180458500981,0.5,-0.0995825454592705,0.0377970449626446
404,-0.0095482850447297,0.0120440907776356,0.0104421991854906,0.5,-0.0794372335076332,0.0344472229480743
405,-0.0019523102091625,0.0501668937504292,0.0216848496347666,0.5,-0.0525027364492416,0.0429184287786484
406,-0.0091361049562692,0.0773104727268219,0.0356310196220875,0.5,-0.029988145455718,0.0441099591553211
407,-0.0299338568001986,0.0736842602491379,0.0333400592207909,0.5,-0.0191221311688423,0.0162130333483219
408,-0.0474612526595593,0.052224438637495,0.0037634677719324,0.5,-0.0226919148117304,-0.0242932476103306
409,-0.04947205260396,0.032603781670332,-0.0474641993641853,0.5,-0.0405111983418465,-0.0549522191286087
410,-0.0393889993429184,0.0060992995277047,-0.102613016963005,0.5,-0.0651094317436218,-0.08457300812006
411,-0.0251078996807337,-0.0405696555972099,-0.137713238596916,0.5,-0.0862147882580757,-0.115873008966446
412,-0.0073921303264796,-0.0848089382052422,-0.134697198867798,0.5,-0.0958251133561134,-0.116718277335167
413,0.0095654940232634,-0.0913918539881706,-0.0950939059257507,0.5,-0.0912951827049255,-0.0711378455162048
414,0.0142237721011043,-0.0610320158302784,-0.0342458225786686,0.5,-0.0717867836356163,-0.0097939502447843
415,0.009541462175548,-0.0246699620038271,0.0299312341958284,0.5,-0.0347649082541466,0.0391853228211403
416,0.0088657205924391,-0.0032048067077994,0.0761608928442001,0.5,0.0103484094142914,0.0698111429810524
417,0.0139757543802261,-0.0010083328234031,0.0878877267241478,0.5,0.0461845062673092,0.0740091502666473
418,0.0226517450064421,-0.0154660288244486,0.0728073641657829,0.5,0.0741316676139832,0.0522473193705082
419,0.0345553383231163,-0.0434100106358528,0.0453878231346607,0.5,0.091727539896965,0.0100919622927904
420,0.0404510200023651,-0.0890318006277084,-0.0021391229238361,0.5,0.0654385685920715,-0.0569414831697941
421,0.0288994330912828,-0.14197738468647,-0.0704978033900261,0.5,-0.0131852254271507,-0.130531013011932
422,0.0043081911280751,-0.170560762286186,-0.125249177217484,0.5,-0.0972263291478157,-0.171764805912972
423,-0.0159285105764866,-0.154466480016708,-0.132005661725998,0.5,-0.141885191202164,-0.16586346924305
424,-0.0244490187615156,-0.0928006246685982,-0.0966363772749901,0.5,-0.145325645804405,-0.123964913189411
425,-0.0320419333875179,0.0018680382054299,-0.0559896677732468,0.5,-0.132614731788635,-0.0664206221699715
426,-0.0457400754094124,0.0978262200951576,-0.0368462800979614,0.5,-0.121822953224182,-0.0174652710556984
427,-0.0547240525484085,0.156547114253044,-0.0342751033604145,0.5,-0.109497144818306,0.0051575717516243
428,-0.0470161326229572,0.159045591950417,-0.0316549427807331,0.5,-0.0834510624408722,-0.0020283716730773
429,-0.0230079237371683,0.122718937695026,-0.0195609983056784,0.5,-0.0372507832944393,-0.023755794391036
430,0.0087401792407035,0.0814994722604752,0.0041066240519285,0.5,0.0250926706939936,-0.0323128774762154
431,0.0382720157504082,0.0461547859013081,0.028535196557641,0.5,0.083049438893795,-0.0225994549691677
432,0.0585074052214623,0.0064424001611769,0.037190105766058,0.5,0.108075983822346,-0.0157010983675718
433,0.0678154230117798,-0.0365062206983566,0.0268938206136227,-0.126617521047592,0.0962691828608513,-0.0182937923818827
434,0.0706522986292839,-0.064835898578167,0.0102376835420728,-0.5,0.0749371275305748,-0.0184123478829861
435,0.0688484683632851,-0.0689179226756096,0.0006565606454387,-0.5,0.0678785219788551,-0.0127794165164232
436,0.0564126893877983,-0.0625097304582596,-0.0040031666867435,-0.5,0.0720784217119217,-0.0120116295292974
437,0.0317086614668369,-0.0604013465344906,-0.0149998711422086,-0.5,0.0689081326127052,-0.0293136909604073
438,0.0005585015169344,-0.0657156333327293,-0.0368631929159164,-0.5,0.0423496477305889,-0.0759742483496666
439,-0.0332740433514118,-0.0838332921266556,-0.0671808123588562,-0.5,-0.0124636041000485,-0.149937808513641
440,-0.0566116981208324,-0.108381822705269,-0.0934007465839386,-0.5,-0.0758619382977486,-0.218684658408165
441,-0.0490467324852943,-0.11375293135643,-0.0962146148085594,-0.5,-0.109271742403507,-0.235547661781311
442,-0.0196931380778551,-0.0863209366798401,-0.0747963786125183,-0.5,-0.0968342572450638,-0.186728402972221
443,0.0038847418036311,-0.0357797183096409,-0.0446892566978931,-0.5,-0.0584304891526699,-0.101500496268272
444,0.0161932688206434,0.0200171396136284,-0.0146294692531228,-0.5,-0.0195415206253529,-0.0169629696756601
445,0.0255526527762413,0.0609077289700508,0.010021754540503,-0.5,0.0039474507793784,0.0377351492643356
446,0.0315601713955402,0.0717050433158875,0.0176046304404736,-0.5,0.0040513533167541,0.0397869199514389
447,0.0265563521534204,0.0509849935770035,-0.0003339264076203,-0.5,-0.0155598660930991,-0.0098901260644197
448,0.016630882397294,0.013774580322206,-0.0314552634954453,-0.5,-0.0363120511174202,-0.0734044760465622
449,0.019774591550231,-0.015641026198864,-0.0495567210018635,-0.5,-0.0364301763474941,-0.106637001037598
450,0.0344487465918064,-0.0247020144015551,-0.0435735434293747,-0.5,-0.0161289721727371,-0.101066641509533
451,0.0399815067648888,-0.0173925217241049,-0.0269197765737772,-0.5,0.0032495385967195,-0.0743505358695984
452,0.0323206223547459,-0.0041904090903699,-0.0171364117413759,-0.5,0.0177042316645384,-0.0374406613409519
453,0.0324328280985355,0.0075921542011201,-0.0134325176477432,-0.5,0.0425516925752163,0.000778559828177
454,0.0450896099209785,0.0141291124746203,-0.0039794268086552,-0.5,0.0658487677574158,0.0236100442707539
455,0.0478014275431633,0.0130498530343175,0.0132756335660815,-0.5,0.0598141737282276,0.0264512840658426
456,0.0276608429849148,0.018103776499629,0.0263682398945093,-0.5,0.0282257962971926,0.0243650954216719
457,-0.0052075320854783,0.0390786938369274,0.0237251259386539,-0.5,-0.0032959941308945,0.0300858747214079
458,-0.0350144058465958,0.0539761371910572,0.0094765676185488,-0.5,-0.0215423945337534,0.0318213813006878
459,-0.0570477917790413,0.0426726117730141,-0.0085417851805687,-0.5,-0.0357405096292496,0.0066004334948957
460,-0.0730362758040428,0.011383312754333,-0.0298602022230625,-0.5,-0.0577328577637672,-0.0463848300278187
461,-0.0816933363676071,-0.0272166710346937,-0.0554633885622025,-0.5,-0.0847059562802315,-0.10651484131813
462,-0.0771797075867653,-0.0642031133174896,-0.0823803097009659,-0.5,-0.106199562549591,-0.152974635362625
463,-0.0545673407614231,-0.091250866651535,-0.100617378950119,-0.486137181520462,-0.114389412105083,-0.174026474356651
464,-0.0225974451750517,-0.102168194949627,-0.100574553012848,0.5,-0.104346878826618,-0.171741038560867
465,0.0092026740312576,-0.0908338502049446,-0.0777747333049774,0.5,-0.0696208775043488,-0.151954934000969
466,0.0401789732277393,-0.061176709830761,-0.0368326306343079,0.5,-0.0161901190876961,-0.116866409778595
467,0.0612005777657032,-0.0318577997386456,0.0061714015901088,0.5,0.0264107100665569,-0.0747576206922531
468,0.0629826113581657,-0.0068412087857723,0.039406031370163,0.5,0.0384231880307198,-0.0317521281540394
469,0.0504013039171696,0.02708475664258,0.0635679960250854,0.5,0.0334594994783401,0.0148041620850563
470,0.0345878936350346,0.0745317786931992,0.0841545984148979,0.5,0.0358158275485039,0.0675047785043716
471,0.0217973198741674,0.124768666923046,0.102226987481117,0.5,0.0559663511812687,0.121684715151787
472,0.0101999621838331,0.153530865907669,0.105453364551067,0.5,0.0773639008402824,0.158255875110626
473,-0.0022413909900933,0.136195227503777,0.0798176825046539,0.5,0.0700798332691193,0.153178870677948
474,-0.0176402423530817,0.0736766383051872,0.0315659455955029,0.5,0.0281514655798674,0.102481350302696
475,-0.03709552064538,0.0029745204374194,-0.0210678707808256,0.5,-0.0280767828226089,0.031611256301403
476,-0.0502031557261944,-0.0370810031890869,-0.062807634472847,0.5,-0.0770074725151062,-0.0275814775377512
477,-0.0433454737067223,-0.0465200841426849,-0.0780968964099884,0.5,-0.0996357724070549,-0.058563094586134
478,-0.0165842175483704,-0.0496289059519768,-0.0649112313985825,0.5,-0.0873175412416458,-0.0640088245272636
479,0.0099836401641368,-0.0604476183652878,-0.0423829033970833,0.5,-0.0554467998445034,-0.0690797939896584
480,0.0112603912129998,-0.0797540098428726,-0.0294515565037727,0.5,-0.0312582142651081,-0.100232139229774
481,-0.0051445043645799,-0.0997334271669388,-0.0328748598694801,0.5,-0.0298947431147099,-0.141825005412102
482,-0.0073984186165034,-0.107256643474102,-0.0397191531956196,0.353669196367264,-0.0396216027438641,-0.148244842886925
483,0.0130430655553937,-0.0975576266646385,-0.0300883408635855,0.320270448923111,-0.0410521812736988,-0.109150640666485
484,0.0379276014864445,-0.0722707882523537,-0.0050385235808789,0.477250754833221,-0.0322931669652462,-0.0531406067311764
485,0.0454405844211578,-0.0321819670498371,0.0181085057556629,0.5,-0.0251752808690071,-0.0044798501767218
486,0.0298229176551104,0.0154546238481998,0.0288463924080133,0.5,-0.0289997085928917,0.0279757156968117
487,0.0093662999570369,0.0584103800356388,0.0342826209962368,0.5,-0.0345534309744835,0.051091481000185
488,0.00266241771169,0.0865973010659218,0.0428686626255512,0.5,-0.0251442920416594,0.0739393755793571
489,0.0032884043175727,0.0934101566672325,0.0478129759430885,0.5,-0.0042058806866407,0.0837267115712166
490,-0.004243757110089,0.0825199782848358,0.0443192049860954,0.5,0.0090134162455797,0.0679990723729134
491,-0.0205516926944256,0.0627204403281212,0.0379772521555424,0.5,0.0040024118497967,0.0492765158414841
492,-0.0396737307310104,0.0410677120089531,0.0248100552707911,0.5,-0.0173829756677151,0.0526479929685593
493,-0.0555621907114983,0.031035166233778,-0.0001323094184044,0.5,-0.0452754385769367,0.0666999742388725
494,-0.0610743165016174,0.0328714959323406,-0.0264630150049925,0.5,-0.066648356616497,0.0642466694116592
495,-0.0571764968335629,0.0295243114233017,-0.0433609448373318,0.5,-0.0782552361488342,0.0350451990962029
496,-0.0490091405808926,0.0145463412627578,-0.0548063032329082,0.5,-0.0831461027264595,-0.0083642490208149
497,-0.0386001467704773,-0.0157908443361521,-0.0744135975837708,0.5,-0.0837663784623146,-0.0535012930631638
498,-0.0260303318500519,-0.056959006935358,-0.0911177694797516,0.5,-0.078176811337471,-0.0894114002585411
499,-0.0154115110635757,-0.080855667591095,-0.0773156210780144,0.5,-0.0653979629278183,-0.0978406295180321
500,-0.0138918366283178,-0.0706218034029007,-0.0387672707438469,0.395408630371094,-0.0565474405884743,-0.0799782425165176
501,-0.0147280730307102,-0.0391009002923965,0.0017807087861001,-0.0511902198195457,-0.0561906062066555,-0.0531528890132904
502,-0.0072156093083322,-0.0049847727641463,0.0346760861575603,-0.5,-0.0577307678759098,-0.022900465875864
503,0.0005002384423278,0.0227075796574354,0.0539166890084744,-0.5,-0.0598720237612724,0.0068916482850909
504,-0.0014463034458458,0.0418202392756939,0.0584073252975941,-0.5,-0.0603477470576763,0.0292447209358215
505,-0.0045915804803371,0.0513352863490582,0.053186621516943,-0.5,-0.0516944788396358,0.0457978807389736
506,0.0028415387496352,0.0510425940155983,0.0394276306033134,-0.5,-0.0316629633307457,0.0600914359092712
507,0.0222488716244698,0.043984416872263,0.0166514981538057,-0.5,-0.0086262924596667,0.0672575011849403
508,0.0443833507597446,0.0308907404541969,-0.0123268710449338,-0.5,0.0042632538825273,0.0521968379616737
509,0.0528806336224079,0.004819446709007,-0.0388569906353951,-0.5,0.0010645777219906,0.0077091348357498
510,0.0376343838870525,-0.0322632342576981,-0.0513595230877399,0.2965447306633,-0.0137564558535814,-0.0423146337270737
511,0.0030701961368322,-0.0618579797446728,-0.0507909096777439,0.5,-0.0340511277318001,-0.0600667148828506
512,-0.0356133580207825,-0.0629178136587143,-0.0500536449253559,0.5,-0.0555114708840847,-0.0367647521197796
513,-0.0652073100209236,-0.028043994680047,-0.0603630691766739,-0.0079390006139874,-0.0771382227540016,-0.0008236775174736
514,-0.0812669023871422,0.0088350884616375,-0.0914985910058022,-0.5,-0.108350791037083,0.0067360331304371
515,-0.0807925164699554,0.0040605077520012,-0.134288817644119,-0.5,-0.146660208702087,-0.0330977253615856
516,-0.0679431110620499,-0.0301855839788914,-0.148281037807465,-0.5,-0.161237642168999,-0.0858295112848282
517,-0.0534582287073135,-0.052126120775938,-0.107825003564358,-0.5,-0.136687517166138,-0.0959328860044479
518,-0.0377357713878155,-0.0429491624236107,-0.0359758920967579,-0.5,-0.096123069524765,-0.056901678442955
519,-0.0210455991327763,-0.0119538670405746,0.0242518465965986,-0.5,-0.0688687488436699,-0.013218691572547
520,-0.0116242449730635,0.0231916755437851,0.0548263005912304,-0.5,-0.0634366869926453,0.004310555756092
521,-0.0070765386335551,0.0485557615756989,0.072036936879158,-0.5,-0.0627592727541924,0.0092929238453507
522,0.0040116710588336,0.0539451353251934,0.0864069908857346,-0.5,-0.0433843471109867,0.0236875787377357
523,0.0199351347982883,0.0398256778717041,0.0740451291203499,-0.5,-0.0163732226938009,0.0376498065888882
524,0.0240303874015808,0.0122327161952853,0.0172748416662216,-0.5,-0.0213917009532452,0.0205406975001097
525,0.0106734270229936,-0.0184098687022924,-0.0453301146626472,-0.5,-0.0586739704012871,-0.0216953027993441
526,-0.0072976569645106,-0.0367146506905556,-0.0624207742512226,-0.5,-0.0860384851694107,-0.0479896552860737
527,-0.0222784131765366,-0.0351552814245224,-0.0359200313687325,0.4610216319561,-0.0852239951491356,-0.0408841148018837
528,-0.0363903529942036,-0.0191517025232315,0.0004524446849245,0.5,-0.0712539926171303,-0.00689159007743
529,-0.0500879548490047,-0.0093222428113222,0.016916748136282,0.5,-0.0605334676802158,0.0333445332944393
530,-0.0606875941157341,-0.020685151219368,0.0021462307777255,0.5,-0.0598988346755505,0.0488327592611313
531,-0.0630272477865219,-0.0315300486981869,-0.0207016430795193,0.5,-0.0631348639726639,0.0377794243395329
532,-0.05048518627882,-0.0070891822688281,-0.0152552500367165,0.5,-0.0548152737319469,0.0285903085023165
533,-0.023055873811245,0.0517507120966911,0.0236812643706799,0.5,-0.0302354581654072,0.0406121350824833
534,0.003156944643706,0.110169745981693,0.0577550642192364,0.5,-0.0090670846402645,0.0652020871639252
535,0.0101745994761586,0.133080333471298,0.0511841811239719,0.5,-0.0097095817327499,0.0817852094769478
536,0.0029461530502885,0.108696661889553,0.0214592181146145,0.5,-0.016211686655879,0.0803636908531189
537,0.0023945888970047,0.0559283643960953,0.0106920804828405,0.5,-0.0046811811625957,0.0634357184171677
538,0.0201217271387577,0.00463138660416,0.0276628620922565,0.5,0.0216617695987225,0.0441471375524998
539,0.0463767163455486,-0.032769363373518,0.0441778972744942,0.5,0.0407811403274536,0.0297417473047972
540,0.0574609972536564,-0.0595314837992191,0.0300826765596867,0.5,0.0283284038305283,0.0050886939279735
541,0.0390301942825317,-0.0797966495156288,-0.0160420853644609,0.5,-0.0212351772934198,-0.0422779396176338
542,0.0066795996390283,-0.0946324169635773,-0.0669538527727127,0.5,-0.0828176140785217,-0.0899741426110268
543,-0.0110707730054855,-0.103288732469082,-0.0980518758296967,0.5,-0.127105727791786,-0.106068447232246
544,-0.0149983800947666,-0.108630791306496,-0.107874512672424,0.5,-0.147465690970421,-0.0910809114575386
545,-0.0241272319108248,-0.104966677725315,-0.0981439352035522,0.5,-0.145772650837898,-0.0610950142145157
546,-0.0330306068062782,-0.0709719061851501,-0.0620772950351238,0.5,-0.116500400006771,-0.0229685436934233
547,-0.0277852471917868,-0.0028267451561987,-0.0092141926288604,-0.226849958300591,-0.0643097013235092,0.0169865097850561
548,-0.0159541256725788,0.0623216591775417,0.0308461878448725,-0.5,-0.013779173605144,0.049243800342083
549,-0.0099143255501985,0.079899974167347,0.0424508303403854,-0.5,0.015125478617847,0.0656759887933731
550,-0.0033375283237546,0.0487299971282482,0.0370672270655632,-0.5,0.0270309075713158,0.0589948855340481
551,0.0116408793255687,0.0062844026833772,0.0316246151924133,-0.5,0.0327701941132545,0.0283389650285244
552,0.0200444292277098,-0.01523448061198,0.0288721937686205,-0.5,0.027878649532795,-0.0122711239382625
553,0.0066005494445562,-0.0143360700458288,0.0191568695008755,-0.5,0.0043443273752927,-0.0399592667818069
554,-0.019920852035284,-0.0086499163880944,0.0012679765932261,-0.5,-0.0303447898477316,-0.0454403348267078
555,-0.0360125489532948,-0.0004825044889003,-0.0054219393059611,-0.5,-0.0476369820535183,-0.0351570136845112
556,-0.0238464586436749,0.0202666316181421,0.0135020865127444,-0.5,-0.0221128780394793,-0.0123168118298054
557,0.0096956035122275,0.0421778038144112,0.0391523838043213,-0.5,0.0281586013734341,0.0191380977630615
558,0.0352615267038345,0.0401986204087734,0.0369389615952969,-0.5,0.0548137500882149,0.0407476909458637
559,0.032623402774334,0.0133404601365328,-0.0038991274777799,-0.5,0.036291241645813,0.0304032973945141
560,0.012098359875381,-0.0182144027203321,-0.0614812485873699,-0.5,-0.0075186798349022,-0.0137443300336599
561,-0.005450633354485,-0.046964593231678,-0.107234239578247,-0.5,-0.0491989515721798,-0.0728565156459808
562,-0.0120955416932702,-0.0761090293526649,-0.120775200426579,-0.5,-0.0727791637182236,-0.120773397386074
563,-0.0079568400979042,-0.100257314741611,-0.0943689122796059,-0.0180970150977373,-0.0723941698670387,-0.135141834616661
564,0.006984332576394,-0.110518403351307,-0.0470040030777454,0.5,-0.054116278886795,-0.115765802562237
565,0.0261192712932825,-0.104082807898521,-0.0130540644749999,0.5,-0.0280987694859505,-0.0802930071949959
566,0.0322560183703899,-0.0922803729772568,-0.0162472929805517,0.5,-0.0057948054745793,-0.0543700531125069
567,0.0168787557631731,-0.0920567810535431,-0.0542255453765392,0.5,-0.006738981232047,-0.0671077817678452
568,-0.0051837246865034,-0.0925074368715286,-0.0892888307571411,0.5,-0.0316645763814449,-0.108154058456421
569,-0.0157912150025368,-0.068833127617836,-0.082418367266655,0.5,-0.0485028252005577,-0.127992302179337
570,-0.010959206148982,-0.0262482482939959,-0.0365702360868454,0.5,-0.0359304584562778,-0.0973737835884094
571,0.0005149481003172,0.0134035833179951,0.0177030488848686,0.5,-0.0091345282271504,-0.0274954009801149
572,0.0033988046925514,0.0396738611161709,0.0511347651481628,0.5,0.0042908261530101,0.0408107526600361
573,-0.0073187905363738,0.0486361868679523,0.0504553839564323,0.5,-0.0044552306644618,0.0684770196676254
574,-0.0198820568621159,0.039984006434679,0.0275253746658564,0.5,-0.0217589121311903,0.0532296411693096
575,-0.0190488789230585,0.0222371928393841,0.006001257803291,0.5,-0.0313037671148777,0.0223811976611614
576,-0.0016893262509256,0.0044343336485326,-0.0025410430971533,0.5,-0.0290656853467226,0.0057859774678945
577,0.0179230198264122,-0.0073765655979514,-0.0041806562803685,0.5,-0.0220411606132984,0.010435227304697
578,0.022851400077343,-0.0029785851947963,-0.0076577169820666,0.5,-0.0168832503259182,0.0170885939151049
579,0.0070722210220992,0.0201290100812912,-0.0142747675999999,0.5,-0.0180106870830059,0.0093689896166324
580,-0.0242652259767056,0.0473207496106625,-0.0211530942469835,0.5,-0.0287656411528587,-0.0099094994366169
581,-0.0496509298682213,0.0582407936453819,-0.0236613713204861,0.5,-0.0409518294036388,-0.0291444789618254
582,-0.045524600893259,0.0401972532272339,-0.0189545303583145,0.5,-0.0341653525829315,-0.04418034106493
583,-0.015505819581449,-0.0079009467735886,-0.0131345642730594,0.5,0.0004937429330311,-0.0666898414492607
584,0.0147593952715397,-0.0781228318810463,-0.0181022752076387,0.5,0.0388027466833591,-0.10345483571291
585,0.0242267642170191,-0.152110159397125,-0.0369237437844276,0.5,0.0421048663556576,-0.142115354537964
586,0.0104213645681739,-0.20488066971302,-0.0637007206678391,0.5,-0.0032088758889585,-0.173750355839729
587,-0.0119676338508725,-0.217843502759933,-0.0893460586667061,0.5,-0.0677504986524582,-0.189442649483681
588,-0.0213663950562477,-0.184317737817764,-0.0931962504982948,0.5,-0.0998364984989166,-0.164020121097565
589,-0.0088205439969897,-0.101164512336254,-0.055126216262579,0.5,-0.0788478702306747,-0.0801200270652771
590,0.0120580568909645,0.0151913072913885,0.013149487785995,0.5,-0.0356643758714199,0.038681011646986
591,0.0207021962851286,0.116366185247898,0.0764725431799889,0.5,-0.0090091237798333,0.135510101914406
592,0.0105991056188941,0.164476603269577,0.109416291117668,0.5,-0.0090538663789629,0.170497342944145
593,-0.0069335317239165,0.166243270039558,0.108356118202209,0.5,-0.024756507948041,0.149442866444588
594,-0.0207541435956955,0.147682502865791,0.0854978710412979,0.5,-0.0434802062809467,0.102959230542183
595,-0.029028007760644,0.11611520498991,0.0566398277878761,0.5,-0.0572359450161457,0.055958203971386
596,-0.0299303643405437,0.0671921670436859,0.0358284972608089,0.5,-0.0575974620878696,0.0189160108566284
597,-0.022187165915966,0.0104481782764196,0.0297365952283144,0.5,-0.0419185236096382,-0.0049084951169788
598,-0.010275942273438,-0.0316974818706512,0.0311014335602522,0.5,-0.0220067817717791,-0.0196991749107838
599,-0.001240991638042,-0.0454354882240295,0.0243123099207878,0.5,-0.0111482748761773,-0.0375021398067474
600,0.0074964840896427,-0.0391085110604763,0.0032677478156983,0.5,-0.0040019168518483,-0.0548533238470554
601,0.0255551878362894,-0.0256222244352102,-0.0234402008354664,0.5,0.0091838110238313,-0.0481783747673035
602,0.0428067371249199,-0.012324832379818,-0.0495320931077003,0.5,0.0172590743750334,-0.0230643805116415
603,0.0382334738969803,-0.0146409003064036,-0.0686776414513588,0.5,0.0114054698497057,-0.0171322990208864
604,0.0174189489334822,-0.0391521193087101,-0.0701209753751755,0.5,0.0030028633773326,-0.0333273820579052
605,-0.003499416867271,-0.0646945089101791,-0.0529213957488537,0.5,-0.0032746579963713,-0.0371593460440636
606,-0.0260602664202452,-0.0698570534586906,-0.0288040637969971,0.5,-0.0197248794138432,-0.0160089023411274
607,-0.0495451614260674,-0.0562155097723007,-0.0078820390626788,0.5,-0.0491476729512215,0.0109058599919081
608,-0.0627291351556778,-0.0329057909548283,0.0108894547447562,0.5,-0.0725894868373871,0.0257380846887827
609,-0.063641831278801,-0.0042190090753138,0.0236747711896896,0.5,-0.0818761065602303,0.0215099826455116
610,-0.0589062683284283,0.0216916278004646,0.0220155660063028,0.5,-0.0889536663889885,0.000208422759897
611,-0.0451750494539738,0.0351722575724125,0.0158734526485205,0.5,-0.0914180129766464,-0.0206831749528646
612,-0.0152451312169433,0.0413516722619534,0.024452343583107,0.5,-0.0723586082458496,-0.0191716961562634
613,0.0189174357801676,0.0508602559566498,0.0492113269865513,0.5,-0.0314323678612709,0.0043338104151189
614,0.03459108248353,0.0560100674629211,0.0702739506959915,0.5,0.0061160926707088,0.021930243819952
615,0.0277390889823437,0.0449220836162567,0.068142257630825,0.5,0.0162790641188622,0.0152004603296518
616,0.010966301895678,0.0179970264434814,0.041594360023737,0.5,0.0019305795431137,-0.0043902369216084
617,-0.0061865388415753,-0.0175024624913931,0.0076023638248443,0.5,-0.0196980033069849,-0.015786936506629
618,-0.0196093507111073,-0.0439779460430145,-0.0106964390724897,0.5,-0.0361345373094082,-0.0005961827700957
619,-0.027857044711709,-0.0450789555907249,-0.0111376158893108,0.5,-0.0446146316826344,0.0443501770496368
620,-0.0322189889848232,-0.0242385286837816,-0.0162779130041599,0.5,-0.0495105050504208,0.100147143006325
621,-0.0417623594403267,0.0044994242489337,-0.0442761667072773,0.5,-0.0578666813671589,0.132655054330826
622,-0.0658982545137405,0.0249622259289026,-0.0925754904747009,0.5,-0.0754224509000778,0.106454432010651
623,-0.101541250944138,0.0223532821983099,-0.141628801822662,0.5,-0.101055890321732,0.0258901864290237
624,-0.133889347314835,-0.001428633229807,-0.168070018291473,0.5,-0.127606555819511,-0.063517801463604
625,-0.140439793467522,-0.0325912274420261,-0.155053734779358,0.5,-0.140701025724411,-0.120572805404663
626,-0.108081847429276,-0.0590866133570671,-0.101873449981213,0.5,-0.125562816858292,-0.127818986773491
627,-0.0490456074476242,-0.0677147060632706,-0.0285476073622704,0.5,-0.0855551958084106,-0.0980377197265625
628,0.0100129041820765,-0.0467769280076027,0.0447828099131584,0.5,-0.0365655943751335,-0.0556846000254154
629,0.0515711233019829,0.003841099794954,0.108695335686207,0.5,0.0088526122272014,-0.0055224536918103
630,0.0720658227801323,0.0659707710146904,0.150691032409668,0.5,0.0426585115492344,0.0490960441529751
631,0.0723935589194298,0.10556061565876,0.159376159310341,0.5,0.0584510751068592,0.0882714092731476
632,0.059920497238636,0.101377688348293,0.13989283144474,0.5,0.0545856170356274,0.103166483342648
633,0.0471833981573582,0.0672309324145317,0.10760759562254,0.5,0.0367994047701359,0.103734456002712
634,0.0404716059565544,0.0276623256504536,0.073908619582653,0.5,0.0148112140595913,0.0965715423226357
635,0.0355146676301956,-0.0038891173899173,0.0442735627293587,0.5,-0.000981971854344,0.0821620896458626
636,0.0217792969197035,-0.0211685597896576,0.0151491267606616,0.5,-0.0092703681439161,0.0697578638792038
637,-0.0012141279876232,-0.0222124624997377,-0.0295991469174623,0.5,-0.0211464501917362,0.0607899948954582
638,-0.0233194790780544,-0.0132766095921397,-0.0989378541707993,0.432168245315552,-0.0526123903691769,0.0281895063817501
639,-0.0436877757310867,-0.0087655708193779,-0.162374913692474,-0.228740483522415,-0.101413980126381,-0.0312325190752745
640,-0.0607415065169334,-0.0119094280526042,-0.166866108775139,-0.5,-0.131486549973488,-0.067083053290844
641,-0.0642350018024445,-0.0104788327589631,-0.100876018404961,-0.5,-0.116136752068996,-0.045484934002161
642,-0.0603531822562218,-0.0062571540474891,-0.0147267878055573,-0.411419093608856,-0.0798930078744888,-0.0026314975693821
643,-0.0646482035517693,-0.0160877462476492,0.0347238816320896,-0.0132125178351998,-0.0647261962294579,0.0037790273781865
644,-0.0672450512647629,-0.0364723652601242,0.0410894751548767,0.416567593812943,-0.0743317008018494,-0.0277470350265503
645,-0.04732596129179,-0.0431524962186813,0.0368320159614086,0.5,-0.079874113202095,-0.0469242371618748
646,-0.0111873298883438,-0.0251341946423054,0.0441361293196678,0.5,-0.0641117691993713,-0.0241445377469063
647,0.018720455467701,0.0082494700327515,0.0579382590949535,0.5,-0.0329559780657291,0.0205924343317747
648,0.0345890857279301,0.0424908883869648,0.0713970735669136,0.5,0.0062412298284471,0.0583108104765415
649,0.0411437265574932,0.0634059086441994,0.0850645750761032,0.5,0.0488622263073921,0.0769250392913818
650,0.0382422730326653,0.0610574670135975,0.0877819508314133,0.5,0.0788184478878975,0.0729957893490791
651,0.0222974624484777,0.045027319341898,0.0659034252166748,0.5,0.0767413377761841,0.0614794827997684
652,0.0008732243441045,0.0364230498671532,0.0232631098479033,0.5,0.0398273020982742,0.0697042793035507
653,-0.0092107141390442,0.0338265188038349,-0.0260805357247591,0.5,-0.0135232834145427,0.0895531997084618
654,-0.0035428514238447,0.0198124274611473,-0.0665000677108765,0.400830924510956,-0.057350542396307,0.0825136601924896
655,0.0026086594443768,-0.0113449990749359,-0.0836310386657715,0.108872599899769,-0.0801703035831451,0.0403650403022766
656,-0.0045773107558488,-0.0473590455949306,-0.0750684961676598,-0.154666781425476,-0.0894178152084351,-0.0068179597146809
657,-0.0243982430547476,-0.065599799156189,-0.0538746304810047,-0.343461245298386,-0.0943933874368668,-0.0296536255627871
658,-0.0462662950158119,-0.0560763403773308,-0.0335390269756317,-0.479903697967529,-0.0943606719374657,-0.0240879990160465
659,-0.0550031065940857,-0.0274407491087914,-0.0140252551063895,-0.5,-0.08262038230896,-0.0088336020708084
660,-0.0452523268759251,-0.0006042413879185,0.0123610561713576,-0.5,-0.0578239895403385,0.0006590799312107
661,-0.0286055970937014,0.0033764163963496,0.0440448261797428,-0.5,-0.0305550675839186,0.0019234572537243
662,-0.0223601013422012,-0.0137524763122201,0.0624752454459667,-0.5,-0.0157442763447762,-0.0110710896551609
663,-0.0355525054037571,-0.0394611023366451,0.0496151782572269,-0.376495569944382,-0.0167235881090164,-0.0421656295657158
664,-0.0537572726607323,-0.0625761225819588,0.0156233636662364,-0.316447556018829,-0.0216342452913523,-0.066787414252758
665,-0.0476755797863007,-0.0613760240375996,-0.0083459382876753,-0.451040834188461,-0.0233342591673136,-0.0517031885683537
666,-0.0114701185375452,-0.0172448083758354,-0.0083499504253268,-0.5,-0.0291324090212584,0.0030751037411391
667,0.0223926827311516,0.0548227392137051,-0.0002280708577018,-0.5,-0.0431451983749866,0.0680689513683319
668,0.023783951997757,0.109975315630436,-0.0010587393771857,-0.5,-0.056941743940115,0.109247095882893
669,0.0028642551042139,0.115509144961834,-0.0079832728952169,-0.5,-0.0582858920097351,0.111870139837265
670,-0.0115388855338097,0.0801169499754906,-0.0099985525012016,-0.5,-0.0423299632966518,0.0945406407117844
671,-0.0103219980373979,0.0361560247838497,-0.0031693296041339,-0.5,-0.0162002798169851,0.0859305039048195
672,-0.0099527863785624,-5.31413352291565e-05,0.0074119442142546,-0.5,0.0024642909411341,0.0812284424901009
673,-0.021342009305954,-0.024172579869628,0.0200185459107161,-0.5,0.0001944315154105,0.0572601892054081
674,-0.0332518517971039,-0.0291487127542496,0.038344070315361,-0.5,-0.0176862739026546,0.0208060573786497
675,-0.0363080725073814,-0.0230680573731661,0.0543499328196049,-0.5,-0.0368611514568329,-0.0076038851402699
676,-0.031063549220562,-0.0171286426484585,0.0590861961245537,-0.5,-0.0448373816907406,-0.0207036938518286
677,-0.0226956512778997,-0.00866892747581,0.0528484843671322,-0.5,-0.0422302074730396,-0.0202986747026443
678,-0.0212037488818169,0.0039326706901192,0.0351187996566296,-0.5,-0.0464003831148148,-0.015009555965662
679,-0.0283623151481152,0.0202040560543537,0.0161257162690163,-0.5,-0.061848808079958,-0.0079814363270998
680,-0.0333190448582172,0.0351737625896931,0.0126376561820507,-0.5,-0.0694839656352997,0.0060155433602631
681,-0.0240752939134836,0.0367984212934971,0.0266528278589249,-0.5,-0.0525424629449844,0.025438966229558
682,0.0003804192238021,0.028925284743309,0.0509166568517685,-0.5,-0.0100112073123455,0.0446218363940716
683,0.0272226724773645,0.0260641053318977,0.076389454305172,-0.5,0.0453436598181725,0.06380844861269
684,0.0402813665568829,0.0240972060710192,0.0880673825740814,-0.5,0.0889923274517059,0.0799826234579086
685,0.0342575684189796,0.0056287609040737,0.0703578516840935,-0.5,0.0965600088238716,0.0782369673252106
686,0.0166444517672062,-0.0340143367648125,0.0217396058142185,-0.5,0.0616078451275826,0.0462197251617908
687,-0.005804730579257,-0.0793732851743698,-0.0428995192050934,-0.5,-0.0016384600894525,-0.0112371332943439
688,-0.0243866890668869,-0.108964860439301,-0.0993749499320984,-0.470248371362686,-0.0630004554986954,-0.0703978464007378
689,-0.0275331400334835,-0.107110217213631,-0.125644758343697,-0.401483118534088,-0.0923510864377022,-0.100179597735405
690,-0.020046629011631,-0.0773960053920746,-0.120449341833591,-0.340755075216293,-0.0873285979032516,-0.093381904065609
691,-0.0196063295006752,-0.0436636134982109,-0.101779907941818,-0.308669179677963,-0.0707525536417961,-0.0753212794661522
692,-0.0339208394289017,-0.0216574352234602,-0.0851876959204674,-0.342938303947449,-0.061514887958765,-0.0688741654157639
693,-0.0491741895675659,-0.0068165576085448,-0.0721426457166672,-0.391067445278168,-0.0564562380313873,-0.0763981863856316
694,-0.0498470962047577,0.0087406942620873,-0.0584030598402023,-0.345645517110825,-0.0433777123689651,-0.0957626551389694
695,-0.0404433719813824,0.0193507708609104,-0.0433929711580276,-0.176544368267059,-0.0228598415851593,-0.12262699007988
696,-0.0302040744572878,0.0153257204219699,-0.027117595076561,0.0480582416057587,-0.0038675800897181,-0.139756441116333
697,-0.0214880146086216,0.0014800338540226,-0.0094520645216107,0.259395599365234,0.0063045565038919,-0.12337689101696
698,-0.0105068096891046,-0.0068390625528991,0.0121419914066792,0.441161155700684,0.0108786104246974,-0.0629685074090958
699,0.0084456279873848,-0.001264743390493,0.042031716555357,0.5,0.0263754464685917,0.0213126540184021
700,0.0311029106378555,0.0081711811944842,0.0710416659712791,0.5,0.0569627657532692,0.0845426768064499
701,0.0479856096208096,0.0053570074960589,0.0782435834407806,0.5,0.0810205414891243,0.0918262675404549
702,0.0504866167902946,-0.0141737470403314,0.0560088753700256,0.5,0.0790109634399414,0.0499023050069809
703,0.0351712666451931,-0.0389976166188717,0.0217789504677057,0.5,0.0573454052209854,-0.0004844244685955
704,0.0126060107722878,-0.0542358532547951,-0.0015848014736548,0.5,0.0343075208365917,-0.0318763814866543
705,-0.0042005972936749,-0.0589689537882805,-0.0116106458008289,0.5,0.017259256914258,-0.0451655946671963
706,-0.0089424829930067,-0.0555731989443302,-0.0195067692548037,0.5,0.0027982785832136,-0.0322024784982204
707,-0.0049921693280339,-0.0382005833089352,-0.0371982418000698,0.5,-0.0169108957052231,0.0088034654036164
708,-0.0106183048337698,-0.0128976609557867,-0.0735485181212425,0.433036714792252,-0.0470811128616333,0.0349517092108727
709,-0.0341966077685356,-0.0003890672232955,-0.115792445838451,0.25027334690094,-0.0775197222828865,0.0065210685133934
710,-0.0566908791661263,-0.006825300399214,-0.137609675526619,0.0897482261061668,-0.0907729864120483,-0.0628803744912148
711,-0.0566650927066803,-0.0210691764950752,-0.131032153964043,-0.0299028288573027,-0.0808853507041931,-0.131244644522667
712,-0.0297014228999615,-0.034101739525795,-0.0998165383934975,-0.154085069894791,-0.0494357459247112,-0.165484711527824
713,0.0101359440013766,-0.0438142456114292,-0.0492636412382126,-0.299610406160355,-0.0050006587989628,-0.156029611825943
714,0.0407105274498463,-0.048222228884697,0.0016876860754564,-0.423578709363937,0.0339409559965134,-0.119260266423225
715,0.0528794080018997,-0.0416753962635994,0.0297186467796564,-0.48957172036171,0.0554384887218475,-0.0847157165408134
716,0.0458635315299034,-0.0317948944866657,0.025344155728817,-0.47846382856369,0.0554221831262112,-0.0753651037812233
717,0.0174439549446106,-0.0365254059433937,-0.0073745916597545,-0.381923466920853,0.0300208460539579,-0.0944858863949776
718,-0.0214025434106588,-0.0561144053936005,-0.0510878339409828,-0.258677512407303,-0.0085260532796382,-0.123136781156063
719,-0.0443524643778801,-0.0778333097696304,-0.0738345086574554,-0.194170922040939,-0.0260079335421324,-0.133537411689758
720,-0.0333936400711536,-0.0901191234588623,-0.0567485205829144,-0.214012891054153,0.0001291592780034,-0.108355730772018
721,0.0017939828103408,-0.0832263454794884,-0.0186227653175592,-0.286248385906219,0.047620240598917,-0.0512207187712193
722,0.0335844568908215,-0.0614110380411148,0.0086838956922292,-0.391646265983582,0.0711669474840164,0.005464419722557
723,0.0419834889471531,-0.0462798960506916,0.0083370311185717,-0.5,0.0514060817658901,0.0175104420632124
724,0.0279764086008072,-0.0423553586006165,-0.0156291332095861,-0.5,0.0065249544568359,-0.0188281293958426
725,0.008962107822299,-0.029666181653738,-0.0385573692619801,-0.5,-0.0292693227529526,-0.0585066638886929
726,0.0007143974653445,-0.0038059996441006,-0.0363801456987858,-0.5,-0.0328182056546211,-0.0609591864049435
727,0.0062647117301821,0.0215886887162924,-0.0059944912791252,-0.5,-0.0041135600768029,-0.0282645672559738
728,0.0215917862951756,0.038264524191618,0.039110217243433,-0.5,0.039719182997942,0.0053546894341707
729,0.0411174818873405,0.0420631840825081,0.074374221265316,-0.5,0.0738851204514503,0.0129717346280813
730,0.058928094804287,0.0335866026580334,0.0807205215096474,-0.5,0.0828868746757507,-0.0016854209825396
731,0.069354735314846,0.0272011701017618,0.0632589608430862,-0.5,0.0718573927879334,-0.0163555219769478
732,0.0668530240654945,0.0339058004319668,0.0372637510299683,-0.5,0.0556807704269886,-0.016115739941597
733,0.0490461774170399,0.0401960164308548,0.0066073574125766,-0.5,0.0403136312961578,-0.0137160830199718
734,0.021404841914773,0.0251211896538734,-0.0302529502660036,-0.5,0.0181767288595438,-0.0304035115987062
735,-0.0065567498095333,-0.0119833201169968,-0.0634905323386192,-0.5,-0.0125251216813922,-0.0543360970914364
736,-0.0296639259904623,-0.0496131367981434,-0.0801412984728813,-0.5,-0.0374164991080761,-0.0602604262530804
737,-0.0424840301275253,-0.0668157339096069,-0.0775518789887428,-0.5,-0.0420895963907242,-0.0534908883273602
738,-0.0364884026348591,-0.0644227638840675,-0.0609258785843849,-0.5,-0.026908166706562,-0.0530108474195004
739,-0.0181878935545683,-0.0583097152411938,-0.0417961478233337,-0.5,-0.0034980636555701,-0.0630821883678436
740,-0.0062672728672623,-0.0543831028044224,-0.028040673583746,-0.5,0.0190642550587654,-0.0730583518743515
741,-0.0048489901237189,-0.0498979352414608,-0.0203794632107019,-0.5,0.0300958231091499,-0.0666365474462509
742,-0.010293866507709,-0.046839565038681,-0.0270180273801088,-0.5,0.0131842363625765,-0.0540948733687401
743,-0.017577089369297,-0.0411884002387524,-0.0480608530342579,-0.5,-0.0236806031316519,-0.0559577122330666
744,-0.0125787612050772,-0.0263211280107498,-0.0609786622226238,-0.5,-0.0418851003050804,-0.0503698326647282
745,0.0036318076308816,-0.0077049518004059,-0.0544839017093182,-0.5,-0.0247226152569056,-0.022932730615139
746,0.0134383076801896,0.0089307110756635,-0.036517396569252,-0.5,0.007859400473535,-0.0019747803453356
747,0.0129339741542935,0.024493146687746,-0.0084812343120575,-0.5,0.0354433059692383,0.0030265797395259
748,0.0113331032916904,0.0403877757489681,0.0245367735624313,-0.5,0.0446557402610779,0.0073764147236943
749,0.015294180251658,0.0532827489078045,0.0444312244653702,-0.5,0.0336041897535324,0.0104526914656162
750,0.0269598476588726,0.0500848330557346,0.0465667881071568,-0.5,0.0217479970306158,0.0060789636336267
751,0.0439515300095081,0.0329119712114334,0.0451801940798759,-0.5,0.0259392559528351,0.0066058398224413
752,0.0497034788131714,0.0234978273510933,0.0466521978378296,-0.5,0.0342653281986713,0.0244011245667934
753,0.0286651719361544,0.0245106890797615,0.0411205030977726,-0.5,0.0218104925006628,0.0420659333467484
754,-0.0034831957891583,0.0160020384937525,0.0217262301594019,-0.5,-0.013761268928647,0.0318959914147854
755,-0.0182571802288294,-0.0137875825166702,-0.0024164163041859,-0.5,-0.046294491738081,-0.0063104485161602
756,-0.0143094044178724,-0.0554968938231468,-0.0156073849648237,-0.5,-0.0522600412368774,-0.0542504526674747
757,-0.0118605550378561,-0.090174101293087,-0.0108107523992658,-0.5,-0.0338691771030426,-0.0869144722819328
758,-0.015964025631547,-0.101940251886845,0.0084018865600228,-0.5,-0.0063728899694979,-0.0735557824373245
759,-0.0154454931616783,-0.0883657485246658,0.0333583615720272,-0.5,0.015947949141264,-0.0187538731843233
760,-0.0096909729763865,-0.0601612664759159,0.0524621233344078,-0.5,0.0232761818915606,0.0290052611380816
761,-0.0082112289965152,-0.0269803572446108,0.054556742310524,-0.5,0.0141390915960073,0.0443830974400043
762,-0.0138485310599208,0.0063453135080635,0.03619035333395,-0.5,-0.0061206552200019,0.0466343685984612
763,-0.0213680770248175,0.0299587100744247,0.0025680845137685,-0.5,-0.031697753816843,0.0447302907705307
764,-0.0254370793700218,0.0329642221331596,-0.0380306839942932,-0.5,-0.0584585554897785,0.0237380936741829
765,-0.0193223096430302,0.0181142203509808,-0.0720060989260674,-0.5,-0.0738656967878342,-0.0115129100158811
766,0.0025900246109813,0.0009388127364218,-0.0758349224925041,-0.5,-0.0566107109189034,-0.030231986194849
767,0.0272234287112951,0.0020724330097436,-0.0365688912570477,-0.5,-0.0036100791767239,-0.0176072753965855
768,0.0330794267356396,0.026301134377718,0.0202901847660542,-0.5,0.050797525793314,0.0075145214796066
769,0.0214069206267595,0.0518353693187237,0.0541694201529026,-0.5,0.0672286227345467,0.0191950984299183
770,0.0099396221339702,0.0652175471186638,0.0546946115791798,-0.5,0.0450234785676003,0.0131567064672709
771,0.0064652538858354,0.0711213648319244,0.0392672531306744,-0.5,0.010885501280427,0.0085266474634409
772,0.0042810039594769,0.0629682987928391,0.0217953026294708,-0.5,-0.0154182696714997,0.0201024282723665
773,-0.0003794080985244,0.0343475267291069,0.0056391688995063,-0.5,-0.0273490268737078,0.0457546524703503
774,-0.0026812551077455,0.0055773449130356,-0.009043788537383,-0.5,-0.024846637621522,0.0756919458508492
775,0.0002503199211787,-0.0065222433768212,-0.0282642971724272,-0.5,-0.016698470339179,0.0791185721755028
776,0.0063341846689581,-0.0202091950923204,-0.0566481575369835,-0.5,-0.0173849295824766,0.0256726890802383
777,0.0056848707608878,-0.0523073822259903,-0.0816109851002693,-0.5,-0.0279730949550867,-0.0568409934639931
778,-0.0118318405002356,-0.0886976569890976,-0.0816139206290245,-0.5,-0.0333546102046967,-0.107035927474499
779,-0.038522019982338,-0.109132945537567,-0.0554401874542236,-0.5,-0.0313642397522926,-0.105386771261692
780,-0.0542925745248795,-0.100079849362373,-0.0215681865811348,-0.5,-0.0342106483876705,-0.0748886317014694
781,-0.0506015717983246,-0.0576086267828941,0.0082866884768009,-0.5,-0.0389628298580647,-0.0340218655765057
782,-0.0333639197051525,-0.0008387243724428,0.0329283215105534,-0.5,-0.0283563695847988,0.0116355307400227
783,-0.0088632004335522,0.047164399176836,0.052308302372694,-0.5,0.0039677522145211,0.0570552237331867
784,0.0145624568685889,0.0809270739555359,0.061375368386507,-0.5,0.0411820337176323,0.0952794849872589
785,0.0250572077929974,0.0981790795922279,0.0581786073744297,-0.5,0.0642394945025444,0.112504169344902
786,0.0217736903578043,0.0934249982237816,0.0508762076497078,-0.5,0.0660481005907059,0.0908584520220757
787,0.01679995842278,0.0617569386959076,0.0458475910127163,-0.5,0.0428409986197948,0.0355982705950737
788,0.014780318364501,0.0097339237108826,0.0423526056110859,-0.5,-0.000674899900332,-0.0137422690168023
789,0.00863887835294,-0.0333483517169952,0.032908771187067,-0.5,-0.0500611998140812,-0.0298516191542149
790,-0.0027203992940485,-0.0474534556269646,0.0110872555524111,-0.5,-0.0901791155338287,-0.0280619226396084
791,-0.010492661036551,-0.0442499406635761,-0.016214182600379,-0.5,-0.106582641601563,-0.0255550406873226
792,-0.009037503041327,-0.0390186309814453,-0.0357422865927219,-0.5,-0.0892492160201073,-0.0170251131057739
793,-0.0010177149670198,-0.0377103909850121,-0.042039230465889,-0.5,-0.0467668063938618,-0.0036801933310926
794,0.0069849011488258,-0.0399281345307827,-0.0383312627673149,-0.5,-0.0087804142385721,0.0059297732077539
795,0.0086313001811504,-0.0366636253893375,-0.0282653160393238,-0.5,0.0079358499497175,0.0163799487054348
796,0.0013318534474819,-0.016262648627162,-0.0199362486600876,-0.5,0.0111979003995657,0.0256397556513548
797,-0.0170589629560709,0.022230189293623,-0.0294779073446989,-0.5,-0.0011041203979402,0.0194046348333359
798,-0.0476490892469883,0.0573847740888596,-0.0590311884880066,-0.5,-0.0392368510365486,0.0007276157848536
799,-0.0819803178310394,0.0677298232913017,-0.0831098183989525,-0.5,-0.0878424718976021,-0.0108107151463628
800,-0.101826854050159,0.0523756146430969,-0.070142038166523,-0.5,-0.111315079033375,-0.0031166365370154
801,-0.0932701379060745,0.0272494461387396,-0.0104973753914237,-0.5,-0.0889968648552895,0.023566972464323
802,-0.0577569305896759,0.0160349104553461,0.074380099773407,-0.5,-0.0307790003716946,0.0608628392219543
803,-0.0078113386407494,0.0235416181385517,0.143795922398567,-0.5,0.0301897879689932,0.0927926674485207
804,0.0348386913537979,0.030325023457408,0.164500534534454,-0.5,0.0591543465852737,0.0998197719454765
805,0.0495332404971123,0.0192885678261518,0.136562034487724,-0.5,0.0498172007501125,0.0754343122243881
806,0.0418397709727287,-0.0060556796379387,0.0924936905503273,-0.5,0.0281317140907049,0.0391559526324272
807,0.0323538221418858,-0.0273515544831753,0.0618294663727283,-0.5,0.0180257223546505,0.0147289596498013
808,0.0239686444401741,-0.033650066703558,0.0369855761528015,-0.5,0.0134025840088725,0.0037490092217922
809,0.0053782598115503,-0.0309846065938473,-0.0138387838378549,-0.480249017477036,-0.0065541788935661,-0.0074262479320168
810,-0.0230435654520988,-0.0307623483240604,-0.0962186828255653,-0.0812409445643425,-0.0449716486036778,-0.026189062744379
811,-0.0457293689250946,-0.0249109361320734,-0.164415657520294,0.144934341311455,-0.0797240883111954,-0.0339716672897339
812,-0.0546954274177551,0.0104495119303465,-0.168310970067978,0.182243779301643,-0.0917044579982758,-0.0091053610667586
813,-0.0524357482790947,0.0690960884094238,-0.113900378346443,0.137398660182953,-0.0844031721353531,0.0307134706526995
814,-0.0376880280673504,0.109325803816319,-0.044675026088953,0.129372864961624,-0.0639297813177109,0.049908097833395
815,-0.0110937803983688,0.103519029915333,0.0125955129042268,0.209526836872101,-0.0284973848611116,0.0423733368515968
816,0.0129996659234166,0.063747726380825,0.0521509759128094,0.34497344493866,0.0113482950255275,0.0294967740774155
817,0.0188250299543142,0.0212290417402983,0.0720094293355942,0.5,0.0324926525354385,0.0250777117908001
818,0.010870442725718,0.0002784524403978,0.0797860324382782,0.5,0.031687892973423,0.0285077299922705
819,0.004070364870131,-0.002538323868066,0.086566261947155,0.5,0.0252355858683586,0.0339978337287903
820,0.0020912941545248,-0.0098318457603454,0.0920474827289581,0.5,0.023278895765543,0.0387966372072697
821,-0.0022779272403568,-0.0278513468801975,0.0883044898509979,0.5,0.0269071664661169,0.0459024868905544
822,-0.0178915429860353,-0.0417813882231712,0.0684496834874153,0.5,0.0242354460060596,0.0479734912514687
823,-0.0431267246603966,-0.0332343243062496,0.0380078554153442,0.5,0.0006553659914061,0.0420441180467606
824,-0.0632070973515511,0.0027760062366724,0.0093074506148695,0.5,-0.03620295971632,0.0514769703149796
825,-0.0704892948269844,0.0557773634791374,-0.0177804548293352,0.5,-0.0715455785393715,0.0866743177175522
826,-0.0722249373793602,0.107013195753098,-0.0490770675241947,0.5,-0.103126883506775,0.114162474870682
827,-0.071777381002903,0.130025461316109,-0.0774858891963959,0.5,-0.124627359211445,0.104538768529892
828,-0.0582699850201607,0.109903387725353,-0.0814927890896797,0.5,-0.114896878600121,0.0753606930375099
829,-0.0252160765230656,0.0572124570608139,-0.0506573989987373,0.5,-0.0677795857191086,0.0502566732466221
830,0.0102520231157541,-0.0083137731999158,-0.0134519264101982,0.292846143245697,-0.0188634749501944,0.0189887825399637
831,0.0329873599112034,-0.0682185143232346,-0.0067277918569743,0.130296796560287,-0.0062604136765003,-0.0230159349739552
832,0.0508798509836197,-0.104819513857365,-0.0289410222321749,0.0658194795250893,-0.0240831263363361,-0.0524873323738575
833,0.0660678222775459,-0.107299633324146,-0.0497852377593517,0.0901365578174591,-0.0416772551834583,-0.0513954535126686
834,0.0641667991876602,-0.069003738462925,-0.0454781539738178,0.129969641566277,-0.0432765111327171,-0.0221967156976461
835,0.0372841134667397,-0.0001836010196711,-0.0158843826502562,0.109368801116943,-0.032944418489933,0.0145282773301005
836,-0.0076798945665359,0.0521494708955288,0.0190950781106949,-0.0164783280342817,-0.0207066219300032,0.030947370454669
837,-0.0544763170182705,0.0550384037196636,0.0404277816414833,-0.188296690583229,-0.0143136251717806,0.0202040206640959
838,-0.0876042023301125,0.022284334525466,0.0432509258389473,-0.306903094053268,-0.0199229028075933,-0.0026082780677825
839,-0.101046040654182,-0.0196711402386427,0.0311867222189903,-0.330116212368011,-0.0381492413580418,-0.0189601704478264
840,-0.0888404920697212,-0.0356573201715946,0.0231973975896835,-0.234372958540916,-0.0469012893736362,-0.0058196284808218
841,-0.0506878681480885,0.0001972450554603,0.0365256443619728,0.0058941487222909,-0.0250497590750456,0.0432687513530254
842,-0.0085132345557212,0.0687064081430435,0.0581512190401554,0.331225275993347,0.0130440890789032,0.108757399022579
843,0.0116253113374114,0.131248310208321,0.0635948851704597,0.5,0.0404710099101067,0.173012554645538
844,0.0043012937530875,0.169277653098106,0.038716372102499,0.5,0.0408792160451412,0.211581826210022
845,-0.016248095780611,0.17033226788044,-0.0121350707486272,0.442406505346298,0.0108395079150796,0.191815033555031
846,-0.0340508669614792,0.117720268666744,-0.0651650950312614,0.278012663125992,-0.0340254530310631,0.1137755215168
847,-0.0425046384334564,0.0286643896251917,-0.0936485379934311,0.0891125798225403,-0.0646188706159592,0.0159593261778355
848,-0.0389965362846851,-0.0471762344241142,-0.0836448967456818,-0.21322800219059,-0.0595456026494503,-0.0581938959658146
849,-0.0238442029803991,-0.0794927999377251,-0.0427416078746319,-0.5,-0.0222525950521231,-0.0875287652015686
850,-0.0066646146588027,-0.0752999484539032,0.0034525534138083,-0.5,0.0198889616876841,-0.0824535563588142
851,0.0016157916979864,-0.055367112159729,0.0317684486508369,-0.5,0.0388067476451397,-0.0727275088429451
852,0.0021000157576054,-0.0339790917932987,0.0338013172149658,-0.5,0.0320167802274227,-0.0722175538539886
853,0.0039164847694337,-0.0188077483326197,0.0108277946710587,-0.5,0.0154308406636119,-0.0704405680298805
854,0.0114599848166108,-0.0110275121405721,-0.0218054708093405,-0.5,0.005701963789761,-0.0607884675264359
855,0.022722577676177,-0.0049360203556716,-0.0420070327818394,-0.5,0.0095966979861259,-0.0472570471465588
856,0.0335826091468334,-0.0014155011158436,-0.0506123155355453,-0.5,0.014482987113297,-0.0360505878925323
857,0.0362548418343067,-0.0091836703941226,-0.0588222071528435,0.13743057847023,0.0108423959463835,-0.0301531180739403
858,0.0255964696407318,-0.0238205697387457,-0.0600964203476906,0.5,0.007478074170649,-0.0270133670419455
859,0.0092435711994767,-0.0347345918416977,-0.0481994636356831,0.5,0.0072580240666866,-0.0230013430118561
860,-0.0007970322621986,-0.0424571186304092,-0.0301031041890383,0.5,0.0040741418488323,-0.009598284959793
861,-0.0044331760145723,-0.0402721799910069,-0.0121255144476891,0.5,-0.0013208941090852,0.0150137646123767
862,-0.0111642563715577,-0.0196138359606266,-0.0036626905202865,0.5,-0.0062922569923102,0.0267705917358398
863,-0.0242660045623779,0.0002657469594851,-0.0137821612879634,0.5,-0.0076691904105246,0.0042084283195436
864,-0.0366215147078037,0.0031326136086136,-0.0260960441082716,0.5,0.0031540866475552,-0.0342309139668942
865,-0.0403416641056538,0.0015552518889308,-0.0142836328595877,0.5,0.0256943646818399,-0.0506821386516094
866,-0.0333661399781704,-0.0010438148165121,0.0179553180932999,0.358905732631683,0.0463717207312584,-0.0371694602072239
867,-0.0178999248892069,-0.0111247571185231,0.0471474528312683,0.470383614301682,0.0590713731944561,-0.0158781260251999
868,0.0028297486715018,-0.0167614594101906,0.0638885274529457,0.5,0.0715015754103661,-0.0026633725501596
869,0.0267468132078648,-0.0040687350556254,0.0742481648921967,0.5,0.0938097536563873,0.0023412182927131
870,0.0494748800992966,0.022721953690052,0.083041250705719,0.5,0.12325181812048,0.0053526815026998
871,0.0633483603596687,0.0479409135878086,0.086081251502037,0.5,0.144264742732048,0.0118960868567228
872,0.0633592158555985,0.0538487024605274,0.0710653141140938,0.5,0.142083257436752,0.0173588823527098
873,0.0517948418855667,0.0319300852715969,0.0315477326512337,0.5,0.105740964412689,0.008036850951612
874,0.0402946174144745,-0.0071929981932044,-0.018003586679697,0.5,0.0423496775329113,-0.0190399009734392
875,0.0367636680603027,-0.0430361405014992,-0.0548940785229206,0.5,-0.0198679976165295,-0.046464703977108
876,0.0372781418263912,-0.0580767318606377,-0.0654345378279686,0.5,-0.0566429384052753,-0.0503813102841377
877,0.0356316640973091,-0.0487622059881687,-0.0530968382954597,0.5,-0.0643352866172791,-0.0257398448884487
878,0.0199911892414093,-0.0261677075177431,-0.039663553237915,0.5,-0.0612866170704365,0.0055129714310169
879,-0.0191278345882893,0.0032941207755357,-0.0422379784286022,0.5,-0.066533200442791,0.0280446466058493
880,-0.0658246725797653,0.0330815725028515,-0.0524054914712906,0.5,-0.0782001838088036,0.0476311966776848
881,-0.0906828567385674,0.0447859205305576,-0.0545809417963028,0.5,-0.0824931561946869,0.0531194545328617
882,-0.0827033668756485,0.0274880640208721,-0.049476757645607,0.5,-0.0699277445673943,0.023434404283762
883,-0.0569909326732159,-0.0090800588950514,-0.0451935119926929,0.5,-0.0437057428061962,-0.0284726601094007
884,-0.0331180803477764,-0.0389840081334114,-0.0410646609961987,0.5,-0.0151180978864431,-0.0714898630976677
885,-0.0179116073995829,-0.0436796918511391,-0.0328308194875717,0.5,0.0085743460804224,-0.092618465423584
886,-0.0118111511692405,-0.0352136380970478,-0.0236922092735767,0.5,0.0238606464117765,-0.093631237745285
887,-0.0130480257794261,-0.0350029729306698,-0.0138157140463591,0.5,0.0321319289505482,-0.0738938525319099
888,-0.01268295571208,-0.0388327613472939,0.010130800306797,0.5,0.0418416932225227,-0.0317747071385384
889,-0.0001121573513955,-0.0252791922539473,0.0590433739125729,0.5,0.0599050596356392,0.025219826027751
890,0.0217220354825258,0.0048676333390176,0.114132732152939,0.5,0.0825626328587532,0.0724384486675262
891,0.0414800643920898,0.0251954551786184,0.136432871222496,0.5,0.0946714952588081,0.0836889445781708
892,0.0583606697618961,0.0207506790757179,0.114653758704662,0.5,0.0839703008532524,0.0636111125349998
893,0.0749405100941658,0.0052747423760592,0.0760988295078278,0.5,0.0584038719534874,0.0397258996963501
894,0.085420086979866,-0.0039370995946228,0.040568295866251,0.5,0.0314835123717785,0.0258760210126638
895,0.0836510211229324,0.0014187812339514,0.0008138933917507,0.5,0.000195497268578,0.0227710008621216
896,0.0656726583838463,0.0317935980856419,-0.0437095277011395,0.5,-0.0395641103386879,0.0367018207907677
897,0.0267707053571939,0.0738866999745369,-0.0802195221185684,0.5,-0.0823362693190575,0.062459297478199
898,-0.0272226519882679,0.085731253027916,-0.0997615903615952,0.5,-0.120104819536209,0.0783896297216415
899,-0.0749890431761742,0.0551050081849098,-0.0978540405631065,0.5,-0.138659447431564,0.0689420625567436
900,-0.0966733396053314,0.0158023368567228,-0.0768780261278152,0.5,-0.121799968183041,0.0340307503938675
901,-0.0858038067817688,-0.0024754090700298,-0.04049451649189,0.5,-0.0672286823391914,-0.0086839655414223
902,-0.0505031198263168,-0.0033211193513125,0.0059687853790819,0.5,0.0018835109658539,-0.0391709245741367
903,-0.0079120136797428,0.0012531623942777,0.0452655144035816,0.5,0.0519584119319916,-0.0460042655467987
904,0.0246611218899488,0.0059375306591391,0.0582580715417862,0.5,0.0643551722168922,-0.0299202371388674
905,0.0356835499405861,0.0014546022284776,0.0425431318581104,0.5,0.0407533422112465,-0.0113115329295397
906,0.0262055285274982,-0.0155220543965697,0.0185388587415218,0.5,0.002013488439843,-0.0028221914544701
907,0.0050198920071125,-0.0405586026608944,0.0045437114313244,0.5,-0.02779271453619,-0.0036234557628631
908,-0.0170892011374235,-0.0636191517114639,0.0030786809511482,0.5,-0.0315025225281715,-0.0120247127488256
909,-0.0256191156804562,-0.0638876259326935,0.0206652637571096,0.5,-0.0019568647257983,-0.0092787267640233
910,-0.0154241807758808,-0.0325247943401337,0.0554943457245827,0.5,0.0389727018773556,0.0160379000008106
911,0.0015713180182501,0.008229392580688,0.0759071111679077,0.5,0.0528759099543095,0.0399276502430439
912,0.0139692192897201,0.0281903985887766,0.0493226498365402,0.5,0.0241115614771843,0.0457475930452347
913,0.0180845204740763,0.0254664812237024,-0.0124103762209415,0.5,-0.0254759434610605,0.0466048419475555
914,0.0134277148172259,0.0176718235015869,-0.0604666769504547,0.5,-0.0621807500720024,0.047263078391552
915,0.0022617056965827,0.0156557001173496,-0.0646541118621826,0.5,-0.0736405476927757,0.0438087545335293
916,-0.0118840541690588,0.0233857240527868,-0.0312060136348009,0.5,-0.0611344166100025,0.048098761588335
917,-0.0227318499237299,0.0335905812680721,0.0211855340749025,0.5,-0.0310878083109856,0.0683118104934692
918,-0.0265376213937998,0.0293552745133638,0.0679379403591156,0.5,-0.0053291302174329,0.0872207283973694
919,-0.021226204931736,0.0089250653982162,0.0854004696011543,0.5,0.001452614669688,0.0848172456026077
920,-0.0050796116702258,-0.0085470909252762,0.071384571492672,0.5,0.0030914195813238,0.0638706460595131
921,0.0104771675541997,-0.0108728064224124,0.0416643358767033,0.5,0.0136623233556747,0.0364122055470943
922,0.0094647137448191,-0.0012786070583388,0.010212579742074,0.5,0.0184766314923763,0.0090178418904542
923,-0.0067056105472147,0.0194829739630222,-0.0120567101985216,0.5,3.53093128069304e-05,-0.0083590969443321
924,-0.0250163711607456,0.0455818846821785,-0.0188570283353329,0.5,-0.0309483874589205,-0.0061593777500093
925,-0.0351928398013115,0.0637921392917633,-0.0129100764170289,0.5,-0.0502216592431068,0.0134286992251873
926,-0.03170520439744,0.0671114027500153,0.0001524894032627,0.5,-0.0481921695172787,0.0398369990289211
927,-0.0211821962147951,0.0484945178031921,0.0089748799800872,0.5,-0.0409870184957981,0.0555067472159863
928,-0.015217836946249,0.0151998857036233,0.007897775620222,0.5,-0.0420539490878582,0.0521441958844662
929,-0.0102903060615063,-0.004438268020749,0.0114300725981593,0.5,-0.0368773564696312,0.0491596795618534
930,0.0007375926943495,0.0009409015183337,0.025445157662034,0.5,-0.0145372487604618,0.0662896186113358
931,0.0062995613552629,0.0163276083767414,0.0274009071290493,0.5,0.0011955352965742,0.0841294005513191
932,-0.0098790554329752,0.0193651989102364,-0.0030577962752431,0.5,-0.0183340441435575,0.0648088529706001
933,-0.0373332351446152,-0.0046836612746119,-0.0528995469212532,0.5,-0.0596923008561134,0.0054157106205821
934,-0.0517898090183735,-0.0491692833602428,-0.0891122743487358,0.5,-0.0873774960637093,-0.0640869140625
935,-0.0515358075499535,-0.0910979136824608,-0.0920901745557785,0.5,-0.0935985594987869,-0.113558612763882
936,-0.044356357306242,-0.103851199150085,-0.0613789707422256,0.5,-0.0869967713952065,-0.119691096246243
937,-0.0266657099127769,-0.0769020169973373,-0.0068273078650236,0.5,-0.0669799819588661,-0.0718256384134293
938,-0.0001857661118265,-0.0269155334681273,0.0503577180206776,0.5,-0.0342955738306046,0.0125004732981324
939,0.0263079609721899,0.0256887786090374,0.088106207549572,0.5,0.0068043549545109,0.0935007259249687
940,0.0486635752022266,0.0696611255407333,0.100403189659119,0.5,0.0537412464618683,0.136114582419395
941,0.0602834559977055,0.094622902572155,0.0871862694621086,0.5,0.0942218229174614,0.126997157931328
942,0.0544482059776783,0.0929237082600594,0.0474164076149464,0.5,0.103027835488319,0.0745850503444672
943,0.0367441885173321,0.0643707662820816,-0.007642085198313,0.5,0.0612859688699245,0.0047489572316408
944,0.0146860023960471,0.0135773094370961,-0.0592022798955441,0.5,-0.0187335778027773,-0.0549439378082752
945,-0.0112148020416498,-0.0443794764578342,-0.0882025584578514,0.5,-0.0955285578966141,-0.0889725685119629
946,-0.0339673385024071,-0.0774984806776047,-0.0762332081794739,0.5,-0.131272032856941,-0.0848052203655243
947,-0.0420012250542641,-0.0663587152957916,-0.0280192643404007,0.5,-0.121809557080269,-0.0406819730997086
948,-0.0348543785512447,-0.02531748265028,0.024091575294733,0.5,-0.0903036966919899,0.0196359008550644
949,-0.0255578309297562,0.0203940663486719,0.0488992407917976,0.5,-0.0613676682114601,0.0688280165195465
950,-0.0248025916516781,0.058359544724226,0.0411966219544411,0.5,-0.0496124736964703,0.10348080098629
951,-0.0295664742588997,0.084768533706665,0.0209036022424698,0.5,-0.0564375296235085,0.134754732251167
952,-0.0334327630698681,0.0926932021975517,0.0040492047555744,0.5,-0.071308009326458,0.157247006893158
953,-0.029612997546792,0.083033375442028,-0.0073197754099965,0.5,-0.0759165361523628,0.144836485385895
954,-0.0137008391320705,0.0650166422128677,-0.0081849070265889,0.5,-0.0572146102786064,0.0887139737606049
955,0.0035431019496172,0.0381994694471359,0.002539771143347,0.5,-0.0291023775935173,0.0166663620620966
956,0.0067131584510207,-0.0003876758564729,0.0113056469708681,0.5,-0.0152799533680081,-0.0397653914988041
957,-0.0006282408139668,-0.0353779569268227,0.0150753716006875,0.5,-0.0080465609207749,-0.0617750100791454
958,-0.0001710684882709,-0.0477809384465218,0.025831388309598,0.333717465400696,0.0120521876960993,-0.0431540682911873
959,0.0142986616119742,-0.0431754402816296,0.0405175946652889,-0.101776346564293,0.0339839868247509,-0.0084457714110612
960,0.0286136623471975,-0.0352512300014496,0.0438453070819378,-0.440923541784287,0.0347051545977592,0.0101151345297694
961,0.0293797701597214,-0.0194964781403542,0.0305307116359472,-0.5,0.0080855498090386,0.0122772622853518
962,0.0166081432253122,0.0070635513402521,0.0067148492671549,-0.5,-0.0372873805463314,0.0125102652236819
963,-0.0005137720145285,0.0328747555613518,-0.0100286388769746,-0.5,-0.0784942358732224,0.0191634595394135
964,-0.0119650596752763,0.049476683139801,-0.0073624132201075,-0.5,-0.0927630215883255,0.0321089923381805
965,-0.0185249149799347,0.0544926188886166,0.0013499094638973,-0.5,-0.0834320336580276,0.0389325357973576
966,-0.0275515615940094,0.0479219406843185,-0.0011892983457073,-0.5,-0.0706447064876556,0.0297787692397833
967,-0.0425723418593407,0.0338167734444141,-0.0132505875080824,-0.5,-0.0639258176088333,0.0153643935918808
968,-0.0652476474642754,0.0237972680479288,-0.0186971705406904,-0.5,-0.0570487752556801,0.0227641016244888
969,-0.0908820554614067,0.0266781840473413,-0.0041289781220257,-0.5,-0.0446204021573067,0.0559590868651867
970,-0.100430391728878,0.0336744487285614,0.0288113933056593,-0.5,-0.0272214207798243,0.0863868966698647
971,-0.0781121850013733,0.0306102223694324,0.058007474988699,-0.5,-0.0104112969711423,0.0908172279596329
972,-0.0343326814472675,0.0123483585193753,0.0518908128142357,-0.5,-0.0084975389763712,0.0583805777132511
973,0.0088415388017892,-0.0175378452986479,0.0127726253122091,-0.5,-0.0225573759526014,0.0008595237741246
974,0.0385232120752335,-0.045833483338356,-0.0162322726100683,-0.5,-0.0277093965560198,-0.0423064902424812
975,0.0492869541049004,-0.0597410537302494,-0.0135983088985085,-0.5,-0.0120386863127351,-0.0541983395814896
976,0.0415646322071552,-0.0615477785468102,-0.0053949821740388,-0.5,-0.0029528485611081,-0.058871041983366
977,0.020163781940937,-0.0615684129297733,-0.0130542991682887,-0.5,-0.0223455131053925,-0.0724516808986664
978,-0.0022341541480273,-0.0625032708048821,-0.016440948471427,-0.5,-0.040920227766037,-0.0781355574727058
979,-0.0058168689720332,-0.0538250878453255,0.0122814336791635,-0.5,-0.0149210132658482,-0.0530339181423187
980,0.0148763926699758,-0.0242962930351496,0.0636626407504082,-0.5,0.0512350089848042,0.0016183755360543
981,0.0440475158393383,0.0223156902939081,0.106736242771149,-0.5,0.113937430083752,0.0596646144986153
982,0.0574703812599182,0.063963808119297,0.118610166013241,-0.5,0.134675294160843,0.0881114527583122
983,0.0351042747497559,0.074490562081337,0.0839160159230232,-0.5,0.0972577258944511,0.0653409510850906
984,-0.0149236395955086,0.0523888245224953,0.0118922023102641,-0.5,0.0256562475115061,0.0070393285714089
985,-0.0541486628353596,0.0196672584861517,-0.0574047528207302,-0.43633171916008,-0.0235493332147598,-0.0465402230620384
986,-0.0583062432706356,-0.002967911073938,-0.0924709215760231,-0.5,-0.0232692565768957,-0.0727891027927399
987,-0.0386333242058754,-0.0052478108555078,-0.0937603786587715,-0.5,0.0006769662722945,-0.0610179789364338
988,-0.013165126554668,0.0128062246367335,-0.0817718878388405,-0.5,0.0188220236450434,-0.0202219318598509
989,0.010492823086679,0.0340710058808327,-0.0704321190714836,-0.5,0.0273098759353161,0.0077927228994667
990,0.026151655241847,0.0269172061234713,-0.0590172149240971,-0.5,0.0274536088109016,-0.0028902408666908
991,0.0327533259987831,-0.0166456326842308,-0.0459093749523163,-0.5,0.0164831895381212,-0.042355839163065
992,0.043067067861557,-0.0701877027750015,-0.0255150329321623,-0.5,0.0041235270909965,-0.0885201469063759
993,0.0647927448153496,-0.109054021537304,0.0114317229017615,-0.5,0.010082290507853,-0.119851343333721
994,0.0844387337565422,-0.121664755046368,0.0617655999958515,-0.5,0.0393878594040871,-0.124768331646919
995,0.0867765992879868,-0.104694187641144,0.105142071843147,-0.5,0.0772365927696228,-0.107174791395664
996,0.0761755853891373,-0.0685736611485481,0.118702284991741,-0.5,0.106682389974594,-0.0828221514821053
997,0.0647017806768417,-0.0318624451756477,0.0979636982083321,-0.5,0.118957497179508,-0.0649389177560806
998,0.0535337217152119,-0.0053110369481146,0.0627737417817116,-0.5,0.114544562995434,-0.0527734830975533
999,0.0392484292387962,0.0106879323720932,0.0368998721241951,-0.5,0.100000657141209,-0.043530460447073
1000,0.0707867071032524,-0.0053921728394925,0.0209999941289425,-0.5,0.0631906613707542,0.0073720272630453
1001,0.050534799695015,0.0032256303820759,0.0361984223127365,-0.5,0.0584733746945858,-0.0101882154121995
1002,0.0247708968818188,0.0170321352779865,0.0523335561156273,-0.5,0.0486526116728783,-0.0214624907821417
1003,-0.0016261205310002,0.0330916568636894,0.0635693520307541,-0.5,0.0354752130806446,-0.0114725297316909
1004,-0.0227634813636541,0.0439635440707207,0.0683926120400429,-0.5,0.0229562316089869,0.0196607653051615
1005,-0.0317638032138348,0.0456598997116089,0.0642567873001099,-0.5,0.0137100303545594,0.0533840544521809
1006,-0.0304496735334396,0.0327307283878326,0.0466489121317863,-0.5,0.0061709992587566,0.066878542304039
1007,-0.0293379090726376,0.0019050828414037,0.0151192685589194,-0.5,-0.0039336960762739,0.0483111068606377
1008,-0.0303015038371086,-0.032510582357645,-0.0248272679746151,-0.5,-0.017586212605238,-0.0026498334482312
1009,-0.021197285503149,-0.0606301873922348,-0.0646058693528175,-0.5,-0.0292133018374443,-0.0714565888047218
1010,0.0032034437172114,-0.0834275782108307,-0.0858869329094887,-0.5,-0.0231250058859587,-0.125623270869255
1011,0.0295335464179516,-0.0945743098855019,-0.0751171410083771,-0.5,0.0094579588621854,-0.133401647210121
1012,0.0442153625190258,-0.0881238877773285,-0.0430313982069492,-0.298379272222519,0.0479435510933399,-0.0837062373757362
1013,0.0470216646790504,-0.063237190246582,-0.0080536510795354,0.0468325205147266,0.0629029422998428,-0.0039507527835667
1014,0.0406981147825718,-0.0214593075215817,0.0186456181108952,0.209516078233719,0.050816360861063,0.0555453114211559
1015,0.0253294687718153,0.0237410217523575,0.036264393478632,0.114842809736729,0.0370049029588699,0.0772939845919609
1016,0.0037904558703303,0.054419320076704,0.0500078238546848,-0.1670892983675,0.0394259169697762,0.0782555863261223
1017,-0.0177067499607801,0.0624547712504864,0.0552199892699718,-0.460010260343552,0.0441321358084679,0.0682002976536751
1018,-0.029924588277936,0.0502296388149261,0.0418336391448975,-0.5,0.0330330990254879,0.0417670644819736
1019,-0.0273093581199646,0.0314503498375416,0.0154436966404319,-0.5,0.0124681387096643,0.0004024040244985
1020,-0.0167168769985437,0.0175918601453304,-0.0047345450147986,-0.5,0.0026152317877858,-0.0398002080619335
1021,-0.0077126161195337,0.0052118580788373,-0.0086493194103241,-0.3213170170784,0.0073618842288851,-0.0599389411509037
1022,-0.0011936720693483,-0.0145668890327215,-0.0024281416554004,0.048783864825964,0.0106068849563599,-0.0514838993549347
1023,0.0067604249343276,-0.0387071445584297,0.0044244136661291,0.47162276506424,0.0049590622074902,-0.0274868067353964
1024,0.0173124577850103,-0.0531669519841671,0.0057640899904072,0.5,-0.0020495136268436,-0.0134199885651469
1025,0.0253000557422638,-0.0559580251574516,-0.0036536459811031,0.5,-0.0103752259165049,-0.0203416123986244
1026,0.0227029230445623,-0.0579100176692009,-0.0235883947461843,0.5,-0.0299731362611055,-0.0374693907797337
1027,0.009398041293025,-0.0557812936604023,-0.0434118881821632,0.5,-0.0605143867433071,-0.0413398183882236
1028,-0.0039291623979806,-0.033216331154108,-0.0526647120714188,0.5,-0.086396336555481,-0.0136965839192271
1029,-0.0103434100747108,0.0032939852681011,-0.0518044531345367,0.5,-0.0970063731074333,0.0251346472650766
1030,-0.0125112216919661,0.0249955914914608,-0.0469812154769897,0.5,-0.0956419929862022,0.0367501676082611
1031,-0.0143373301252723,0.0205245185643435,-0.0448322147130966,0.5,-0.0866679176688194,0.0256714597344399
1032,-0.0154112027958035,0.0056977490894496,-0.0456593409180641,0.5,-0.0664681270718575,0.0188248343765736
1033,-0.0109919514507055,0.0005071123014204,-0.0393275618553162,0.5,-0.0298704653978348,0.0201924927532673
1034,-0.0009250444127246,0.0086052110418677,-0.0181779228150845,0.5,0.0206264648586512,0.0264691170305014
1035,0.010062275454402,0.0164127573370934,0.0127542242407799,0.5,0.0774299576878548,0.029997518286109
1036,0.019721508026123,0.0102400509640574,0.0345790274441242,0.5,0.121118023991585,0.0102479187771678
1037,0.0222451593726873,-0.0076738875359296,0.0269133653491735,0.5,0.118088081479073,-0.0404192246496677
1038,0.0098835239186883,-0.0224531590938568,-0.0063477745279669,0.5,0.0565090104937553,-0.0970681607723236
1039,-0.012827230617404,-0.0250789914280176,-0.0402226224541664,0.5,-0.034309558570385,-0.122791357338429
1040,-0.0324226021766663,-0.0203225500881672,-0.0601386390626431,0.5,-0.112947948276997,-0.105613678693771
1041,-0.0411541573703289,-0.0129525195807219,-0.0643093809485435,0.5,-0.14993605017662,-0.0629856586456299
1042,-0.0398319028317928,-0.0002906201116275,-0.0510335080325603,0.5,-0.140037178993225,-0.0167394895106554
1043,-0.0291289184242487,0.0150226391851902,-0.0267274919897318,0.5,-0.105618506669998,0.0232581999152899
1044,-0.0141886463388801,0.0214160811156034,-0.0054862787947058,0.5,-0.0728807374835014,0.0557502023875713
1045,-0.0060018440708518,0.0182998310774565,0.0095185553655028,0.5,-0.0482727661728859,0.0809708386659622
1046,4.93432125949766e-05,0.024370240047574,0.024044880643487,0.5,-0.0196229983121157,0.0954961851239204
1047,0.0131657589226961,0.0425380617380142,0.0260965339839458,0.5,0.0128543004393578,0.0887653008103371
1048,0.018273888155818,0.0449558608233929,-0.0067320107482373,0.5,0.0198764931410551,0.0543548241257668
1049,-0.0002559016575105,0.0179852768778801,-0.0617088824510574,0.5,-0.0121790654957294,0.0073659452609717
1050,-0.0268036685883999,-0.0172371622174978,-0.0909773036837578,0.5,-0.0535561703145504,-0.0109198745340109
1051,-0.037455789744854,-0.0308403484523296,-0.0694988146424294,0.5,-0.0714638903737068,0.0312141012400389
1052,-0.0291863698512316,-0.0094984751194715,-0.0170471612364054,0.5,-0.061223641037941,0.101603411138058
1053,-0.0173106119036675,0.0230152308940887,0.032732892781496,0.5,-0.0375784635543823,0.135557487607002
1054,-0.0194141790270805,0.0238352157175541,0.0535196922719479,0.5,-0.0241835042834282,0.110729113221169
1055,-0.033956740051508,-0.0055575408041477,0.0424996353685856,0.5,-0.0338899046182632,0.0509930066764355
1056,-0.0411195866763592,-0.0214463658630848,0.0232036020606756,0.5,-0.0496510565280914,-0.0071711037307977
1057,-0.0290753394365311,-0.0037753887008875,0.0162103679031134,0.5,-0.0482711903750896,-0.0414017029106617
1058,-0.0071401232853531,0.0323344804346561,0.0223509706556797,0.5,-0.0288675669580698,-0.051670890301466
1059,0.0077415723353624,0.0594119541347027,0.0201235730201006,0.5,-0.009220733307302,-0.0520566739141941
1060,0.0135812107473612,0.0580209009349346,-0.0085618142038583,0.5,-0.0017727086087688,-0.0550322942435741
1061,0.0155712440609932,0.0392450429499149,-0.0444268025457859,0.5,-0.0044123651459813,-0.0557964965701103
1062,0.0088526960462331,0.0272966157644987,-0.0640948116779327,0.5,-0.0162175465375185,-0.0431844219565392
1063,-0.0048931469209492,0.0285366997122765,-0.069397859275341,0.5,-0.0294177588075399,-0.0212194137275219
1064,-0.0125677064061165,0.0321757420897484,-0.0669963732361794,0.5,-0.026059802621603,-0.0067269275896251
1065,-0.007144636940211,0.0331393331289291,-0.0572139360010624,0.5,-0.0046927323564887,-0.0047078500501811
1066,0.0124669503420591,0.0342529118061066,-0.0375913828611374,0.5,0.0188845116645098,0.0008651711978018
1067,0.0401738099753857,0.0341921150684357,-0.0078338645398616,0.5,0.0391193442046642,0.0369239412248135
1068,0.0588119588792324,0.0377819053828716,0.0258201062679291,0.5,0.0662003979086876,0.109732113778591
1069,0.0582318939268589,0.0441749729216099,0.0527061596512794,0.5,0.0989830791950226,0.167561396956444
1070,0.0432656183838844,0.0377926044166088,0.0664747059345245,0.5,0.112016804516315,0.154131963849068
1071,0.0219051335006952,0.0123649472370744,0.0679539144039154,0.5,0.0881439074873924,0.0843755751848221
1072,0.0041478350758552,-0.0160242076963186,0.0652438029646873,0.5,0.0509526617825031,0.0161837507039309
1073,-0.0012683540116995,-0.0236317180097103,0.068239837884903,0.5,0.0350586995482445,-0.0128408242017031
1074,0.0033997360151261,-0.0081014297902584,0.0743869096040726,0.5,0.0400916039943695,-0.0022567217238247
1075,0.0099372463300824,0.0137599827721715,0.0710624232888222,0.5,0.0425106920301914,0.028286961838603
1076,0.0114580998197198,0.033124253153801,0.0504510141909122,0.5,0.0283463262021542,0.0502881966531277
1077,0.0088337091729044,0.0488443188369274,0.0197055973112583,0.5,0.0031355232931673,0.0418306291103363
1078,0.0104711642488837,0.0537521913647652,-0.0062829172238707,0.5,-0.0177677478641272,0.0066644032485783
1079,0.0161786582320929,0.0438745133578777,-0.0220967084169388,0.5,-0.0271326452493668,-0.0342668145895004
1080,0.0192895233631134,0.02855284512043,-0.0285143945366144,0.5,-0.0246476717293262,-0.0542935580015183
1081,0.0162690076977015,0.0188074856996536,-0.0314396135509014,0.5,-0.0150020122528076,-0.0415455065667629
1082,0.0072702220641076,0.0145721780136228,-0.042982891201973,0.5,-0.0069641834124922,-0.0204631611704826
1083,-0.0003908335929736,0.0121776945888996,-0.0672092437744141,0.5,-0.0034395249094814,-0.0233277250081301
1084,-0.0010464298538863,0.0082964077591896,-0.0948328152298927,0.5,-0.0058943908661603,-0.0518058836460114
1085,0.0026538236998021,-0.0015678161289542,-0.107711099088192,0.5,-0.0126880994066596,-0.0753318592905998
1086,0.0084710381925106,-0.0125560257583857,-0.0901637151837349,0.5,-0.0152180623263121,-0.060719408094883
1087,0.0155059723183513,-0.0142515515908599,-0.0445244945585728,0.5,-0.0048571182414889,-0.0059437244199216
1088,0.0172380898147821,-0.0020088867750018,0.0001369768579024,0.5,0.0152453370392323,0.0597965754568577
1089,0.0069345128722488,0.0156145002692938,0.0093882568180561,0.5,0.022401750087738,0.108213603496552
1090,-0.0120187709107995,0.0244313403964043,-0.01862533390522,-0.0029248639475554,-0.0010608932934701,0.1280876994133
1091,-0.0259456802159548,0.0230811182409525,-0.0539585761725903,-0.5,-0.041185338050127,0.114390559494495
1092,-0.0267055798321962,0.0181127991527319,-0.0655185580253601,-0.5,-0.0724807754158974,0.0685074478387833
1093,-0.0194975268095732,0.0136762224137783,-0.0440027043223381,-0.5,-0.0850029662251472,0.0051662535406649
1094,-0.0097746811807155,0.0056203170679509,-0.0101539408788085,-0.5,-0.0799431204795837,-0.053915549069643
1095,0.0006996737793087,-0.0094524789601564,0.0059155253693461,-0.5,-0.0607301630079746,-0.0890078470110893
1096,0.0120281502604485,-0.0171343237161636,0.0035856608301401,-0.5,-0.0328939631581306,-0.0866361856460571
1097,0.0211384855210781,-0.0080269472673535,0.0050049987621605,-0.5,-0.0067547322250902,-0.0521977245807648
1098,0.0210926719009876,0.0064911860972642,0.0180035438388586,-0.5,0.0098808659240603,-0.0119652366265655
1099,0.0113088004291058,0.0210252534598112,0.0347812511026859,-0.5,0.0204037483781576,0.0127583779394627
1100,-0.0004105450352653,0.0376445539295673,0.0499304533004761,-0.5,0.0297588836401701,0.0228620264679194
1101,-0.0020655037369579,0.0503485314548016,0.0625742599368095,-0.5,0.0381287038326263,0.0336436294019222
1102,0.0090086376294493,0.0535985492169857,0.0680988878011703,-0.5,0.0455288887023926,0.0519138090312481
1103,0.0213230438530445,0.04835195094347,0.0600391328334808,-0.5,0.0530776605010033,0.0687268674373627
1104,0.0303208902478218,0.0414262376725674,0.0428871437907219,-0.5,0.0647018402814865,0.0923606231808662
1105,0.0415691584348679,0.0489665754139423,0.0315191075205803,-0.5,0.0826048851013184,0.138205200433731
1106,0.0469657331705093,0.0756547078490257,0.0275490134954453,-0.5,0.0908520445227623,0.173699408769608
1107,0.0328003577888012,0.0925613716244698,0.0164251029491425,-0.5,0.0650490820407867,0.154442965984344
1108,0.0090086236596107,0.0749883651733398,-0.0037092268466949,-0.5,0.0130693707615137,0.0913330167531967
1109,-0.0036992335226386,0.0349839925765991,-0.0163392834365368,-0.5,-0.0249127428978682,0.0252178832888603
1110,-0.0030695237219333,-0.0007671155035495,-0.0078977849334478,-0.5,-0.0278819110244513,-0.0151426689699292
1111,0.0009595697047188,-0.0157106705009937,0.0152375968173146,-0.5,-0.0173074267804623,-0.0192742720246315
1112,0.0078926188871264,-0.0077440585009753,0.035984817892313,-0.5,-0.0164335258305073,0.0006574604776687
1113,0.0172780584543943,0.0159815158694983,0.044070903211832,-0.5,-0.0232363063842058,0.0187315847724676
1114,0.0160980466753244,0.0313067138195038,0.0304793305695057,-0.5,-0.0328045226633549,0.0131223136559129
1115,0.0059171472676098,0.0151883792132139,-0.0032674358226358,-0.5,-0.0373128429055214,-0.0170016642659903
1116,0.0085258511826396,-0.0180231183767319,-0.0300362091511488,-0.5,-0.0216023325920105,-0.0445696450769901
1117,0.0255387239158154,-0.0398856140673161,-0.0324229449033737,-0.5,0.0059234905056655,-0.0484964437782764
1118,0.0287649910897017,-0.0359038412570953,-0.0300453212112188,-0.5,0.0104895792901516,-0.0408407561480999
1119,-0.0022359024733305,-0.0123029444366694,-0.0451513342559338,-0.5,-0.0231127571314573,-0.0409452356398106
1120,-0.0547481700778008,0.0018759833183139,-0.0692782625555992,-0.5,-0.0675914585590363,-0.0458465330302715
1121,-0.0911459773778915,0.0004458574694581,-0.0780797451734543,-0.5,-0.0851812213659287,-0.0340336933732033
1122,-0.0842519551515579,0.008982665836811,-0.0625372231006622,-0.5,-0.0693525895476341,0.0048353979364037
1123,-0.0485656522214413,0.0345535464584827,-0.0283272266387939,-0.5,-0.0412306301295757,0.0560324639081955
1124,-0.0152425523847342,0.063964731991291,0.0192800741642714,-0.5,-0.0134687311947346,0.100257091224194
