,AF3,AF4,Fp1,Fp2,AF7,AF8
0,0.0370682217180729,0.0566477067768574,0.124516680836678,0.0274021290242672,0.171544656157494,0.112506188452244
1,0.0267510861158371,0.0438620410859585,0.0800081342458725,-0.0026221617590636,0.159225761890411,0.068048931658268
2,0.0117764277383685,0.022691348567605,0.0292158927768469,-0.03346012160182,0.124984584748745,0.0259344056248665
3,0.0034206022974103,0.0035955500788986,-0.0027262587100267,-0.0502462536096573,0.0885676965117455,0.0061194421723485
4,0.0003006418119184,-0.0117355547845364,-0.0076606133952736,-0.0450525172054768,0.062281671911478,-0.0072353039868176
5,-0.0028728297911584,-0.0227486398071051,0.0068794069811701,-0.023022722452879,0.044773206114769,-0.0209938175976276
6,-0.0064797699451446,-0.0254456754773855,0.0283552389591932,0.005417610052973,0.0333145670592785,-0.0210814327001572
7,-0.0161269810050726,-0.0257397405803204,0.0403719618916512,0.0243668090552092,0.0220852438360453,-0.0123902056366205
8,-0.0355239510536194,-0.0305337887257338,0.0386401116847992,0.0274854637682438,0.0063940873369574,-0.0109045961871743
9,-0.0548210777342319,-0.0343894474208355,0.0316650979220867,0.0234074797481298,-0.0095030339434742,-0.0164411701261997
10,-0.0634114518761635,-0.0300905890762806,0.0230839718133211,0.0205205027014017,-0.0193569753319025,-0.0189454406499863
11,-0.0665106698870659,-0.0212281513959169,0.0091454973444342,0.0160521268844604,-0.0267048571258783,-0.0169386528432369
12,-0.0767668932676315,-0.0206050593405962,-0.0136622628197074,0.0028721471317112,-0.0389713980257511,-0.0200105924159288
13,-0.0877851396799088,-0.0300333462655544,-0.0329629853367805,-0.0170010812580585,-0.0450240559875965,-0.0251161139458418
14,-0.0854801312088966,-0.0390412658452988,-0.0327125266194344,-0.0278002377599478,-0.0310647618025541,-0.0215359982103109
15,-0.0728337690234184,-0.0436568297445774,-0.0172544922679663,-0.0139296194538474,-0.0044217216782271,-0.0136779444292188
16,-0.054028045386076,-0.0413212366402149,0.0042473636567592,0.0200770441442728,0.0289801489561796,-0.0055784499272704
17,-0.0299064554274082,-0.0308929327875376,0.0240139905363321,0.0563396997749805,0.0651093050837517,0.0020681747701019
18,-0.0076475255191326,-0.0191251542419195,0.0307502876967192,0.0837633535265923,0.0876936316490173,0.000875266327057
19,0.0011573990341275,-0.0140184611082077,0.0214297026395798,0.103448897600174,0.0842134729027748,-0.0127777066081762
20,-0.0101377572864294,-0.0198322031646967,0.0033731018193066,0.114653959870338,0.0592407509684563,-0.0288201477378607
21,-0.0297743212431669,-0.0299144890159369,-0.011799868196249,0.10784649848938,0.0321767218410969,-0.0330829322338104
22,-0.0444559939205647,-0.0336625203490257,-0.0200904719531536,0.0848136842250824,0.0164575818926096,-0.0262665525078774
23,-0.05665148422122,-0.0316737554967403,-0.0280759241431952,0.0595220848917961,0.0071849571540951,-0.0218770112842321
24,-0.0676305815577507,-0.0315559059381485,-0.0370965525507927,0.0377109944820404,-0.002113017719239,-0.0244978442788124
25,-0.0699706077575684,-0.0378923900425434,-0.0439321547746658,0.0193439833819866,-0.0120523171499372,-0.0307196155190468
26,-0.0630805566906929,-0.0511958226561546,-0.0503674931824207,0.0024468256160616,-0.0234743282198906,-0.0415859930217266
27,-0.0564989782869816,-0.0654451102018356,-0.0547038689255714,-0.0169100910425186,-0.0295794866979122,-0.0534013845026493
28,-0.0545641556382179,-0.0667711272835732,-0.0496371388435364,-0.0356471315026283,-0.0171712059527636,-0.0516293346881866
29,-0.0548429787158966,-0.0486185438930988,-0.0343846864998341,-0.0441500283777714,0.0108874076977372,-0.0289384871721268
30,-0.0533082149922848,-0.0212168395519257,-0.0139831993728876,-0.0329569391906261,0.0396663099527359,0.0106972213834524
31,-0.0441523678600788,0.0003547265660017,0.0016621008981019,-0.0088769504800438,0.0623997785151005,0.0517269894480705
32,-0.0262691173702478,0.0059284730814397,-0.003847824409604,-0.0034977020695805,0.0776874348521233,0.0643824338912964
33,-0.0105385687202215,-0.0076699410565197,-0.035616297274828,-0.0341682396829128,0.0748350098729134,0.03141875192523
34,-0.016149727627635,-0.0335422195494175,-0.077375091612339,-0.0738312229514122,0.0362928919494152,-0.0330765247344971
35,-0.0445724204182625,-0.055120587348938,-0.101295538246632,-0.0848708599805832,-0.0285095125436783,-0.0891110301017761
36,-0.0697969496250153,-0.0566860437393188,-0.08925611525774,-0.0536486394703388,-0.0780314058065414,-0.0971643775701523
37,-0.0703043639659882,-0.0397247709333897,-0.0531965084373951,0.0057181059382855,-0.085829421877861,-0.0583676435053349
38,-0.0498189888894558,-0.0192044358700514,-0.0157226361334324,0.0587805993855,-0.0627768412232399,-0.0088754724711179
39,-0.031855147331953,-0.0061612292192876,0.016027020290494,0.0766189992427826,-0.0357124172151089,0.0217699706554413
40,-0.0362758226692677,-0.0032232704106718,0.040317814797163,0.0565392300486565,-0.0226388666778803,0.0272350944578648
41,-0.0548851676285267,-0.0091149359941482,0.0532959066331387,0.0201406367123127,-0.0222434755414724,0.0156798381358385
42,-0.0700909122824669,-0.0266603231430054,0.0476056858897209,-0.0103791635483503,-0.0285488124936819,-0.0061376951634883
43,-0.0737975239753723,-0.0524663254618645,0.0202380437403917,-0.040321122854948,-0.0417843833565712,-0.0307641308754683
44,-0.0630124285817146,-0.0650471299886703,-0.0081306770443916,-0.0827938616275787,-0.0517657287418842,-0.0378372482955456
45,-0.0483178086578846,-0.0488818809390068,-0.0148428976535797,-0.122252710163593,-0.0428244434297085,-0.0175406243652105
46,-0.0424088165163994,-0.0146246068179607,-0.0057822125963866,-0.1333227455616,-0.0208181329071522,0.0087981522083282
47,-0.0420665442943573,0.010931845754385,-0.0020951649639755,-0.118457101285458,-0.0080291526392102,0.0138637721538544
48,-0.0390182808041573,0.0135511234402657,-0.0095293410122394,-0.0943218544125557,-0.0102678835391998,-0.0029501740355044
49,-0.0312778688967228,0.0101429428905249,-0.0132974786683917,-0.0634666904807091,-0.0066349944099783,-0.0171935893595219
50,-0.026093628257513,0.0187935512512922,-0.0074821873567998,-0.0300173833966255,0.0198054201900959,-0.0165119282901287
51,-0.031837347894907,0.0291957929730415,-0.0060385344550013,-0.0111729484051466,0.0531163327395916,-0.0127760889008641
52,-0.0480090230703354,0.0223834365606308,-0.0198643058538437,-0.0143656395375729,0.0575182549655437,-0.014093472622335
53,-0.0694584771990776,-0.0065085762180388,-0.0462775714695454,-0.0339930579066277,0.0147379180416465,-0.0207647532224655
54,-0.0874171704053879,-0.049264844506979,-0.0762835890054703,-0.0593688637018204,-0.0591852106153965,-0.0380356386303902
55,-0.0951112881302834,-0.0891229063272476,-0.0976325497031212,-0.0724576935172081,-0.129050105810165,-0.0624926723539829
56,-0.0987792164087296,-0.107005007565022,-0.101639583706856,-0.065736748278141,-0.169422626495361,-0.0797014236450195
57,-0.102150544524193,-0.0986395627260208,-0.0924581736326218,-0.0508105233311653,-0.178558930754662,-0.0844164118170738
58,-0.097808450460434,-0.07997976988554,-0.0765328109264374,-0.0330513007938862,-0.16476759314537,-0.0750832110643387
59,-0.0898411944508553,-0.0640777498483658,-0.058255672454834,-0.0122902216389775,-0.140102401375771,-0.0529660619795322
60,-0.0925324931740761,-0.0521398596465588,-0.0485674701631069,0.000473600171972,-0.119843274354935,-0.0367308706045151
61,-0.105956293642521,-0.0489058122038841,-0.0552427992224693,-0.0033919725101441,-0.106720983982086,-0.045949749648571
62,-0.116365998983383,-0.062365896999836,-0.0738117098808289,-0.0187893118709326,-0.0912608653306961,-0.0804132521152496
63,-0.114899106323719,-0.0899877324700356,-0.0921355932950974,-0.036911990493536,-0.0669259205460548,-0.123757012188435
64,-0.109535224735737,-0.126300677657127,-0.110994569957256,-0.0552161931991577,-0.0476132743060589,-0.163692131638527
65,-0.116280689835548,-0.167747735977173,-0.143850982189178,-0.0681819096207619,-0.0637415125966072,-0.200044944882393
66,-0.137016654014587,-0.195435345172882,-0.177393034100533,-0.0635945349931717,-0.117378070950508,-0.22266760468483
67,-0.155947908759117,-0.192650035023689,-0.179412826895714,-0.0362190492451191,-0.171340852975845,-0.213274523615837
68,-0.158392861485481,-0.168850004673004,-0.14328558743,0.0079193226993084,-0.192296952009201,-0.174874231219292
69,-0.145082265138626,-0.142940521240234,-0.0891721621155739,0.0563478097319603,-0.173424705862999,-0.127807840704918
70,-0.123364150524139,-0.119928106665611,-0.0351363606750965,0.0986291095614433,-0.123080916702747,-0.081852950155735
71,-0.0939834341406822,-0.0896563157439232,0.0128363957628608,0.129280567169189,-0.0581847131252289,-0.0338466800749302
72,-0.0651996284723282,-0.0535387694835663,0.0457737185060978,0.143348291516304,0.0014037666842341,0.0090416204184293
73,-0.054474763572216,-0.0316614210605621,0.0515890717506409,0.13717845082283,0.0442210733890533,0.0267843138426542
74,-0.0636051222681999,-0.0331613793969154,0.0332432799041271,0.11067246645689,0.060793325304985,0.0126850726082921
75,-0.0794581770896912,-0.0470048077404499,0.0078620091080665,0.0738631561398506,0.0464364849030972,-0.0177996922284365
76,-0.0920112729072571,-0.0579252727329731,-0.0139927808195353,0.0378011502325535,0.0136880436912179,-0.0451080836355686
77,-0.0936219915747643,-0.055804830044508,-0.0319710150361061,0.0030593730043619,-0.0187026336789131,-0.0579379945993423
78,-0.0814600810408592,-0.0434137508273125,-0.0446578934788704,-0.0252992324531078,-0.0410967320203781,-0.057841569185257
79,-0.0651806443929672,-0.0308416970074177,-0.0497672408819199,-0.041302815079689,-0.0519281290471554,-0.0527751371264458
80,-0.0550575479865074,-0.0198267214000225,-0.0509692691266537,-0.0530254393815994,-0.0557156726717949,-0.0468674227595329
81,-0.0551709122955799,-0.0107087949290872,-0.0492936745285988,-0.069777213037014,-0.0627802014350891,-0.04698621109128
82,-0.0615077242255211,-0.0069788652472198,-0.035634458065033,-0.0843259394168854,-0.0725216493010521,-0.0521617643535137
83,-0.0646314173936844,-0.0069727576337754,-0.0089196674525737,-0.0751238465309143,-0.071108877658844,-0.0404583401978016
84,-0.0638920515775681,-0.0037060333415865,0.0166718941181898,-0.040190514177084,-0.0549606792628765,-0.0013609614688903
85,-0.0652042925357819,0.0059666605666279,0.028877193108201,-0.0141033437103033,-0.0350895933806896,0.0363888666033745
86,-0.0683858469128609,0.0132013289257884,0.0232394654303789,-0.0268166977912188,-0.0189711507409811,0.038334459066391
87,-0.0677772983908653,0.0038377216551452,-0.0097020510584116,-0.0748427584767342,-0.0139993410557508,0.0033442848362028
88,-0.0631414130330086,-0.0311246030032635,-0.0766896829009056,-0.137743711471558,-0.0325991101562977,-0.0554262921214104
89,-0.0626464560627937,-0.0889308080077171,-0.155872270464897,-0.203381597995758,-0.0691249147057533,-0.128699079155922
90,-0.070655919611454,-0.148038536310196,-0.206978932023048,-0.263283342123032,-0.100792966783047,-0.193363964557648
91,-0.0838041678071022,-0.178417518734932,-0.209056183695793,-0.294351130723953,-0.116710439324379,-0.22129462659359
92,-0.0980786979198456,-0.171404227614403,-0.171312242746353,-0.272056370973587,-0.12075037509203,-0.207547903060913
93,-0.10577455163002,-0.141410022974014,-0.113408856093884,-0.208031728863716,-0.113560162484646,-0.167558953166008
94,-0.103239133954048,-0.10560941696167,-0.0570485815405846,-0.152660056948662,-0.0980628058314323,-0.122839517891407
95,-0.100748211145401,-0.0770187526941299,-0.0242815185338259,-0.134642913937569,-0.088489793241024,-0.0918130949139595
96,-0.101671159267426,-0.0554222129285336,-0.0175818018615246,-0.133048593997955,-0.0866733193397522,-0.0726688206195831
97,-0.0976631119847298,-0.0324486643075943,-0.0218015033751726,-0.118648178875446,-0.0807104632258415,-0.0484874099493027
98,-0.0882033780217171,-0.0114913340657949,-0.0301870536059141,-0.0915751606225967,-0.0713383331894875,-0.0216700974851847
99,-0.0773023143410683,-0.0002136739203706,-0.0418556779623032,-0.071637935936451,-0.0639481917023659,-0.012463565915823
100,-0.0653097927570343,0.0006746814469806,-0.0530628673732281,-0.0678367912769318,-0.0582696609199047,-0.0278707519173622
101,-0.0529582425951958,-0.010053938254714,-0.06722541898489,-0.0791766196489334,-0.0571580268442631,-0.065337561070919
102,-0.0394902341067791,-0.025593101978302,-0.0859096795320511,-0.101506575942039,-0.0585579015314579,-0.114248156547546
103,-0.0225904211401939,-0.0273655094206333,-0.0949506014585495,-0.113758571445942,-0.0521516837179661,-0.140347227454185
104,-0.0065997177734971,-0.0088448179885745,-0.0768327042460442,-0.0934119671583176,-0.0319250375032425,-0.112396366894245
105,-0.0033201191108673,0.017577825114131,-0.038089856505394,-0.0493677742779255,-0.0063402117229998,-0.0507378727197647
106,-0.01810023188591,0.0316322632133961,-0.0129813319072127,-0.013006504625082,0.0026289476081728,-0.0150145227089524
107,-0.0351172238588333,0.0220770705491304,-0.0188490618020296,-0.0014860383234918,-0.0124995401129127,-0.0266474485397339
108,-0.0342317372560501,-0.000188074161997,-0.0382930152118206,2.83472490991699e-06,-0.0337691381573677,-0.0509643517434597
109,-0.0144443763419986,-0.0215413328260183,-0.0573133490979671,0.0092352712526917,-0.0448234528303146,-0.0614194646477699
110,0.007988391444087,-0.0415980406105518,-0.0771821066737175,0.0232447106391191,-0.0462727323174477,-0.0649557039141655
111,0.0120272403582931,-0.0618356540799141,-0.0939758718013763,0.0363645926117897,-0.0505642630159855,-0.0738871693611145
112,-0.0070065082982182,-0.0765697434544563,-0.0999531149864197,0.0476722121238709,-0.0669667795300484,-0.085505485534668
113,-0.0317035764455795,-0.078715443611145,-0.0923018082976341,0.0616569221019745,-0.0877078399062157,-0.0864175707101822
114,-0.0475592911243439,-0.0702697485685349,-0.0757947489619255,0.0960104614496231,-0.0980842411518097,-0.0754627212882042
115,-0.0560140796005726,-0.0543570928275585,-0.0597855262458324,0.148135960102081,-0.0937493816018105,-0.06240538880229
116,-0.0547993555665016,-0.0260690674185753,-0.043267548084259,0.183824449777603,-0.074054516851902,-0.0441460758447647
117,-0.0340739525854588,0.011354343034327,-0.0192719828337431,0.194241732358933,-0.0364592224359512,-0.0134232193231583
118,0.004815932828933,0.0454930439591408,0.0095701748505234,0.199260041117668,0.0122805684804916,0.0249210968613625
119,0.0492248944938183,0.0713608264923096,0.0376180186867714,0.206334933638573,0.0593138337135315,0.0594338141381741
120,0.0877802297472954,0.0888107568025589,0.064454011619091,0.20804201066494,0.102510511875153,0.0836120247840881
121,0.114037580788136,0.097539059817791,0.0832197293639183,0.194406360387802,0.14220966398716,0.0997342690825462
122,0.125345006585121,0.0955315232276917,0.0743241757154465,0.154504269361496,0.157632231712341,0.104409843683243
123,0.124952584505081,0.0784073621034622,0.0324147902429104,0.0902555286884308,0.127003222703934,0.0800528302788734
124,0.118528626859188,0.0519625097513199,-0.0088791344314813,0.0374078713357449,0.0707860812544823,0.0276963151991367
125,0.104265332221985,0.0330787785351276,-0.0137580195441842,0.0311342403292656,0.0287076886743307,-0.0214146971702576
126,0.0801836252212524,0.0319528430700302,0.0134645542129874,0.0613856837153435,0.0149683384224772,-0.0457736104726791
127,0.0507956743240356,0.0394554995000362,0.0423596389591694,0.0944542288780212,0.0193992871791124,-0.0485519580543041
128,0.0157860666513443,0.038299985229969,0.0475762188434601,0.112382173538208,0.0201799385249615,-0.0410803928971291
129,-0.0233389623463154,0.0294007677584887,0.0307690054178238,0.116622000932693,0.0039179329760372,-0.0280914958566427
130,-0.0540332086384296,0.0303003545850515,0.0141632966697216,0.11670446395874,-0.0238554794341326,-0.0091790296137332
131,-0.0625004991889,0.0504035949707031,0.0148707190528512,0.118365876376629,-0.0453880913555622,0.0168264415115118
132,-0.044844564050436,0.0777953192591667,0.0309947896748781,0.115072213113308,-0.0435063540935516,0.0487234592437744
133,-0.0103605994954705,0.0956511124968529,0.0490568056702614,0.105520568788052,-0.0177123509347439,0.0776884406805038
134,0.0268062986433506,0.100620672106743,0.0566953383386135,0.0963393375277519,0.016485333442688,0.0969780310988426
135,0.0626286268234253,0.100273832678795,0.0510922223329544,0.0820902138948441,0.0470076315104961,0.108006797730923
136,0.100276574492455,0.0998143777251244,0.041708055883646,0.0599380768835545,0.0743609294295311,0.107478812336922
137,0.130014091730118,0.0917209014296532,0.0301520265638828,0.0416199378669262,0.09538634121418,0.0818907544016838
138,0.135939344763756,0.0700493231415749,0.0095960171893239,0.0309764966368675,0.103195577859879,0.034160390496254
139,0.11854699999094,0.0395861715078354,-0.012261169962585,0.0230627320706844,0.0955043509602547,-0.0029944868292659
140,0.100440390408039,0.0117714870721102,-0.0206441916525364,0.0200606659054756,0.075347363948822,-0.005910494364798
141,0.103322423994541,0.0007518205093219,-0.0139325689524412,0.0244972687214613,0.0611273199319839,0.0114596681669354
142,0.114546574652195,0.0085845654830336,-0.0034841203596442,0.0343386046588421,0.0639931783080101,0.0194055791944265
143,0.103614203631878,0.0227402281016111,0.005022820085287,0.0499453283846378,0.0624818541109562,0.0056482632644474
144,0.0619554072618485,0.0293710846453905,0.0143857765942812,0.0653161630034447,0.0330740287899971,-0.0175788700580597
145,0.0055498802103102,0.0207712426781654,0.0183370038866997,0.0715504735708237,-0.021427933126688,-0.0344193056225777
146,-0.0424549281597137,0.001416016719304,0.0100185452029109,0.0708117038011551,-0.0790808722376823,-0.0397163294255733
147,-0.0690625607967377,-0.0183403212577105,-0.0040029664523899,0.0605562888085842,-0.119578443467617,-0.0383291207253933
148,-0.0755472332239151,-0.033598531037569,-0.0146579137071967,0.0420851446688175,-0.13774211704731,-0.0376612022519112
149,-0.0696180909872055,-0.0419644415378571,-0.020695062354207,0.0256581921130419,-0.1399035602808,-0.0368531681597233
150,-0.0636245161294937,-0.0500197596848011,-0.0317556038498878,0.0024607791565358,-0.139229744672775,-0.0411004796624184
151,-0.0632665231823921,-0.0666231215000153,-0.0571001917123795,-0.0327685326337814,-0.142531618475914,-0.0628048256039619
152,-0.0578888468444347,-0.0786114260554314,-0.0858024060726166,-0.0621183626353741,-0.135619252920151,-0.0901766493916512
153,-0.0412662215530872,-0.0666962713003159,-0.0978224202990532,-0.0594211108982563,-0.105517581105232,-0.0993960276246071
154,-0.0238852892071009,-0.03592424467206,-0.0910976231098175,-0.0204117055982351,-0.0668220445513725,-0.0877960473299026
155,-0.0122326221317053,-0.0066461018286645,-0.0758294686675072,0.0251713208854198,-0.0359270162880421,-0.0657741874456406
156,-0.000552094716113,0.0071210688911378,-0.0629304647445679,0.0645270645618439,-0.0072269514203071,-0.0463400706648827
157,0.0199334993958473,0.0058052511885762,-0.0639821738004684,0.102872796356678,0.0225960742682219,-0.0396674983203411
158,0.0543816201388836,0.0048030773177743,-0.073544479906559,0.127151295542717,0.0465457290410995,-0.034921906888485
159,0.0913900658488274,0.0154260266572237,-0.0761393308639526,0.125653594732285,0.0569406524300575,-0.0203781481832266
160,0.108766570687294,0.0324170775711536,-0.076948456466198,0.106241129338741,0.0452467985451221,-0.0098562678322196
161,0.0973116755485535,0.0459210574626923,-0.0910093039274216,0.0789555907249451,0.0147117571905255,-0.0199619699269533
162,0.0685917660593987,0.0513678193092346,-0.109887935221195,0.0545294247567654,-0.0157831776887178,-0.0449208356440067
163,0.0428950451314449,0.0508039370179176,-0.105502173304558,0.0502326413989067,-0.0318315289914608,-0.0586560033261776
164,0.0278989467769861,0.0452368073165417,-0.066350132226944,0.0719981417059898,-0.0382813438773155,-0.0446686483919621
165,0.0169742126017809,0.0373640395700932,-0.0078968731686472,0.1054692491889,-0.0457502007484436,-0.0117479702457786
166,0.0044435863383114,0.0345823839306831,0.0475783385336399,0.126745745539665,-0.0507586300373077,0.0284082125872374
167,-0.0106396023184061,0.0320793204009533,0.082986444234848,0.123812638223171,-0.0477199256420136,0.0653135031461716
168,-0.0246733222156763,0.0193256456404924,0.0939264222979546,0.104193858802319,-0.0411672070622444,0.0843521729111671
169,-0.031231377273798,-0.0022941285278648,0.0882816687226295,0.0810707733035088,-0.0321976616978645,0.079183004796505
170,-0.0303589534014463,-0.0280673485249281,0.0694214627146721,0.0616785697638988,-0.0233855322003365,0.0543275512754917
171,-0.0265659522265196,-0.0488710291683674,0.0408088900148869,0.0478008165955544,-0.0217500422149897,0.0253898948431015
172,-0.0218419227749109,-0.0518431179225445,0.015251181088388,0.0352920554578304,-0.0236060917377472,0.0094748977571725
173,-0.0142931882292032,-0.0343698933720589,0.0007633383502252,0.0155958766117692,-0.0183106977492571,0.015019292011857
174,-0.0051624625921249,-0.0050283521413803,-0.0101246070116758,-0.0113416174426675,-0.0075545385479927,0.0401287712156773
175,-0.0035527278669178,0.0221780128777027,-0.0312707647681236,-0.0362293943762779,-0.0067050363868475,0.0627715736627579
176,-0.0047712619416415,0.0373083874583244,-0.0617230236530304,-0.0567525885999203,-0.0179477743804455,0.0586844123899937
177,0.0101462276652455,0.03465636074543,-0.0859382078051567,-0.0870718583464623,-0.0267568025738001,0.0235911719501019
178,0.0388833656907082,0.0147606572136283,-0.0943437218666077,-0.127498239278793,-0.023963825777173,-0.0239936374127865
179,0.059765312820673,-0.0059638703241944,-0.086760938167572,-0.14221778512001,-0.0139925852417946,-0.0534740760922432
180,0.0649531558156013,-0.0113919908180833,-0.0606629997491837,-0.105731002986431,-0.0059979590587317,-0.0545750334858894
181,0.0603975579142571,-0.0038913884200155,-0.0192545466125011,-0.0433511957526207,-0.0040507400408387,-0.0421593226492405
182,0.0459687113761902,0.0024180009495466,0.0138206193223596,0.001368974102661,-0.012638783082366,-0.0346376448869705
183,0.0188549645245075,-0.0059536630287766,0.0140306670218706,0.0136849964037538,-0.0333450175821781,-0.0430387444794178
184,-0.0124062290415168,-0.0294576846063137,-0.0165250226855278,0.0072431163862347,-0.0530364848673344,-0.0632083639502525
185,-0.0333567634224892,-0.0531900972127914,-0.0545278936624527,0.0016459540929645,-0.057055227458477,-0.0800064876675606
186,-0.0417440459132195,-0.0673353299498558,-0.0859857052564621,-0.0005756773753091,-0.0531717427074909,-0.0931771844625473
187,-0.0473354049026966,-0.0737935975193977,-0.115188844501972,-0.0128118097782135,-0.0628104358911514,-0.113950438797474
188,-0.0513669587671757,-0.0701054409146309,-0.140735223889351,-0.0343927331268787,-0.0870517119765282,-0.12621982395649
189,-0.0523257739841938,-0.0561841912567616,-0.152406245470047,-0.0497332066297531,-0.109552919864655,-0.105439089238644
190,-0.0582059063017368,-0.0394551753997803,-0.143395096063614,-0.0421666577458382,-0.120963044464588,-0.0643140524625778
191,-0.0685086995363235,-0.0221830997616053,-0.112005785107613,-0.0078152362257242,-0.11798220127821,-0.0298340190201998
192,-0.0733762308955193,-0.0077471900731325,-0.070736438035965,0.0306596253067255,-0.103947542607784,-0.0115199610590935
193,-0.0651701465249062,-0.0029896374326199,-0.0422338731586933,0.0533412881195545,-0.0893134027719498,-0.0083829145878553
194,-0.0444744229316711,-0.0062250820919871,-0.0368592888116837,0.06488236784935,-0.0811874568462372,-0.014601930975914
195,-0.0242856256663799,-0.0085867401212453,-0.0453324243426323,0.0707871243357658,-0.0775901079177856,-0.0200634095817804
196,-0.009417432360351,-0.0004375221615191,-0.050196647644043,0.0725147351622581,-0.0660941600799561,-0.0131316557526588
197,0.0063368915580213,0.0199103038758039,-0.0443888679146767,0.0827482789754868,-0.0421162545681,0.0066966954618692
198,0.0174539219588041,0.0404728427529335,-0.0370046533644199,0.113052994012833,-0.0234015267342329,0.0208010487258434
199,0.0125553449615836,0.0490408129990101,-0.0370679534971714,0.145213767886162,-0.0236197877675295,0.0174897126853466
200,-0.0087009351700544,0.0447376593947411,-0.0420618578791618,0.146857544779778,-0.0342154055833817,0.0067360722459852
201,-0.0322981774806976,0.0359860993921757,-0.0454898290336132,0.119953326880932,-0.0426737144589424,-0.0027391258627176
202,-0.0427478440105915,0.0343898832798004,-0.0409311130642891,0.098286435008049,-0.0410222224891186,-0.0081485901027917
203,-0.039399653673172,0.042964581400156,-0.0219721011817455,0.105111338198185,-0.0256967898458242,-0.0016578417271375
204,-0.0299178399145603,0.0482284277677536,0.0060174502432346,0.126916021108627,-0.004936296492815,0.0153869604691863
205,-0.0196799486875534,0.0359532088041306,0.0282388385385275,0.135522678494453,0.0104852179065347,0.0280239228159189
206,-0.0121086472645402,0.0099811786785721,0.038531668484211,0.122373051941395,0.0175891201943159,0.0310675390064716
207,-0.0054939971305429,-0.0148619133979082,0.04105419293046,0.0939149856567383,0.0200640372931957,0.0425369180738926
208,0.0033699518535286,-0.0283326674252748,0.0395294800400734,0.0625352412462235,0.0251541938632727,0.0756002143025398
209,0.0125776818022132,-0.0314928255975246,0.0322330072522163,0.0400269851088524,0.0346637219190598,0.108850955963135
210,0.0238947439938784,-0.0284453146159649,0.0205544382333755,0.0272220000624657,0.0450985059142113,0.117410659790039
211,0.0421004332602024,-0.0186060909181833,0.0088530220091342,0.0150458728894591,0.0529149137437344,0.0993828475475311
212,0.0592534802854061,-0.0119121242314577,-0.0094409696757793,-0.0099461060017347,0.0552284419536591,0.0541052184998989
213,0.063733696937561,-0.021115330979228,-0.0401638075709343,-0.0507764890789986,0.0490576066076756,-0.0124861961230636
214,0.0543054156005383,-0.0361223965883255,-0.0751509293913841,-0.0969757884740829,0.0229752212762833,-0.0729401558637619
215,0.0312173422425985,-0.039478026330471,-0.0994424074888229,-0.136275708675385,-0.0277544241398573,-0.100328825414181
216,0.0013560047373175,-0.0263032484799623,-0.0960067212581635,-0.1471206843853,-0.0786903277039528,-0.0836289003491402
217,-0.0224758796393871,-0.0013189886230975,-0.0608135648071766,-0.114474043250084,-0.104238130152225,-0.0318819396197796
218,-0.0346479788422585,0.0314994193613529,-0.0047577749937772,-0.0566934607923031,-0.0982737466692925,0.0340487062931061
219,-0.0366817750036716,0.0644436925649643,0.0541939064860344,-0.0120303863659501,-0.0670804604887962,0.0902742519974709
220,-0.0360736176371574,0.0743715837597847,0.0867916569113731,-0.0022347569465637,-0.0320624262094498,0.107149198651314
221,-0.0312550738453865,0.0505635291337967,0.0764957442879677,-0.0169201120734215,-0.0100338812917471,0.0736671090126038
222,-0.017592353746295,0.0132828317582607,0.0396644324064255,-0.0429835729300976,0.0001027744656312,0.0101068457588553
223,-0.0052733048796653,-0.0140280416235328,0.0015562075423076,-0.0790199115872383,0.0006461244192905,-0.0543365105986595
224,-0.0031281064730137,-0.0269585382193327,-0.0286706909537315,-0.117967396974564,-0.0103465337306261,-0.0978364571928978
225,-0.0112173100933433,-0.0376475527882576,-0.0559354275465012,-0.141672775149345,-0.0315112695097923,-0.114293687045574
226,-0.0268540866672993,-0.0509188771247864,-0.0835046246647835,-0.144073382019997,-0.0534569583833218,-0.109663985669613
227,-0.0435972958803177,-0.0540851354598999,-0.106760039925575,-0.140585541725159,-0.0641789883375168,-0.0914096459746361
228,-0.0503949895501137,-0.0424689613282681,-0.119266033172607,-0.135449349880219,-0.0609777495265007,-0.0656785145401955
229,-0.03837651014328,-0.0205483119934797,-0.114232897758484,-0.115294761955738,-0.0526103228330612,-0.0330017693340778
230,-0.0120206065475941,0.0133937103673816,-0.0857559740543365,-0.0684804543852806,-0.0474622398614883,0.0067829340696334
231,0.0136719895526767,0.0525927320122719,-0.0391668640077114,0.0036104049067944,-0.0453308261930943,0.0472073592245579
232,0.0321742109954357,0.0828957408666611,0.0107472166419029,0.0828019231557846,-0.0378005765378475,0.0825612023472786
233,0.0506736300885677,0.0993424877524376,0.0534433014690876,0.148156449198723,-0.0165779441595078,0.109443828463554
234,0.0700231269001961,0.102089762687683,0.0827429592609406,0.185016095638275,0.0128331640735269,0.127501055598259
235,0.080604150891304,0.0935659259557724,0.096405915915966,0.195288926362991,0.035786971449852,0.147502452135086
236,0.0784977823495865,0.082707904279232,0.0998866781592369,0.198123171925545,0.0419846065342426,0.171834275126457
237,0.0656595751643181,0.0744898244738579,0.0931834354996681,0.194050312042236,0.0261341650038958,0.173779100179672
238,0.046155396848917,0.0618695728480816,0.0659062936902046,0.166481852531433,-0.0060043749399483,0.12930129468441
239,0.0252298228442669,0.0395401082932949,0.0128108989447355,0.121931321918964,-0.0405989922583103,0.0454198010265827
240,0.0054156854748725,0.0133831519633532,-0.0519621483981609,0.0852288827300072,-0.0667520388960838,-0.0513612143695354
241,-0.008312270976603,-0.0044297510758042,-0.0972862541675568,0.0682926923036575,-0.0745454803109169,-0.129317432641983
242,-0.0139127904549241,-0.0144436564296484,-0.10757590085268,0.0675200447440147,-0.0664466544985771,-0.169860705733299
243,-0.0175711754709482,-0.0304569974541664,-0.0951359570026398,0.0844655930995941,-0.0582245998084545,-0.175977870821953
244,-0.0242700185626745,-0.0544208884239197,-0.07745311409235,0.117426365613937,-0.0605038106441498,-0.159626245498657
245,-0.0327594131231308,-0.0727457478642464,-0.0584081374108791,0.148473367094994,-0.0642052292823792,-0.125739395618439
246,-0.0306270532310009,-0.0691167861223221,-0.0292006526142359,0.165168061852455,-0.0471419952809811,-0.0715786591172218
247,-0.0084014469757676,-0.0402057804167271,0.007554180920124,0.171854600310326,-0.0103141590952873,-0.0058062998577952
248,0.0206321906298399,0.0029942779801785,0.0352610424160957,0.176474750041962,0.0228503160178661,0.0522281527519226
249,0.0390953570604324,0.047278244048357,0.0451084040105343,0.174613893032074,0.0379626788198948,0.0885412469506264
250,0.0453855060040951,0.0792257860302925,0.0408992320299149,0.160027265548706,0.0340990014374256,0.101617276668549
251,0.0509325712919235,0.0879097506403923,0.0298126079142094,0.136186555027962,0.0187833346426487,0.101043909788132
252,0.0686991289258003,0.0789233818650246,0.0223385002464056,0.113387651741505,0.0059433570131659,0.100662931799889
253,0.0906532928347588,0.0757394134998322,0.0315141268074512,0.110093392431736,0.0048559266142547,0.10969989746809
254,0.0953923463821411,0.0909768790006638,0.0570115856826305,0.128546610474586,0.0111100440844893,0.121816642582417
255,0.0804588869214058,0.110154122114182,0.0839516595005989,0.14558270573616,0.0208402443677187,0.1275494992733
256,0.060198113322258,0.117068596184254,0.0989928543567657,0.14557857811451,0.0358673930168152,0.133384346961975
257,0.0493269972503185,0.115358725190163,0.096832163631916,0.127658143639565,0.0510909780859947,0.142208948731422
258,0.0523750558495522,0.110067099332809,0.0792704075574875,0.0942873731255531,0.0589641854166985,0.135263115167618
259,0.0621358901262283,0.095830999314785,0.0533221028745174,0.0552135072648525,0.0579053722321987,0.0969609022140503
260,0.0783873498439789,0.0774069428443909,0.03554667532444,0.0239196307957172,0.0562066771090031,0.0473283380270004
261,0.102971993386745,0.0680452436208725,0.0432257130742073,0.0083928015083074,0.0612728446722031,0.0235981475561857
262,0.122833468019962,0.0712921172380447,0.0718842521309853,0.014712699688971,0.0671257898211479,0.0336950495839119
263,0.127834901213646,0.086680956184864,0.104337483644485,0.0426985286176205,0.0716771855950356,0.0624857284128666
264,0.121447481215,0.109667494893074,0.124401696026325,0.0769497975707054,0.0800739452242851,0.0973391309380531
265,0.109651327133179,0.12598018348217,0.117865294218063,0.113028436899185,0.0909964218735695,0.124770022928715
266,0.096421904861927,0.125172093510628,0.0850769579410553,0.14245517551899,0.100498981773853,0.125971734523773
267,0.0812615603208542,0.105326741933823,0.0368662923574448,0.131258472800255,0.096318744122982,0.0863722786307335
268,0.062736988067627,0.0732336193323135,-0.0157583560794592,0.0847333446145058,0.0612077452242374,0.0190456807613373
269,0.0469911061227322,0.0465017110109329,-0.0553756393492222,0.0573885776102543,0.0079654790461063,-0.0357371121644974
270,0.0455662123858929,0.0371722616255283,-0.0639934539794922,0.085491307079792,-0.0228084269911051,-0.048185333609581
271,0.0630544275045395,0.0446871444582939,-0.0387841388583183,0.146234259009361,-0.0132792247459292,-0.0218306519091129
272,0.0845150947570801,0.059087410569191,-0.0001741531013976,0.190156683325768,0.0128936562687159,0.0145210390910506
273,0.0887183099985123,0.0658208727836609,0.0249693188816309,0.206381425261498,0.0275743156671524,0.0314523875713348
274,0.0723727941513062,0.0621405951678753,0.0321731977164745,0.210032314062119,0.0247569531202316,0.0287601295858622
275,0.0482679829001427,0.0579894743859768,0.0315989293158054,0.203870296478271,0.0102447047829628,0.0347704328596592
276,0.0316867008805275,0.0573544427752495,0.0228869616985321,0.193715006113052,-0.0070219710469245,0.0604752972722054
277,0.0236419420689344,0.0501961037516594,-0.0015232120640575,0.201774746179581,-0.0266424231231213,0.0748593881726265
278,0.0141338482499123,0.0283281318843365,-0.0329505987465382,0.228192046284676,-0.0534041039645672,0.0537485964596272
279,0.0068262172862887,-0.0005128052434884,-0.045635748654604,0.233016222715378,-0.072467252612114,0.0180636718869209
280,0.0179332904517651,-0.0163220092654228,-0.0253578349947929,0.199714675545692,-0.0628536939620972,0.0042454316280782
281,0.0508032664656639,-0.0028983890078961,0.0163865853101015,0.164342656731606,-0.0293725803494453,0.0262139458209276
282,0.0861055552959442,0.0337880738079548,0.0588575266301632,0.157941162586212,0.0065450374968349,0.0683645606040955
283,0.105594769120216,0.0733148828148842,0.0949086993932724,0.183428600430489,0.0380763448774815,0.108291462063789
284,0.112992383539677,0.104346811771393,0.127933531999588,0.237715378403664,0.0740130841732025,0.135105863213539
285,0.122538723051548,0.127446964383125,0.154625296592712,0.296145051717758,0.116569131612778,0.148587882518768
286,0.135685339570045,0.14143143594265,0.171070739626884,0.321465939283371,0.155437499284744,0.153520241379738
287,0.138021647930145,0.140651538968086,0.17554198205471,0.321339100599289,0.1759974360466,0.149457290768623
288,0.122424565255642,0.127192512154579,0.163916811347008,0.33239284157753,0.170284003019333,0.135687261819839
289,0.0996376276016235,0.110615402460098,0.13719467818737,0.353843808174133,0.144842222332954,0.116685330867767
290,0.0852571651339531,0.098470002412796,0.10356418043375,0.363042145967484,0.114628776907921,0.096296951174736
291,0.0858469754457474,0.0953589901328087,0.0766140669584274,0.332057446241379,0.0880387201905251,0.0813360661268234
292,0.0904794186353683,0.0958246961236,0.0612827576696873,0.228160411119461,0.0618404299020767,0.0716538205742836
293,0.0879121273756027,0.0969148427248001,0.0554497018456459,0.076561264693737,0.0412238799035549,0.0634865835309029
294,0.0832064002752304,0.113366365432739,0.0642066225409508,-0.0731727108359337,0.0385418981313705,0.0709379315376282
295,0.0794218182563782,0.145447805523872,0.0781282410025597,-0.22933766245842,0.0435517393052578,0.0975318551063538
296,0.075104720890522,0.164078310132027,0.0721721276640892,-0.364201754331589,0.038580134510994,0.11252348870039
297,0.0723762437701225,0.142186507582664,0.0378988049924374,-0.280431419610977,0.0199227407574654,0.0874566957354546
298,0.0674968138337135,0.0807751268148422,-0.0095315501093864,0.185447990894318,-0.0110123632475734,0.0298405941575766
299,0.055265236645937,0.0087537802755832,-0.0462174527347088,0.5,-0.045217901468277,-0.0239943023771048
300,0.0365841723978519,-0.0420810729265213,-0.0570130720734596,0.5,-0.0672374069690704,-0.0451902523636818
301,0.022008590400219,-0.0567313693463802,-0.0401136763393879,0.5,-0.0648365393280983,-0.0286287888884544
302,0.0216579586267471,-0.0402358658611774,-0.005815255921334,0.5,-0.0390737764537334,0.0173091758042574
303,0.0269805938005447,-0.0120578790083528,0.0273599084466696,0.5,-0.0052100690081715,0.0716145262122154
304,0.0282171275466681,0.0156400669366121,0.0487172193825245,0.5,0.0237672291696072,0.107824854552746
305,0.0291205085813999,0.0434855259954929,0.0599227100610733,0.5,0.0428152605891228,0.114732496440411
306,0.034766037017107,0.0703587010502815,0.0670687481760979,0.5,0.0557891242206097,0.103836461901665
307,0.0525965429842472,0.0956443324685097,0.0791638866066933,0.5,0.0837317928671837,0.0938753262162209
308,0.0838652402162552,0.116675950586796,0.0968219861388206,0.5,0.134189665317535,0.0897846966981888
309,0.10976854711771,0.119332745671272,0.101453594863415,0.5,0.169533506035805,0.0800386965274811
310,0.117950029671192,0.096664272248745,0.0816755369305611,0.429894715547562,0.158860266208649,0.0588819235563278
311,0.110864482820034,0.0625708252191544,0.0508986115455627,0.46294316649437,0.117388144135475,0.0371707305312157
312,0.0879117622971535,0.0361305177211761,0.0257834456861019,0.5,0.0711911171674728,0.0250732712447643
313,0.0584058128297329,0.0293608829379082,0.0155015457421541,0.5,0.0355613306164742,0.0207627862691879
314,0.033501785248518,0.0342912189662457,0.0108658028766513,0.5,0.0085986545309424,0.0091082388535141
315,0.0101320808753371,0.0247728545218706,-0.0145782819017768,0.5,-0.0261320620775223,-0.0236688666045666
316,-0.0065696933306753,-0.0001111331657739,-0.061287596821785,0.5,-0.0651555806398392,-0.0613972395658493
317,-0.006318159867078,-0.0142493825405836,-0.102065309882164,0.5,-0.0874734595417976,-0.078195221722126
318,0.0061274515464901,-0.0116435782983899,-0.115816853940487,0.5,-0.0855914577841759,-0.0700781121850014
319,0.0214053131639957,-0.0037378328852355,-0.090829037129879,0.5,-0.0617182888090611,-0.034699559211731
320,0.037050437182188,0.0074019730091095,-0.0307903159409761,0.5,-0.0228100195527077,0.0281795747578144
321,0.0549061447381973,0.0291677862405777,0.0469718128442764,0.5,0.0227896012365818,0.101234667003155
322,0.0757380872964859,0.0642612054944038,0.126716136932373,0.5,0.0743171572685242,0.167441174387932
323,0.096457414329052,0.100108653306961,0.188286378979683,0.5,0.127534255385399,0.214552819728851
324,0.116640567779541,0.122726708650589,0.214893996715546,0.5,0.173884704709053,0.232528045773506
325,0.139037758111954,0.131268560886383,0.211475983262062,0.5,0.20868244767189,0.22258560359478
326,0.154709830880165,0.128607243299484,0.193056926131248,0.5,0.225387245416641,0.194218099117279
327,0.146410927176476,0.113349348306656,0.170370236039162,0.5,0.217329367995262,0.156649366021156
328,0.118021696805954,0.0891684219241142,0.151458933949471,0.5,0.185831114649773,0.123316295444965
329,0.0927442312240601,0.0681687071919441,0.138126909732819,0.5,0.143730044364929,0.106679789721966
330,0.0786503329873085,0.0557151772081852,0.121868297457695,0.5,0.106414973735809,0.102934785187244
331,0.0693968310952187,0.0525045730173588,0.0993362665176392,0.5,0.0831418111920357,0.103298850357533
332,0.064012698829174,0.0621879398822784,0.0779422670602798,0.302616894245148,0.0774627923965454,0.097788468003273
333,0.0643079429864883,0.0781219899654388,0.0661955773830414,0.0173662714660168,0.0884023830294609,0.0784096196293831
334,0.0690568909049034,0.0845731198787689,0.0627779290080071,-0.288885861635208,0.105302378535271,0.0498967468738556
335,0.0762406960129738,0.0774993821978569,0.0555262081325054,-0.5,0.107702374458313,0.0201289355754852
336,0.082765705883503,0.0668942108750343,0.0419835597276688,-0.5,0.0871946066617966,0.0036039964761585
337,0.0870440900325775,0.061435654759407,0.031625647097826,-0.5,0.0559300817549229,0.0154099585488439
338,0.0956709161400795,0.0722879841923714,0.0365978665649891,-0.5,0.0361792743206024,0.0536773167550564
339,0.108291901648045,0.0987465083599091,0.0560421831905842,-0.5,0.0373844914138317,0.0974411889910698
340,0.110893413424492,0.109533548355103,0.0692445784807205,-0.5,0.04481490701437,0.117964953184128
341,0.0975730121135712,0.0855065658688545,0.0679556652903557,-0.5,0.0486774668097496,0.106580458581448
342,0.074155792593956,0.0427879653871059,0.0633970871567726,-0.5,0.0522559471428394,0.0766143202781677
343,0.0526388250291348,0.0051700752228498,0.063982866704464,-0.5,0.0545234084129334,0.0441847629845142
344,0.0437018238008022,-0.0154491160064936,0.0683210119605064,-0.5,0.0538372062146664,0.0203816965222359
345,0.0460652634501457,-0.021294167265296,0.0682942345738411,-0.5,0.0556989647448063,0.0089848488569259
346,0.0584233589470387,-0.0185574255883694,0.057504415512085,-0.5,0.0662538930773735,0.0106581635773182
347,0.0727177858352661,-0.0176068041473627,0.0312746502459049,-0.489833027124405,0.0769149512052536,0.016800494864583
348,0.0685230791568756,-0.0273826885968447,-0.0055764745920896,-0.454010188579559,0.0720651969313622,0.0146758621558547
349,0.0457830354571342,-0.0382308214902878,-0.0303176175802946,-0.434245079755783,0.0575847253203392,0.0074588265269994
350,0.0221266187727451,-0.0383141413331032,-0.0323690213263035,-0.476931989192963,0.0527046509087086,0.0003011669323313
351,0.008517412468791,-0.032186072319746,-0.0292100179940462,-0.5,0.0539334490895271,-0.01293970271945
352,0.0056452360004186,-0.0275915041565895,-0.0411760546267033,-0.5,0.0336453467607498,-0.0358100309967995
353,0.0046049812808632,-0.0227953195571899,-0.0644927695393562,-0.5,-0.0163265317678452,-0.0566947124898434
354,0.0015647805994376,-0.0074673886410892,-0.0685143023729324,-0.5,-0.0626813992857933,-0.0523809231817722
355,0.0012436199467629,0.0240958631038666,-0.0325072668492794,-0.5,-0.0713657736778259,-0.012639882043004
356,0.0027878214605152,0.0622096471488476,0.0262129921466112,-0.5,-0.0453399755060673,0.0502679720520973
357,0.002217031782493,0.0902846306562424,0.0755158439278603,-0.5,-0.0105821490287781,0.117955826222897
358,-0.0007878479664213,0.0989911407232285,0.102465763688087,-0.5,0.0129565391689539,0.171120554208755
359,-0.0033173500560224,0.0926181450486183,0.114185981452465,-0.5,0.023862985894084,0.192115515470505
360,0.002973444527015,0.0829382985830307,0.12225566804409,-0.48295396566391,0.0371701680123806,0.181524410843849
361,0.0242146477103233,0.0736451148986816,0.129960432648659,-0.318597882986069,0.0632421523332596,0.156025186181068
362,0.0519472807645798,0.0593649223446846,0.128946453332901,-0.210518419742584,0.0914744138717651,0.125915080308914
363,0.072563961148262,0.0418407097458839,0.11518257111311,-0.198513209819794,0.110534362494946,0.0966233089566231
364,0.0801649391651154,0.0295504219830036,0.0929342359304428,-0.255699634552002,0.117892168462276,0.0798229649662972
365,0.0794578790664673,0.0247065704315901,0.0654105693101883,-0.334219634532928,0.110644854605198,0.0771622061729431
366,0.0793758258223534,0.0216717142611742,0.040043331682682,-0.387784779071808,0.0982285812497139,0.0750677809119225
367,0.0775258392095566,0.0124197276309133,0.0223956480622292,-0.378367751836777,0.0970836505293846,0.0645387247204781
368,0.066994808614254,-0.0012901679147034,0.009914138354361,-0.309467196464539,0.105140581727028,0.044953715056181
369,0.0468592122197151,-0.0080743301659822,0.0023139878176152,-0.210201814770699,0.102298207581043,0.0168388467282057
370,0.0179261993616819,-0.0063017127104103,-0.0044359671883285,-0.11541198939085,0.0676690861582756,-0.0183453317731619
371,-0.0083217779174447,-0.0026153975632041,-0.0160161163657904,-0.0640526562929153,0.0087060676887631,-0.0460646040737629
372,-0.0119876135140657,0.0019666273146867,-0.024804862216115,-0.059277318418026,-0.0361899584531784,-0.0446017421782017
373,0.0102378921583295,0.009268220514059,-0.0207837261259556,-0.0720077455043793,-0.0465747565031052,-0.0154793253168464
374,0.0411616787314415,0.0196773409843445,-0.0025120328646153,-0.0985396429896355,-0.0332271084189415,0.023762259632349
375,0.0644172132015228,0.035566832870245,0.0295808892697096,-0.150968238711357,-0.0075306040234863,0.062441773712635
376,0.0768333896994591,0.0612595826387405,0.0691717490553856,-0.206193163990974,0.0241322889924049,0.0889578312635422
377,0.077080100774765,0.0932490304112434,0.096048042178154,-0.216523438692093,0.0475964285433292,0.092133641242981
378,0.0595059879124165,0.11413162201643,0.0925053507089615,-0.152152135968208,0.0463565737009048,0.0777460038661957
379,0.0316333994269371,0.108398661017418,0.0654839649796486,-0.0376668348908424,0.0279196407645941,0.0599311850965023
380,0.0111249797046185,0.0825869590044022,0.0359299816191196,0.0685581639409065,0.019497737288475,0.0417258627712727
381,0.0090481089428067,0.0511228702962399,0.0126568730920553,0.135689854621887,0.0329110957682133,0.0183164514601231
382,0.0299811325967312,0.0176215041428804,-0.0047956453636288,0.172964885830879,0.0576890520751476,-0.0079158442094922
383,0.061015609651804,-0.0134400157257915,-0.0162554383277893,0.211262792348862,0.0757196396589279,-0.0258629247546196
384,0.0719352290034294,-0.0379761904478073,-0.0286656748503447,0.280797481536865,0.073202058672905,-0.0313951186835766
385,0.0508260428905487,-0.0565817840397358,-0.0448179244995117,0.3732028901577,0.0502447001636028,-0.0305757112801075
386,0.0219268016517162,-0.0593089982867241,-0.0434646457433701,0.454448342323303,0.0240685641765594,-0.0205537155270576
387,0.0151450745761395,-0.0326055511832237,-0.0010075692553073,0.5,0.0177069995552301,0.0140515370294452
388,0.031698040664196,0.0193552654236555,0.0728068053722382,0.5,0.0370634347200394,0.0760200023651123
389,0.0482499524950981,0.0758539885282516,0.139956846833229,0.5,0.0642754212021828,0.136573150753975
390,0.0490091405808926,0.124747820198536,0.173602610826492,0.5,0.081274650990963,0.165185242891312
391,0.0424605719745159,0.169835448265076,0.181517526507378,0.5,0.0905344635248184,0.173801615834236
392,0.0408518798649311,0.205077812075615,0.179556921124458,0.5,0.0973074957728386,0.188955157995224
393,0.0460145883262157,0.213619455695152,0.167450800538063,0.5,0.0958449319005013,0.202145904302597
394,0.0559559874236584,0.190610349178314,0.143913999199867,0.5,0.089414618909359,0.191099494695663
395,0.0648819133639336,0.142778277397156,0.116230510175228,0.410049289464951,0.093075655400753,0.152582630515099
396,0.0662634074687958,0.0811009854078293,0.0899650380015373,0.26801735162735,0.108297795057297,0.0959958359599113
397,0.0567394457757473,0.0207271762192249,0.0596625693142414,0.130412414669991,0.110755927860737,0.0339528135955334
398,0.041654109954834,-0.0233785193413496,0.0170156098902225,0.0115974489599466,0.0790568292140961,-0.0146598387509584
399,0.0353169664740562,-0.0413388833403587,-0.0296911727637053,-0.0656229555606842,0.0265333987772465,-0.0314839258790016
400,0.0357475988566875,-0.0330932959914207,-0.0583938956260681,-0.0682233273983002,-0.0173965059220791,-0.0137531664222479
401,0.0238191708922386,-0.0077447746880352,-0.0565260127186775,-0.005656418390572,-0.039228368550539,0.0287121459841728
402,0.0007913812296465,0.0237869471311569,-0.030975254252553,0.0691194832324982,-0.0374023728072643,0.0719488188624382
403,-0.006818092893809,0.053390771150589,0.0014315583975985,0.127947464585304,-0.0096328221261501,0.089495837688446
404,0.0172978062182665,0.0735436230897903,0.0291341468691826,0.175703719258308,0.0374581851065159,0.0826968923211098
405,0.0560569763183594,0.0786136016249657,0.051084466278553,0.212133973836899,0.0831082314252853,0.0668145716190338
406,0.0720184519886971,0.0696476995944977,0.0655350759625435,0.251949995756149,0.103041611611843,0.0449258051812649
407,0.0512789934873581,0.0575020238757133,0.0713333934545517,0.315340429544449,0.0868135616183281,0.0253459420055151
408,0.0198524445295334,0.059675894677639,0.0790691822767258,0.371932983398438,0.0520207807421684,0.033076174557209
409,0.0073260208591818,0.0805022269487381,0.0974592715501785,0.389217257499695,0.0287881977856159,0.0697080492973328
410,0.0225835274904966,0.107624597847462,0.120749518275261,0.396378666162491,0.0361087135970593,0.108191683888435
411,0.0564180463552475,0.123706199228764,0.134708315134048,0.420386642217636,0.0668807327747345,0.134300157427788
412,0.0890313386917114,0.115270934998989,0.127421632409096,0.429486095905304,0.0879930183291435,0.143022462725639
413,0.107507519423962,0.0884806960821152,0.100723631680012,0.386953622102737,0.080926276743412,0.129287034273148
414,0.109527051448822,0.0605634748935699,0.0625036284327507,0.316167503595352,0.0590899661183357,0.0951032787561417
415,0.0933221355080605,0.0380476228892803,0.0205004308372736,0.285185277462006,0.0354247353971004,0.0467463880777359
416,0.0649410113692284,0.0190209038555622,-0.0093519147485494,0.317806839942932,0.0154771683737636,-0.000126899787574
417,0.0356992147862911,-0.0018043457530438,-0.0178298987448215,0.364587962627411,0.0043579428456723,-0.0313591994345188
418,0.0132128652185202,-0.0218400489538908,-0.0079511906951665,0.376073092222214,0.0050401175394654,-0.0412273779511452
419,0.0058389655314385,-0.0242239031940699,0.0165087413042784,0.354545116424561,0.0184177048504353,-0.0209414977580309
420,0.013154442422092,-0.0039799944497644,0.0435800142586231,0.339217126369476,0.0348320603370667,0.0263422373682261
421,0.0267298109829426,0.0248431395739317,0.0594001561403275,0.34921982884407,0.0436968058347702,0.0778350904583931
422,0.0449548624455929,0.0503009930253029,0.0633592680096626,0.349876880645752,0.0528562925755978,0.11023722589016
423,0.0731337517499924,0.0720589309930801,0.0651129111647606,0.296361178159714,0.0775845274329185,0.116801835596561
424,0.111478418111801,0.0950165092945099,0.0762005820870399,0.209012478590012,0.115555167198181,0.113120943307877
425,0.142533704638481,0.115043513476849,0.0987634137272835,0.161454185843468,0.144192606210709,0.116396605968475
426,0.149589598178864,0.125182792544365,0.123497329652309,0.185423448681831,0.145363762974739,0.127243593335152
427,0.134950652718544,0.130080372095108,0.142395153641701,0.238868579268456,0.124819166958332,0.140926823019981
428,0.105156190693378,0.133534729480743,0.151695683598518,0.269820839166641,0.098226435482502,0.153273105621338
429,0.0675086975097656,0.128991097211838,0.148718923330307,0.264861971139908,0.0723667740821838,0.1576167345047
430,0.0366569384932518,0.112602427601814,0.137512847781181,0.243860185146332,0.0518824085593224,0.149780988693237
431,0.0206003207713366,0.0889587923884392,0.122937344014645,0.22963547706604,0.0425464995205402,0.128389924764633
432,0.0155810890719295,0.0658240169286728,0.10298041254282,0.226768881082535,0.0407389514148235,0.0984246656298637
433,0.0175478104501963,0.0528200976550579,0.0794127359986305,0.237218275666237,0.037332110106945,0.0741535276174545
434,0.0253298394382,0.0556953139603138,0.0616914331912994,0.26213201880455,0.0321590900421143,0.0629236027598381
435,0.0410494245588779,0.0676312148571014,0.0591449365019798,0.299743056297302,0.0390978902578354,0.0627220943570137
436,0.0623218454420567,0.0763061046600342,0.0685015171766281,0.345892012119293,0.0692890509963036,0.0750046297907829
437,0.073293536901474,0.0788177773356438,0.0680029168725014,0.372917205095291,0.104404136538506,0.0929709374904633
438,0.0648049339652061,0.0802465155720711,0.046941414475441,0.355334669351578,0.114995375275612,0.103374369442463
439,0.0508113130927086,0.08304263651371,0.0270952582359314,0.310635626316071,0.102563008666039,0.112382382154465
440,0.0440750159323215,0.0847150012850761,0.0290101990103722,0.279202044010162,0.0858898237347603,0.123001113533974
441,0.0391623564064503,0.0809190049767494,0.0462294891476631,0.271150261163712,0.0687251314520836,0.114572450518608
442,0.029121145606041,0.0716302022337914,0.0612900592386723,0.256340622901917,0.0467891097068787,0.0797883272171021
443,0.0236731544137001,0.065034344792366,0.0654304400086403,0.247023537755013,0.0287610217928886,0.0405690222978592
444,0.0309085659682751,0.0608494020998478,0.0570150353014469,0.288566678762436,0.0258468296378851,0.0151478126645088
445,0.0340704284608364,0.0402778163552284,0.0326461046934128,0.361651659011841,0.0316870585083961,-0.0065557146444916
446,0.022205663844943,-0.0002833486942108,-0.0015478919958695,0.418775171041489,0.0360330007970333,-0.0363539792597294
447,0.0106119262054563,-0.0380153171718121,-0.0296071153134108,0.451230525970459,0.0326281227171421,-0.0652381107211113
448,0.0118155479431152,-0.0573726184666157,-0.0447124838829041,0.483872681856155,0.0164086762815714,-0.0832135751843452
449,0.0181520953774452,-0.0576466806232929,-0.046618890017271,0.5,-0.0093566616997122,-0.0854889675974846
450,0.0164204351603985,-0.0453335978090763,-0.0355387963354588,0.5,-0.0380434542894363,-0.0695016607642174
451,0.0068659563548862,-0.0311815720051527,-0.0200790073722601,0.5,-0.0641918852925301,-0.0421189740300179
452,-0.0052970079705119,-0.0215137638151646,-0.0134033402428031,0.5,-0.0811933428049088,-0.0166532080620527
453,-0.01778943836689,-0.015302911400795,-0.0153166279196739,0.5,-0.0792996734380722,-0.0008564217132516
454,-0.0214689951390028,-0.0082893352955579,-0.0117882704362273,0.412044078111649,-0.0500060543417931,0.0088525637984275
455,-0.0118456175550818,-0.0056663295254111,-0.0057090031914413,0.320280879735947,-0.0122343245893717,0.0109610026702285
456,-0.0078690312802791,-0.020054904744029,-0.0212929118424654,0.265464782714844,-0.0076531586237251,-0.0074532567523419
457,-0.0290115922689438,-0.0463658235967159,-0.0587375648319721,0.256215840578079,-0.0426639728248119,-0.0408490374684334
458,-0.0626543313264847,-0.0583671629428864,-0.0857170447707176,0.274015843868256,-0.0761404111981392,-0.0622050277888775
459,-0.0833638086915016,-0.0364802069962025,-0.0787010341882706,0.306978553533554,-0.0741133168339729,-0.0603761523962021
460,-0.0810188427567482,0.0092738224193453,-0.0422226302325726,0.351754784584045,-0.044300127774477,-0.0458278767764568
461,-0.0599622763693333,0.0464528538286686,0.0039450922049582,0.387322217226028,-0.0148798143491149,-0.0266007501631975
462,-0.0341818444430828,0.0525327101349831,0.0399351753294468,0.382652014493942,-0.0012732018949464,-0.0037716140504926
463,-0.0177126489579678,0.0401640832424164,0.0595504194498062,0.334057509899139,0.000978652969934,0.0252782385796309
464,-0.0152959721162915,0.0315041020512581,0.0707980170845985,0.271980494260788,0.0042175226844847,0.056938424706459
465,-0.0203469675034285,0.0215442217886448,0.0752474218606949,0.22320581972599,0.0154146896675229,0.0721375197172165
466,-0.0177162867039442,-0.0007231650524772,0.0678010433912277,0.190454915165901,0.0346984937787056,0.061120942234993
467,-0.0012666311813518,-0.0290377158671618,0.047482080757618,0.16739296913147,0.0526925437152386,0.0362811125814915
468,0.019109733402729,-0.0517766512930393,0.0173877328634262,0.155682787299156,0.0558536611497402,0.014354289509356
469,0.0271800421178341,-0.0655239745974541,-0.0168414693325758,0.15541698038578,0.0384852364659309,-0.0045406804420054
470,0.0130784390494227,-0.0704589709639549,-0.0461455397307873,0.142494007945061,0.003946772776544,-0.0333385318517685
471,-0.0122715206816792,-0.0600770376622677,-0.0543554127216339,0.0884163752198219,-0.0300697721540928,-0.0636925026774406
472,-0.0318505354225636,-0.0373624190688133,-0.0366247855126858,0.0040496126748621,-0.0455721728503704,-0.0752581432461739
473,-0.0415960699319839,-0.019747631624341,-0.0143691282719374,-0.0667395740747452,-0.0470999367535114,-0.0726660192012787
474,-0.0426869541406631,-0.0166226755827665,-0.0086120944470167,-0.103708252310753,-0.0498431921005249,-0.0723932534456253
475,-0.0392754785716534,-0.0254692062735558,-0.0173363368958235,-0.125977128744125,-0.0592734590172768,-0.073271743953228
476,-0.0363725610077381,-0.0398013480007648,-0.0317657217383385,-0.14896485209465,-0.0715641006827354,-0.0626860037446022
477,-0.0355002991855145,-0.0493434481322765,-0.0485894717276096,-0.165548294782639,-0.0812565386295319,-0.0355034507811069
478,-0.0388786755502224,-0.0442405678331852,-0.0612290166318417,-0.16997717320919,-0.0837604030966759,-0.0027566375210881
479,-0.047464307397604,-0.0257855597883463,-0.0626655071973801,-0.178249955177307,-0.0791978165507317,0.0125717082992196
480,-0.0602808482944965,-0.0028024052735418,-0.0541088916361332,-0.197701141238213,-0.0731562897562981,0.0038956841453909
481,-0.0747685208916664,0.0144951427355409,-0.0472423620522022,-0.203462153673172,-0.0736865848302841,-0.0177321434020996
482,-0.0865310356020927,0.01503252889961,-0.0559858083724976,-0.18306303024292,-0.0871745273470879,-0.047084528952837
483,-0.0905565172433853,3.6154186091153e-05,-0.076065294444561,-0.157283022999763,-0.105497099459171,-0.0777042806148529
484,-0.0838213711977005,-0.0213382486253977,-0.0899467542767525,-0.144046291708946,-0.109640896320343,-0.103196360170841
485,-0.0669742450118065,-0.0400832667946815,-0.088880680501461,-0.136025458574295,-0.0896089896559715,-0.12315971404314
486,-0.0419305413961411,-0.0414001904428005,-0.0760281383991241,-0.117398023605347,-0.049673892557621,-0.128727167844772
487,-0.0157023295760155,-0.0246292240917683,-0.0591767132282257,-0.10027726739645,-0.0035366751253604,-0.10816740244627
488,0.0020256100688129,-0.0101594226434827,-0.0401432886719704,-0.107393890619278,0.0353183373808861,-0.0663473457098007
489,0.0069951298646628,-0.0103299431502819,-0.0201318711042404,-0.12844543159008,0.0597088783979416,-0.0212737359106541
490,0.0057076690718531,-0.0136091886088252,-0.0006146644009277,-0.137162163853645,0.0731186792254448,0.0159451887011528
491,0.0111718699336052,-0.0060318144969642,0.0282852631062269,-0.122411504387856,0.08609489351511,0.0448325760662556
492,0.0252636801451445,0.001134481979534,0.062401294708252,-0.10184171795845,0.0958775952458382,0.0592414848506451
493,0.0391620770096779,-0.002472716383636,0.0816263407468796,-0.104359529912472,0.0978480130434036,0.0559732392430305
494,0.0482401661574841,0.0004443480574991,0.0892662927508354,-0.12895530462265,0.101883366703987,0.0510122701525688
495,0.0490810126066208,0.0197560582309961,0.0965765863656998,-0.157420590519905,0.10486076772213,0.0552444644272327
496,0.0398644432425499,0.0417254045605659,0.0983566418290138,-0.184885114431381,0.0915496051311493,0.064457505941391
497,0.0287524703890085,0.0580896958708763,0.0951351523399353,-0.20106840133667,0.0647515803575516,0.0803340598940849
498,0.0204808656126261,0.0752660110592842,0.0988390743732452,-0.185265809297562,0.0393155589699745,0.10963386297226
499,0.01007170509547,0.0968084409832954,0.110680930316448,-0.139929234981537,0.0231073535978794,0.148465722799301
500,-0.0023922538384795,0.115424752235413,0.11782344430685,-0.10572624951601,0.01662278175354,0.17784358561039
501,-0.007338267751038,0.127586364746094,0.111123345792294,-0.121484987437725,0.0179590564221144,0.183753654360771
502,0.0005799291539005,0.134145751595497,0.089932344853878,-0.173102408647537,0.0204221289604902,0.168467462062836
503,0.0137221440672874,0.122487485408783,0.0538206771016121,-0.228790804743767,0.0132310418412089,0.130313947796822
504,0.0219841096550226,0.0844169706106186,0.0059807798825204,-0.291107088327408,-0.0071579725481569,0.0675653070211411
505,0.0206517148762941,0.0402399636805058,-0.0340092927217484,-0.352589160203934,-0.027884216979146,0.0016187879955396
506,0.0095776868984103,0.0113803157582879,-0.0455554090440273,-0.36815556883812,-0.034136526286602,-0.0406164824962616
507,-0.0041033388115465,-0.0026602875441312,-0.0329568311572075,-0.329734474420547,-0.0262553561478853,-0.0508924834430218
508,-0.0082523599267005,-0.0075531410984695,-0.0139318788424134,-0.284612238407135,-0.0106614660471678,-0.0348741188645363
509,-0.0017745655495673,-0.0111941238865256,-0.0065291738137602,-0.264060854911804,0.0010180211393162,-0.0173152666538954
510,0.0054588299244642,-0.0202739257365465,-0.0194821581244469,-0.262030065059662,-0.0008593402453698,-0.028664818033576
511,0.0089740315452218,-0.0308159571141005,-0.0401084274053574,-0.261170953512192,-0.0023860761430114,-0.0673052594065666
512,0.0102152470499277,-0.0403031073510647,-0.0543292351067066,-0.264346688985825,0.0112976608797908,-0.104857102036476
513,0.0133173950016499,-0.0406196154654026,-0.0569259040057659,-0.283296257257462,0.0320102386176586,-0.114902421832085
514,0.0186696853488684,-0.0244787279516459,-0.0465620644390583,-0.301008224487305,0.0431143790483475,-0.0931084752082825
515,0.0185466259717941,-0.0056826928630471,-0.0315095037221909,-0.300713926553726,0.0316988900303841,-0.0595481395721436
516,0.0112649761140347,0.0092514688149094,-0.0150254005566239,-0.29835045337677,0.0002159757568733,-0.0269027259200811
517,0.0011846423149108,0.027945950627327,0.0072720292955637,-0.308781117200851,-0.0326651073992252,0.0075612128712236
518,-0.0144396983087063,0.0436818338930607,0.0263088811188936,-0.322483003139496,-0.0548192821443081,0.0352089591324329
519,-0.0342514738440514,0.0472473166882992,0.0327237993478775,-0.324309557676315,-0.0615437962114811,0.0470688305795193
520,-0.0457481928169727,0.0439934469759464,0.0316389240324497,-0.318067491054535,-0.0479773618280888,0.0506173148751259
521,-0.0422545894980431,0.0426860526204109,0.0268116593360901,-0.327762007713318,-0.0240283347666264,0.0529232062399387
522,-0.0333351045846939,0.0443731695413589,0.0174677949398756,-0.363468766212463,-0.0111419009044766,0.0597748830914497
523,-0.0292608849704266,0.0456453673541546,0.0106513891369104,-0.402801781892776,-0.0137879522517323,0.0803480222821236
524,-0.0277817528694868,0.0457695350050926,0.013909206725657,-0.418810904026031,-0.0180299431085587,0.100364498794079
525,-0.0291574709117413,0.0423911735415459,0.0197262447327375,-0.410778373479843,-0.0179682448506355,0.0887139290571213
526,-0.034456692636013,0.0360357947647572,0.0161847919225693,-0.400622516870499,-0.0192200765013695,0.0477479696273804
527,-0.0347590036690235,0.0339085571467876,0.0021553495898842,-0.400617212057114,-0.0236890129745007,0.0104346582666039
528,-0.030267896130681,0.0385306850075722,-0.013983148150146,-0.405801922082901,-0.0267518144100904,-0.005240655504167
529,-0.0298896785825491,0.0486608669161797,-0.0190697871148586,-0.418945163488388,-0.021294267848134,-0.0061152828857302
530,-0.0304483808577061,0.0559868551790714,-0.0074417563155293,-0.444587916135788,-0.0052319690585136,0.0002538159315008
531,-0.022809648886323,0.0421069078147411,0.0062086191028356,-0.484985917806625,0.0104079348966479,0.0104493629187346
532,-0.0017736629815772,0.0074221175163984,0.0069282627664506,-0.5,0.0161286909133196,0.0140785360708833
533,0.0299597755074501,-0.0234273001551628,0.0015385341830551,-0.5,0.0178345441818237,0.0026413451414555
534,0.0593446679413319,-0.032644085586071,0.0045906575396657,-0.5,0.0246778558939695,-0.013607413507998
535,0.0776400491595268,-0.020815646275878,0.0200908128172159,-0.5,0.0405441671609879,-0.0141347628086805
536,0.0875165611505508,-0.0022374608088284,0.0372503139078617,-0.5,0.0633389204740524,0.0015498813008889
537,0.0883839726448059,0.0068279732950031,0.0422409325838089,-0.5,0.0818544253706932,0.0123756788671017
538,0.0762127265334129,0.0073826378211379,0.0337615683674812,-0.5,0.0855621173977852,0.005824230145663
539,0.0537838600575924,0.0119866533204913,0.0151036819443107,-0.5,0.0717400386929512,-0.0122562116011977
540,0.0305775236338377,0.0208833664655685,-0.0129784261807799,-0.5,0.03843067958951,-0.0313218496739864
541,0.0135295074433088,0.0215993374586105,-0.0432017408311367,-0.5,-0.0139029361307621,-0.0470488369464874
542,-0.0040247971192002,0.0044281589798629,-0.0658890083432198,-0.496163159608841,-0.0751116275787354,-0.0590004846453667
543,-0.0286449044942856,-0.0229359231889248,-0.0715958327054977,-0.5,-0.124670028686523,-0.0569449737668037
544,-0.0575620010495186,-0.0459225587546825,-0.0584906600415707,-0.5,-0.149897575378418,-0.0329607576131821
545,-0.0839051455259323,-0.0618816502392292,-0.0418358519673347,-0.49358668923378,-0.152935698628426,-0.0060990615747869
546,-0.0974315106868744,-0.0663945078849792,-0.0315862707793713,-0.44316890835762,-0.132835045456886,0.0027127934154123
547,-0.100783623754978,-0.0553063377737999,-0.0278091374784708,-0.387603908777237,-0.0951861217617989,-0.0048078279942274
548,-0.106883898377419,-0.0362872779369354,-0.0352687835693359,-0.34295442700386,-0.0608927235007286,-0.022728094831109
549,-0.114134699106216,-0.0163444485515356,-0.0465478822588921,-0.299268692731857,-0.038364551961422,-0.0423547215759754
550,-0.111462414264679,-0.0034049553796649,-0.0459122098982334,-0.244863867759705,-0.0180257093161345,-0.0506186783313751
551,-0.0950191617012024,-0.0086338613182306,-0.0440212674438953,-0.207549959421158,-0.0045246556401252,-0.0502047054469585
552,-0.0733547657728195,-0.033690556883812,-0.0608223080635071,-0.224036514759064,-0.0164668057113886,-0.0566003918647766
553,-0.0630039945244789,-0.0713917538523674,-0.0868354663252831,-0.276585280895233,-0.0527488701045513,-0.0740913301706314
554,-0.0637942999601364,-0.107032604515553,-0.0987737998366356,-0.306886255741119,-0.0842196196317673,-0.091423474252224
555,-0.0575978383421898,-0.120710372924805,-0.0908321142196655,-0.285043358802795,-0.0799338519573212,-0.102796725928783
556,-0.0417042709887028,-0.108411468565464,-0.0731629282236099,-0.222713500261307,-0.0454792641103268,-0.115170739591122
557,-0.0277200751006603,-0.085642583668232,-0.0554607845842838,-0.146787196397781,-0.0158161818981171,-0.12847238779068
558,-0.022635230794549,-0.0589399375021458,-0.0347371660172939,-0.0798625946044922,-0.0087277553975582,-0.124162584543228
559,-0.0296723246574402,-0.0210112351924181,-0.0048433267511427,-0.0326053462922573,-0.0174659695476294,-0.0882634744048119
560,-0.0417903885245323,0.0212619677186012,0.0260563101619482,-0.0094615453854203,-0.0319193042814732,-0.0340488664805889
561,-0.0445688217878342,0.0493356101214886,0.0475821644067764,-0.0049108662642538,-0.0450909994542599,0.0141942063346505
562,-0.0359148606657982,0.0586316399276257,0.0589436329901218,-0.0103869438171387,-0.0531640760600567,0.0432169921696186
563,-0.0226514413952827,0.0598445422947407,0.0662710145115852,-0.0240542031824589,-0.0491038002073765,0.0589066781103611
564,-0.008048266172409,0.0646472573280334,0.074638620018959,-0.0365165881812572,-0.0263359639793634,0.0766896083950996
565,0.0052408026531338,0.0709584653377533,0.0754207372665405,-0.0328399762511253,0.0047610546462237,0.0924579203128815
566,0.0138134267181158,0.0634022429585457,0.0533604510128498,-0.0132651347666979,0.0258920565247536,0.0845690816640854
567,0.0110153695568442,0.0348284319043159,0.0045394394546747,0.0111099286004901,0.0276355631649494,0.0444608516991138
568,-0.007871096022427,-0.0042490712366998,-0.0555319078266621,0.0319348089396954,0.0091080628335475,-0.0171489026397467
569,-0.0379762202501297,-0.0397809557616711,-0.105805896222591,0.0244441274553537,-0.0276272781193256,-0.0807489827275276
570,-0.0739946961402893,-0.0665622279047966,-0.140823036432266,-0.0309053268283606,-0.0789863839745522,-0.125517651438713
571,-0.104990027844906,-0.0823357477784157,-0.164759442210197,-0.100619912147522,-0.134008347988129,-0.142648339271545
572,-0.118225827813149,-0.0819929838180542,-0.179126635193825,-0.140915542840958,-0.174176096916199,-0.144133359193802
573,-0.116595670580864,-0.0741743072867393,-0.183405220508575,-0.137398719787598,-0.18584868311882,-0.147574946284294
574,-0.106060519814491,-0.0787881389260292,-0.17008501291275,-0.100288070738316,-0.165939599275589,-0.153930872678757
575,-0.0881436988711357,-0.0958366543054581,-0.129603534936905,-0.0503061637282372,-0.119181074202061,-0.148195490241051
576,-0.0660448744893074,-0.1093675121665,-0.073706679046154,-0.0009472463862039,-0.0642835423350334,-0.126264587044716
577,-0.0463496036827564,-0.113495759665966,-0.0329544320702553,0.0359071791172028,-0.0300800241529942,-0.102311164140701
578,-0.0352125242352486,-0.109676413238049,-0.0218431185930967,0.0573403760790825,-0.0263093151152134,-0.0795243605971336
579,-0.0265646688640118,-0.0947612971067429,-0.025481179356575,0.0750036910176277,-0.031548235565424,-0.0506081394851208
580,-0.0109898746013641,-0.0679154694080353,-0.0284373126924038,0.0970455259084702,-0.0267269350588322,-0.0209577344357967
581,0.0047529619187116,-0.0439851842820644,-0.0396859273314476,0.120016478002071,-0.0240374058485031,-0.004943573847413
582,0.0049096220172941,-0.0388550348579884,-0.065213106572628,0.127962827682495,-0.0402206853032112,-0.0123293427750468
583,-0.0120628233999014,-0.0428770482540131,-0.0783845186233521,0.110230386257172,-0.0594407804310322,-0.0319920256733894
584,-0.0330142863094807,-0.0397928468883038,-0.0603608824312687,0.0820203721523285,-0.0572722442448139,-0.0419670157134533
585,-0.0482285469770432,-0.0355740264058113,-0.0325235314667225,0.0540957115590572,-0.0402305424213409,-0.0418462976813316
586,-0.0554679222404957,-0.0428512915968895,-0.0164891704916954,0.0178332757204771,-0.0284577924758196,-0.0434035733342171
587,-0.0565470233559608,-0.05569738894701,-0.0072225858457386,-0.0199666135013103,-0.0255986545234919,-0.0432377718389034
588,-0.0526966266334057,-0.0548029020428658,0.0071137291379272,-0.0380959138274193,-0.0239017028361559,-0.0317040085792542
589,-0.0439444854855537,-0.0359427072107792,0.0245494954288006,-0.0357178524136543,-0.0217430796474218,-0.0134419798851013
590,-0.0355848930776119,-0.0170932952314615,0.0295618455857039,-0.0309603661298752,-0.0278483014553785,-0.0043050954118371
591,-0.0336511209607124,-0.0077619301155209,0.0177883766591549,-0.0312877558171749,-0.043368898332119,-0.0078455163165926
592,-0.0382471270859241,0.0026327962987124,0.0004626392910722,-0.0321028158068657,-0.0543965697288513,-0.0108489850535989
593,-0.0384062230587006,0.0226510558277369,-0.0130846798419952,-0.0294346828013659,-0.047971174120903,-0.0007814588025212
594,-0.0251798871904612,0.0436798930168152,-0.0180786792188883,-0.0327409505844116,-0.0255537442862988,0.0224859621375799
595,-0.0159676875919104,0.0431075431406498,-0.0238721743226051,-0.0691747143864632,-0.0086071146652102,0.0344197787344456
596,-0.0294770821928978,0.0108524765819311,-0.0427564531564713,-0.140419155359268,-0.0164489056915045,0.008397907949984
597,-0.0577341876924038,-0.0369638912379742,-0.0674666166305542,-0.214479342103004,-0.045749370008707,-0.0469902157783508
598,-0.0818027555942535,-0.0766274780035019,-0.0878495275974274,-0.271821141242981,-0.0847940966486931,-0.101133525371552
599,-0.0850093439221382,-0.0890140607953072,-0.0994810834527016,-0.311356216669083,-0.116553626954556,-0.128457203507423
600,-0.0640089809894562,-0.068713054060936,-0.0994406342506409,-0.329318434000015,-0.123506873846054,-0.121622666716576
601,-0.0305095463991165,-0.0324821919202805,-0.0911812856793404,-0.321162015199661,-0.107688672840595,-0.0938916280865669
602,0.0066332784481346,-0.0088337948545813,-0.0786856189370155,-0.286479264497757,-0.0790921077132225,-0.0638342276215553
603,0.039528101682663,-0.0108074489980936,-0.0638143941760063,-0.237701773643494,-0.0446650572121143,-0.0442468784749508
604,0.0532811172306538,-0.0256084594875574,-0.0513521991670132,-0.203498065471649,-0.0226568039506674,-0.0430925227701664
605,0.0441758520901203,-0.0398763827979565,-0.0458911098539829,-0.193896055221558,-0.0277385413646698,-0.0573203936219215
606,0.0302031207829714,-0.0504653789103031,-0.0465682297945023,-0.191542074084282,-0.0451861023902893,-0.0692709013819695
607,0.0283606182783842,-0.0505213849246502,-0.0469380803406239,-0.181207478046417,-0.0488748326897621,-0.0628503039479256
608,0.0328132249414921,-0.0360488258302212,-0.0388503260910511,-0.167110204696655,-0.0297640971839428,-0.0405055023729801
609,0.0256799776107073,-0.0199040863662958,-0.0274954363703728,-0.160742864012718,0.0006596490857191,-0.0238093603402376
610,0.0056076264008879,-0.0179324839264154,-0.0285398829728365,-0.156603336334229,0.0238221250474453,-0.0321926847100258
611,-0.0142353558912873,-0.0305388662964106,-0.0435147099196911,-0.14418962597847,0.025794917717576,-0.0600380338728428
612,-0.0260264724493027,-0.0472268164157867,-0.0589564703404903,-0.133786350488663,0.0095449369400739,-0.083335816860199
613,-0.0246801003813744,-0.0569780804216862,-0.058038841933012,-0.136902049183846,-0.0039471313357353,-0.0837909802794456
614,-0.0146666988730431,-0.0577139742672443,-0.0370869375765324,-0.148024290800095,-0.0111713511869311,-0.0598405450582504
615,-0.0089578675106167,-0.0518277920782566,-0.0064376136288046,-0.157627567648888,-0.0230819322168827,-0.0095604816451668
616,-0.0071796379052102,-0.0326417349278927,0.0306623764336109,-0.16458098590374,-0.0295561440289021,0.0630627349019051
617,-0.0059740054421126,-0.0021343745756894,0.0669138878583908,-0.18413133919239,-0.0210304856300354,0.123580165207386
618,-0.0069659422151744,0.0267982669174671,0.0896804481744766,-0.222768038511276,-0.001845960621722,0.144563913345337
619,-0.0048060733824968,0.0498649515211582,0.100868918001652,-0.259783893823624,0.0265106279402971,0.135837987065315
620,0.0039229658432304,0.0638188868761063,0.104783676564693,-0.274496227502823,0.0552698709070683,0.115914821624756
621,0.0148945255205035,0.0681960955262184,0.100609891116619,-0.268240809440613,0.0690744817256927,0.0912118032574654
622,0.0226140432059765,0.0708135291934013,0.0874034240841866,-0.248666375875473,0.0650800690054893,0.0595513097941875
623,0.0298069212585688,0.0756422504782677,0.0667252391576767,-0.203496694564819,0.0560782067477703,0.024345338344574
624,0.046966876834631,0.0776191353797913,0.0471472889184952,-0.135461315512657,0.0567387230694294,-0.0028768859338015
625,0.0718296691775322,0.0725025683641434,0.036836039274931,-0.0927961990237236,0.0665581002831459,-0.0155670959502459
626,0.0901593640446663,0.0636769458651543,0.0343314968049526,-0.10542755573988,0.0702263414859772,-0.0163604337722063
627,0.0963199809193611,0.0541056469082832,0.0315822437405586,-0.143196582794189,0.0558711439371109,-0.0135239940136671
628,0.0972612202167511,0.0464085228741169,0.0235822051763535,-0.171005070209503,0.0304635241627693,-0.0138297295197845
629,0.101086966693401,0.0451342798769474,0.0162538643926382,-0.188741445541382,0.0128541449084878,-0.0126765742897987
630,0.10401351749897,0.0452313646674156,0.0168579835444689,-0.199342474341393,0.0102636534720659,-0.0053983656689524
631,0.0962179824709892,0.0357589982450008,0.0165543500334024,-0.197932094335556,0.0122477607801557,-0.0029281927272677
632,0.0760825946927071,0.0173893198370934,0.0025821991730481,-0.192980691790581,0.0092310421168804,-0.0163524430245161
633,0.0514967702329159,0.0008746142848394,-0.0172878038138151,-0.200781404972076,0.0041635031811893,-0.0361239276826382
634,0.0332399904727936,-0.0063106548041105,-0.0262369532138109,-0.224765434861183,0.002116949763149,-0.0404663309454918
635,0.0234318897128105,-0.0052509843371808,-0.0234772749245167,-0.246754392981529,0.0002390204317634,-0.0214557461440563
636,0.0169585347175598,0.000902924221009,-0.0140201896429062,-0.245031774044037,-0.0023299178574234,0.0124861216172576
637,0.0142681673169136,0.0173872690647841,0.0051564914174377,-0.221657872200012,0.0004138719523325,0.0568982400000095
638,0.0191265139728785,0.0499399341642857,0.0326738879084587,-0.187332302331924,0.0122262816876173,0.108890354633331
639,0.0261855404824018,0.0834350734949112,0.0536220408976078,-0.150644794106483,0.0285100638866425,0.148711383342743
640,0.0292847640812397,0.0968077778816223,0.0586582608520985,-0.139223828911781,0.0462007969617844,0.155690968036652
641,0.0390387773513794,0.0932792499661446,0.0624795705080032,-0.16783033311367,0.0707567557692528,0.135344341397285
642,0.0629547834396362,0.0846371948719025,0.0787138938903809,-0.211528524756432,0.0969209522008896,0.106575407087803
643,0.089525505900383,0.0785395801067352,0.101084917783737,-0.242762014269829,0.108987994492054,0.0822462439537048
644,0.106212146580219,0.0809070989489555,0.116707436740398,-0.256263166666031,0.103419989347458,0.0666368678212166
645,0.107311435043812,0.0824180394411087,0.113397479057312,-0.261301159858704,0.0871857404708862,0.0530472993850708
646,0.095306359231472,0.0730944126844406,0.0937655419111252,-0.270761102437973,0.0684819445014,0.0349825508892536
647,0.0744014233350754,0.0577935017645359,0.0757153183221817,-0.285378068685532,0.0562755391001701,0.016602698713541
648,0.0503736324608326,0.0441852882504463,0.0699542760848999,-0.285281628370285,0.0534461215138435,0.0053838780149817
649,0.0384469293057919,0.038710318505764,0.0763123407959938,-0.258628129959106,0.0557014942169189,0.0062668323516845
650,0.0428238660097122,0.0399981401860714,0.0888426154851913,-0.229784488677979,0.0618286430835724,0.0179481003433466
651,0.0550102926790714,0.0381909385323524,0.0985438972711563,-0.225964784622192,0.07260412722826,0.031902588903904
652,0.069272093474865,0.0290267877280712,0.0948695540428162,-0.239964798092842,0.0770781561732292,0.0419566929340363
653,0.0760148167610168,0.0198114793747664,0.0765668973326683,-0.25657856464386,0.0632884055376053,0.0586721375584602
654,0.07047388702631,0.022604875266552,0.0601277910172939,-0.274829208850861,0.0419746078550816,0.0885301902890205
655,0.0630956143140793,0.0368039347231388,0.0579172186553478,-0.29086971282959,0.0306532829999924,0.112702541053295
656,0.0625510811805725,0.0511144399642944,0.0640257298946381,-0.284320652484894,0.0290716011077166,0.121928252279758
657,0.0649112164974213,0.0634746700525284,0.0692813321948051,-0.239257872104645,0.0289366636425257,0.125822350382805
658,0.062535747885704,0.0740223452448845,0.0691646784543991,-0.174112796783447,0.0253467317670584,0.123559050261974
659,0.0508983619511127,0.0757272392511368,0.0560192950069904,-0.124313868582249,0.0124649098142982,0.1029112637043
660,0.0316923409700394,0.0679850727319717,0.0261548757553101,-0.096092976629734,-0.0086850980296731,0.0638260319828987
661,0.01180459279567,0.0542034320533276,-0.0120071563869715,-0.0695075765252113,-0.0268390122801065,0.0211787819862366
662,-0.0073626269586384,0.0301019120961428,-0.050155658274889,-0.0483513884246349,-0.0425511710345745,-0.0177194979041815
663,-0.0296815205365419,-0.0033960812725126,-0.0820448473095894,-0.0511228367686272,-0.0652767792344093,-0.0496986098587513
664,-0.0496667735278606,-0.0355712026357651,-0.102099657058716,-0.0728556513786316,-0.0848706066608429,-0.0701757967472076
665,-0.0494593419134617,-0.0575188212096691,-0.107185274362564,-0.0984387919306755,-0.0751992911100388,-0.0786411613225937
666,-0.0193958263844252,-0.0597862862050533,-0.0891835242509842,-0.115770228207111,-0.0246711615473032,-0.0691154524683952
667,0.0240602754056454,-0.0386191084980965,-0.0525802448391914,-0.116905063390732,0.042625330388546,-0.045648206025362
668,0.0607142895460129,-0.0066486704163253,-0.0208948589861393,-0.104568094015121,0.0903574004769325,-0.0287122149020433
669,0.0871711745858192,0.0182191431522369,-0.0002349596034036,-0.0855651423335075,0.110971532762051,-0.0217934474349022
670,0.101553544402123,0.0294994134455919,0.0239117778837681,-0.0603745430707932,0.116658844053745,-0.0111545883119106
671,0.0980802029371262,0.032286137342453,0.0560946315526962,-0.0302482023835182,0.114269442856312,0.0095901433378458
672,0.0752295330166817,0.0290300492197275,0.0796701312065125,-0.0064731994643807,0.0980999022722244,0.0301563460379839
673,0.03960170596838,0.0162822883576155,0.0739371031522751,-0.0028975452296435,0.0563903599977493,0.0295099653303623
674,0.0005013870541006,-0.0076853451319038,0.0410139299929142,-0.0325146690011024,-0.0030804488342255,0.0007552659371867
675,-0.0405132360756397,-0.0381274446845055,0.0006529812235385,-0.09634018689394,-0.0567959994077683,-0.0378079451620579
676,-0.0798883214592934,-0.0575955137610435,-0.030640346929431,-0.160608753561974,-0.0928421840071678,-0.060244157910347
677,-0.101021304726601,-0.0459378696978092,-0.0410328805446625,-0.173348903656006,-0.107710793614388,-0.0499429404735565
678,-0.0948102846741676,-0.0091580608859658,-0.0304612014442682,-0.122166879475117,-0.101640924811363,-0.0115147884935141
679,-0.0736300200223923,0.0254508797079325,-0.0134256212040782,-0.0586834475398064,-0.0836301818490028,0.0321305245161057
680,-0.051423653960228,0.0448968447744846,0.0019898384343832,-0.0309540759772062,-0.0598799139261246,0.065939337015152
681,-0.0273857545107603,0.0541433356702328,0.01926089823246,-0.0246233697980642,-0.0257318411022425,0.0867209434509277
682,0.0037003073375672,0.0535825081169605,0.0389973297715187,-0.0121008064597845,0.0251743700355291,0.0882950201630592
683,0.0334271863102913,0.0355364941060543,0.0527212247252464,-0.0084570227190852,0.078827753663063,0.0658755302429199
684,0.0485874116420746,0.0017596971010789,0.0524014011025429,-0.036219984292984,0.102277740836143,0.0264690238982439
685,0.0534619987010956,-0.0249871704727411,0.0445531643927097,-0.0663902759552002,0.0871209129691124,-0.0066867819987237
686,0.0568032115697861,-0.0273492131382227,0.0377011746168137,-0.0552544817328453,0.0557397753000259,-0.0125909196212888
687,0.0553895607590675,-0.0207504704594612,0.0268448609858751,-0.0241423435509205,0.0278698150068522,0.0018861792050302
688,0.0486495681107044,-0.0239412374794483,0.0103230699896812,-0.0250653270632029,0.0148806991055608,0.0119904857128859
689,0.0404632911086082,-0.0340561047196388,-0.002441155957058,-0.0550108514726162,0.0201217252761126,-6.48733257548884e-05
690,0.0337969996035099,-0.0408202297985554,-0.0029528827872127,-0.0762372612953186,0.0357443168759346,-0.0265506748110056
691,0.0293220262974501,-0.0387943908572197,0.0052038626745343,-0.0767047479748726,0.0455283932387829,-0.044336561113596
692,0.0192568134516478,-0.0320998951792717,0.003769532078877,-0.0682210326194763,0.0322105027735233,-0.0503481104969978
693,-0.0005402496317401,-0.0261879470199347,-0.0209917183965445,-0.0586003065109253,-0.003650405909866,-0.0597745403647423
694,-0.0210213363170624,-0.017731225118041,-0.0585302226245403,-0.0334788672626019,-0.0425707809627056,-0.0680668130517006
695,-0.0314261354506016,0.0009173592552542,-0.0780937895178795,0.0164631959050894,-0.0649770572781563,-0.0500279851257801
696,-0.0247577521950006,0.0358530171215534,-0.054606057703495,0.0740324258804321,-0.0584011040627956,0.0009738204535096
697,-0.002063279505819,0.0798761770129204,0.002777581103146,0.13011234998703,-0.0264213122427464,0.0582064762711525
698,0.0202031023800373,0.110045291483402,0.0611720122396946,0.175605833530426,0.0107033802196383,0.0930798947811127
699,0.0259187780320644,0.111936204135418,0.101910702884197,0.189617618918419,0.0442556217312813,0.107784427702427
700,0.0145194074138999,0.0906076654791832,0.12345552444458,0.172046810388565,0.0779702439904213,0.112936228513718
701,-0.0038376930169761,0.0583698526024818,0.127597346901894,0.141649588942528,0.105671152472496,0.107959300279617
702,-0.0192081462591887,0.0217826142907143,0.116546146571636,0.106459364295006,0.114708565175533,0.0886206105351448
703,-0.0302997976541519,-0.0166777707636356,0.0881520137190819,0.0615094974637032,0.0934026166796684,0.0454287268221378
704,-0.036573201417923,-0.0453796647489071,0.0423047430813313,-0.0044786883518099,0.0384941212832928,-0.0173922851681709
705,-0.0320973619818687,-0.0511227883398533,-0.0067714219912886,-0.0968427285552025,-0.0290267281234264,-0.0664244517683983
706,-0.014374659396708,-0.0337871685624123,-0.0339126065373421,-0.177250951528549,-0.0690908133983612,-0.0665698423981667
707,0.0121309896931052,-0.0025048733223229,-0.0260031148791313,-0.19414333999157,-0.0585231781005859,-0.02070577070117
708,0.0335687212646008,0.0248288847506046,0.0006402640137821,-0.163658261299133,-0.0134196933358908,0.0291326660662889
709,0.036439023911953,0.0288874302059412,0.0219122413545847,-0.147424668073654,0.0326056182384491,0.0484288446605206
710,0.0262494347989559,0.0135069340467453,0.034203052520752,-0.14220954477787,0.0595237128436565,0.0409236624836922
711,0.0135437520220876,0.002828198717907,0.0484513305127621,-0.0876350253820419,0.0657045319676399,0.0301261991262436
712,0.0023126646410673,0.0123255457729101,0.0709769129753113,0.0174135565757751,0.0563714094460011,0.0335561372339725
713,-0.0014150540810078,0.0373742692172527,0.0959003046154976,0.117413759231567,0.0405126437544823,0.0532292909920216
714,0.0008434797055087,0.0603619292378426,0.107885397970676,0.176412597298622,0.025259044021368,0.0752359330654144
715,0.0014592239167541,0.069646842777729,0.0958815217018127,0.193492352962494,0.0115455621853471,0.0846878066658974
716,0.0029472126625478,0.0708930194377899,0.0663917362689972,0.17395131289959,0.0036160091403871,0.0830763205885887
717,0.0095829116180539,0.0685731694102287,0.033942949026823,0.12028094381094,0.0048851049505174,0.0756292790174484
718,0.0169835928827524,0.0575737468898296,0.0085623990744352,0.0526356138288975,0.0112907029688358,0.0595899783074856
719,0.0189266987144947,0.0354868918657303,-0.0090014906600117,0.0007757416460663,0.0185526981949806,0.0345946103334427
720,0.0181392021477222,0.0125990174710751,-0.0195853486657143,-0.0232941936701536,0.0290841870009899,0.0121885761618614
721,0.0206212438642979,0.0046822037547826,-0.0146498177200556,-0.019216313958168,0.0454019531607628,0.0041265389882028
722,0.0179842226207256,0.0051646907813847,0.0037593650631606,0.0147463446483016,0.0569372288882732,0.0028609281871467
723,0.0050490591675043,0.0002687138330657,0.0231193117797375,0.0473297350108624,0.0576403252780437,0.002912342781201
724,-0.0018302818061783,8.44046280690236e-06,0.0433209426701069,0.0344392508268356,0.0588629730045795,0.0157171804457903
725,0.0061051887460053,0.0124553153291345,0.0633652657270432,-0.0156748034060001,0.0618575029075146,0.0426867641508579
726,0.0180745627731085,0.0314283855259418,0.0753598362207413,-0.0642558112740517,0.0563311837613583,0.075115405023098
727,0.0234860070049763,0.050836157053709,0.0750992670655251,-0.0876509249210358,0.0400407426059246,0.109197542071342
728,0.0172904692590237,0.0620626956224442,0.0590247698128223,-0.0974877700209618,0.0180067494511604,0.134372800588608
729,0.0022962321527302,0.0555051751434803,0.0271151643246412,-0.127425462007523,0.0026643516030162,0.131157904863358
730,-0.0096329171210527,0.0273206997662783,-0.0078455368056893,-0.182701751589775,0.0058384607546031,0.0924192070960999
731,-0.0127332909032702,-0.0115058571100235,-0.0254862867295742,-0.22931681573391,0.0244878325611353,0.0341381840407848
732,-0.0138622839003801,-0.0369757562875748,-0.0175467282533646,-0.239046543836594,0.0413592122495174,-0.0157442949712276
733,-0.021932965144515,-0.0364028885960579,0.0054109166376292,-0.221445962786675,0.0395585186779499,-0.0384899079799652
734,-0.0345165319740772,-0.0158372819423676,0.0316222086548805,-0.198282673954964,0.024366969242692,-0.0305760260671377
735,-0.0354685112833977,0.0156772434711456,0.0590450242161751,-0.162979409098625,0.0182563737034798,0.0019988659769296
736,-0.0185449700802565,0.0468443296849728,0.0822426453232765,-0.107460767030716,0.0265069324523211,0.0381054170429707
737,0.0026906076818704,0.0672902166843414,0.092377170920372,-0.0627311170101166,0.0334131680428982,0.0589540489017963
738,0.0179128181189299,0.0794970095157623,0.0914268344640732,-0.0579137168824673,0.0330041646957397,0.0705180764198303
739,0.0269672963768244,0.0844759792089462,0.0801586508750916,-0.0737807378172874,0.0286758355796337,0.075559563934803
740,0.0310323089361191,0.0774363279342651,0.0494701378047466,-0.0761921554803848,0.0160158593207598,0.0635039955377579
741,0.0282214488834143,0.0646640360355377,0.001263590529561,-0.079433485865593,-0.0068883867934346,0.0408221110701561
742,0.0129446517676115,0.0478864349424839,-0.0466653816401958,-0.123816832900047,-0.032623115926981,0.0177018865942955
743,-0.0110361073166132,0.0151679776608944,-0.0786826089024544,-0.193569600582123,-0.0517213866114616,-0.0134055595844984
744,-0.0342159867286682,-0.0281727910041809,-0.0899649783968925,-0.230244100093842,-0.0587397553026676,-0.0525792874395847
745,-0.0485140606760979,-0.0542742349207401,-0.0791098326444626,-0.212585955858231,-0.0480554215610027,-0.0809925869107246
746,-0.0376207828521729,-0.051383338868618,-0.04197983071208,-0.172946974635124,-0.0115200402215123,-0.0811530649662018
747,-0.002893996424973,-0.0393096916377544,0.0118770292028785,-0.148213624954224,0.0408227182924747,-0.0519542917609215
748,0.0248373635113239,-0.0381829217076302,0.0524953603744507,-0.138675659894943,0.0754299014806747,-0.0108488230034709
749,0.0312519371509552,-0.0420832112431526,0.0668452009558678,-0.127324119210243,0.0738930925726891,0.0287480931729078
750,0.0278790052980185,-0.0308306384831667,0.0724119544029236,-0.116518154740334,0.0534463748335838,0.0739347562193871
751,0.0220500379800797,-0.0006098966114223,0.0810647383332253,-0.118015542626381,0.0361419543623924,0.122540786862373
752,0.0124374432489276,0.0295800901949406,0.0879317000508308,-0.1374152302742,0.0272718649357557,0.146796524524689
753,-0.0032910576555877,0.0414531342685223,0.0881371200084686,-0.179279401898384,0.023264916613698,0.1266058832407
754,-0.0217041280120611,0.0349741652607918,0.0749792978167534,-0.244399935007095,0.0171198267489672,0.0716286525130272
755,-0.0308902431279421,0.0192472226917744,0.0442766845226288,-0.319925725460052,0.0061106593348085,0.0103525603190064
756,-0.0170740894973278,0.0015321006067097,0.0094846496358513,-0.37722185254097,0.0034627693239599,-0.0288153160363436
757,0.0162567961961031,-0.0112424409016967,-0.0126610873267055,-0.396651655435562,0.0218697860836983,-0.0372437536716461
758,0.0427322499454021,-0.0156346894800663,-0.0157997161149979,-0.386512786149979,0.049401082098484,-0.0216993726789951
759,0.0508347749710083,-0.0116689465939999,0.0007618268718943,-0.363455057144165,0.0656172409653664,0.0187274515628815
760,0.0569141916930676,0.006517335306853,0.039618369191885,-0.326832741498947,0.0744418054819107,0.0834593698382378
761,0.0668737292289734,0.0397797711193562,0.0956963896751404,-0.264380633831024,0.0900651142001152,0.142269089818001
762,0.0698658376932144,0.0687803998589516,0.138780102133751,-0.199012875556946,0.102716200053692,0.155046820640564
763,0.0638138875365257,0.0766311436891556,0.145606756210327,-0.17812205851078,0.102174937725067,0.121185593307018
764,0.0514205135405064,0.0645686537027359,0.124801702797413,-0.194170117378235,0.0953143835067749,0.0732580348849297
765,0.0280373971909285,0.0383198149502277,0.0882218256592751,-0.207625448703766,0.0794676467776299,0.0318510644137859
766,-0.0056674159131944,0.0083422260358929,0.039938360452652,-0.225429207086563,0.0479069501161575,0.0020381710492074
767,-0.0396236479282379,-0.0112211033701897,-0.0153114646673203,-0.273204654455185,0.0017925899010151,-0.0109378788620234
768,-0.059223335236311,-0.0156538523733616,-0.0660188123583794,-0.331236898899078,-0.045774795114994,-0.0031410611700266
769,-0.0524773448705673,-0.0135418111458421,-0.0979770496487617,-0.356972962617874,-0.067236103117466,0.0144875580444932
770,-0.0287222489714623,-0.0174125023186207,-0.111709766089916,-0.353642493486404,-0.0564624331891537,0.0108002126216888
771,-0.0056401952169835,-0.0272478107362986,-0.11272832006216,-0.359742432832718,-0.0362786501646042,-0.0247590225189924
772,0.010422496125102,-0.0351812653243542,-0.10016892105341,-0.376410633325577,-0.0217784568667412,-0.0625104382634163
773,0.0174434725195169,-0.035590372979641,-0.0766694769263268,-0.372107714414597,-0.0139739802107215,-0.0731860101222992
774,0.018175108358264,-0.0219138506799936,-0.0471544414758682,-0.348842829465866,-0.0118886781856418,-0.0512419939041138
775,0.0156192714348435,-0.00093941797968,-0.0183955300599337,-0.334779500961304,-0.0163847915828228,-0.0119381425902247
776,0.0110112885013223,0.0087164705619216,0.0030112045351415,-0.329767107963562,-0.022938646376133,0.0205443128943443
777,0.013641769066453,0.0063257440924644,0.0189163200557232,-0.318668723106384,-0.0150410132482648,0.0360612198710442
778,0.0318157114088535,0.0035069440491497,0.0267676785588264,-0.308177530765533,0.0118562784045935,0.0343656614422798
779,0.0548657439649105,-0.0022410957608372,0.0125219589099288,-0.316909551620483,0.033035222440958,0.0130654769018292
780,0.0631595030426979,-0.0135975517332554,-0.0197229720652103,-0.340705394744873,0.0293952748179436,-0.0089244898408651
781,0.0555953644216061,-0.0172443706542253,-0.042790986597538,-0.353328943252563,0.0111177070066333,-0.0024885956663638
782,0.0389756336808205,-0.0056649604812264,-0.0425211042165756,-0.346471101045609,-0.0070108682848513,0.0239668786525726
783,0.0158014018088579,0.0122976340353489,-0.0242139901965857,-0.328820616006851,-0.0154024986550212,0.0410746671259403
784,0.0001817125303205,0.024651113897562,0.0057993559166789,-0.300188302993774,-0.0061812987551093,0.0438508540391922
785,0.0044714994728565,0.0291498824954033,0.0482492223381996,-0.252825975418091,0.0210580807179213,0.0506709776818752
786,0.0192535575479269,0.0308868028223515,0.0980170369148254,-0.187908843159676,0.0565503910183907,0.0726975873112679
787,0.0261216219514608,0.0320355035364628,0.130833923816681,-0.130192518234253,0.0797118172049522,0.0946271568536758
788,0.0192380119115114,0.0326618552207947,0.133466109633446,-0.106412328779697,0.0847240760922432,0.098488487303257
789,0.007584739010781,0.028274230659008,0.119330838322639,-0.10593930631876,0.0922614857554436,0.0873361527919769
790,0.001278547453694,0.0117812370881438,0.0979449152946472,-0.098925769329071,0.109214507043362,0.0693702548742294
791,0.0016718946862965,-0.0136476885527372,0.0670588538050652,-0.0898325368762016,0.111492708325386,0.0459695346653461
792,0.0013054065639153,-0.0395667366683483,0.0248047690838575,-0.108602993190289,0.0758588239550591,0.0136779705062509
793,-0.000982754281722,-0.0546412654221058,-0.0208052136003971,-0.151487588882446,0.0142502328380942,-0.0239691846072674
794,-0.0003680351073853,-0.0465403869748116,-0.0550876557826996,-0.179488882422447,-0.0395054072141647,-0.052321832627058
795,-0.0019289345946162,-0.0218931790441275,-0.0733647495508194,-0.179161742329597,-0.0719876885414124,-0.0621687807142735
796,-0.0064700986258685,0.0028322527650743,-0.0743616744875908,-0.169383957982063,-0.0841222032904625,-0.0513832680881023
797,-0.0062086666002869,0.0182921420782804,-0.0590840801596642,-0.153699561953545,-0.0772035792469978,-0.0228525400161743
798,-0.0033557780552655,0.0205995626747608,-0.0426520593464375,-0.12865749001503,-0.0648703724145889,0.0117005798965693
799,0.0011277011362835,0.0163911413401365,-0.0342128127813339,-0.115045383572578,-0.0557716339826584,0.0388233475387096
800,0.0147403907030821,0.0105100823566318,-0.0277851633727551,-0.131221354007721,-0.0419671460986137,0.0451113507151604
801,0.0298524927347898,-0.0022190907038748,-0.0251075755804777,-0.160660296678543,-0.0236072279512882,0.0159295778721571
802,0.0235910043120384,-0.0258894469588995,-0.0397196672856808,-0.179945304989815,-0.015159678645432,-0.0503445528447628
803,-0.0080683482810854,-0.0600142888724804,-0.0714615061879158,-0.195640549063683,-0.0226469412446022,-0.124694339931011
804,-0.04064666852355,-0.0866825133562088,-0.0964005887508392,-0.222585275769234,-0.0356375724077225,-0.159757345914841
805,-0.0539745762944222,-0.0825940370559692,-0.0950473621487617,-0.246729552745819,-0.0454219169914722,-0.137467995285988
806,-0.0470210798084736,-0.0525182522833347,-0.0683461129665375,-0.240715697407722,-0.0490175820887089,-0.079112634062767
807,-0.0244715921580791,-0.0155669208616018,-0.0282146092504263,-0.197686672210693,-0.0404110886156559,-0.0103507367894053
808,0.0031088078394532,0.0183547046035528,0.0123235415667295,-0.139256089925766,-0.0184313002973795,0.0476222559809685
809,0.0242022220045328,0.0415888093411922,0.0475656799972057,-0.0954518467187881,0.0120510598644614,0.0798508450388908
810,0.0398552119731903,0.0489332489669323,0.0777850970625877,-0.0683472231030464,0.0503321625292301,0.0909819379448891
811,0.0511924922466278,0.0457468256354332,0.102529376745224,-0.0401583164930344,0.0934059098362923,0.0986612588167191
812,0.0500392727553844,0.0409553609788418,0.118064306676388,-0.0141733074560761,0.126410230994225,0.107892014086246
813,0.0384583026170731,0.0385338328778744,0.122396737337112,-0.0080128563567996,0.138145923614502,0.108755968511105
814,0.0311802942305803,0.0339335687458515,0.111387394368649,-0.0224051121622324,0.127321228384972,0.0933678895235062
815,0.0329105630517006,0.0161972884088755,0.0750410556793213,-0.0462449751794338,0.0931532755494118,0.0541417710483074
816,0.034235306084156,-0.0195357501506805,0.0139598660171032,-0.0830123871564865,0.0408342219889164,-0.0135627798736095
817,0.0242691095918417,-0.0609472468495369,-0.055777944624424,-0.140094041824341,-0.0186586529016495,-0.0914841145277023
818,0.0024646008387208,-0.0795201435685158,-0.108170613646507,-0.194546535611153,-0.0694749876856804,-0.14044101536274
819,-0.0175142344087362,-0.0606261193752289,-0.120922647416592,-0.209422498941422,-0.094376377761364,-0.136869743466377
820,-0.0242052990943193,-0.0265427082777023,-0.0983401760458946,-0.184634774923325,-0.0909218490123749,-0.0956071689724922
821,-0.0219546128064394,-0.0055504804477095,-0.0627283453941345,-0.157599002122879,-0.0710962414741516,-0.0496284626424313
822,-0.0224410239607096,-0.0056959618814289,-0.0334935151040554,-0.145805343985558,-0.0515438392758369,-0.0216927900910378
823,-0.0281277764588594,-0.0185423735529184,-0.0187536012381315,-0.128053963184357,-0.0404405668377876,-0.011062378063798
824,-0.0295066367834806,-0.0223865732550621,-0.0076611838303506,-0.093916580080986,-0.0244720280170441,0.0028252792544663
825,-0.0249438378959894,-0.0018970493692904,0.0111920926719904,-0.0688273161649704,0.0040218392387032,0.0297813918441534
826,-0.0207475461065769,0.031228318810463,0.026383675634861,-0.0675084963440895,0.0233622211962938,0.0540056377649307
827,-0.0134437158703804,0.0530626475811005,0.0191188063472509,-0.076514333486557,0.0153654813766479,0.0558790378272533
828,-0.0020519541576504,0.0517398491501808,-0.0081177679821848,-0.0916337892413139,-0.007251595146954,0.0314835496246815
829,0.0026432538870722,0.0301809925585985,-0.0347270891070366,-0.11906199157238,-0.0247434470802546,-0.0027492877561599
830,-0.0078931814059615,0.0007245856104418,-0.047593280673027,-0.154483363032341,-0.0378792323172092,-0.02514966763556
831,-0.0308671835809946,-0.0265620741993189,-0.0475201979279518,-0.184065744280815,-0.0542079657316208,-0.0297501794993877
832,-0.0507193170487881,-0.0496236458420753,-0.0399238839745522,-0.199850410223007,-0.0662252753973007,-0.022552577778697
833,-0.0497081279754639,-0.0608051382005215,-0.0247155576944351,-0.202264279127121,-0.0559353828430176,-0.0064658303745091
834,-0.0274978764355183,-0.0505928322672844,0.0002341055951546,-0.196000322699547,-0.0188862103968859,0.0171012412756681
835,0.0010009475518018,-0.0234208945184946,0.0289585404098034,-0.184636622667313,0.0305185709148645,0.0456264950335026
836,0.0264530815184116,0.0039064902812242,0.0515493042767048,-0.16570046544075,0.0763433277606964,0.0668636560440063
837,0.0455258153378963,0.0171466041356325,0.0616132766008377,-0.146662831306458,0.106881409883499,0.0595225393772125
838,0.0545273795723915,0.0153268231078982,0.0645303875207901,-0.136336982250214,0.121375016868114,0.0287539642304182
839,0.0507228970527649,0.0050123250111937,0.0704275965690613,-0.123090758919716,0.12469357252121,0.0036655261646956
840,0.0341924540698528,-0.0051450305618345,0.0775942727923393,-0.0958509519696236,0.113368481397629,-0.0012634359300136
841,0.010455054230988,-0.0089496914297342,0.0773734003305435,-0.0683901458978653,0.086310125887394,0.006924876011908
842,-0.0157244876027107,-0.0121660092845559,0.0614305213093758,-0.0678939893841743,0.0481053292751312,0.0081594381481409
843,-0.0438228249549866,-0.0262268781661987,0.0266932751983404,-0.102870687842369,0.0024009046610444,-0.0161196514964104
844,-0.0709819495677948,-0.0472672805190086,-0.0129858190193772,-0.144360437989235,-0.0408555492758751,-0.0558577142655849
845,-0.0856508985161781,-0.0567231103777885,-0.0404365845024586,-0.166529059410095,-0.0719634294509888,-0.0801930949091911
846,-0.0742813050746918,-0.0441817156970501,-0.0544772148132324,-0.180663526058197,-0.0899441614747047,-0.0755408629775047
847,-0.0433802530169487,-0.0179446302354336,-0.0628475770354271,-0.192431375384331,-0.0960952863097191,-0.0567298196256161
848,-0.0184116456657648,0.0024843348655849,-0.0754745826125145,-0.187675639986992,-0.0992911234498024,-0.0463687852025032
849,-0.0078991986811161,0.0074741039425134,-0.0886504724621773,-0.16523177921772,-0.101518720388412,-0.043472945690155
850,0.002181937219575,0.0057481159456074,-0.0821148380637169,-0.136640965938568,-0.0801433473825455,-0.0298845861107111
851,0.0186413694173098,0.005634437315166,-0.0555099882185459,-0.107858635485172,-0.0293472390621901,-0.0067976065911352
852,0.0293116793036461,0.0019367886707186,-0.0327674858272076,-0.0777436643838882,0.0137223908677697,0.006279501132667
853,0.017800260335207,-0.012382342480123,-0.0271634161472321,-0.0499836057424545,0.0189808234572411,-0.0003480257291812
854,-0.0159095358103514,-0.0310768932104111,-0.0319876410067081,-0.0386709049344063,-0.0039514135569334,-0.0183488018810749
855,-0.0530020892620087,-0.0467177294194698,-0.0324806943535805,-0.0432049967348576,-0.0250895898789167,-0.0316012613475323
856,-0.0715344324707985,-0.0617485903203487,-0.0186044778674841,-0.0376789756119251,-0.020613044500351,-0.0312968678772449
857,-0.0626779869198799,-0.0736163854598999,0.007639767602086,-0.0068000145256519,0.0093953078612685,-0.019032247364521
858,-0.0337832905352116,-0.075665608048439,0.0359332747757435,0.0276735182851553,0.047060139477253,0.0005368591519072
859,-0.0027678883634507,-0.0690281018614769,0.0531270392239094,0.0267650112509727,0.0715116113424301,0.0178671460598707
860,0.0150870718061924,-0.0525175109505653,0.0567584820091724,-0.010948977433145,0.0767092183232307,0.0296008661389351
861,0.0168116856366396,-0.0237696077674627,0.0597855597734451,-0.0453491844236851,0.075256459414959,0.0450731329619884
862,0.0085186138749122,0.0088312542065978,0.0741358175873756,-0.0551972202956676,0.0813994258642197,0.0685634911060333
863,0.0040448107756674,0.0329465381801128,0.0955306440591812,-0.0524786449968815,0.0960995480418205,0.0885282531380653
864,0.0112476702779531,0.0386087186634541,0.0998619645833969,-0.0493273623287678,0.0937359556555748,0.0831560492515564
865,0.0190594010055065,0.0258534885942936,0.0626541972160339,-0.0547518692910671,0.0453199036419392,0.045616190880537
866,0.0144271710887551,0.0128656663000584,-0.010624011978507,-0.0815752893686295,-0.0398282594978809,0.0021980805322527
867,-0.0054229870438575,0.0143230408430099,-0.0840331241488457,-0.124869488179684,-0.121963918209076,-0.0073979813605547
868,-0.0321950651705265,0.0284962486475706,-0.11933808773756,-0.151251703500748,-0.160126224160194,0.0259553920477629
869,-0.0501151531934738,0.0521828830242157,-0.104002930223942,-0.130536764860153,-0.134956881403923,0.0640838071703911
870,-0.0544521249830723,0.0714847296476364,-0.0614988841116428,-0.0751576125621796,-0.0731839165091515,0.0661728978157043
871,-0.0479550622403622,0.0676797926425934,-0.0223008766770363,-0.0207913462072611,-0.0215324331074953,0.0348215512931347
872,-0.0300142262130976,0.0421092584729195,0.0035172703210264,0.0289461966603994,0.0032673559617251,0.0024093124084174
873,-0.0057080127298831,0.0080404113978147,0.016757545992732,0.0969967693090439,0.009618260897696,-0.0092432238161563
874,0.0160423014312983,-0.0198580659925938,0.0247646942734718,0.179727271199226,0.0125027084723115,-0.0030962275341153
875,0.0337456800043583,-0.0352821350097656,0.0340820588171482,0.240057766437531,0.0258627757430077,0.0030963816680014
876,0.0508906245231628,-0.0459865406155586,0.035374291241169,0.258723884820938,0.0451424159109592,-0.0065357950516045
877,0.0596397444605827,-0.0558468326926231,0.0203820671886206,0.262281835079193,0.0518830195069313,-0.0286332797259092
878,0.0500375255942345,-0.0538625903427601,0.0041504236869514,0.271982818841934,0.0430302284657955,-0.0379186496138573
879,0.0309770498424768,-0.0293014291673899,0.006126407533884,0.263576507568359,0.0334811322391033,-0.0163859818130732
880,0.0158157683908939,0.0114260800182819,0.0251179672777653,0.22414143383503,0.0369763374328613,0.0245060566812754
881,0.0079309353604912,0.0527107045054436,0.047044824808836,0.173967629671097,0.0541225038468838,0.0656881108880043
882,0.0081495372578501,0.0865816622972488,0.0668157637119293,0.125533953309059,0.0716573372483253,0.100453831255436
883,0.0220744479447603,0.108720660209656,0.0857542902231216,0.0874314531683922,0.0786166191101074,0.123695783317089
884,0.0480231642723084,0.108998522162437,0.0889905169606209,0.0650194063782692,0.0707235708832741,0.128466248512268
885,0.0689205154776573,0.0857570692896843,0.0660939514636993,0.0521904155611992,0.052199549973011,0.120091199874878
886,0.0772532373666763,0.053901519626379,0.037415649741888,0.0473010279238224,0.0381292328238487,0.105667218565941
887,0.0753913596272469,0.0284346118569374,0.021390039473772,0.0550609789788723,0.0297932755202055,0.0792223587632179
888,0.0578471049666405,0.021089356392622,0.0180027522146702,0.0812961384654045,0.0199381969869137,0.0452428050339222
889,0.0240939650684595,0.0324380397796631,0.0254689324647188,0.130307242274284,0.0142343947663903,0.0243012234568596
890,-0.0145525792613626,0.0414359569549561,0.0370317064225674,0.195347607135773,0.0173872094601393,0.0195915400981903
891,-0.0422210544347763,0.0314201787114143,0.0410067141056061,0.250758349895477,0.0294626336544752,0.0123049253597856
892,-0.0465402603149414,0.0060051139444112,0.0319592505693436,0.268623650074005,0.0483238697052002,-0.0107484217733145
893,-0.0220373403280973,-0.0209741704165936,0.0150826089084148,0.257942736148834,0.0633199959993362,-0.0341878980398178
894,0.0239929966628551,-0.0391082689166069,-0.0018133632838726,0.252585202455521,0.0625597760081291,-0.0261277761310339
895,0.0640202090144157,-0.0476192831993103,-0.0169764999300241,0.253870874643326,0.0455323308706284,0.0124242743477225
896,0.0742461010813713,-0.0434886403381824,-0.0262685045599937,0.240634277462959,0.0239815693348646,0.046001959592104
897,0.0573031343519688,-0.0284894816577435,-0.0269343052059412,0.215326502919197,0.0061956793069839,0.0532276444137096
898,0.0338724218308926,-0.0072637633420527,-0.0257147122174501,0.195820763707161,-0.006471533793956,0.0377961248159409
899,0.0237126406282187,0.0262012295424938,-0.0211725831031799,0.192957893013954,-0.0110842036083341,0.0157864186912775
900,0.0287379752844572,0.0639712736010551,-0.0009892217349261,0.213204190135002,-0.0077188680879771,0.0068219993263483
901,0.0392855778336525,0.0857450515031815,0.0325637347996235,0.257783591747284,-0.001453878940083,0.0155413234606385
902,0.0479226484894753,0.090781457722187,0.0599345266819,0.311445981264114,0.0049390797503292,0.0271925311535597
903,0.0519696772098541,0.0870249643921852,0.0734005719423294,0.348538279533386,0.0167375914752483,0.0295315124094486
904,0.051664836704731,0.070744976401329,0.0754335671663284,0.347911477088928,0.0314649045467377,0.0231561008840799
905,0.0431858263909817,0.0387507490813732,0.0565827414393425,0.307451486587524,0.02943897806108,0.0110877156257629
906,0.0264070760458708,-0.0001509690628154,0.0165387764573097,0.250643312931061,0.0074148210696876,-0.0043214662000536
907,0.0146396914497018,-0.0335819832980633,-0.0212756246328354,0.204838648438454,-0.011811819858849,-0.0217180047184229
908,0.0178695321083069,-0.05551977455616,-0.0363362766802311,0.176657065749168,-0.0113672884181142,-0.0401359498500824
909,0.0305671617388725,-0.0619771666824818,-0.0288770031183958,0.154146447777748,0.0046006278134882,-0.0532144047319889
910,0.0442585274577141,-0.0527965314686298,-0.0142838750034571,0.127817422151566,0.020780622959137,-0.0515202321112156
911,0.0571451149880886,-0.0400604382157326,-0.0098807131871581,0.103764154016972,0.0242363996803761,-0.0352779701352119
912,0.0661497414112091,-0.0315491035580635,-0.0217671953141689,0.0888671949505806,0.0072616785764694,-0.0175690148025751
913,0.0624866336584091,-0.0188674256205559,-0.0412355810403824,0.0753635242581367,-0.0282672885805368,-0.0096391132101416
914,0.045509897172451,0.0028974143788218,-0.0546799600124359,0.0622511878609657,-0.064197339117527,-0.0162335280328989
915,0.0264238826930523,0.0215761549770832,-0.0556050986051559,0.0708212181925774,-0.0806313082575798,-0.0344118848443031
916,0.0101157799363136,0.0236677024513483,-0.0462891459465027,0.10534306615591,-0.0747178345918655,-0.0504495278000832
917,-0.0056315204128623,0.0134183429181576,-0.0342177078127861,0.138209417462349,-0.0581250824034214,-0.0507552474737167
918,-0.0190631318837404,0.0072758751921355,-0.0320399068295956,0.158097833395004,-0.0500341393053532,-0.0397809259593487
919,-0.0257401689887047,0.0109023759141564,-0.0472041442990303,0.178617879748344,-0.0612607561051846,-0.0394230373203754
920,-0.0187691152095795,0.0109826913103461,-0.0713085383176804,0.199192240834236,-0.0801476389169693,-0.0577381290495396
921,0.0034968368709087,-0.0014169487403705,-0.0883663520216942,0.201792120933533,-0.0913218408823013,-0.0812143534421921
922,0.0224306751042604,-0.0158710721880198,-0.100894153118134,0.177167654037476,-0.100356228649616,-0.108378641307354
923,0.0171897262334824,-0.0155774811282754,-0.133274406194687,0.129212409257889,-0.126081719994545,-0.150467038154602
924,-0.0001249622291652,0.0098428213968873,-0.180314049124718,0.0808524489402771,-0.164677664637566,-0.189199894666672
925,-0.005288852378726,0.0531262494623661,-0.200134009122849,0.0715139806270599,-0.190200060606003,-0.18691822886467
926,-0.0014685645001009,0.0891486629843712,-0.177655532956123,0.109877228736877,-0.193235546350479,-0.142084360122681
927,-0.0019688515458256,0.103188470005989,-0.135962590575218,0.159000560641289,-0.183829843997955,-0.0805208534002304
928,-0.0039242343045771,0.105909779667854,-0.100298658013344,0.183676108717918,-0.17043599486351,-0.0174000561237335
929,0.0069631282240152,0.109160222113132,-0.0814290791749954,0.182598516345024,-0.151791676878929,0.0395059660077095
930,0.0416072942316532,0.108081564307213,-0.0796405002474785,0.174436122179031,-0.118849352002144,0.0857012271881104
931,0.0901966840028763,0.0925494432449341,-0.102658540010452,0.163137003779411,-0.0738911777734756,0.103849984705448
932,0.122022673487663,0.0598209425806999,-0.157361090183258,0.128932029008865,-0.0467138290405273,0.053458210080862
933,0.11273243278265,0.0139137618243694,-0.219834297895432,0.0680248141288757,-0.0682078748941422,-0.069494254887104
934,0.0692844986915588,-0.0275350566953421,-0.244553118944168,0.0208093672990799,-0.128089636564255,-0.195705056190491
935,0.0277638994157314,-0.0379623286426067,-0.207344725728035,0.0363408625125885,-0.174599766731262,-0.24651375412941
936,0.0147210378199816,-0.0135141499340534,-0.131701201200485,0.11098488420248,-0.170644775032997,-0.212489992380142
937,0.0197731833904982,0.0239122826606035,-0.0690308585762978,0.180115669965744,-0.13817697763443,-0.150274887681007
938,0.0254346560686827,0.0515006929636002,-0.0520552024245262,0.189922213554382,-0.121931985020638,-0.113368861377239
939,0.0247117951512337,0.059342335909605,-0.0741385072469711,0.16028955578804,-0.13679151237011,-0.112325645983219
940,0.0110820392146707,0.0576578378677368,-0.112589113414288,0.140044614672661,-0.170933738350868,-0.131380423903465
941,-0.0140528557822108,0.066384993493557,-0.155526891350746,0.123233921825886,-0.210860162973404,-0.153444811701775
942,-0.0403422489762306,0.0794322267174721,-0.20416285097599,0.0745831653475761,-0.251299411058426,-0.176452144980431
943,-0.0498514510691166,0.0662405490875244,-0.256987661123276,0.0049581406638026,-0.284542500972748,-0.203378587961197
944,-0.030211266130209,0.021202215924859,-0.297802746295929,-0.039550494402647,-0.2942715883255,-0.217702567577362
945,0.0063799801282584,-0.0263078957796097,-0.302827209234238,-0.0336177237331867,-0.270338922739029,-0.196348592638969
946,0.0438619591295719,-0.0428088046610355,-0.258723706007004,0.0086955167353153,-0.215914353728294,-0.141553476452827
947,0.0720852166414261,-0.0203793570399284,-0.182556316256523,0.0652773454785347,-0.150229230523109,-0.0839908197522163
948,0.0871573612093925,0.0232481025159359,-0.11082761734724,0.117893919348717,-0.0974190905690193,-0.0410330072045326
949,0.0967149212956429,0.0665654614567757,-0.0692853257060051,0.149581432342529,-0.0669346153736115,-0.009820943698287
950,0.0917252525687218,0.0827297642827034,-0.0713945925235748,0.154078081250191,-0.0666458383202553,-0.0154432337731123
951,0.0557208471000195,0.061580091714859,-0.109308153390884,0.134693339467049,-0.101866267621517,-0.0764535069465637
952,0.0027210989501327,0.0348082445561886,-0.143789917230606,0.11574150621891,-0.150978520512581,-0.147633627057076
953,-0.0403724499046803,0.0363656729459763,-0.144132301211357,0.120879523456097,-0.18203042447567,-0.173547357320786
954,-0.0608960688114166,0.0633096918463707,-0.116448506712914,0.138306394219399,-0.182011693716049,-0.153793409466743
955,-0.0522621721029282,0.081348218023777,-0.0816018059849739,0.147119909524918,-0.151865229010582,-0.124600663781166
956,-0.0118549400940537,0.0663777887821198,-0.0504958108067513,0.152679234743118,-0.0994947254657745,-0.104957453906536
957,0.0498526357114315,0.0385092422366142,-0.0190112628042698,0.174064129590988,-0.037771113216877,-0.0813866630196571
958,0.111964985728264,0.0324598513543606,0.0131343798711896,0.208730399608612,0.0220119897276163,-0.0374485962092876
959,0.155930683016777,0.0515975058078766,0.0295012965798378,0.231346651911736,0.065371036529541,0.0252818614244461
960,0.174025803804398,0.0726215690374374,0.0203984081745148,0.233302339911461,0.0746480375528336,0.0867772027850151
961,0.161648601293564,0.0770020708441734,-0.0045106983743608,0.226224035024643,0.045630220323801,0.109653159976006
962,0.123517639935017,0.0652075186371803,-0.0306952800601721,0.210067912936211,-0.0021420125849545,0.0699026435613632
963,0.0774164944887161,0.0535759851336479,-0.0453540310263634,0.187083944678307,-0.0467328503727913,-0.0003146089729852
964,0.0314131379127502,0.0495783500373363,-0.0465515740215778,0.183765441179276,-0.0899174436926842,-0.0442970395088196
965,-0.0102530512958765,0.0452025681734085,-0.0400087088346481,0.22211229801178,-0.132438912987709,-0.0492841750383377
966,-0.0299226306378841,0.0485744662582874,-0.0218789968639612,0.28396537899971,-0.146889865398407,-0.0347822457551956
967,-0.0202483292669058,0.0680585131049156,0.006017321255058,0.323277950286865,-0.116376973688602,-0.0108452141284943
968,0.00267014792189,0.0801175534725189,0.0310648307204247,0.321502238512039,-0.0567295849323273,0.0161211155354977
969,0.0249857287853956,0.0655342191457748,0.0539616644382477,0.303417921066284,0.0135487327352166,0.0371909849345684
970,0.0522840395569801,0.0424612127244473,0.0793471410870552,0.289394289255142,0.0771245211362839,0.0541167631745338
971,0.0896530076861382,0.0363002717494965,0.0959918424487114,0.280713140964508,0.113651469349861,0.079123467206955
972,0.118861265480518,0.0424356758594513,0.0917603671550751,0.288391053676605,0.114950053393841,0.108364537358284
973,0.125191226601601,0.0451348721981049,0.0787050724029541,0.327165961265564,0.0973309800028801,0.125241711735725
974,0.12123941630125,0.0491631627082825,0.083340622484684,0.379609048366547,0.0943198502063751,0.135077327489853
975,0.118486858904362,0.0585677735507488,0.106246471405029,0.397829622030258,0.117938980460167,0.146508097648621
976,0.113565042614937,0.0614797696471214,0.124817803502083,0.361014425754547,0.148266077041626,0.145502164959908
977,0.103373982012272,0.0521924458444119,0.127828702330589,0.299829870462418,0.162541732192039,0.128640070557594
978,0.0865114778280258,0.0421289913356304,0.110763303935528,0.243412777781487,0.148702874779701,0.118415430188179
979,0.0650910660624504,0.0400528870522976,0.0679566413164139,0.186420083045959,0.107730723917484,0.121566899120808
980,0.0459444560110569,0.0330025292932987,0.0158150028437376,0.132054701447487,0.0552733801305294,0.117075674235821
981,0.0327319726347923,0.0196056831628084,-0.0063071302138268,0.113454788923264,0.0195285696536303,0.100513651967049
982,0.0294203087687492,0.0255430974066257,0.0222774352878332,0.145564645528793,0.0241082832217216,0.0941535383462906
983,0.0383292473852634,0.0528648160398006,0.0804579854011536,0.198443055152893,0.0660815834999084,0.111436925828457
984,0.0556747280061245,0.074323296546936,0.133886247873306,0.232303991913795,0.118472069501877,0.146407842636108
985,0.0780419409275055,0.0777877271175385,0.169487670063972,0.253644704818726,0.154608964920044,0.181726083159447
986,0.0982085764408112,0.0715518593788147,0.191337212920189,0.29499876499176,0.170248344540596,0.200257658958435
987,0.104809403419495,0.065193384885788,0.200295507907867,0.331601232290268,0.175831913948059,0.200270310044289
988,0.0983126759529114,0.0662481114268303,0.197238251566887,0.315539479255676,0.179164573550224,0.190460160374641
989,0.0903647020459175,0.0692863315343857,0.184855088591576,0.26756677031517,0.179183959960938,0.174705624580383
990,0.082776203751564,0.0545494221150875,0.162490993738174,0.239034667611122,0.166028678417206,0.151180043816566
991,0.0696517080068588,0.0252573676407337,0.137372180819511,0.229187235236168,0.139674484729767,0.129032820463181
992,0.0524992197751999,0.0109551204368472,0.120205886662006,0.197368323802948,0.117026038467884,0.122336581349373
993,0.0360398180782795,0.0272114183753729,0.107827208936214,0.136995241045952,0.106488913297653,0.125262260437012
994,0.0274412166327238,0.0598195753991604,0.0894525349140167,0.0876790657639503,0.101514600217342,0.123859137296677
995,0.0322367586195469,0.0882355645298958,0.0689237490296364,0.0733960121870041,0.103293493390083,0.121076375246048
996,0.0411690101027489,0.10356231033802,0.063228078186512,0.0776439309120178,0.122166760265827,0.124135129153728
997,0.0416063778102398,0.09276532381773,0.0785223841667175,0.0856186076998711,0.158443376421928,0.12605194747448
998,0.0448077134788036,0.0499021299183369,0.114066280424595,0.108314529061317,0.205005511641502,0.129256084561348
999,0.0710420459508896,0.0009263518732041,0.169860273599625,0.151576980948448,0.252455919981003,0.152753978967667
1000,0.0903106033802032,0.0692722350358963,0.184806674718857,0.267495900392532,0.179081603884697,0.174636393785477
1001,0.0827213227748871,0.0545351319015026,0.162441864609718,0.238962724804878,0.165924847126007,0.15110981464386
1002,0.0695953071117401,0.025242680683732,0.137321680784225,0.229113265872002,0.139567747712135,0.128960654139519
1003,0.0524411238729954,0.0109399948269129,0.120153866708279,0.197292119264603,0.116916105151176,0.122262254357338
1004,0.0359805077314377,0.0271959789097309,0.107774093747139,0.136917442083359,0.106376677751541,0.125186383724213
1005,0.0273815467953682,0.0598040446639061,0.0893990993499756,0.0876008123159409,0.101401686668396,0.123782798647881
1006,0.0321775153279305,0.0882201567292213,0.0688707083463669,0.0733183473348618,0.103181384503841,0.121000573039055
1007,0.0411104969680309,0.103547096252441,0.0631757006049156,0.0775672420859337,0.122056044638157,0.12406025826931
1008,0.0415482856333256,0.09275022149086,0.0784703716635704,0.0855424702167511,0.158333450555801,0.125977605581284
1009,0.0447493158280849,0.0498869493603706,0.114013984799385,0.108237959444523,0.204894989728928,0.1291813403368
1010,0.0709826052188873,0.0009109025122597,0.169807016849518,0.151499018073082,0.252343416213989,0.152677908539772
1011,0.101592779159546,-0.0270936954766512,0.229728981852531,0.194540902972221,0.278804630041122,0.194373428821564
1012,0.0983329936861992,-0.0339234843850136,0.268157690763474,0.215631231665611,0.268648862838745,0.22923156619072
1013,0.0663481056690216,-0.0260475054383278,0.278774589300156,0.217959851026535,0.2358019053936,0.244633570313454
1014,0.0424098707735538,-0.0047727511264383,0.276536673307419,0.212201669812202,0.202360108494759,0.252055734395981
1015,0.0439663417637348,0.028785165399313,0.273818463087082,0.194603204727173,0.178250223398209,0.271964073181152
1016,0.0642938613891602,0.0708680152893066,0.270091265439987,0.171420827507973,0.166889935731888,0.304410547018051
1017,0.088548019528389,0.109989583492279,0.26506233215332,0.17236290872097,0.16980154812336,0.322460353374481
1018,0.101350381970406,0.131097018718719,0.263016194105148,0.199807658791542,0.186208605766296,0.307242631912231
1019,0.0938413739204407,0.121138334274292,0.257892519235611,0.215921223163605,0.205845072865486,0.263270378112793
