,AF3,AF4,Fp1,Fp2,AF7,AF8
0,0.0323416590690613,-0.0117126330733299,0.037302128970623,0.0136592537164688,-0.0257269907742739,0.0473747178912163
1,0.0411921441555023,-2.25077874347335e-05,0.0615516193211079,0.0180299654603004,-0.0172722935676575,0.0801956877112389
2,0.0516152121126652,0.0143007235601544,0.0789815038442612,0.0281129460781813,-0.0012443573214113,0.088024839758873
3,0.0469073839485645,0.0256393272429705,0.0868163704872131,0.05107307061553,0.0112943015992641,0.0766843780875206
4,0.0256080254912376,0.0366417951881886,0.0882612094283104,0.0862085148692131,0.0124014662578702,0.0625456050038338
5,-0.0030617024749517,0.0374259501695633,0.080157607793808,0.111657775938511,-0.0038092893082648,0.0486980006098747
6,-0.0317566692829132,0.0179014150053263,0.058266282081604,0.0969561487436295,-0.0322628766298294,0.0266202446073294
7,-0.0503728128969669,-0.0093636019155383,0.0278706699609756,0.0365850031375885,-0.0520516782999039,-0.0023593588266521
8,-0.046870194375515,-0.0134366760030389,0.0063909580931067,-0.0293151922523975,-0.0438658036291599,-0.0228666942566633
9,-0.0224196948111057,0.0223892163485289,0.0078488532453775,-0.0521965101361275,-0.0125057883560658,-0.0215412229299545
10,0.0118660749867558,0.0815484225749969,0.0321268253028393,-0.0229570660740137,0.0264658555388451,0.0047688307240605
11,0.0464218407869339,0.131863445043564,0.069720171391964,0.0420538522303104,0.0613654069602489,0.0482733063399792
12,0.0687694102525711,0.148708373308182,0.100928887724876,0.111198328435421,0.0759140625596046,0.0886739045381546
13,0.0749237164855003,0.133924916386604,0.114389814436436,0.149841889739037,0.0678564310073853,0.1067164093256
14,0.0747516825795174,0.10565510392189,0.115462303161621,0.154358878731728,0.0533360242843628,0.0973576158285141
15,0.0717590823769569,0.0726340785622597,0.107842653989792,0.138707846403122,0.0386464670300484,0.0697046369314194
16,0.0612350627779961,0.0406257249414921,0.0923805683851242,0.108090035617352,0.0209577530622482,0.0401886813342571
17,0.0488879159092903,0.0225921478122473,0.0723135694861412,0.0735970512032509,0.0068242605775594,0.0218944475054741
18,0.0486562624573708,0.0231795720756054,0.0518275946378708,0.0558339580893517,0.0037137928884476,0.0164770223200321
19,0.0593166500329971,0.0297962296754122,0.0327886454761028,0.0570461116731167,0.002485851990059,0.0135678527876735
20,0.0641597211360931,0.0289468094706535,0.0154600739479065,0.0609377808868885,-0.0081102112308144,0.0032211919315159
21,0.0514023751020432,0.0152570782229304,-0.0005524243460968,0.0580304451286793,-0.0277996566146612,-0.0149128511548042
22,0.0250211525708437,-0.0094843553379178,-0.014425971545279,0.0503979623317719,-0.0502111874520779,-0.0333983488380909
23,0.0007647789898328,-0.034204512834549,-0.0211133304983377,0.0480768792331219,-0.0653224214911461,-0.0417157933115959
24,-0.0087482742965221,-0.0456745177507401,-0.0180467814207077,0.0580898933112621,-0.0673142969608307,-0.0369433015584946
25,-0.004212808329612,-0.0352091267704964,-0.0054465210996568,0.0729943960905075,-0.0522030144929886,-0.0241547282785177
26,0.0036364872939884,-0.0038713966496288,0.0137090571224689,0.078482061624527,-0.0185568351298571,-0.0124692609533668
27,0.0080924881622195,0.0320505537092686,0.0298697762191296,0.0695427060127258,0.0172388609498739,-0.0114864623174071
28,0.0125510198995471,0.0527027547359467,0.0314963199198246,0.0503177866339684,0.0307153631001711,-0.0195225328207016
29,0.0139461494982243,0.0510823950171471,0.0111637646332383,0.0239348970353603,0.0100287338718772,-0.0294049754738808
30,0.0030278584454208,0.0372899658977985,-0.0201273858547211,-0.0001044398304657,-0.0312401559203863,-0.0340589992702007
31,-0.0159014109522104,0.0294525697827339,-0.0373665802180767,-0.0097637716680765,-0.0622286200523376,-0.022823890671134
32,-0.0294543001800776,0.0347470827400684,-0.0248197019100189,0.0034311567433178,-0.0647119209170341,0.0083399163559079
33,-0.030051127076149,0.0476387590169907,0.0149029484018683,0.0407917685806751,-0.0418642051517963,0.0508586503565311
34,-0.0167319625616074,0.065565824508667,0.0571478605270386,0.0786134600639343,-0.0092167379334569,0.08669613301754
35,0.0114681180566549,0.0881976634263992,0.0759643539786339,0.0911341235041618,0.0201554242521524,0.10237380117178
36,0.0503084398806095,0.103659488260746,0.0709574893116951,0.0763047784566879,0.0432819426059723,0.101267516613007
37,0.0811989158391953,0.0930369421839714,0.0562495775520802,0.0417180098593235,0.0553090758621693,0.0867533534765244
38,0.0890447348356247,0.0569410398602486,0.0447138175368309,0.0126158753409982,0.0542690753936768,0.0559074766933918
39,0.0790668129920959,0.0187773294746876,0.043375089764595,0.0207459069788456,0.0492736287415028,0.0170297250151634
40,0.0645314753055573,-0.0044702854938805,0.0489720888435841,0.0551501587033272,0.0449876077473164,-0.0142524736002088
41,0.0521401390433311,-0.0143538005650043,0.0535989925265312,0.079340010881424,0.0358596295118332,-0.0315991938114166
42,0.0410803444683552,-0.0185984708368778,0.0529958009719849,0.0814604982733727,0.018280791118741,-0.0394727252423763
43,0.0319739282131195,-0.0209786742925644,0.0473242215812206,0.0691611170768738,-0.003986416850239,-0.0388515181839466
44,0.0264346357434988,-0.0193629246205091,0.0371222905814648,0.055550716817379,-0.0254915188997984,-0.0266572758555412
45,0.0179935656487942,-0.0105277299880981,0.0241298489272594,0.0519145578145981,-0.0424617454409599,-0.0144358742982149
46,0.0012834628578275,0.0056211994960904,0.0158653669059277,0.0541025958955288,-0.048688717186451,-0.0145730767399073
47,-0.0130486814305186,0.0248111654073,0.0205824095755816,0.0532111302018166,-0.0357511341571808,-0.020573178306222
48,-0.0105509394779801,0.0357625968754292,0.0306665524840355,0.0489595606923103,-0.0111840534955263,-0.0295607130974531
49,0.0081996405497193,0.0314585417509079,0.0279325544834137,0.0415315851569176,0.0022738585248589,-0.0474062375724316
50,0.0315601341426373,0.0207531359046698,0.0108395926654339,0.0276859048753977,-0.0026933357585221,-0.0651515796780586
51,0.0431842319667339,0.0153953963890672,-0.006957393605262,0.0106612918898463,-0.0179012846201658,-0.0683185756206512
52,0.0330705046653748,0.0174518842250109,-0.0137222418561578,0.0012499236036092,-0.0356951840221882,-0.0573497153818607
53,0.0093391966074705,0.0234880205243826,-0.0086799366399645,0.0016345322364941,-0.0474389269948006,-0.0386964492499828
54,-0.0137069299817085,0.0323246121406555,-0.0001823173079174,0.0050235134549439,-0.0485785566270351,-0.0127875190228224
55,-0.0277416072785854,0.047611091285944,0.0096001587808132,0.0110220070928335,-0.0407483913004398,0.0186395812779665
56,-0.02788370475173,0.0660026222467422,0.0246611703187227,0.024333294481039,-0.0236068647354841,0.0463555902242661
57,-0.0137567017227411,0.074760764837265,0.045943908393383,0.0530555956065655,0.0006871479563415,0.0623945333063602
58,0.0077259824611246,0.0731806755065918,0.0740507170557976,0.0993611514568329,0.0245676282793283,0.0684487968683243
59,0.0286945700645447,0.0700699836015701,0.103299222886562,0.143012419342995,0.0403936728835106,0.0699215978384018
60,0.0472320839762688,0.0665360167622566,0.122085958719254,0.161163210868835,0.0458388216793537,0.0687604621052742
61,0.0621426813304424,0.0595387145876884,0.124583765864372,0.143322363495827,0.0434208028018475,0.064562626183033
62,0.0655412524938583,0.0462383590638638,0.108371391892433,0.0865837335586548,0.0316281840205193,0.0542124137282372
63,0.0546598732471466,0.0305904168635607,0.0788079351186752,0.0188137944787741,0.0100189531221986,0.0407957211136818
64,0.0368056781589985,0.0242551676928997,0.0475476309657097,-0.0203135013580322,-0.0152177745476365,0.0327943116426468
65,0.0160760264843702,0.0249573681503534,0.0156849324703217,-0.0292244739830494,-0.0367722399532795,0.0229538660496473
66,-0.0063557093963027,0.0159646291285753,-0.0185966640710831,-0.0253371670842171,-0.051171712577343,-0.0016805836930871
67,-0.0267767645418644,-0.0029703339096158,-0.045076809823513,-0.0214313920587301,-0.0611398629844189,-0.0332021787762642
68,-0.0421062298119068,-0.0127753466367722,-0.0495836585760117,-0.025972057133913,-0.0691199079155922,-0.0555607303977013
69,-0.052065584808588,-0.0052125281654298,-0.0309301186352968,-0.0332986861467361,-0.073206827044487,-0.0670090019702911
70,-0.0519133657217026,0.0108796637505293,-0.0005677758017554,-0.0317409634590149,-0.0683969259262085,-0.07277961820364
71,-0.0331298410892487,0.0281643960624933,0.0336563102900982,-0.0190514735877514,-0.0492376685142517,-0.0705467760562897
72,0.0003873202658724,0.0383380092680454,0.0615585818886757,-0.0066610798239707,-0.0214530415832996,-0.0585724897682667
73,0.0344198234379292,0.029755387455225,0.0633864030241966,-0.0088740000501275,-0.0032443688251078,-0.0485009290277958
74,0.0597071014344692,0.0074401539750397,0.0388556234538555,-0.0196433439850807,-0.0033587722573429,-0.0486231595277786
75,0.071124754846096,-0.0084019508212804,0.0149044366553426,-0.0210992060601711,-0.0083632199093699,-0.0485517121851444
76,0.0642508193850517,-0.006564310286194,0.0074769649654626,-0.0131747927516699,-0.0038544372655451,-0.03743626922369
77,0.0449904128909111,0.0121642826125026,0.0101832961663604,-0.0062537849880754,0.0067090527154505,-0.0132165495306253
78,0.0259991362690926,0.0406763143837452,0.0151089178398252,-0.0029514224734157,0.013911041431129,0.0193058457225561
79,0.0125743485987186,0.0642025172710419,0.0188847258687019,0.0010567371500656,0.0129772862419486,0.0451990887522697
80,0.0051438058726489,0.0729606747627258,0.0217615589499474,0.0101323025301099,0.0053920019418001,0.0557373277842999
81,0.0009430037462152,0.0689556822180748,0.0262383632361889,0.0232181306928396,-0.0002979475539177,0.0578736402094364
82,-0.0004353122494649,0.0624104924499989,0.0356529913842678,0.0370636358857155,0.0064265877008438,0.0658907145261765
83,0.007898086681962,0.0613959282636642,0.0475449040532112,0.0440420508384705,0.0260317046195269,0.0810858309268951
84,0.0239759813994169,0.0587579309940338,0.0518579557538033,0.0343381091952324,0.0441837981343269,0.0809323787689209
85,0.0397950410842896,0.0506799407303333,0.0501510351896286,0.0086165210232138,0.0524892471730709,0.0560442395508289
86,0.0509863011538982,0.0431211739778519,0.0503230355679989,-0.0315872989594936,0.0514289774000645,0.0236488301306963
87,0.0500406995415688,0.0347287394106388,0.0490653663873672,-0.073570154607296,0.0368354097008705,-0.0023295173887163
88,0.0380060561001301,0.0294057186692953,0.0462909080088139,-0.0836681425571442,0.0138917975127697,-0.0143795283511281
89,0.0242571942508221,0.0358530767261982,0.0447438098490238,-0.0554698519408703,-0.0027866996824741,-0.011830473318696
90,0.0109744379296899,0.0455149561166763,0.0395214445888996,-0.0181923564523458,-0.0049012838862836,-0.0078099807724356
91,0.0010279094567522,0.0441073402762413,0.0314737297594547,0.0029763120692223,0.0079710902646184,-0.0097022047266364
92,-0.0011316174641251,0.0302566662430763,0.0236864164471626,0.0006284920382313,0.0221861489117146,-0.0123091610148549
93,0.0016184089472517,0.0115105798467994,0.0097746821120381,-0.0169839859008789,0.0176213979721069,-0.013009206391871
94,0.0070908339694142,-0.0021455762907862,-0.0113076930865645,-0.0299165863543749,-0.0043789562769234,-0.0079484619200229
95,0.0190134514123201,-0.0007228630129247,-0.0242338422685862,-0.0211582500487566,-0.0215206742286682,0.0071402653120458
96,0.0378003641963005,0.0201645568013191,-0.0168331284075975,0.0029406996909529,-0.020146619528532,0.0217857360839844
97,0.0530682131648064,0.0498762242496014,-0.0013575148768723,0.0183415841311216,-0.0073419972322881,0.0212651044130325
98,0.0538352094590664,0.0733457207679749,0.0034124900121241,0.0208493340760469,0.0030149945523589,0.0064744241535663
99,0.048296757042408,0.0897528678178787,0.0006787047022953,0.0195701476186514,0.0108587490394711,-0.0079872440546751
100,0.052518468350172,0.0980207920074463,0.0016997865168377,0.0100535517558455,0.0281477738171816,-0.0106286518275738
101,0.0629369020462036,0.0884973704814911,0.0041546570137143,-0.0035535574425011,0.0528802089393139,-0.0009759789099916
102,0.0640039294958115,0.0621110424399376,0.0047600362449884,-0.0167439058423042,0.0665241479873657,0.015072587877512
103,0.0490000285208225,0.0285245515406132,0.0052326214499771,-0.0360251404345036,0.0584592260420322,0.0237066335976124
104,0.0204732529819012,-0.006215987727046,0.0018736222991719,-0.0558816194534302,0.032802052795887,0.0128247523680329
105,-0.011250470764935,-0.032156128436327,-0.0029774354770779,-0.0633288845419884,0.0013032413553446,-0.0032043873798102
106,-0.0301991067826748,-0.0395764820277691,0.0015951448585838,-0.0524464696645737,-0.0230680853128433,0.0008065165020525
107,-0.0324625857174397,-0.0321412719786167,0.0135575858876109,-0.0319379791617393,-0.0385266244411469,0.0232531242072582
108,-0.0277485828846693,-0.016974488273263,0.0229782648384571,-0.0174353793263435,-0.0482427030801773,0.0474477969110012
109,-0.0221362169831991,0.0017735891742631,0.0268702618777752,-0.0144165381789207,-0.0474703907966614,0.0642526522278786
110,-0.0153531664982438,0.0165192373096943,0.0252772253006697,-0.0220891200006008,-0.0331664681434631,0.0645903721451759
111,-0.0113613838329911,0.0143839726224542,0.0152254113927484,-0.0379877425730228,-0.0156947858631611,0.0374208875000477
112,-0.0147852497175336,-0.0100186541676521,-0.0061186091043055,-0.0538214594125748,-0.0099132256582379,-0.0127182640135288
113,-0.0132994335144758,-0.0390228815376759,-0.0293070059269667,-0.0619889460504055,-0.0113312052562833,-0.0622433722019196
114,0.0003573905851226,-0.0505382604897022,-0.0396124199032784,-0.0665935650467873,-0.00249900133349,-0.0952050313353539
115,0.0072567397728562,-0.0422100722789764,-0.0355458818376064,-0.0766824409365654,0.0143152223899961,-0.112124226987362
116,-0.0020814740564674,-0.0279980879276991,-0.0254957210272551,-0.0876850634813309,0.0185643713921309,-0.113761715590954
117,-0.0158957093954086,-0.0228877607733011,-0.0176683105528355,-0.0875332653522491,0.0007899925112724,-0.0993196666240692
118,-0.0245126839727163,-0.02220568805933,-0.0145055409520864,-0.0748606771230698,-0.0246671438217163,-0.0707278251647949
119,-0.0237951576709747,-0.0092877671122551,-0.0103395143523812,-0.0670242011547089,-0.0374111831188202,-0.0331983081996441
120,-0.0107084363698959,0.0168947614729404,0.0011518938699737,-0.0741430148482323,-0.032183226197958,0.0072861919179558
121,0.0083155399188399,0.0427470058202744,0.0190415177494287,-0.0745242834091187,-0.0173183809965849,0.0425567217171192
122,0.0169121976941824,0.0549764484167099,0.0352801159024239,-0.0578973777592182,-0.0033368787262588,0.062425259500742
123,0.0129007929936051,0.0530147403478622,0.039728257805109,-0.044210359454155,0.0062858890742063,0.0662596672773361
124,0.0079147089272737,0.0476835519075394,0.0267681311815977,-0.045534111559391,0.0140163209289312,0.0581093244254589
125,0.004864755552262,0.0454785190522671,0.000797901477199,-0.0547311678528786,0.0190352592617273,0.0386778861284256
126,0.0025165926199406,0.0408614054322243,-0.0248671788722277,-0.0583249442279339,0.0181298833340406,0.0137445302680135
127,0.0030809415038675,0.0264032948762178,-0.0360708422958851,-0.0456463508307934,0.0147222140803933,-0.0033319075591862
128,0.0040328642353415,0.0073738875798881,-0.0310574285686016,-0.0193557906895876,0.0119278151541948,-0.0053413147106766
129,0.0022106389515101,-0.0027200714685022,-0.0197275057435036,0.0046479031443595,0.0059551247395575,0.0035428260453045
130,0.0080385114997625,0.0007846464868634,-0.0061009591445326,0.0174637101590633,0.0015305068809539,0.0213270764797926
131,0.0267125125974417,0.0062396032735705,0.0061669996939599,0.0122052598744631,0.0025282204151153,0.0388561896979809
132,0.0361706577241421,0.0014174408279359,0.0072166016325354,-0.0197846628725529,-0.0046846540644764,0.0385761968791485
133,0.0201172772794962,-0.0101164542138577,-0.0015566046349704,-0.0552094876766205,-0.0258809104561806,0.0258070044219494
134,-0.0097309043630957,-0.0173026937991381,-0.0121924113482237,-0.062605544924736,-0.0502107851207256,0.0148433391004801
135,-0.0351677089929581,-0.0141244269907475,-0.0177745707333088,-0.0503734238445759,-0.0653301700949669,0.0032666542101651
136,-0.0457499213516712,-0.0057897274382412,-0.0093132127076387,-0.0430044494569302,-0.0598792880773544,-0.0096848448738455
137,-0.0415804423391819,-0.0055666421540081,0.0046437350101769,-0.0439960621297359,-0.0374631285667419,-0.0201689880341291
138,-0.029628686606884,-0.0150153515860438,0.0032702167518436,-0.0429268442094326,-0.0183364469558001,-0.0282692071050406
139,-0.0179552976042032,-0.0215541310608387,-0.0154499625787139,-0.0432667769491673,-0.0136890029534698,-0.034637339413166
140,-0.0114951767027378,-0.0215198453515768,-0.0361263789236546,-0.0539868474006653,-0.0209617391228676,-0.0435469038784504
141,-0.0082984333857893,-0.0213996283710003,-0.0430370829999447,-0.0668628439307213,-0.0311392769217491,-0.0558665469288826
142,-0.003815492382273,-0.0252038352191448,-0.0344951786100864,-0.0716710165143013,-0.0327388234436512,-0.0666548386216164
143,0.0039045270532369,-0.0323013700544834,-0.0237243548035622,-0.0675053671002388,-0.0267603825777769,-0.0726587250828743
144,0.0142020219936967,-0.0321876332163811,-0.0164124276489019,-0.051450327038765,-0.0211458168923855,-0.0667218416929245
145,0.0231112670153379,-0.0145674841478467,-0.0052919201552867,-0.0218583829700947,-0.0148020097985864,-0.0405668392777443
146,0.0253078788518906,0.014665313065052,0.0109814954921603,0.0121384598314762,-0.0051322928629815,0.0037105958908796
147,0.0213594529777765,0.041556216776371,0.0237416438758373,0.0365656577050686,0.0063810911960899,0.0526579990983009
148,0.0178101025521755,0.0577058680355549,0.0255833640694618,0.0417967811226845,0.0179380625486374,0.0872868299484253
149,0.0176991578191519,0.0635090917348862,0.0194628611207008,0.03075229562819,0.0263406485319138,0.0946760252118111
150,0.0160232521593571,0.0630830153822899,0.0126903802156448,0.0156754180788994,0.0241429451853037,0.076630599796772
151,0.0052135437726974,0.0583100542426109,0.0026881324592977,0.0006403549923561,0.0039841029793024,0.0449683256447315
152,-0.0116865914314985,0.0483970269560814,-0.0111531056463718,-0.0133340554311872,-0.0243044290691614,0.0173303801566362
153,-0.0225141663104296,0.0295241922140121,-0.0219044424593449,-0.0259021054953337,-0.0424055941402912,0.0018615076551213
154,-0.0269183535128832,-0.0006278894725255,-0.0345691926777363,-0.0461248010396957,-0.0548705384135246,-0.0165865998715162
155,-0.0325230844318867,-0.031787782907486,-0.0533434264361858,-0.0717379078269005,-0.0725794434547424,-0.0443856902420521
156,-0.0408600196242332,-0.0485551208257675,-0.0648735761642456,-0.0855884179472923,-0.084941141307354,-0.063849039375782
157,-0.0509776659309864,-0.048760361969471,-0.055555947124958,-0.0772987380623817,-0.0794952735304832,-0.0642920732498169
158,-0.0535396374762058,-0.0406141616404057,-0.0235146712511778,-0.0466655269265175,-0.0580523796379566,-0.0466786697506905
159,-0.0394800752401352,-0.0328706204891205,0.0136102689430118,-0.0074878195300698,-0.0339732430875301,-0.0172062404453754
160,-0.0176386553794146,-0.0287914760410786,0.0300019234418869,0.0155998868867755,-0.0218425691127777,0.00934315379709
161,0.0008532060310244,-0.0245633907616138,0.0233250893652439,0.0131241623312235,-0.018122797831893,0.0207938756793737
162,0.0149336233735085,-0.0213018395006657,0.0077765798196196,-0.0022412496618926,-0.0111152231693268,0.0165830720216036
163,0.0258693136274815,-0.0224465485662222,-0.0044245342724025,-0.0117364162579179,0.0003870158980134,0.0076958574354648
164,0.0285204965621233,-0.0246706381440163,-0.0074720354750752,-0.0109893269836903,0.0084086935967207,0.0011967786122113
165,0.018319383263588,-0.0233677588403225,-0.0050504324026405,-0.0124670313671231,0.0067608878016471,-0.0054672518745064
166,0.004237319342792,-0.0173862893134356,-0.0019275607774034,-0.0187780391424894,0.0024014266673475,-0.0082477256655693
167,-0.0001218436955241,-0.0086091859266161,5.09704732394312e-05,-0.0226573701947927,0.0050743171013891,-0.0034541748464107
168,0.0095543200150132,-0.0001669746998231,-0.0005033338675275,-0.0264002904295921,0.0155328577384353,0.0032483616378158
169,0.0257829092442989,-0.0012418671976774,-0.0081618353724479,-0.0357481427490711,0.0321328938007355,0.0073379212990403
170,0.0377367436885834,-0.0167142413556576,-0.0285129956901073,-0.0522079095244408,0.0508698597550392,0.0124952811747789
171,0.0373610481619835,-0.0345870517194271,-0.0585899874567986,-0.0744324401021004,0.0554296709597111,0.0196430012583733
172,0.0173560678958893,-0.0448376759886742,-0.0869365260004997,-0.0970533490180969,0.0262008868157864,0.0141068389639258
173,-0.0192205011844635,-0.0478614047169685,-0.0965564027428627,-0.114022128283978,-0.0305324122309685,-0.0110915387049317
174,-0.0532189533114433,-0.0423638261854649,-0.078540600836277,-0.113813295960426,-0.0811358317732811,-0.0357072055339813
175,-0.0683907940983772,-0.0248336493968964,-0.0443974807858467,-0.0845882147550583,-0.101274505257607,-0.0382413230836391
176,-0.0650552734732628,0.0027977605350315,-0.0114737283438444,-0.0387352369725704,-0.0940493643283844,-0.0215265583246946
177,-0.0531520657241344,0.0283164232969284,0.009988029487431,-0.0038170565385371,-0.0741690993309021,-0.0036954770330339
178,-0.0435440540313721,0.0355600044131279,0.0138114402070642,0.0069551905617117,-0.0529757663607597,0.0007078861817717
179,-0.0404841974377632,0.0186070185154676,-0.0007064986857585,0.0002927324385382,-0.0358762554824352,-0.01149439252913
180,-0.0360392369329929,-0.0089873149991035,-0.0198466889560223,-0.0088826892897486,-0.0223932769149542,-0.0293328054249287
181,-0.0240779779851437,-0.0250878036022186,-0.028849421069026,-0.0119527438655496,-0.0146776856854558,-0.0357748493552208
182,-0.0122990943491459,-0.0255188345909119,-0.0301728677004576,-0.0063022002577781,-0.0209297966212034,-0.0206908229738474
183,-0.007427672855556,-0.0217720698565245,-0.0289921015501022,0.0103342281654477,-0.0378289110958576,0.0139348842203617
184,-0.0090735582634806,-0.0183586236089468,-0.0258916690945625,0.0279758870601654,-0.0520218722522259,0.0479959398508072
185,-0.01639967225492,-0.0131911477074027,-0.0241824574768543,0.0371793322265148,-0.0584833733737469,0.0559231862425804
186,-0.0228041466325521,-0.0050899214111268,-0.0205986648797989,0.0580537915229797,-0.0541505962610245,0.0389302968978882
187,-0.0163280535489321,0.0043678130023181,-0.0053711091168224,0.102156326174736,-0.0338523201644421,0.0217406284064054
188,0.0045532067306339,0.0114866532385349,0.0209933221340179,0.140625581145287,-0.0036798694636672,0.0190697647631168
189,0.0256671328097582,0.0130300195887685,0.044395312666893,0.149040713906288,0.0225637666881084,0.0236399155110121
190,0.035606075078249,0.0088609391823411,0.0500975400209427,0.125448003411293,0.038463868200779,0.0204961467534304
191,0.0354624353349209,0.0039997650310397,0.0353508554399014,0.0755970180034637,0.0421559028327465,0.0047802343033254
192,0.0258675683289766,-7.76917222538032e-05,0.0067349718883633,0.0118450922891498,0.03028779104352,-0.0168431960046291
193,0.0072678350843489,-0.0100006945431232,-0.0281374566257,-0.0466686002910137,0.0072058364748954,-0.0380993597209454
194,-0.0126559399068356,-0.0265344064682722,-0.0574800185859203,-0.0773659646511078,-0.0176296588033438,-0.0523309819400311
195,-0.0287856440991163,-0.0391353480517864,-0.0696688070893288,-0.0737744271755219,-0.0415860526263714,-0.0500249899923801
196,-0.0404634848237038,-0.0368861667811871,-0.0630300492048264,-0.052091721445322,-0.0615378431975842,-0.0335119552910328
197,-0.0389124862849712,-0.0167545266449451,-0.0409004166722298,-0.0264403838664293,-0.0643805116415024,-0.0128594785928726
198,-0.0157298669219017,0.0091880159452557,-0.0118380105122924,-0.0054940525442361,-0.0417901165783405,0.0096320183947682
199,0.0129925012588501,0.0174794867634773,0.0067431479692459,0.0002456043730489,-0.0084328092634677,0.0275211334228516
200,0.0195954740047455,-0.0012850577477365,0.0039270776323974,-0.0108629511669278,0.0100533254444599,0.0250889398157597
201,0.0035373731516301,-0.0280629675835371,-0.0111534567549825,-0.0301108509302139,0.0055216327309608,0.0059899645857513
202,-0.0127459531649947,-0.0402452237904072,-0.0208201166242361,-0.0444824211299419,-0.0100776348263025,-0.0002803828392643
203,-0.0176954362541437,-0.0396216362714767,-0.0195618104189634,-0.0424963645637035,-0.0252077989280224,0.0166822634637356
204,-0.0148772178217769,-0.0372248217463493,-0.0141395693644881,-0.0211517810821533,-0.0363502241671085,0.0370330661535263
205,-0.0061422795988619,-0.0307248961180449,-0.0050054653547704,0.012579932808876,-0.0392405316233635,0.0530777275562286
206,0.0087356865406036,-0.020002456381917,0.0095010129734873,0.0421728901565075,-0.0302080437541008,0.0719174519181252
207,0.0249203238636255,-0.0160015895962715,0.0206217467784882,0.0490885674953461,-0.0146114705130458,0.0877256244421005
208,0.0378131978213787,-0.0153503734618425,0.0250898040831089,0.0371927544474602,0.0024618369061499,0.0898690596222878
209,0.0420840941369534,-0.0053007439710199,0.0270953197032213,0.0236455779522657,0.017765237018466,0.0743107199668884
210,0.0336602665483952,0.0131103983148932,0.0237168334424496,0.0054206382483243,0.0219018589705229,0.0408571735024452
211,0.0175426863133907,0.0342740379273891,0.0119790360331535,-0.0277085024863482,0.0094578247517347,0.0003486087953206
212,-0.0048036784864962,0.05065543577075,-0.0051355259492993,-0.0683074742555618,-0.0164438392966986,-0.0331555940210819
213,-0.0321188420057297,0.0528386533260345,-0.0197569075971842,-0.0919939205050468,-0.0452974811196327,-0.0511340759694576
214,-0.0485625751316547,0.0411830507218838,-0.019494166597724,-0.0776697397232056,-0.0575785934925079,-0.045289471745491
215,-0.0406438820064068,0.026038309559226,0.0022179565858095,-0.0363174714148045,-0.0393614992499352,-0.0133775090798736
216,-0.0131609626114368,0.0164812579751015,0.0358594320714474,0.0040875249542295,0.0006252470775507,0.0336810238659382
217,0.0190449450165033,0.0102948760613799,0.0617774277925491,0.0340952686965466,0.0396906621754169,0.0747659057378769
218,0.0471745543181896,0.0062020886689424,0.0713980570435524,0.0551591217517853,0.0692008808255196,0.0939768403768539
219,0.0696609988808632,0.0107291303575039,0.0708625391125679,0.0624280571937561,0.0946599394083023,0.094692163169384
220,0.0763315558433533,0.0183792673051357,0.0597180873155594,0.0474016331136227,0.104555875062943,0.0824038535356522
221,0.0574780665338039,0.0141562297940254,0.0320262163877487,0.0138336829841137,0.0775711834430695,0.0505129061639309
222,0.026590783149004,-0.0053490656428039,-0.0049840314313769,-0.0172605663537979,0.0210077781230211,0.0025017822626978
223,0.0009704403928481,-0.0354034118354321,-0.039092481136322,-0.0280009564012289,-0.0361939929425716,-0.0411488935351372
224,-0.0195267349481583,-0.0683002546429634,-0.0620091445744038,-0.0166131816804409,-0.0766458511352539,-0.0640879124403
225,-0.0342818349599838,-0.088459886610508,-0.0610311701893806,0.0067796581424772,-0.0940131098031998,-0.0634621158242226
226,-0.0356786586344242,-0.0839494690299034,-0.0326685421168804,0.0301078092306852,-0.0844286307692528,-0.0443556308746338
227,-0.0244874991476536,-0.0597021616995335,0.0020971270278096,0.0471436232328415,-0.0570912919938564,-0.0112747065722942
228,-0.008492193184793,-0.0281100869178772,0.0219816658645868,0.0586255341768265,-0.0305376816540957,0.0435032844543457
229,0.0046879076398909,0.0054328106343746,0.0257770363241434,0.0663770213723183,-0.0166775323450565,0.121164239943028
230,0.0082075577229261,0.0420767888426781,0.0212013460695744,0.0678100883960724,-0.0168131031095982,0.179479241371155
231,-0.0026590139605104,0.072660893201828,0.0120694236829877,0.0597199946641922,-0.0268120169639587,0.172074019908905
232,-0.0247064027935266,0.0811183005571365,0.0020852675661444,0.0465413257479668,-0.038069810718298,0.112320758402348
233,-0.0421285592019558,0.0701581016182899,-0.0016102393856272,0.0390721745789051,-0.0388880781829357,0.0458711199462414
234,-0.0458660237491131,0.0447549968957901,-0.0028816605918109,0.034120500087738,-0.0302853584289551,-0.0083520580083131
235,-0.0401463955640793,0.0005924758152104,-0.0096749262884259,0.0218669734895229,-0.0206090789288282,-0.0478031560778618
236,-0.0187184512615204,-0.0479943156242371,-0.0136559121310711,0.0139848319813609,-0.0052360142581164,-0.0598098337650299
237,0.0226727724075317,-0.0774970948696136,-0.0063117160461843,0.0226551126688719,0.0192659143358469,-0.0485119186341763
238,0.0612990744411945,-0.0817914456129074,0.0060850162990391,0.0366849415004253,0.0405416004359722,-0.0372059494256973
239,0.0735247805714607,-0.0678388252854347,0.0161288399249315,0.0428732931613922,0.0481009855866432,-0.0297394543886185
240,0.0622804425656796,-0.0454824194312096,0.0227318499237299,0.0378264747560024,0.0467404723167419,-0.0156173780560493
241,0.0395087338984013,-0.0290475282818079,0.0226186420768499,0.02396528609097,0.0428504385054111,-0.0009704992990009
242,0.0123344091698527,-0.028413187712431,0.0134351728484035,0.0099897561594843,0.0370145998895168,-0.0007121984963305
243,-0.0087565397843718,-0.0368838459253311,0.0017456520581618,0.0024383233394473,0.0317301005125046,-0.0150897577404976
244,-0.0182407852262259,-0.0418071784079075,-0.0101691298186779,-0.001107936957851,0.0252538975328207,-0.0344506092369556
245,-0.0245775263756514,-0.0319354236125946,-0.0275201592594385,-0.0092266499996185,0.0108258137479424,-0.0487685799598694
246,-0.0331130512058735,-0.0063122413121163,-0.0464713275432587,-0.024543646723032,-0.0061402139253914,-0.0486742667853832
247,-0.0356983691453934,0.0164258014410734,-0.0580134876072407,-0.0408994853496552,-0.0088968314230442,-0.0348065532743931
248,-0.0268544387072325,0.0206073112785816,-0.0607824958860874,-0.0525267571210861,0.0033606784418225,-0.0201142877340317
249,-0.0128425126895308,0.01129259634763,-0.054878294467926,-0.0533328279852867,0.0141616398468614,-0.0140447663143277
250,0.0023054361809045,-0.0050537236966192,-0.0384092256426811,-0.0386096984148026,0.0198989454656839,-0.0164742711931467
251,0.0195858459919691,-0.0313896350562572,-0.0171851236373186,-0.0130426418036222,0.0279439240694046,-0.0256183948367834
252,0.0319545120000839,-0.0623791888356209,-0.0014303495408967,0.0118805533275008,0.0383220128715038,-0.0383280701935291
253,0.0353998765349388,-0.0829399824142456,0.0096591636538505,0.0268708672374487,0.0520968958735466,-0.0480430088937283
254,0.0381696484982967,-0.0846698060631752,0.0219902601093054,0.0350999124348164,0.0711304545402527,-0.0501610673964024
255,0.0452918820083141,-0.0688739120960236,0.0344945155084133,0.0486094802618027,0.0895208865404129,-0.0454232729971409
256,0.0532897338271141,-0.0438794828951359,0.0414489507675171,0.0606055296957493,0.100461043417454,-0.0384833179414272
257,0.0533450953662395,-0.0232953224331141,0.0333242602646351,0.0480643101036549,0.0975813344120979,-0.0363600812852383
258,0.0414679870009422,-0.0191101264208555,0.0040688323788344,0.0105664506554604,0.0785166993737221,-0.0442938543856144
259,0.0295865163207054,-0.0344010517001152,-0.0369608290493488,-0.0265686009079218,0.0541621260344982,-0.0585944652557373
260,0.0330707095563412,-0.0564078465104103,-0.0671620443463326,-0.0431604497134686,0.0432426854968071,-0.0655736848711967
261,0.0482628606259823,-0.0651050508022308,-0.0714009702205658,-0.0351882129907608,0.0519019216299057,-0.0579605475068092
262,0.0557101182639599,-0.0594179816544056,-0.0571063160896301,-0.0141756515949965,0.0646545067429543,-0.0490999445319176
263,0.0492407903075218,-0.0508341491222382,-0.0350969545543194,0.0074447528459131,0.0705591961741447,-0.0502835921943188
264,0.0389258414506912,-0.0403823554515839,-0.0102373538538814,0.0296033378690481,0.073944479227066,-0.0561709403991699
265,0.0300542153418064,-0.0284046810120344,0.0074419742450118,0.0468771085143089,0.0745971128344536,-0.0642821341753006
266,0.0215601362287998,-0.0210456755012274,0.0101375319063663,0.0505245365202427,0.068080723285675,-0.0731173753738403
267,0.0115654971450567,-0.0201326366513968,-0.0013626165455207,0.041746012866497,0.0551307760179043,-0.0746499225497246
268,0.0017087833257392,-0.0237992610782385,-0.0192847345024347,0.0259275250136852,0.0422379337251186,-0.0696819275617599
269,-0.0024048259947449,-0.0337410941720009,-0.0364967361092567,0.0069804466329515,0.0357451662421227,-0.0713875815272331
270,0.0010970527073368,-0.0520318523049355,-0.0517482534050941,-0.0124955652281642,0.0391702502965927,-0.0832876265048981
271,0.0101216565817595,-0.0714536085724831,-0.0623561479151249,-0.0264713317155838,0.0544320493936539,-0.0924964547157288
272,0.0204661842435598,-0.0815642923116684,-0.0651735886931419,-0.0308587420731783,0.074311375617981,-0.0915091559290886
273,0.0298379063606262,-0.0803598538041115,-0.0593105815351009,-0.0260629262775183,0.0884480774402618,-0.0809575691819191
274,0.0450862869620323,-0.067614421248436,-0.037583015859127,-0.0041888291016221,0.103156693279743,-0.0542869828641415
275,0.0671831518411636,-0.0409750752151012,0.003066292963922,0.0370489358901978,0.1262526512146,-0.0130081633105874
276,0.0840906575322151,-0.0072981636039912,0.0442447848618031,0.0779551491141319,0.14594230055809,0.0199983343482018
277,0.0926745012402534,0.0233650170266628,0.0684817284345627,0.102675125002861,0.153649121522903,0.0312645062804222
278,0.0957206040620804,0.0440275222063065,0.0718978941440582,0.107160642743111,0.148743227124214,0.0259970463812351
279,0.0896462053060532,0.0437557697296143,0.0497463382780552,0.0843391865491867,0.125261500477791,0.0053375586867332
280,0.0724256187677383,0.0262639373540878,0.0062801809981465,0.0367303639650345,0.0875260755419731,-0.0241001639515162
281,0.0429394878447056,0.0099240159615874,-0.0421295054256916,-0.0179888233542442,0.0458546243607998,-0.0489586926996708
282,0.0043121860362589,-0.0041850917041301,-0.0819640010595322,-0.0582082010805607,0.0024753878824412,-0.0717474743723869
283,-0.02845149487257,-0.0253241173923016,-0.10139138251543,-0.0677695646882057,-0.0320686511695385,-0.0950543507933617
284,-0.0388222448527813,-0.0504871197044849,-0.0916410759091377,-0.045416347682476,-0.0395373441278934,-0.106014139950275
285,-0.0218469314277172,-0.0685705244541168,-0.0557482019066811,0.0002658228040672,-0.0163125768303871,-0.0941478759050369
286,0.014398624189198,-0.0720762610435486,-0.0071958010084927,0.056993056088686,0.0242042392492294,-0.0649775564670563
287,0.0538886152207851,-0.063017301261425,0.034841250628233,0.104213714599609,0.063484363257885,-0.0345032177865505
288,0.0828555077314377,-0.0482279732823372,0.0576363541185856,0.12724594771862,0.0918103158473969,-0.0107856141403317
289,0.0965662002563477,-0.0332290232181549,0.0630112662911415,0.128685846924782,0.109515830874443,0.0052425335161387
290,0.0934208706021309,-0.0232881959527731,0.0536667630076408,0.109820447862148,0.112022653222084,0.0063432557508349
291,0.0754635259509087,-0.0186860226094723,0.0312263332307339,0.0726910904049873,0.0959802940487862,-0.0095260785892605
292,0.0516330972313881,-0.013557817786932,0.0056551462039351,0.0336765833199024,0.0736945047974586,-0.027610506862402
293,0.0316695868968964,-0.007969451136887,-0.0128975920379162,0.0099655510857701,0.0590058267116547,-0.036328237503767
294,0.0249509830027819,-0.0058421683497726,-0.0200278703123331,0.0073625920340418,0.0565791800618172,-0.0418372824788094
295,0.0376896150410175,-0.0056225038133561,-0.0144523773342371,0.0220507755875587,0.0698328614234924,-0.0481466203927994
296,0.061701025813818,-0.0071192351169884,0.0002624864282552,0.0415070876479149,0.0972117707133293,-0.0535791404545307
297,0.0787160098552704,-0.0124213024973869,0.0158734675496817,0.0523711405694485,0.125297635793686,-0.0623880065977573
298,0.0825911983847618,-0.0198263451457024,0.0249175243079662,0.0542479790747166,0.140392541885376,-0.0698835700750351
299,0.0809391364455223,-0.0257752444595099,0.0244947522878647,0.0543003268539906,0.139311745762825,-0.0633216872811317
300,0.0773798525333405,-0.0293574407696724,0.0153231909498572,0.0545900091528893,0.126972123980522,-0.0426368080079556
301,0.0707701817154884,-0.0327449925243855,-0.0009449091739952,0.0493780225515366,0.110184922814369,-0.0191591028124094
302,0.0645101144909859,-0.0340674668550491,-0.017878757789731,0.0312135554850101,0.0941750779747963,-0.0017100647091865
303,0.0597337335348129,-0.0315426960587502,-0.0263875089585781,0.0002732808061409,0.0789093822240829,0.0081003559753298
304,0.0495186299085617,-0.0290276948362589,-0.0291616283357143,-0.0333966724574566,0.0567099042236805,0.009160554036498
305,0.0333857536315918,-0.0282928738743067,-0.0302227288484573,-0.0512639246881008,0.0271983817219734,0.0016867807134985
306,0.0195126906037331,-0.0328413844108582,-0.0224345177412033,-0.0390318892896175,0.0039358143694698,-0.0035672658123076
307,0.0145855080336332,-0.0459718070924282,-0.0098198167979717,-0.0077963829971849,-0.0054265293292701,-0.0020575269591063
308,0.0181424003094435,-0.0600717328488827,-0.0118351317942142,0.008248571306467,-0.0087490268051624,-0.011153825558722
309,0.0214305575937033,-0.0682422444224358,-0.0373852290213108,-0.0090509559959173,-0.0192930363118649,-0.0417197160422802
310,0.016664169728756,-0.0756918787956238,-0.0745212733745575,-0.0400850661098957,-0.0416812933981419,-0.0828595384955406
311,0.0059141973033547,-0.0857142508029938,-0.0998011007905006,-0.0544853433966637,-0.0617746822535992,-0.114474445581436
312,-0.000327586865751,-0.0902613624930382,-0.097089022397995,-0.0422814898192883,-0.0576550699770451,-0.120217993855476
313,0.0037726031150668,-0.0819648429751396,-0.0704148411750793,-0.0142270773649216,-0.0274471584707499,-0.102910332381725
314,0.0140503598377109,-0.0656964033842087,-0.0345234796404839,0.0203445218503475,0.0086073735728859,-0.0774474442005157
315,0.0229650605469942,-0.0515959560871124,0.0005023736739531,0.0580168813467026,0.0360189191997051,-0.0488185845315456
316,0.0251066405326128,-0.0417549982666969,0.0294856112450361,0.0873191058635712,0.0553336776793003,-0.0140658570453525
317,0.0187753848731518,-0.0337393656373024,0.047340702265501,0.0940551459789276,0.0669763535261154,0.0233150739222765
318,0.006576748099178,-0.0244951788336039,0.0538339763879776,0.0788545235991478,0.0687723234295845,0.0569062083959579
319,-0.0065420600585639,-0.0136696761474013,0.0526468642055988,0.0514505617320538,0.0619526617228985,0.0791712701320648
320,-0.0164128821343184,-0.0067918300628662,0.0466868281364441,0.0244519021362066,0.0526132173836231,0.0832282453775406
321,-0.0168886445462704,-0.0027066643815487,0.0398167967796326,0.013556974940002,0.0485071502625942,0.0757604837417603
322,-0.0045222286134958,0.0069414475001394,0.0334850549697876,0.0197136700153351,0.0503991022706032,0.0709448382258415
323,0.0130307367071509,0.0209415797144175,0.0216170325875282,0.026006767526269,0.0499314814805985,0.0687094554305077
324,0.0224798172712326,0.0261150822043419,-0.0015498027205467,0.01392493955791,0.0381547287106514,0.0584673024713993
325,0.0172589905560017,0.016662510111928,-0.0283396765589714,-0.0162930395454168,0.017150366678834,0.0469416603446007
326,0.0033606684301048,0.0075263315811753,-0.0452181659638882,-0.0408970527350903,-0.0033830783795565,0.0498729757964611
327,-0.0065319007262587,0.0105981789529324,-0.050101350992918,-0.0439609438180923,-0.0185928884893656,0.0569724664092064
328,-0.007769928779453,0.010624804534018,-0.0527344569563866,-0.0355444625020027,-0.0304036736488342,0.0421667285263538
329,-0.009347328916192,-0.010804595425725,-0.0596764944493771,-0.0331526659429073,-0.0442352034151554,-0.0009449259960092
330,-0.0168542247265577,-0.0443498082458973,-0.0616344474256039,-0.040265005081892,-0.0590296499431133,-0.0502142235636711
331,-0.0278832726180553,-0.0687339454889297,-0.0512277372181416,-0.0445856787264347,-0.0699377283453941,-0.0769175067543983
332,-0.0432491041719913,-0.0785591527819633,-0.0393557325005531,-0.0416976884007454,-0.0807138085365295,-0.072496734559536
333,-0.057466633617878,-0.0778061300516129,-0.0319666601717472,-0.0407801158726215,-0.0891263708472252,-0.0429301597177982
334,-0.0607079938054085,-0.0690994411706924,-0.0224894657731056,-0.0389417447149754,-0.0848749056458473,-0.0003972514241468
335,-0.0513077042996883,-0.0525712259113789,-0.0075150812044739,-0.0245198458433151,-0.065887063741684,0.0369999930262566
336,-0.0348493158817291,-0.028649814426899,0.0135888541117311,0.0013789723161608,-0.0352171771228313,0.061690017580986
337,-0.0225170720368624,-0.008343537338078,0.035939559340477,0.0248598251491785,0.0009867862099781,0.0738532617688179
338,-0.0186315681785345,-0.0082559464499354,0.042234979569912,0.0282130818814039,0.0272297989577055,0.0678906366229057
339,-0.0181584823876619,-0.031504288315773,0.0164160616695881,0.0003325853904243,0.0229444280266762,0.0388552285730839
340,-0.0159809663891792,-0.0589084587991238,-0.0316263996064663,-0.0485049374401569,-0.0116350203752518,-0.0020896913483738
341,-0.0070513691753149,-0.0633188337087631,-0.0683492124080658,-0.0812651365995407,-0.0468017943203449,-0.0212511960417032
342,0.0031540666241198,-0.0366184115409851,-0.0708902254700661,-0.071092501282692,-0.0595846511423588,0.0016864656936377
343,0.0035864859819412,0.0014261420583352,-0.0413506366312504,-0.0302606988698244,-0.0512972846627235,0.0417231246829033
344,-0.0016652884660288,0.0247851386666298,0.0029812003485858,0.0151643948629498,-0.0320684872567654,0.0646029487252235
345,-0.0056653846986591,0.0233782529830933,0.0377282164990902,0.0443817190825939,-0.015409049578011,0.0620248802006245
346,-0.0102106453850865,0.003125611692667,0.0514788702130318,0.0500088930130005,-0.0117673212662339,0.0459844656288624
347,-0.0156551394611597,-0.0214503984898329,0.0530705265700817,0.0388195365667343,-0.017669003456831,0.0373974144458771
348,-0.0196846202015877,-0.0342378094792366,0.0529107674956322,0.0239563602954149,-0.0236235689371824,0.0465453341603279
349,-0.0182087086141109,-0.026282349601388,0.0541415847837925,0.023595193400979,-0.0269812028855085,0.0631544664502144
350,-0.0080123599618673,-0.0051210420206189,0.0551636181771755,0.0389381051063538,-0.0285345688462257,0.0723163634538651
351,0.0026622451841831,0.0100058922544122,0.048788171261549,0.0471554175019264,-0.0288298856467009,0.0645861402153969
352,0.0011932866182178,0.0095222368836402,0.0296744965016842,0.0340195521712303,-0.029839338734746,0.042417261749506
353,-0.0131111489608884,-0.0017584189772605,0.0074769482016563,0.0106952823698521,-0.0343195460736752,0.0233948081731796
354,-0.0281793847680092,-0.0149722089990973,-0.0014712263364344,-0.0031340364366769,-0.0426585823297501,0.0192506425082684
355,-0.0286585055291653,-0.0224722903221846,0.0082620894536376,0.0036066791508346,-0.0493693090975285,0.0242023207247257
356,-0.015159566886723,-0.0253338348120451,0.0258784312754869,0.0223586857318878,-0.0519118495285511,0.0260094571858644
357,-0.00289924046956,-0.0281313452869654,0.0356297865509987,0.02412199229002,-0.0531421676278114,0.0198306925594807
358,0.0011247869115322,-0.0293028187006712,0.0311635360121727,-0.005162255372852,-0.0532688088715076,0.0180086772888899
359,-0.0003552045382093,-0.0262406058609486,0.0135912606492639,-0.0468299500644207,-0.0535684078931808,0.0370792485773563
360,-0.003758589271456,-0.0113367196172476,-0.0079127354547381,-0.0774034559726715,-0.0557748526334763,0.0718249976634979
361,-0.0086964350193738,0.0203117970377207,-0.0195993818342686,-0.0932683795690537,-0.057683102786541,0.0959926396608353
362,-0.0156602878123522,0.0517911985516548,-0.0181343983858824,-0.100051142275333,-0.0569805167615414,0.0944617241621017
363,-0.0160482078790665,0.0618410110473633,-0.0069560115225613,-0.0848224833607674,-0.0479270964860916,0.0800647735595703
364,8.36310391605366e-06,0.0528156347572804,0.0127939125522971,-0.041142214089632,-0.023157611489296,0.0753182470798492
365,0.0271781831979752,0.0414509736001492,0.0336631461977959,0.0062465001828968,0.0069718654267489,0.0851259306073189
366,0.053539864718914,0.0357786938548088,0.0431983061134815,0.035388145595789,0.0207414720207453,0.0911886692047119
367,0.069644883275032,0.0286249313503504,0.0361152701079845,0.0436620302498341,0.0101140588521957,0.0809498354792595
368,0.0712342336773872,0.0113478247076273,0.0196761377155781,0.0356132537126541,-0.0155362877994776,0.0651235952973366
369,0.0621673874557018,-0.0078822756186127,0.0081188445910811,0.0136375222355127,-0.0396746769547462,0.0577418841421604
370,0.0465484894812107,-0.0148445079103112,0.003365950891748,-0.0226173587143421,-0.0531023070216179,0.0596223510801792
371,0.026842538267374,-0.0095877079293131,-0.0052042161114513,-0.0601338185369968,-0.0574426874518394,0.0588829480111599
372,0.0067318095825612,-0.0055067678913474,-0.0207756999880075,-0.0787050500512123,-0.057306133210659,0.0438437722623348
373,-0.0098273046314716,-0.0143743464723229,-0.0352386124432087,-0.0711932554841042,-0.0580764710903168,0.0175212677568197
374,-0.0184951052069664,-0.0311906095594168,-0.0355137810111046,-0.0352093242108822,-0.0575169920921326,-0.0025006793439388
375,-0.0174516942352057,-0.0397845581173897,-0.0149247013032436,0.0162882599979639,-0.0465390123426914,0.0036714130546897
376,-0.0153731843456626,-0.0346656404435635,0.0124605903401971,0.0509785003960133,-0.0330796651542187,0.0307821538299322
377,-0.0198919288814068,-0.0204174518585205,0.0303176958113909,0.0625960379838943,-0.0305341091006994,0.0556480884552002
378,-0.0219597965478897,0.0015024552121758,0.0423464104533196,0.0751684829592705,-0.0307579375803471,0.0768978670239449
379,-0.0110626686364412,0.0291778557002544,0.0573845393955708,0.101744003593922,-0.0201026443392038,0.105058036744595
380,0.0102862548083067,0.0561870224773884,0.0736536607146263,0.133498623967171,-0.0002014019701164,0.137945950031281
381,0.0313359349966049,0.0745609179139137,0.0823265314102173,0.154363170266151,0.0172137413173914,0.164990842342377
382,0.0469828583300114,0.0830927714705467,0.0801670253276825,0.154669180512428,0.0270009394735098,0.173802524805069
383,0.0577610842883587,0.0844347551465034,0.0691975206136703,0.133617326617241,0.0298935659229755,0.158744946122169
384,0.0579674057662487,0.0731636360287666,0.0511763095855713,0.0959805771708488,0.0226428639143705,0.127967566251755
385,0.0453842170536518,0.0494649969041348,0.0363541804254055,0.0558240674436092,0.0068906247615814,0.100678369402885
386,0.0266004856675863,0.028184961527586,0.0322374179959297,0.0252081342041492,-0.0116198500618339,0.0909783542156219
387,0.0077476762235164,0.0241198744624853,0.0294415019452572,-0.0018032207153737,-0.0293063297867775,0.0939161106944084
388,-0.0072204712778329,0.0414940267801285,0.0213126298040152,-0.031373742967844,-0.0396188534796238,0.0932315737009048
389,-0.0171359200030565,0.0607089512050152,0.0093570528551936,-0.0679581761360168,-0.0443287529051304,0.0758349671959877
390,-0.0186799317598343,0.0506429560482502,-0.0070546036586165,-0.110313557088375,-0.0528742335736752,0.0487189441919327
391,-0.0097802244126796,0.0127642955631018,-0.0228511206805706,-0.130567356944084,-0.0635821148753166,0.031500119715929
392,-0.0025131236761808,-0.0218256544321775,-0.0313703492283821,-0.118977323174477,-0.0705275386571884,0.0250179711729288
393,-0.0083198361098766,-0.032149113714695,-0.0332823693752289,-0.106090813875198,-0.0722350105643272,0.0204375479370356
394,-0.0192814785987139,-0.0207209680229425,-0.0273911263793707,-0.105954192578793,-0.066768616437912,0.0270425491034985
395,-0.0201105158776045,-0.0010053508449345,-0.0101539278402925,-0.0909643322229385,-0.0544828996062279,0.0578838437795639
396,-0.006991421803832,0.0165612064301968,0.0144836725667119,-0.0436220020055771,-0.0400259308516979,0.101468689739704
397,0.0141671374440193,0.0244970917701721,0.0351248756051064,0.0099956346675753,-0.0249079521745443,0.131439760327339
398,0.0390009470283985,0.0178742911666632,0.0402143485844135,0.0421038456261158,-0.0066276141442358,0.133302375674248
399,0.0570523925125599,0.0008354703895747,0.028143547475338,0.0511844679713249,0.0097941840067505,0.114565797150135
400,0.0532477535307407,-0.0127122541889548,0.011590882204473,0.0490692816674709,0.0140237575396895,0.0946537777781487
401,0.0291658882051706,-0.0118521694093943,0.0044134757481515,0.0457078069448471,0.003988619428128,0.0801410675048828
402,0.0014101053820923,0.0010354887926951,0.0120702981948853,0.051031693816185,-0.0111773600801826,0.0697674676775932
403,-0.0181165095418692,0.0163801200687885,0.0311772283166647,0.0625120848417282,-0.0225578173995018,0.0716149061918259
404,-0.0300321970134974,0.0260566528886557,0.0486571006476879,0.0573840923607349,-0.0336714163422585,0.0874940529465675
405,-0.0375430732965469,0.0281267073005438,0.0556349009275436,0.031276810914278,-0.0464525707066059,0.104408346116543
406,-0.0434251986443996,0.0264769848436117,0.0514484569430351,0.0006880073342472,-0.0534398704767227,0.104730159044266
407,-0.0536445416510105,0.0211834013462067,0.0314614586532116,-0.0290404055267572,-0.0569145567715168,0.0780432298779488
408,-0.0654869824647903,0.0081498408690094,0.0023615825921297,-0.0585638247430325,-0.0617065317928791,0.0392338186502457
409,-0.0688570439815521,-0.0121639100834727,-0.0158992819488049,-0.0821892395615578,-0.062047827988863,0.0081833191215992
410,-0.0635664090514183,-0.0354706160724163,-0.0235669426620007,-0.101460635662079,-0.0598597899079323,-0.0198518894612789
411,-0.054542887955904,-0.0552278086543083,-0.0355090871453285,-0.124508634209633,-0.0652833059430122,-0.0453526675701141
412,-0.0433922074735165,-0.0603696294128895,-0.0489407926797867,-0.142784982919693,-0.0748321041464806,-0.0492551177740097
413,-0.0330118574202061,-0.0389462076127529,-0.0515730306506157,-0.139740660786629,-0.0750606656074524,-0.0195410046726465
414,-0.0282550901174545,0.0002659144811332,-0.0472203269600868,-0.116252332925797,-0.0674373209476471,0.0324218943715096
415,-0.0309331100434065,0.0262595098465681,-0.04645711556077,-0.0808283686637878,-0.0645064413547516,0.082218125462532
416,-0.0330144986510277,0.027661195024848,-0.0461035296320915,-0.0347757637500763,-0.0627576485276222,0.108537711203098
417,-0.0223672892898321,0.0223960559815168,-0.0369536057114601,0.0152566274628043,-0.048204567283392,0.102242410182953
418,0.0027504398021847,0.02146808616817,-0.0192298758774996,0.0482332445681095,-0.0221505910158157,0.0767125263810158
419,0.0304759033024311,0.016767181456089,-0.0046573705039918,0.0437197387218475,3.80617748305667e-05,0.054563120007515
420,0.0440060198307037,-0.0003371269267518,-0.0045404531992971,0.0022040279582142,0.0066877305507659,0.0431489497423172
421,0.0379268229007721,-0.024800943210721,-0.0162886418402195,-0.0489948652684689,-0.0020926152355969,0.0355075746774673
422,0.0239776242524385,-0.0416462570428848,-0.0239272471517324,-0.0750379115343094,-0.0107545936480165,0.0273006111383438
423,0.0145819131284952,-0.0415993072092533,-0.0144520541653037,-0.0797895416617393,-7.91905767982826e-05,0.0207140129059553
424,0.0077787465415895,-0.0317358188331127,0.0025905738584697,-0.104804776608944,0.02358184941113,0.0071662138216197
425,-0.0078312633559107,-0.0243975464254618,0.0018595095025375,-0.161226689815521,0.0310331005603075,-0.0224189013242722
426,-0.0375641398131847,-0.024349944666028,-0.0291151814162731,-0.230656206607819,0.004698637407273,-0.0550067126750946
427,-0.0714624673128128,-0.0323839522898197,-0.0766751617193222,-0.313322514295578,-0.0478047356009483,-0.0794198364019394
428,-0.0940528362989426,-0.0462880097329617,-0.116690501570702,-0.402636617422104,-0.106074504554272,-0.098423533141613
429,-0.099893145263195,-0.0645560324192047,-0.135309860110283,-0.451475918292999,-0.149645745754242,-0.112429186701775
430,-0.0901311859488487,-0.086274690926075,-0.128770381212235,-0.420499265193939,-0.161753579974175,-0.120511591434479
431,-0.0693797841668129,-0.103144235908985,-0.0985415056347847,-0.335338592529297,-0.137035295367241,-0.120748415589333
432,-0.0466545224189758,-0.106800585985184,-0.0547447316348553,-0.233552649617195,-0.0878482460975647,-0.11092197149992
433,-0.0215984582901001,-0.0933216586709023,-0.0092236967757344,-0.119899675250053,-0.0290821678936481,-0.0886923372745514
434,0.0078391870483756,-0.0679473802447319,0.0283136758953333,-0.0127297081053257,0.026056295260787,-0.0579086542129517
435,0.0281561128795147,-0.0451218895614147,0.0490005016326904,0.0667073801159859,0.0616319328546524,-0.0310363993048668
436,0.0298446007072926,-0.0262774489820004,0.0528750829398632,0.123577371239662,0.075797513127327,-0.0052908733487129
437,0.0203789602965117,-0.0018117076251655,0.046875212341547,0.156699731945992,0.0792354494333267,0.0279343146830797
438,0.0108732199296355,0.026585316285491,0.0397803373634815,0.155189648270607,0.0780713856220245,0.0581809617578983
439,0.006937573198229,0.0466903820633888,0.0356925651431084,0.12704810500145,0.0711769089102745,0.0704261735081673
440,0.0072184926830232,0.0524638183414936,0.030095387250185,0.0972730666399002,0.056952927261591,0.0633968189358711
441,0.0076905977912247,0.0492894425988197,0.0200269054621458,0.0799493938684464,0.0375765673816204,0.0473039448261261
442,0.0049171173013746,0.0404610112309456,0.0044229654595255,0.0590433552861214,0.0127023663371801,0.0292423628270626
443,-0.0015501031884923,0.0255604051053524,-0.0154990218579769,0.0010024871444329,-0.0155101185664535,0.0092261545360088
444,-0.0114538818597794,0.0118660861626267,-0.0355564095079899,-0.111690655350685,-0.0380848906934261,-0.0142088579013944
445,-0.0291949640959501,0.0016644552815705,-0.0562189929187298,-0.244609043002129,-0.054850909858942,-0.0397778078913689
446,-0.055880069732666,-0.0136724719777703,-0.0770770534873009,-0.325500994920731,-0.0732938349246979,-0.0554131902754307
447,-0.0800120085477829,-0.0327266417443752,-0.0919895023107529,-0.324935406446457,-0.0917455330491066,-0.0470934174954891
448,-0.0859046280384064,-0.0443006791174412,-0.095127746462822,-0.285048991441727,-0.0991865396499634,-0.0251353569328785
449,-0.0695159509778023,-0.0482959263026714,-0.0882672369480133,-0.254489451646805,-0.0869961529970169,-0.018715450540185
450,-0.0407637618482113,-0.0566955246031284,-0.0805356428027153,-0.240806922316551,-0.0594158209860325,-0.0370305851101875
451,-0.0161914248019457,-0.073423907160759,-0.0771555677056313,-0.233661890029907,-0.0324442721903324,-0.0652872994542122
452,-0.0063690128736197,-0.088186502456665,-0.073391892015934,-0.247677311301231,-0.0185527615249157,-0.0864208564162254
453,-0.0059984466060996,-0.086611233651638,-0.0595601461827755,-0.279717117547989,-0.014205108396709,-0.083904042840004
454,-0.0058904970064759,-0.0614765882492065,-0.0323430672287941,-0.271646708250046,-0.0074890893884003,-0.0541917718946934
455,-0.002976823830977,-0.0189468879252672,0.0034083276987075,-0.196410536766052,0.0082376897335052,-0.0096053816378116
456,0.0050662457942962,0.0256475545465946,0.0378702394664288,-0.0932385101914406,0.0285831931978464,0.042823601514101
457,0.0172802973538637,0.0597039386630058,0.0561372637748718,-0.0290682837367058,0.0443488918244839,0.0934660136699677
458,0.0244624279439449,0.0821074694395065,0.0496343448758125,-0.0435252860188484,0.0529881455004215,0.114686451852322
459,0.0165915880352259,0.0899617299437523,0.0245898589491844,-0.0933373644948006,0.0512439571321011,0.0873921364545822
460,-0.0014101424021646,0.0775042027235031,-0.0042905495502054,-0.101521827280521,0.0346165001392365,0.0309124160557985
461,-0.0105843488126993,0.0527236796915531,-0.0259154494851828,-0.0341807641088963,0.0118815936148167,-0.0158592481166124
462,-0.0034492190461605,0.0227241516113281,-0.0377035588026047,0.0759581848978996,-0.0045948638580739,-0.0324187502264977
463,0.0039350134320557,-0.0091617032885551,-0.0406229607760906,0.159018144011498,-0.0164892822504044,-0.0226940345019102
464,-0.006632967852056,-0.0267652254551649,-0.0374988131225109,0.183204114437103,-0.0319666527211666,-0.0018879530252888
465,-0.031163552775979,-0.0195879470556974,-0.0301127079874277,0.175100654363632,-0.0486800037324429,0.0120530957356095
466,-0.0497499704360962,0.0014538817340508,-0.013476382009685,0.168550819158554,-0.0534014441072941,0.0139237409457564
467,-0.0497272834181786,0.0188267678022385,0.0151964463293552,0.172896310687065,-0.0385064519941807,0.0134012484923005
468,-0.034863468259573,0.0208058897405863,0.0445312410593033,0.187182888388634,-0.0138343386352062,0.0133442943915725
469,-0.0222621839493513,0.0027209557592868,0.0585486851632595,0.211766257882118,0.0048262756317853,0.0077162473462522
470,-0.0233181025832891,-0.0277368258684874,0.0550338849425316,0.236994877457619,0.0150353135541081,-0.0031914981082081
471,-0.0289053376764059,-0.0519937947392464,0.0437272749841213,0.242878168821335,0.0233259946107864,-0.0112103400751948
472,-0.0296092052012682,-0.0607781894505024,0.0319950729608536,0.223863393068314,0.0301422607153654,-0.0080719385296106
473,-0.0255327727645636,-0.055100254714489,0.0246054287999868,0.178035795688629,0.0332897640764713,0.0120428772643209
474,-0.0146623505279422,-0.0292572677135468,0.0234878417104483,0.0901113525032997,0.0320141427218914,0.044922199100256
475,0.0016617848305031,0.0162892490625381,0.0209733434021473,-0.0185932647436857,0.0216429457068443,0.0656123906373978
476,0.0115223871544003,0.0631013065576553,0.0104155633598566,-0.0950098261237144,0.0013408861123025,0.0543290413916111
477,0.0069232424721121,0.0897171050310135,-0.0006054295226931,-0.126347988843918,-0.0158647112548351,0.0287277847528458
478,-0.0050312140956521,0.0865917727351189,1.16680746486963e-06,-0.133248031139374,-0.0166714787483215,0.0181049071252346
479,-0.0131042776629329,0.0633918195962906,0.0148930717259645,-0.120764017105103,-0.002541753463447,0.0246230717748404
480,-0.009638862684369,0.0388890281319618,0.0388094410300255,-0.076676718890667,0.0192973054945469,0.0377371571958065
481,0.0065008187666535,0.0251084677875042,0.0596760772168636,-0.0044945334084332,0.0399575904011726,0.0568134896457195
482,0.0253965761512518,0.0243969168514013,0.063574992120266,0.0684131309390068,0.0471806041896343,0.0769878402352333
483,0.0343214683234692,0.0342974849045277,0.0514839366078377,0.11978330463171,0.0391119681298733,0.0826148688793182
484,0.0289391335099936,0.0467436835169792,0.0389962419867516,0.149019747972488,0.0255651921033859,0.0681742802262306
485,0.0127349197864532,0.0463896356523037,0.035142607986927,0.171634286642075,0.0133606251329184,0.0483057945966721
486,-0.0089917881414294,0.0236541386693716,0.0266082659363747,0.195739537477493,-0.0008346420363523,0.0336819104850292
487,-0.0299310516566038,-0.0118164569139481,-0.0026292016264051,0.195780158042908,-0.0233712643384933,0.0149732744321227
488,-0.0409506000578403,-0.039542268961668,-0.0394174605607986,0.142026081681252,-0.0479410216212273,-0.0119244419038296
489,-0.0396758690476418,-0.0509637631475925,-0.0577204674482346,0.0421329364180565,-0.0599208660423756,-0.0305855646729469
490,-0.0342342257499695,-0.0485950075089931,-0.0508621111512184,-0.0661677494645119,-0.0548981837928295,-0.0259468145668507
491,-0.0244227182120085,-0.0294881965965033,-0.0254584401845932,-0.132092550396919,-0.0354069694876671,-0.0017799640772864
492,-0.0025726847816258,-1.57905396918068e-05,0.0068231923505663,-0.12654048204422,-0.0058714593760669,0.0276008863002062
493,0.023260647431016,0.0213800463825464,0.0291943568736315,-0.067979633808136,0.0204868614673615,0.0532446280121803
494,0.0332698188722134,0.029642766341567,0.0336238369345665,0.0005397376371547,0.0289831943809986,0.0699064657092094
495,0.0161323305219412,0.0325460657477379,0.021012069657445,0.0370538011193275,0.0148495901376009,0.0641012936830521
496,-0.0207800604403019,0.0382228828966618,-0.0067541147582233,0.0215951651334763,-0.0154764950275421,0.0269454885274172
497,-0.0538286902010441,0.0458229444921017,-0.0376560911536217,-0.024942047894001,-0.0445318520069122,-0.0207608547061682
498,-0.0633021667599678,0.0506509020924568,-0.0496783331036568,-0.0604830458760262,-0.0529615506529808,-0.0394639112055302
499,-0.0501411110162735,0.0558581873774529,-0.0319209396839142,-0.060645654797554,-0.0369875617325306,-0.0130680399015546
500,-0.030755503103137,0.0590643957257271,0.0028767401818186,-0.0295918621122837,-0.0115358587354422,0.0363890565931797
501,-0.0171227678656578,0.0510108321905136,0.0346438176929951,0.0138925509527326,0.0085636740550398,0.0801339149475098
502,-0.0060733458958566,0.030222475528717,0.0547163709998131,0.0519752129912376,0.0240094400942326,0.105452619493008
503,0.0080264108255505,0.0020075710490346,0.0620827488601208,0.0733874216675758,0.0416014529764652,0.105242982506752
504,0.023535193875432,-0.0233594458550215,0.0579485148191452,0.0733994320034981,0.0589706562459469,0.0755603909492493
505,0.0347525887191296,-0.0373400636017323,0.0431951470673084,0.0542491674423218,0.0657672882080078,0.0263502430170774
506,0.0325862355530262,-0.0465322248637676,0.0160778053104877,0.0196754522621632,0.0506370291113853,-0.0262362286448479
507,0.0126593243330717,-0.0609444081783295,-0.0181458182632923,-0.0253883711993694,0.0115932645276189,-0.0705598220229149
508,-0.0145008349791169,-0.0739921927452087,-0.0434646867215633,-0.0611604638397694,-0.0322667807340622,-0.0927848666906357
509,-0.038401797413826,-0.0755025073885918,-0.0509821064770222,-0.0671776607632637,-0.0625772178173065,-0.0843077376484871
510,-0.0563139654695988,-0.0649454370141029,-0.0434253066778183,-0.0428744778037071,-0.0791532173752785,-0.0524188578128815
511,-0.061424233019352,-0.0418625883758068,-0.0197801925241947,0.0003524502099025,-0.0779090374708176,-0.0102550843730569
512,-0.0527965016663074,-0.0112761333584785,0.0163349136710167,0.0425698012113571,-0.0556311532855034,0.0239793751388788
513,-0.0409928224980831,0.0139556936919689,0.0489236228168011,0.0671341642737389,-0.0250322949141264,0.0404630638659
514,-0.0347775667905808,0.0316369868814945,0.0644245073199272,0.0717882961034775,-0.0014685980277136,0.0529119744896889
515,-0.0344440676271915,0.0520729571580887,0.0619061253964901,0.0627626404166222,0.0085869170725345,0.0685996264219284
516,-0.0316594019532204,0.0838712379336357,0.0524449199438095,0.0508087873458862,0.0109037142246962,0.0751151964068413
517,-0.0229205042123795,0.118014454841614,0.043717697262764,0.0409459993243217,0.0115614524111152,0.068117119371891
518,-0.0127131333574653,0.137617126107216,0.0352282337844372,0.0333060286939144,0.011055763810873,0.0616875663399696
519,-0.0032549514435231,0.138443917036057,0.027065621688962,0.038407526910305,0.0118864588439465,0.0644750744104385
520,0.0040782950818538,0.116776846349239,0.0195124726742506,0.0617558918893337,0.016083836555481,0.0616920478641987
521,0.0091059980913996,0.0695990473031998,0.0142618184909225,0.0834327563643456,0.0245837662369013,0.0410096496343613
522,0.0122434925287962,0.0111718662083149,0.0118424110114574,0.0806933045387268,0.035894263535738,0.0134606575593352
523,0.0131103927269578,-0.0357795581221581,0.0077400179579854,0.0566294267773628,0.0425061695277691,-0.0114624826237559
524,0.0121545707806945,-0.0588920526206493,-0.0016668105963617,0.0282816868275404,0.0386828631162643,-0.0349702872335911
525,0.0074765440076589,-0.0594498328864574,-0.0168019942939281,0.0041888076812028,0.0279302075505257,-0.048123937100172
526,-0.0061192219145596,-0.0438849069178104,-0.0416879877448082,-0.013617048971355,0.0111645571887493,-0.0487487129867077
527,-0.0281956363469362,-0.0250771455466747,-0.07778250426054,-0.023690078407526,-0.0137618025764823,-0.0583988949656487
528,-0.042871255427599,-0.0173458755016327,-0.104573324322701,-0.0162232257425785,-0.0265143048018217,-0.0849749967455864
529,-0.0340020097792149,-0.0196318831294775,-0.0958975329995155,0.0111380228772759,-0.000541794928722,-0.108333826065063
530,-0.0077352891676127,-0.0210575386881828,-0.0560503453016281,0.0415521860122681,0.0526095777750015,-0.110726155340672
531,0.0150640811771154,-0.0158392041921616,-0.0137125151231885,0.0610179826617241,0.0940636917948723,-0.0944667682051659
532,0.025417622178793,-0.0031886589713394,0.0128823844715953,0.0603245347738266,0.107648730278015,-0.071806512773037
533,0.0348835662007332,0.0125890420749784,0.0275378562510014,0.0437103174626827,0.11215565353632,-0.0504401996731758
534,0.0497532039880753,0.0217327605932951,0.0371121168136597,0.0281961038708687,0.118324540555477,-0.0312596559524536
535,0.0574768297374249,0.0193371288478374,0.0411029532551765,0.0172656234353781,0.112917013466358,-0.0083082327619195
536,0.0484945923089981,0.0122535191476345,0.035227857530117,-0.0015877379337325,0.0895039737224579,0.0221965182572603
537,0.0246111247688532,0.0092243179678916,0.0173390004783869,-0.0338843651115894,0.0546179413795471,0.0444668456912041
538,-0.0076010604389011,0.0107836443930864,-0.0016152607277035,-0.0624593794345856,0.0204248689115047,0.0397599898278713
539,-0.0413054823875427,0.0084610758349299,-0.0130459433421493,-0.0754814893007278,-0.0023288270458579,0.0098778121173381
540,-0.071630023419857,-0.0033715167082846,-0.0265871118754148,-0.085543654859066,-0.0164676960557699,-0.0318839401006699
541,-0.0903051868081093,-0.0136830741539598,-0.0434873886406422,-0.0970292538404465,-0.0257435441017151,-0.0667127892374992
542,-0.0919956490397453,-0.016640217974782,-0.0517544522881508,-0.0972872152924538,-0.0284461062401533,-0.0848142057657242
543,-0.0775261446833611,-0.0179536771029234,-0.0466502383351326,-0.0836338028311729,-0.0243274439126253,-0.0920554548501968
544,-0.0517015568912029,-0.0128127317875624,-0.0346303433179855,-0.0690989270806313,-0.0141950743272901,-0.0886465758085251
545,-0.0261814314872026,0.0031277132220566,-0.0278942212462425,-0.0626255422830582,-0.0018704904941842,-0.0697788000106812
546,-0.0108632827177644,0.0182915609329939,-0.0317631773650646,-0.057165939360857,0.0075627462938427,-0.0422635897994041
547,-0.0069093718193471,0.0182901583611965,-0.0390682257711887,-0.045599140226841,0.0128531567752361,-0.0163686759769917
548,-0.0082487817853689,0.0065526128746569,-0.0379620231688023,-0.0375845469534397,0.0181156042963266,0.0040809321217238
549,-0.0072161816060543,-0.0019600170198828,-0.023376265540719,-0.0417301692068577,0.0275198332965374,0.0128393173217773
550,-0.0015945801278576,-0.001471942057833,-0.0003706331772264,-0.0451907739043236,0.0403391271829605,0.0076326448470354
551,0.0071181594394147,0.0035319267772138,0.0228541977703571,-0.0353384725749493,0.0552766285836697,3.12166121148039e-05
552,0.0199895277619362,0.0092084584757685,0.0403899364173412,-0.021013043820858,0.0778042078018188,0.0024509606882929
553,0.0364979542791843,0.01548245921731,0.0491518974304199,-0.0162725951522589,0.111049495637417,0.0149291660636663
554,0.0485905483365059,0.017962571233511,0.0455213040113449,-0.0239418707787991,0.136844515800476,0.0235288869589567
555,0.0501927472651005,0.0160871762782335,0.0305233802646399,-0.0364135168492794,0.131630852818489,0.0129727907478809
556,0.0434817709028721,0.0173898730427027,0.0144686195999384,-0.047584030777216,0.0957367047667503,-0.0130433952435851
557,0.0321368314325809,0.0191587619483471,0.004027625080198,-0.0574054755270481,0.0464684702455997,-0.0360579937696457
558,0.0173618588596582,0.0184419043362141,-0.0035800046753138,-0.059429407119751,0.0002706737432163,-0.0455483570694923
559,-0.003238279139623,0.0185232814401388,-0.015257615596056,-0.0525308921933174,-0.0355341099202633,-0.0493441894650459
560,-0.0282722096890211,0.0149973360821605,-0.0296786446124315,-0.0469121225178242,-0.0555388629436493,-0.0519320964813232
561,-0.0499152764678001,0.0085668442770838,-0.0367574319243431,-0.0445411801338196,-0.0562897361814976,-0.0442433208227158
562,-0.0630946978926659,0.0078814504668116,-0.033055916428566,-0.0364016331732273,-0.0478744171559811,-0.0258582066744566
563,-0.0652191266417503,0.0102480165660381,-0.0197334941476583,-0.0134533643722534,-0.0367673449218273,0.0019239430548623
564,-0.0577586963772774,0.0060665677301585,-0.0005755242309533,0.0150895165279508,-0.0197904817759991,0.0376848131418228
565,-0.0465590730309486,-0.0014203815953806,0.0160853937268257,0.0304889511317015,-0.0001939054345712,0.0631548538804054
566,-0.0313994139432907,0.0007725332397967,0.0286691319197416,0.0382462590932846,0.0203688405454159,0.0676704719662666
567,-0.010405202396214,0.0103313764557242,0.0375738032162189,0.0522244237363338,0.0424192361533642,0.0578503794968128
568,0.0129289869219065,0.0135328751057386,0.0395541712641716,0.0665848329663277,0.0591638684272766,0.0440089702606201
569,0.0339808203279972,0.0124583309516311,0.0412285551428795,0.0707961246371269,0.0695075169205666,0.0394009500741959
570,0.0467862971127033,0.0179484914988279,0.0485328584909439,0.062396977096796,0.0759028419852257,0.0407035835087299
571,0.0496516413986683,0.0301774889230728,0.05334597453475,0.0461735017597675,0.0746480673551559,0.0315080136060715
572,0.0462557934224606,0.0445720814168453,0.0459727309644222,0.0248985271900892,0.0648439899086952,0.0121726850047708
573,0.0369561538100243,0.0571396388113499,0.023358378559351,-0.0128622408956289,0.0472511239349842,-0.0059993062168359
574,0.0262770131230354,0.0566634051501751,-0.0074289767071604,-0.0853171348571777,0.0222735349088907,-0.0173323936760426
575,0.0218527112156153,0.0357607156038284,-0.0290760844945908,-0.158864393830299,-0.0035658453125506,-0.0187930278480053
576,0.0174345653504133,0.0054300036281347,-0.0291857998818159,-0.164222851395607,-0.024464612826705,-0.0145267741754651
577,0.0023042487446218,-0.0167678166180849,-0.0126448078081012,-0.0976478457450867,-0.0403680317103863,-0.0115756932646036
578,-0.0215755719691515,-0.0217647682875395,0.0065984860993921,-0.0079534761607646,-0.0490309484302998,-0.0055407350882887
579,-0.0429996028542519,-0.0110597880557179,0.0201677139848471,0.0594697333872318,-0.0461613461375237,0.0082734981551766
580,-0.0535372458398342,0.0096055744215846,0.0252443309873343,0.0847011357545853,-0.033905278891325,0.0256872903555632
581,-0.0562581904232502,0.0284539423882961,0.0187951698899269,0.0840836316347122,-0.0236836485564709,0.0367689430713654
582,-0.0534500665962696,0.03298170119524,0.009330335073173,0.0965515226125717,-0.0189374275505543,0.0395024195313454
583,-0.0351562760770321,0.0293516330420971,0.0156469251960516,0.140743419528008,-0.0058225616812706,0.0557269342243671
584,-0.0005405517877079,0.0328407436609268,0.0374502800405025,0.188299313187599,0.0192402713000774,0.0991765037178993
585,0.0347828418016434,0.0528522059321404,0.0584204159677029,0.206394925713539,0.0430519580841064,0.145340964198112
586,0.0591548271477222,0.0874262526631355,0.0709114447236061,0.186427161097527,0.0577021315693855,0.162232711911201
587,0.0691493824124336,0.116739079356194,0.0708878412842751,0.135725453495979,0.0613357722759247,0.138882666826248
588,0.0686396881937981,0.120750650763512,0.0572755895555019,0.0790532976388931,0.0565561391413212,0.090262770652771
589,0.0641859993338585,0.0969264730811119,0.0399506352841854,0.0372520536184311,0.0509920157492161,0.0479533933103085
590,0.0557891018688679,0.0591779425740242,0.026730028912425,-0.0034273848868906,0.0462335720658302,0.0274685826152563
591,0.0423060990869999,0.0263614114373922,0.0164481736719608,-0.0501117408275604,0.0380117520689964,0.0183104611933231
592,0.026280015707016,0.008113108575344,0.0087532605975866,-0.0762540102005005,0.0264441575855017,0.0158576816320419
593,0.0145014990121126,0.0045952429063618,0.008713187649846,-0.0791510790586472,0.0185433514416218,0.0283808670938015
594,0.0096703609451651,0.0094987321645021,0.0137438960373402,-0.0869067311286926,0.0146168507635593,0.0444254018366337
595,0.0072050509043037,0.0123935593292117,0.009252599440515,-0.110673159360886,0.0037132459692657,0.0394930951297283
596,0.0070117986761033,0.0095889084041118,-0.0087382160127162,-0.127896726131439,-0.0151845747604966,0.0167908240109682
597,0.0075634075328707,0.0009741950780153,-0.0273501165211201,-0.11162880808115,-0.02902802079916,-0.0002468562452122
598,0.0040996382012963,-0.0134652778506279,-0.0338438674807549,-0.0687204301357269,-0.0290847849100828,0.000563642650377
599,-0.0018234669696539,-0.0259165912866592,-0.0242243222892284,-0.0280146934092045,-0.0199602823704481,0.0195300038903952
600,-0.0057715298607945,-0.0273019131273031,-0.0001942401140695,0.000881282845512,-0.0073472298681736,0.0518536008894444
601,-0.0051718181930482,-0.0135340820997953,0.0326342508196831,0.0259615648537874,0.0107631599530578,0.084230400621891
602,0.0016180061502382,0.0139677338302135,0.0642610788345337,0.0479575879871845,0.0333862826228142,0.0999953150749207
603,0.0216145291924477,0.0469189584255219,0.0876495316624641,0.065885990858078,0.0570231601595879,0.0968143194913864
604,0.0552097633481026,0.0747903436422348,0.100007340312004,0.0786726251244545,0.0769939720630646,0.0898846387863159
605,0.0815921947360039,0.092558242380619,0.0994582697749138,0.0852957516908646,0.0836626291275024,0.0940947830677032
606,0.0829077363014221,0.0985643938183784,0.0881273299455643,0.0849851444363594,0.0730860233306885,0.104525931179523
607,0.0649634152650833,0.0910419896245003,0.0720174387097359,0.0680865868926048,0.0528441816568375,0.105411745607853
608,0.0440783351659775,0.0749582648277283,0.0596562810242176,0.0374018251895905,0.0385685712099075,0.0946153998374939
609,0.0281185042113066,0.0587774179875851,0.0532011836767197,0.0114566283300519,0.0386799350380898,0.0766653418540955
610,0.0158317256718874,0.0474338829517365,0.0461697056889534,-0.0130608696490526,0.0432214662432671,0.053938914090395
611,0.0060033090412616,0.0373877137899399,0.0353026986122131,-0.0509247332811356,0.0391538143157959,0.033680148422718
612,-0.0038324603810906,0.0180780962109566,0.0177803952246904,-0.0959891155362129,0.0199136827141047,0.0220636054873466
613,-0.0167486928403378,-0.0088194143027067,-0.0086629102006554,-0.124541565775871,-0.0137871019542217,0.0196845177561045
614,-0.0293875876814127,-0.0265795290470123,-0.0331578515470028,-0.122483022511005,-0.04957365244627,0.0243273470550776
615,-0.0354940593242645,-0.0290865432471037,-0.0382903553545475,-0.104104824364185,-0.070046104490757,0.0287319738417864
616,-0.0365828052163124,-0.0301919598132372,-0.0200974885374308,-0.0798865556716919,-0.066511943936348,0.0263494104146957
617,-0.037222970277071,-0.0375095717608929,0.0083085959777236,-0.0413972288370132,-0.0442141368985176,0.023551382124424
618,-0.032956950366497,-0.041439063847065,0.0298621132969856,-0.0024743804242461,-0.0168155562132597,0.025629511103034
619,-0.0161497052758932,-0.0331464223563671,0.0403352193534374,0.0146899642422795,0.0076730977743864,0.026921758428216
620,0.0145848104730248,-0.0108680129051209,0.0533597655594349,0.0241339206695557,0.034976452589035,0.0350618585944176
621,0.0491249039769173,0.0244016963988543,0.0750567317008972,0.0433004386723042,0.0636091828346252,0.0618132762610912
622,0.0657127723097801,0.0634298697113991,0.0865871235728264,0.0606074780225754,0.073662132024765,0.0948795229196548
623,0.0542751103639603,0.0894866213202477,0.0738268047571182,0.0638976767659187,0.0580797120928764,0.114022836089134
624,0.0316155925393105,0.093804158270359,0.049945306032896,0.056977953761816,0.037433136254549,0.112870194017887
625,0.0169380605220795,0.0819370746612549,0.0321392640471458,0.0465943031013012,0.0309090577065945,0.0944379791617393
626,0.0153060387820005,0.0660434514284134,0.0207449067384005,0.0327079780399799,0.0351729430258274,0.0629748329520226
627,0.0238013453781605,0.0529836192727089,0.0091690439730882,0.0099949100986123,0.0343878157436848,0.029537808150053
628,0.025640606880188,0.0337894298136234,-0.0073905023746192,-0.0235452651977539,0.0139855574816465,0.008510086685419
629,0.0057045891880989,-0.0039548501372337,-0.0274620950222015,-0.0538470856845379,-0.0247739311307669,0.0003704696719069
630,-0.0203032474964857,-0.0452399142086506,-0.0364082045853138,-0.0552890859544277,-0.0566390119493008,0.0058724507689476
631,-0.0332456231117249,-0.0609457455575466,-0.0251704975962639,-0.023815231397748,-0.0616392083466053,0.0331061519682407
632,-0.0395543947815895,-0.0488047674298286,-0.0046622306108474,0.0171259138733149,-0.0471994392573833,0.0666269585490227
633,-0.0463080629706383,-0.0302311852574348,0.0134433377534151,0.0517677031457424,-0.0269711911678314,0.0795257315039635
634,-0.0510885901749134,-0.0226547475904226,0.0236266981810331,0.0768917500972748,-0.0114734759554267,0.0640697553753853
635,-0.0540804900228977,-0.026303431019187,0.0246475376188755,0.0819627717137337,-0.0082222362980246,0.0329701714217663
636,-0.0533745586872101,-0.0302418023347855,0.0235982928425074,0.0683426335453987,-0.0114355329424143,0.0117314029484987
637,-0.0439998432993889,-0.0273671615868807,0.0254747364670038,0.0610692501068115,-0.0108088683336973,0.0102122090756893
638,-0.0241143796592951,-0.0135931698605418,0.0298957284539938,0.070393331348896,-0.0016419399762526,0.0172198340296745
639,-0.0023324664216488,0.0060866763815283,0.0323563478887081,0.0769069269299507,0.010165810585022,0.0221017878502607
640,0.006297627929598,0.0161663554608822,0.0249197874218225,0.0693052932620049,0.011372534558177,0.0198358967900276
641,-0.0006953594856895,0.0130856931209564,0.0073412712663412,0.0665077418088913,-0.0007451328565366,0.0145343355834484
642,-0.0144671304151416,0.0017954816576093,-0.0125085366889834,0.0788768008351326,-0.016974076628685,0.0175536219030619
643,-0.024508086964488,-0.012378484942019,-0.0223898030817509,0.0941643789410591,-0.0232730284333229,0.0343511439859867
644,-0.0227550473064184,-0.0204752832651138,-0.013150854036212,0.107323579490185,-0.0110225789248943,0.0560088753700256
645,-0.0116543881595135,-0.0188545677810907,0.0033689157571643,0.11048898100853,0.0068609155714511,0.0663174614310265
646,0.0013387250946834,-0.0147155346348882,0.0058311172761023,0.0952890440821648,0.0105868401005864,0.0565465465188026
647,0.0097693158313632,-0.0181482341140509,-0.0108220828697085,0.0697252675890923,-0.0022840041201561,0.0276039391756058
648,0.0083135664463043,-0.0290031153708696,-0.0361057110130787,0.0472728610038757,-0.021582156419754,-0.013137761503458
649,0.0002356076583964,-0.0376029349863529,-0.0530261695384979,0.0374754555523396,-0.0348353981971741,-0.0451457425951958
650,-0.0072852224111557,-0.0352052114903927,-0.0527168922126293,0.0411285161972046,-0.0372518822550774,-0.0453660823404789
651,-0.0118578197434545,-0.0214962121099234,-0.0434707999229431,0.0493177175521851,-0.0356000624597073,-0.0212076958268881
652,-0.0121007272973657,-0.006638856139034,-0.034541554749012,0.0521913766860962,-0.0347847416996956,-0.003893397282809
653,-0.0073654218576848,0.0007160132518038,-0.0242976248264313,0.0506394058465958,-0.0312019232660532,-0.0064758793450892
654,0.0006030341610312,0.0014652754180133,-0.0091748014092445,0.0514182075858116,-0.0197826866060495,-0.0190418474376202
655,0.0125731211155653,-0.0035582806449383,0.0102286674082279,0.0550718829035759,0.0028626262210309,-0.0302305668592453
656,0.0320819243788719,-0.0132231563329697,0.0304683819413185,0.059661116451025,0.0361651219427586,-0.0316970385611057
657,0.0540039427578449,-0.0183812063187361,0.042552474886179,0.0624311007559299,0.0686942115426064,-0.0227026324719191
658,0.0620381087064743,-0.0177411139011383,0.0368136130273342,0.0548043288290501,0.0829094275832176,-0.0166822839528322
659,0.0471453666687012,-0.0221745483577251,0.0140896011143923,0.0334144867956638,0.0702301561832428,-0.0252132918685675
660,0.0204579550772905,-0.0326818116009235,-0.0115830339491367,0.0077391914092004,0.0412006340920925,-0.0399165786802769
661,0.0012994210701435,-0.0384777523577213,-0.0239928606897593,-0.0101378923282027,0.0181111935526133,-0.0452172569930553
662,-0.0039103948511183,-0.0344845652580261,-0.0229122005403042,-0.0156550891697407,0.0106559246778488,-0.0432213991880417
663,-0.0008663472253829,-0.0280135776847601,-0.0205034222453833,-0.0124513804912567,0.01269306614995,-0.0430997684597969
664,0.0085666859522461,-0.0242825597524643,-0.0226358361542225,-0.0116209564730525,0.0189970657229424,-0.0361616984009743
665,0.0214055329561234,-0.022364592179656,-0.0281529575586319,-0.0187688879668713,0.024021040648222,-0.0144106978550553
666,0.0251308623701334,-0.0287890862673521,-0.0357901677489281,-0.0219883713871241,0.0203829351812601,0.007797475438565
667,0.0142516503110528,-0.0484034866094589,-0.0425239615142345,-0.012766107916832,0.0091421660035848,0.0117896553128958
668,0.0014579875860363,-0.0684343427419662,-0.0418364442884922,0.0048817596398294,0.0004665500600822,-0.0032683054450899
669,-0.0004868489631917,-0.074423611164093,-0.0291905868798494,0.0232164077460766,0.003627521218732,-0.0238952562212944
670,0.0063869296573102,-0.0655726492404938,-0.0074245282448828,0.0367544628679752,0.018924942240119,-0.0410394333302975
671,0.0151822129264474,-0.0455827377736568,0.0160411559045315,0.0476927906274796,0.0400602668523788,-0.0516951195895672
672,0.019874619320035,-0.0260145273059607,0.0314713381230831,0.0566280707716942,0.0568709000945091,-0.0552108213305473
673,0.0179852433502674,-0.0223934315145016,0.0327881462872028,0.0595265738666058,0.062126986682415,-0.0543515495955944
674,0.0147742806002498,-0.0314995795488358,0.0244779996573925,0.0546638704836369,0.0586958527565002,-0.0499025583267212
675,0.0120457699522376,-0.0401073805987835,0.0133720189332962,0.0463605299592018,0.0501832216978073,-0.04207843542099
676,0.0058425557799637,-0.0458254590630531,0.0010462236823514,0.0388323664665222,0.036065611988306,-0.0334592908620834
677,-0.0012019239366054,-0.0514151230454445,-0.0102858282625675,0.0319284275174141,0.0211136527359486,-0.0251281131058931
678,-0.0033917434047907,-0.053087905049324,-0.0154706072062254,0.029168676584959,0.0135672893375158,-0.0165374949574471
679,-0.0011296274606138,-0.0428011454641819,-0.0135870669037104,0.0302296951413155,0.0144542520865798,-0.0071770888753235
680,0.0042749671265482,-0.0191911794245243,-0.0117827039211988,0.0278706420212984,0.02065185084939,0.0031232808250933
681,0.0122029138728976,0.0073098884895443,-0.0199880171567202,0.0171666797250509,0.0268960874527693,0.012252670712769
682,0.0178659055382013,0.0204420443624258,-0.0416775420308113,-0.008605882525444,0.0215545631945133,0.0122331399470568
683,0.0159915331751108,0.0074977618642151,-0.0691505670547485,-0.0428478941321373,-0.000935202348046,-0.0074680224061012
684,0.0069278175942599,-0.0270697735249996,-0.0858768224716187,-0.0597253702580929,-0.0275759324431419,-0.0338016971945763
685,-0.0036523283924907,-0.0595991462469101,-0.0779879838228226,-0.0466269515454769,-0.0389726795256138,-0.0334695242345333
686,-0.0096140159294009,-0.0698942318558693,-0.0466091558337212,-0.0133451316505671,-0.0286996103823185,-0.0063459291122853
687,-0.0095380498096346,-0.0622011907398701,-0.0066776522435247,0.0249002650380135,-0.0068761939182877,0.0144638977944851
688,-0.0059634284116327,-0.0537633076310158,0.0258848704397678,0.0606007762253284,0.0150141166523099,0.0125633990392089
689,-0.0037540970370173,-0.0549250841140747,0.0403455942869186,0.0876024439930916,0.0313937067985535,-0.0068398602306842
690,-0.0049776406958699,-0.0626984536647797,0.0349022969603539,0.0993180274963379,0.0392082519829273,-0.0317639783024788
691,-0.0033717609476298,-0.0574894919991493,0.0229585506021976,0.102336749434471,0.0417027063667774,-0.0443347319960594
692,0.0045503079891204,-0.0315102115273476,0.0180619172751904,0.1061677262187,0.0432720296084881,-0.0362458303570747
693,0.0177243649959564,-0.0072204619646072,0.019978366792202,0.113206289708614,0.0468369238078594,-0.0162779409438372
694,0.0381780974566936,-0.0058601601049304,0.0218518618494272,0.115889310836792,0.055107593536377,0.0016649214085191
695,0.0596111044287682,-0.0233035478740931,0.0190244149416685,0.10371145606041,0.0606687366962433,0.0090536065399646
696,0.0652951076626778,-0.0370855778455734,0.0141750453040004,0.0829150155186653,0.0514696091413498,0.0100626992061734
697,0.0478291995823383,-0.0268954616039991,0.0130391158163548,0.0703896433115005,0.0288643296808004,0.0175797771662474
698,0.0188640728592873,0.0071624456904828,0.0159081071615219,0.0735632851719856,0.0048082126304507,0.036816593259573
699,-0.0056920326314866,0.038491528481245,0.0177617277950048,0.0776573792099953,-0.0145173808559775,0.0514596812427044
700,-0.0218582190573215,0.039371695369482,0.0133726792410016,0.0631626546382904,-0.0301468092948198,0.0413335971534252
701,-0.0335606150329113,0.0117083275690675,0.000953153707087,0.0397288426756859,-0.0442477725446224,0.0092518841847777
702,-0.0420002788305283,-0.0201354902237654,-0.0149402199313045,0.0327293276786804,-0.0558303669095039,-0.0208527930080891
703,-0.0451814047992229,-0.0329382121562958,-0.0267251878976822,0.0446429327130318,-0.0602927692234516,-0.0215400196611881
704,-0.0426269695162773,-0.0219711884856224,-0.0303942654281855,0.0628088861703873,-0.0569484159350395,0.0108948554843664
705,-0.0317161455750465,-0.0045940326526761,-0.0238468274474144,0.0849412828683853,-0.0461440719664097,0.0517219565808773
706,-0.0139811066910625,3.07989575958345e-05,-0.0118838800117373,0.105302542448044,-0.0307692158967257,0.069958858191967
707,-0.0026870826259255,-0.0081341452896595,-0.0062915873713791,0.106814056634903,-0.0202197078615427,0.0486997626721859
708,-0.0018115703715011,-0.0158159080892801,-0.0040676798671484,0.0913628861308098,-0.01128616835922,0.0090807415544986
709,-0.0025976409669965,-0.0138315018266439,0.0100175365805626,0.0800273567438126,0.0082110026851296,-0.0060706045478582
710,0.0018148648086935,0.0013629492605105,0.0382664278149605,0.0801555588841438,0.0374804511666298,0.0173936132341623
711,0.0140498876571655,0.0258472822606564,0.065264955163002,0.0822109282016754,0.0666557475924492,0.0571960844099522
712,0.0277092698961496,0.0414098463952541,0.0752008110284805,0.0775746256113052,0.088095635175705,0.0824529379606247
713,0.0378476530313492,0.0387234576046467,0.0732062458992004,0.073949508368969,0.101969741284847,0.0860926136374474
714,0.0463463626801968,0.0297750942409039,0.0706101506948471,0.0868361964821815,0.106264181435108,0.0840019062161446
715,0.0510891713202,0.026985939592123,0.0637843385338783,0.121817477047443,0.0949181765317917,0.0809350982308388
716,0.0500810667872429,0.0372943580150604,0.049384318292141,0.153441235423088,0.0720703303813934,0.0700475946068764
717,0.0393424071371555,0.0519755482673645,0.0307657588273287,0.142855808138847,0.0418894477188587,0.0469680838286877
718,0.0179973691701889,0.0512634739279747,0.0155945066362619,0.103989362716675,0.0082208923995494,0.0193439703434706
719,0.0008627974893897,0.0327293053269386,0.0089218504726886,0.0737793669104576,-0.0178863611072302,0.0107117025181651
720,-0.0009162169881165,0.0040709082968533,0.0031540575437247,0.0555224753916264,-0.0351225696504116,0.0313910767436028
721,0.0083896089345216,-0.027544254437089,-0.0030029886402189,0.0441013611853123,-0.046690296381712,0.0622097738087177
722,0.0187888406217098,-0.052506010979414,0.0006721475510858,0.0400978997349739,-0.0459127239882946,0.0749160945415497
723,0.0215767212212086,-0.0618594810366631,0.0161610394716263,0.0394452325999737,-0.0284171029925346,0.061201773583889
724,0.0188181549310684,-0.048267800360918,0.0374686866998672,0.0427567027509212,0.0014387755654752,0.0416884236037731
725,0.0179342292249203,-0.0163404047489166,0.0560407713055611,0.0564953722059727,0.0331808514893055,0.0373165272176266
726,0.0174699909985065,0.0195190198719502,0.0617273524403572,0.076375313103199,0.0500985197722912,0.0460753180086613
727,0.0154469069093466,0.051514208316803,0.0540390349924564,0.0948998108506203,0.0454943403601646,0.0586990192532539
728,0.0165805723518133,0.0752519443631172,0.0418073683977127,0.118738308548927,0.0307627599686384,0.0731156542897224
729,0.0197527464479208,0.0853835195302963,0.030500378459692,0.146163910627365,0.0162478350102901,0.0851347893476486
730,0.0206265337765217,0.0788182020187378,0.0228296350687742,0.150793060660362,0.0052259652875363,0.0852563828229904
731,0.022402448579669,0.0561438500881195,0.0221374351531267,0.12236075848341,0.0008216794813051,0.0712434127926826
732,0.0280581079423428,0.0250729266554117,0.0288935620337725,0.079221136868,0.0033287997357547,0.0564908720552921
733,0.0319832935929298,-0.0037244167178869,0.0384789407253265,0.0426742769777775,0.0078935595229268,0.0544238090515137
734,0.0279240198433399,-0.0244050938636065,0.0419942960143089,0.022824777290225,0.0096798781305551,0.0565591230988503
735,0.0218144878745079,-0.0325249284505844,0.0344118028879166,0.0168127343058586,0.0123644955456257,0.0482604466378689
736,0.0187017191201448,-0.0278477165848017,0.0180356651544571,0.0224851574748755,0.01779954880476,0.0316318161785603
737,0.0089610451832413,-0.0200371947139502,-0.0049507338553667,0.0284950286149979,0.0132997585460544,0.015578193590045
738,-0.0098483944311738,-0.0112529192119837,-0.0277500972151756,0.0168721936643124,-0.0043545914813876,0.0098564941436052
739,-0.025540042668581,0.0040071695111692,-0.0375985018908978,-0.006328972056508,-0.0192020423710346,0.022198149934411
740,-0.0282174609601498,0.0168024692684412,-0.0277591459453106,-0.0189759898930788,-0.0187762826681137,0.0411633141338825
741,-0.0169968046247959,0.0182902496308088,-0.0023057577200233,-0.0083117354661226,-0.0046398444101214,0.0514003932476044
742,0.0001794984709704,0.0166224408894777,0.023337084800005,0.0199190173298121,0.0091691203415393,0.0582004375755787
743,0.0175451301038265,0.0182218234986067,0.0356697663664818,0.0508420541882515,0.0124730607494712,0.0684664621949196
744,0.0360706374049187,0.0212176665663719,0.0360909476876259,0.0713876634836197,0.0104538667947054,0.0790568217635155
745,0.0499455407261848,0.0286320243030787,0.0321078486740589,0.0718182995915413,0.0101964920759201,0.0872135907411575
746,0.0486910678446293,0.0427763313055038,0.0300800353288651,0.0556616224348545,0.0116278603672981,0.0874516889452934
747,0.0325215868651867,0.0510616227984428,0.0329133719205856,0.0362510494887829,0.0131131345406175,0.0719277113676071
748,0.0139661114662886,0.0437407083809376,0.0383426919579506,0.0199654866009951,0.0167777724564075,0.0455626100301743
749,0.0042908703908324,0.0302589666098356,0.0394144468009472,0.0069720540195703,0.0221750903874636,0.0253388155251741
750,0.0060074059292674,0.023316279053688,0.0305571407079697,0.0011448982404545,0.0245870482176542,0.0191509630531073
751,0.0151746682822704,0.0230422653257847,0.013882146216929,0.0014532465720549,0.0207282733172178,0.0158225521445274
752,0.0217921044677496,0.0193937513977289,-0.0047422787174582,-0.0010034388396889,0.00854108389467,0.0078603466972708
753,0.0170922502875328,0.0095564406365156,-0.0186782609671354,-0.001583767356351,-0.0096444841474294,0.008980456739664
754,0.0025445823557674,-0.000972501176875,-0.0241087693721056,0.006211657077074,-0.0275581646710634,0.0272401478141546
755,-0.0135919535532594,-0.0092661762610077,-0.021428732201457,0.0142877846956253,-0.0386432483792305,0.0512001551687717
756,-0.0292232055217028,-0.0156797561794519,-0.0172826033085585,0.0192299820482731,-0.0450756438076496,0.0643615424633026
757,-0.0436824671924114,-0.0215498954057693,-0.0185304563492537,0.0194536466151476,-0.054099190980196,0.0583724230527878
758,-0.0448123216629028,-0.0229047238826752,-0.0169046632945538,0.0177263077348471,-0.0552400909364223,0.0484731122851372
759,-0.0246756412088871,-0.0170479658991098,-0.0051093660295009,0.0260215848684311,-0.0342909954488277,0.057569470256567
760,0.0051354323513805,-0.0017906306311488,0.0060445321723818,0.0366567745804787,-0.0015109494561329,0.0823229104280472
761,0.0238551609218121,0.0309387370944023,0.0051654390990734,0.0314504951238632,0.0198657047003508,0.09555684030056
762,0.0217596031725407,0.0680926442146301,-0.0054362942464649,0.01416149828583,0.0191588699817657,0.0771662145853043
763,0.0100212981924415,0.0753410086035728,-0.0153717724606395,-2.34385588555597e-05,0.0059288339689374,0.0318771563470364
764,0.0033818411175161,0.0390261709690094,-0.0196027792990208,-0.0084885312244296,-0.0045524868182838,-0.0201492644846439
765,0.0030957735143601,-0.0185023322701454,-0.0194338411092758,-0.0148698566481471,-0.0061157895252108,-0.0498969852924347
766,5.12041115143802e-05,-0.0619258396327496,-0.0178353432565928,-0.0186069440096617,-0.0031651153694838,-0.0442458800971508
767,-0.0144268171861768,-0.0765390321612358,-0.0185094065964222,-0.0202231369912624,-0.002961648395285,-0.0268632769584656
768,-0.0365855097770691,-0.0768601819872856,-0.0188954174518585,-0.0198250003159046,-0.0081276269629597,-0.0191546473652124
769,-0.0546161271631718,-0.0798015967011452,-0.015076114796102,-0.0161084849387407,-0.0185090266168118,-0.0209971405565739
770,-0.059661366045475,-0.0849206075072289,-0.0094696683809161,-0.0116136725991964,-0.0284136459231377,-0.0273305494338274
771,-0.0505099259316921,-0.0830883085727692,-0.0057591483928263,-0.0106890704482794,-0.0312254223972559,-0.0255624540150166
772,-0.0373504459857941,-0.0652219876646996,-0.0063656442798674,-0.0117172077298164,-0.0304301660507917,-0.0042346348054707
773,-0.031459704041481,-0.0269659124314785,-0.0103339925408363,-0.0075657702982425,-0.0327809303998947,0.0276225842535496
774,-0.0309314951300621,0.024161521345377,-0.0079061407595872,0.0122098047286272,-0.0343622714281082,0.0571798346936703
775,-0.0278802383691072,0.0655040517449379,0.0068642566911876,0.049088578671217,-0.025736041367054,0.080778531730175
776,-0.021254038438201,0.0753335729241371,0.0254324562847614,0.0835671201348305,-0.0101069565862417,0.0908453688025475
777,-0.0125864651054144,0.0568619072437286,0.0420720465481281,0.100626543164253,0.0041533731855452,0.0871660113334656
778,-0.004617721773684,0.0284551456570625,0.0561095327138901,0.104574166238308,0.0157004334032536,0.0809724107384682
779,-0.0020757818128913,0.0055536311119794,0.0653073340654373,0.102325543761253,0.0259402189403772,0.0786872282624245
780,-0.0016022514319047,0.0003830953792203,0.0739506855607033,0.0960404500365257,0.0402562320232391,0.079180046916008
781,0.0044948230497539,0.0144256912171841,0.0849721431732178,0.0899869278073311,0.0610906891524792,0.0787842348217964
782,0.0111742001026869,0.0323060974478722,0.0872683227062225,0.0833292752504349,0.0723827630281448,0.0751632079482079
783,0.0039216494187712,0.0338100306689739,0.0666975900530815,0.0626141875982285,0.0510717965662479,0.0632608979940414
784,-0.0231591425836086,0.0110167376697063,0.0210066884756088,0.0172108747065067,-0.004907316993922,0.0367171429097652
785,-0.0572231337428093,-0.0201800521463156,-0.0337009727954865,-0.0393647253513336,-0.0695483908057213,-0.0010333957616239
786,-0.0778580158948898,-0.0359359793365002,-0.0696001872420311,-0.0788127854466438,-0.108086347579956,-0.0338228642940521
787,-0.0804066434502602,-0.0327127911150455,-0.0746252313256264,-0.0902910828590393,-0.106119893491268,-0.0425996258854866
788,-0.0736433565616608,-0.0222725179046392,-0.0613744370639324,-0.0778697952628136,-0.0795529782772064,-0.02474026940763
789,-0.0661004781723022,-0.0164284724742174,-0.0469466596841812,-0.0582157000899315,-0.0564836524426937,-0.0005536090466193
790,-0.0597022883594036,-0.0185792706906796,-0.0369152165949345,-0.0613527484238148,-0.0486661456525326,0.0131572289392352
791,-0.0472760610282421,-0.0156215904280543,-0.0245015751570463,-0.0866290032863617,-0.0414120778441429,0.0294853765517473
792,-0.0284157991409302,0.0064594349823892,-0.0094826659187674,-0.0992592871189117,-0.0195956155657768,0.0603985860943794
793,-0.0172497127205133,0.0412156470119953,-0.0044432217255234,-0.0933305099606514,0.0070257079787552,0.0837693810462952
794,-0.0210570767521858,0.0625474005937576,-0.0138810770586133,-0.0952330231666565,0.0174084194004536,0.0763803571462631
795,-0.0301260389387608,0.0450498647987843,-0.0304221957921982,-0.106647789478302,0.0055462210439145,0.0391849763691425
796,-0.0336977727711201,-0.0057794279418885,-0.0430854111909866,-0.103117801249027,-0.0156290400773287,-0.0101358657702804
797,-0.0270106289535761,-0.0546191371977329,-0.0380126014351845,-0.0732405483722687,-0.0259591620415449,-0.0430454537272453
798,-0.00809096544981,-0.0758842602372169,-0.0119961500167847,-0.0236771088093519,-0.0166068617254496,-0.0440017655491829
799,0.0147718144580722,-0.0754927918314934,0.014116101898253,0.029680673032999,-0.003870531450957,-0.030431903898716
800,0.0262480676174164,-0.0645060688257217,0.0176958274096251,0.0646593123674393,-0.0075248852372169,-0.0217241458594799
801,0.0177469272166491,-0.0492315404117107,-0.0010991955641657,0.0631528347730637,-0.0275509487837553,-0.0222589634358883
802,-0.0065233684144914,-0.0421870574355125,-0.0241812784224749,0.0341238975524902,-0.0499904155731201,-0.03207828104496
803,-0.0307421907782555,-0.0416746884584427,-0.0326188504695892,0.0091108875349164,-0.0589868947863579,-0.0380132123827934
804,-0.0416298694908619,-0.0329595506191254,-0.0236611384898424,0.0029438626952469,-0.0504221878945827,-0.0291512161493301
805,-0.0394659377634525,-0.0084372516721487,-0.0082286223769187,0.008908774703741,-0.0319474674761295,-0.0126916943117976
806,-0.0357614383101463,0.0220902375876904,-0.0009540395694784,0.0078064952977001,-0.016191778704524,-0.0013425832148641
807,-0.037485558539629,0.0359402410686016,-0.00406050728634,-0.0130038745701313,-0.0078254071995616,0.0065878448076546
808,-0.0380950905382633,0.0307779759168625,-0.0010440574260428,-0.013985444791615,0.0041791065596044,0.0304764602333307
809,-0.0333993434906006,0.0244271364063025,0.0115350922569633,0.0326326489448547,0.0209528934210539,0.0703570768237114
810,-0.0252264030277729,0.0281478893011808,0.019942831248045,0.0852963477373123,0.0299877803772688,0.101566895842552
811,-0.0134566929191351,0.0393636226654053,0.0181390810757875,0.118949130177498,0.0294879265129566,0.10969253629446
812,-0.0008901461842469,0.042063944041729,0.0092561487108469,0.138646870851517,0.0292130839079618,0.0934349521994591
813,0.0085908798500895,0.0242786668241024,0.0009431738872081,0.142463445663452,0.0358066447079182,0.0576737970113754
814,0.0155121022835374,-0.0037876938004046,-0.0025099476333707,0.137218028306961,0.0416540764272213,0.0204764381051064
815,0.0145608028396964,-0.0227156244218349,-0.0070854695513844,0.134119302034378,0.0297543965280056,0.0019298533443361
816,-0.003207019297406,-0.0281643401831388,-0.0171238221228123,0.126080244779587,-0.0031739410478621,-0.0005449702730402
817,-0.0346689932048321,-0.0341205447912216,-0.0299749225378037,0.095833495259285,-0.0434806346893311,-0.0099222706630826
818,-0.0652885586023331,-0.0518175885081291,-0.0405727587640285,0.048942007124424,-0.0766285732388496,-0.0367374494671822
819,-0.0825365036725998,-0.0743608325719833,-0.043619878590107,0.0065430994145572,-0.0914259627461433,-0.0664167553186417
820,-0.0847313329577446,-0.0884256660938263,-0.0394562929868698,-0.0206982661038637,-0.0833853259682655,-0.0822637677192688
821,-0.0770844593644142,-0.0869357138872147,-0.0323228612542152,-0.0322612747550011,-0.0603493005037308,-0.0800074934959412
822,-0.0700988620519638,-0.0743604898452759,-0.033462431281805,-0.0347174927592278,-0.0441695861518383,-0.0695682615041733
823,-0.0695967152714729,-0.0560987628996372,-0.0519273430109024,-0.0356231853365898,-0.0499762780964375,-0.0630280300974846
824,-0.0676990747451782,-0.0271458346396685,-0.0723460391163826,-0.0345254726707935,-0.0638713911175728,-0.0500635653734207
825,-0.0571477115154266,0.0043067052029073,-0.0733044445514679,-0.0203410293906927,-0.0636523962020874,-0.0087719531729817
826,-0.0361029431223869,0.0183434542268515,-0.0539757274091244,0.005803276784718,-0.0459599643945694,0.0521210320293903
827,-0.0106139816343784,0.0163491014391184,-0.0245868507772684,0.013927161693573,-0.0204636231064796,0.0926994234323502
828,0.0038830023258924,0.0141501985490322,0.0074302153661847,-0.0097944866865873,0.004412923939526,0.0935607999563217
829,0.0011193534592166,0.0161078814417124,0.0337713770568371,-0.0364906974136829,0.0217037592083216,0.0699871703982353
830,-0.0101233925670385,0.0193611569702625,0.0495095923542976,-0.0344044081866741,0.0299151558429003,0.0431777648627758
831,-0.0171836018562317,0.0248465370386839,0.0598177686333656,-0.0017732902197167,0.0367866009473801,0.029881039634347
832,-0.0161647386848927,0.0295692700892687,0.0635192692279816,0.0383842326700687,0.0435889139771461,0.0335045903921127
833,-0.0159289184957743,0.0274970792233944,0.0484059564769268,0.0597168020904064,0.0377321168780327,0.0427340008318424
834,-0.0268395803868771,0.0197995379567146,0.0127855883911252,0.0554710291326046,0.0102467192336917,0.0431450381875038
835,-0.0485990047454834,0.0104238037019968,-0.0262371655553579,0.0376848094165325,-0.0276505425572395,0.0264690835028887
836,-0.0685917660593987,0.0012175800511613,-0.0493418201804161,0.0212242174893618,-0.0527964159846306,0.00344113772735
837,-0.0736561566591263,-0.0040408573113381,-0.0531223379075527,0.0160069763660431,-0.0566406548023224,-0.0094507085159421
838,-0.0615184456110001,-0.0033622828777879,-0.0452900268137455,0.0230274591594934,-0.0466861575841904,-0.0128915794193745
839,-0.0414591133594513,-0.0052939183078706,-0.0330406874418259,0.0310392212122679,-0.0285329502075911,-0.0186617225408554
840,-0.0224723350256681,-0.0179753098636866,-0.0206752847880125,0.0301661007106304,-0.0069777411408722,-0.0287236627191305
841,-0.0052750725299119,-0.0325686410069466,-0.0068194419145584,0.0364538468420506,0.0120321474969387,-0.0255481991916895
842,0.0062393527477979,-0.035185020416975,0.0102909281849861,0.0617798566818237,0.0250802207738161,-9.52524933381937e-05
843,0.0067939292639493,-0.0235100761055946,0.0292339809238911,0.0877119302749634,0.0334175564348698,0.0326543115079403
844,-0.0010553994216024,-0.0050002951174974,0.0435462854802608,0.0896950736641884,0.0392074882984161,0.060837160795927
845,-0.0122530292719603,0.0108375819399953,0.0409279018640518,0.0590606033802032,0.039023470133543,0.0781745538115501
846,-0.0209923889487982,0.0197577923536301,0.0183027591556311,0.0151558760553598,0.0315942466259003,0.0743105858564377
847,-0.0232885759323835,0.0222386680543423,-0.0114997075870633,-0.0187055002897978,0.0236871913075447,0.0545909740030766
848,-0.021717781201005,0.0233053434640169,-0.0342567786574364,-0.0444629564881325,0.0178882032632828,0.0396710224449635
849,-0.0218042619526386,0.0333641730248928,-0.0436663702130318,-0.0724186822772026,0.0093297604471445,0.0344233401119709
850,-0.0228479746729136,0.0467187203466892,-0.0379135981202126,-0.0938123092055321,0.0034580982755869,0.0250232610851526
851,-0.0186869166791439,0.0322248302400112,-0.0315842367708683,-0.102067962288857,0.0055936658754944,-0.007447472307831
852,-0.0114829381927848,-0.0258003193885088,-0.0470031723380089,-0.11035693436861,0.0022562686353921,-0.0645808279514313
853,-0.0125848138704896,-0.0970459058880806,-0.074990950524807,-0.118165068328381,-0.0192238762974739,-0.11049061268568
854,-0.0268813855946064,-0.135323077440262,-0.0862219631671906,-0.101798847317696,-0.0561080798506737,-0.11076433211565
855,-0.0477636530995369,-0.121971607208252,-0.0673424303531647,-0.0444890446960926,-0.0893581062555313,-0.0650364384055138
856,-0.0636969059705734,-0.0769533962011337,-0.0254906639456749,0.0447038114070892,-0.0943210572004318,0.0042733917944133
857,-0.061613067984581,-0.0284421853721142,0.0246504750102758,0.142842218279839,-0.062871128320694,0.0662549436092377
858,-0.038373090326786,0.017178675159812,0.0719257965683937,0.218794316053391,-0.0035694991238415,0.103400371968746
859,-0.0114193260669708,0.054900087416172,0.102214127779007,0.237658262252808,0.0623275972902775,0.114725902676582
860,0.0023247166536748,0.0689727738499641,0.10275761038065,0.196284204721451,0.106160387396812,0.103578604757786
861,0.002845472889021,0.0584323368966579,0.0796235576272011,0.122436381876469,0.112836174666882,0.0799420103430748
862,-0.008066700771451,0.0401653088629246,0.0492438487708569,0.0462417006492615,0.0865086019039154,0.060591708868742
863,-0.0282794795930386,0.0294838156551123,0.024850158020854,-0.0043125222437083,0.0423130393028259,0.0567261055111885
864,-0.0483544953167439,0.0280984696000814,0.0116172786802053,-0.0262962244451046,-0.0022249282337725,0.0606075711548328
865,-0.062128372490406,0.027976443991065,0.0053730658255517,-0.04763338342309,-0.0373128727078438,0.0545301735401154
866,-0.0685745775699615,0.0239267684519291,0.0027832512278109,-0.0778533518314362,-0.0589897446334362,0.034691333770752
867,-0.0660252198576927,0.0139123685657978,0.0027383784763515,-0.0902250781655312,-0.0648541301488876,0.0108623057603836
868,-0.0538451038300991,0.0014762672362849,0.0042843408882618,-0.0683435276150703,-0.0549323186278343,-0.0041683232411742
869,-0.0349457040429115,-0.003635142929852,0.0112580461427569,-0.026115145534277,-0.032501082867384,-4.40758594777435e-05
870,-0.0171971283853054,0.0002572902303654,0.0217172689735889,0.0121845453977585,-0.0100741935893893,0.01751927472651
871,-0.0051036579534411,0.0025707895401865,0.0233111754059792,0.028574338182807,-0.0027696187607944,0.030112661421299
872,0.0028847213834524,-0.0060470672324299,0.0112636871635914,0.0150023503229022,-0.0109456367790699,0.02913798391819
873,0.0086993295699358,-0.0182702969759703,-0.0022558760829269,-0.0240345820784569,-0.0205527953803539,0.0254047103226185
874,0.0148365925997496,-0.0168684963136911,0.0001127200812334,-0.0569674037396908,-0.0168113335967064,0.0342088416218758
875,0.0227575302124023,0.000466273893835,0.0223067346960306,-0.0522728785872459,0.0037980014458298,0.0593414381146431
876,0.0301424078643322,0.0203178934752941,0.0503513514995575,-0.0159778948873281,0.0293799974024296,0.0894391760230064
877,0.0288529992103577,0.0344945788383484,0.0676066651940346,0.0161072984337807,0.0449409931898117,0.10362733155489
878,0.0136534236371517,0.0461158007383347,0.0696427598595619,0.0112945949658751,0.0481098853051662,0.0969168841838837
879,-0.0084643326699733,0.059765562415123,0.057631216943264,-0.0237915720790625,0.0402213558554649,0.0841878652572632
880,-0.0264918077737093,0.0721966400742531,0.0339493192732334,-0.0590575858950615,0.0201447233557701,0.0729887261986732
881,-0.0330234989523888,0.077412411570549,0.0105189466848969,-0.086236909031868,-0.0033815789502114,0.0575381591916084
882,-0.0244905576109886,0.0714302957057953,-0.0022447658702731,-0.11398508399725,-0.0186182986944914,0.0339789278805256
883,-0.0051090368069708,0.049794040620327,-0.005547980312258,-0.135980114340782,-0.0222903937101364,0.0132135348394513
884,0.0104475961998105,0.0146944876760244,-0.003651286708191,-0.135719120502472,-0.0173302367329597,0.0095696588978171
885,0.0134994806721807,-0.0187119245529175,0.0039820522069931,-0.114263072609901,-0.0068012131378054,0.0197422876954079
886,0.0128226848319173,-0.034242432564497,0.018570601940155,-0.0853295028209686,0.0092379124835133,0.0283717792481184
887,0.013656210154295,-0.0339239723980427,0.0314826443791389,-0.0606110729277134,0.0240261293947697,0.0206702090799809
888,0.0101359477266669,-0.0319311693310738,0.0353359431028366,-0.049943033605814,0.0280997324734926,-0.0046013002283871
889,-0.0027660178020596,-0.0375584289431572,0.0305678676813841,-0.0400000140070915,0.0185970664024353,-0.0343217998743057
890,-0.0213800966739655,-0.0442220829427242,0.0221025459468365,0.0054716258309781,0.0009922432946041,-0.0539704635739326
891,-0.0336759313941002,-0.0325529426336288,0.0243341978639364,0.0831098109483719,-0.0075721270404756,-0.0442065373063087
892,-0.0360127054154873,-0.0015655411407351,0.0419691801071167,0.152660459280014,0.0013173643965274,0.0052465959452092
893,-0.0315351001918316,0.0293027013540268,0.0618591755628586,0.197219759225845,0.0178892947733402,0.0706344768404961
894,-0.022912822663784,0.049392219632864,0.069050058722496,0.203726768493652,0.0289428476244211,0.112924546003342
895,-0.0178544409573078,0.0624296627938747,0.0553129501640797,0.161529541015625,0.0260994601994753,0.117578931152821
896,-0.0183948054909706,0.0759197920560837,0.0295469164848328,0.103459268808365,0.0165365971624851,0.100264221429825
897,-0.0169327612966299,0.085464671254158,0.0111948633566499,0.0680140480399132,0.0177017785608768,0.0743526443839073
898,-0.0079558826982975,0.0787248536944389,0.0090410150587558,0.0473438240587711,0.0351122133433819,0.0375906229019165
899,0.0060956655070185,0.0561866648495197,0.0183447282761335,0.033941525965929,0.0581450462341309,-0.0018944183830171
900,0.0175799708813429,0.026989346370101,0.0294741839170456,0.04984962195158,0.0722625926136971,-0.0266114361584187
901,0.0247461665421724,0.001782962703146,0.0349319986999035,0.0910444334149361,0.0708294212818146,-0.0316679552197456
902,0.0303197745233774,-0.0082401717081666,0.0335521548986435,0.148551449179649,0.0568281412124634,-0.0179198794066906
903,0.0331586636602879,-0.0050992462784051,0.0296325422823429,0.225832238793373,0.037700854241848,0.009782975539565
904,0.0329458266496658,-0.0037193829193711,0.0291858781129122,0.285114824771881,0.0249315518885851,0.0327387079596519
905,0.0320561863481998,-0.0078205065801739,0.0374932922422886,0.293210029602051,0.0310922581702471,0.0352144055068493
906,0.0323965586721897,-0.0092104012146592,0.0518054142594337,0.265358239412308,0.0540200769901276,0.0185312684625387
907,0.0352724567055702,-0.0070400354452431,0.0614152699708939,0.226058527827263,0.0771260932087898,-0.0061744842678308
908,0.0417703241109848,-0.0018929049838334,0.0633904859423637,0.198705807328224,0.0926790684461594,-0.0229483041912317
909,0.0460445247590542,0.0038592491764575,0.0583935342729092,0.192791253328323,0.097952589392662,-0.02692567743361
910,0.0373975969851017,0.0014567843172699,0.0410382561385632,0.193044811487198,0.0865141600370407,-0.0288028977811337
911,0.0191326532512903,-0.0068580545485019,0.0154917109757662,0.176386281847954,0.0671575963497162,-0.0284130554646254
912,0.0065314122475683,-0.0076932162046432,-0.0028514983132481,0.146474614739418,0.0589508377015591,-0.0153911849483848
913,0.0066746929660439,0.0075640059076249,-0.0060721286572516,0.136669039726257,0.0650071501731873,0.0031335556413978
914,0.0164493694901466,0.0248091816902161,-0.0032211798243224,0.153333216905594,0.0689002349972725,0.0082136308774352
915,0.0338285826146603,0.0169919524341822,-0.008543724194169,0.173011884093285,0.0574687123298645,-0.0058890781365335
916,0.0563098154962063,-0.0126162031665444,-0.0180114172399044,0.168544948101044,0.0413092114031315,-0.0304775796830654
917,0.0673120468854904,-0.0350280478596687,-0.0172569584101439,0.130477488040924,0.0344689376652241,-0.0581447891891003
918,0.0524423271417618,-0.0323571152985096,-0.0009448553901165,0.0882133468985558,0.0357890911400318,-0.0791894122958183
919,0.022676108404994,-0.0126615669578314,0.0269571710377932,0.0616744644939899,0.040294636040926,-0.0810042768716812
920,-0.0042606410570442,0.0019075740128755,0.0526986047625542,0.0353970937430859,0.0419152230024338,-0.0694092884659767
921,-0.0223761200904846,0.0010029696859419,0.0611104071140289,0.00288324826397,0.0361492000520229,-0.0600363276898861
922,-0.0328217223286629,-0.014207411557436,0.0493033193051815,-0.0312594510614872,0.0259786807000637,-0.0533667989075184
923,-0.0359469838440418,-0.0366206243634224,0.0287398956716061,-0.067901223897934,0.0194086972624063,-0.0369114391505718
924,-0.0275819953531027,-0.0493263863027096,0.0151873473078012,-0.0851867645978928,0.0248101912438869,-0.0039063487201929
925,-0.0072123170830309,-0.040324192494154,0.0139480968937278,-0.0561691485345364,0.0419511497020721,0.0350782498717308
926,0.0152804432436824,-0.0169656835496426,0.016733855009079,-0.0049930587410926,0.0596341155469418,0.0577736794948578
927,0.0304477363824844,0.0051253475248813,0.0153788831084967,0.023389108479023,0.0706649199128151,0.0521558485925198
928,0.0301363579928875,0.0191301684826612,0.0075545418076217,0.0226086359471083,0.07166787981987,0.0254046581685543
929,0.008916649967432,0.021434111520648,-0.0089261988177895,0.0164323747158051,0.0550568737089634,-0.0135719273239374
930,-0.0169244781136513,0.006570634432137,-0.026095524430275,0.0292196962982416,0.0306757837533951,-0.0525327362120152
931,-0.0260459631681442,-0.0186848267912865,-0.0266193598508835,0.0700910314917564,0.0218876712024212,-0.0757539644837379
932,-0.0192709676921368,-0.0390289016067982,-0.0077100205235183,0.124034874141216,0.0305189397186041,-0.0849908739328384
933,-0.0093699134886264,-0.044947624206543,0.0158801320940256,0.162631064653397,0.0431431941688061,-0.0899668410420418
934,-0.0042261788621544,-0.0369493588805199,0.0316658616065979,0.169739291071892,0.0551567263901234,-0.0884307026863098
935,-7.28469240129925e-05,-0.0246462598443031,0.0428048223257065,0.156551972031593,0.0690357610583305,-0.0710064694285393
936,0.0087398467585444,-0.0149103533476591,0.0576486140489578,0.13749335706234,0.0795164629817009,-0.0344646871089935
937,0.018182598054409,-0.0054106190800666,0.0710303038358688,0.111526750028133,0.0743150040507317,0.0126828420907259
938,0.0242275353521109,0.0078193005174398,0.0738465785980225,0.0829878523945808,0.0571119077503681,0.0539692230522633
939,0.0294672790914774,0.0225973911583424,0.0685156807303429,0.0569034032523632,0.0450095608830452,0.0722237452864647
940,0.0387382544577122,0.0370598249137402,0.0607688762247562,0.0107510518282652,0.042878583073616,0.0651674494147301
941,0.0507285743951797,0.0562031120061874,0.0514156594872475,-0.0671052113175392,0.0436111763119698,0.0489558391273022
942,0.0522429123520851,0.0726916417479515,0.0368785783648491,-0.13591668009758,0.0382929295301437,0.035259947180748
943,0.0410447716712952,0.0691363140940666,0.0195552501827478,-0.159825056791306,0.0259837210178375,0.0226750820875168
944,0.03343640640378,0.0489066317677498,0.0111992210149765,-0.14680977165699,0.016938790678978,0.0095094526186585
945,0.0355781987309456,0.0297539979219437,0.0164333134889603,-0.119964353740215,0.0179778896272182,-0.0013587243156507
946,0.0406124703586102,0.0204349961131811,0.0292091351002455,-0.0902837440371513,0.0268751550465822,-0.0057080048136413
947,0.040582112967968,0.0157090499997139,0.0386417619884014,-0.064069889485836,0.0353209152817726,-0.000375411065761
948,0.030900688841939,0.0066338246688246,0.0336033403873444,-0.0584823377430439,0.0354873202741146,0.0090703684836626
949,0.0134029593318701,-0.0035268096253275,0.0152915688231587,-0.0856054797768593,0.0289067234843969,0.0058766026049852
950,-0.0081593515351414,-0.007521488238126,-0.0061212028376758,-0.136478126049042,0.0182103663682938,-0.0203904490917921
951,-0.0269842781126499,-0.0062907263636589,-0.0244646202772856,-0.186379969120026,0.000280390609987,-0.058734592050314
952,-0.0339175723493099,-0.0027269425336271,-0.0339286886155605,-0.21211388707161,-0.0223788060247898,-0.0827519372105598
953,-0.0251885838806629,-0.0001922420633491,-0.0275277346372604,-0.199784815311432,-0.038108266890049,-0.0747532695531845
954,-0.0043264543637633,6.33064264548011e-05,-0.0029461870435625,-0.145986020565033,-0.0358568467199802,-0.0383845865726471
955,0.0193654373288155,0.0040627899579703,0.0343241728842258,-0.0670862346887589,-0.0125489709898829,0.0131580289453268
956,0.0358748733997345,0.0171355251222849,0.0689630135893822,0.0043244897387921,0.0223727114498615,0.0602495074272156
957,0.0437578894197941,0.0388093441724777,0.0889144018292427,0.0440593436360359,0.0536439195275307,0.0896968543529511
958,0.0477740727365017,0.0622944459319115,0.0968641340732574,0.0532229952514172,0.0733928456902504,0.108043015003204
959,0.0479106679558754,0.0735488906502724,0.0941410586237907,0.0414371639490128,0.0803987830877304,0.116781108081341
960,0.0443866290152073,0.068034790456295,0.0773398950695992,0.0087172072380781,0.0762350857257843,0.10538374632597
961,0.0386622212827206,0.0525543950498104,0.0516846925020218,-0.0433863215148449,0.0621921010315418,0.0684071257710457
962,0.0252224430441856,0.0318223424255848,0.0279249586164951,-0.0953518599271774,0.0375045798718929,0.0142556140199304
963,0.0068394690752029,0.0191132016479969,0.0194420684129,-0.11959370970726,0.0114632230252028,-0.0289400834590197
964,-0.0059938933700323,0.024428129196167,0.0275522191077471,-0.113990187644959,-0.003174393903464,-0.0409429930150509
965,-0.0122208930552006,0.0333331227302551,0.0350127629935741,-0.101382225751877,-0.007688783109188,-0.0326686017215252
966,-0.010791789740324,0.0250988826155663,0.0317876078188419,-0.0955227762460709,-0.0109974564984441,-0.0214302763342857
967,-0.0038604715373367,-0.003917088266462,0.0191965606063604,-0.0944033041596413,-0.0219319071620703,-0.0165920723229647
968,-0.0020572822540998,-0.0317426919937134,0.0026614360976964,-0.0958815589547157,-0.0405688732862473,-0.0193626936525106
969,-0.0078365160152316,-0.033665657043457,-0.0065207295119762,-0.097896620631218,-0.0551532171666622,-0.0190807953476906
970,-0.0134961595758796,-0.0135748405009508,-0.0021104465704411,-0.0919535383582115,-0.0568366348743439,-0.0030873995274305
971,-0.0109573546797037,0.0085885636508464,0.0087358122691512,-0.0770633667707443,-0.0470832996070385,0.0264769792556763
972,0.0005511351046152,0.01987742818892,0.0166365280747414,-0.0635585933923721,-0.0313493385910988,0.0472781099379063
973,0.0150549570098519,0.0187315866351128,0.0254350136965513,-0.0545948892831802,-0.0103031331673265,0.0430463626980782
974,0.0269504599273205,0.0129146538674831,0.0433808192610741,-0.0454801730811596,0.0154030323028564,0.0240283161401749
975,0.033617302775383,0.0099274115636944,0.0663588643074036,-0.0325513035058975,0.0372774749994278,0.00992411095649
976,0.0388094447553158,0.0123339742422104,0.0843820124864578,-0.015098687261343,0.0503646805882454,0.0172250978648663
977,0.0471091233193874,0.0227436125278473,0.0913641154766083,0.0028734367806464,0.0577765144407749,0.0521129034459591
978,0.0537231490015984,0.0438116490840912,0.0840568691492081,0.0120584182441235,0.0600831545889378,0.10059405118227
979,0.0489140786230564,0.0687157511711121,0.0590449012815952,0.0003385864256415,0.0495851002633572,0.129508703947067
980,0.0313060693442822,0.0813751742243767,0.0186627749353647,-0.0331975594162941,0.0205899365246296,0.107381038367748
981,0.0097662303596735,0.0690960437059402,-0.024891110137105,-0.0702410712838173,-0.0199947189539671,0.0351955853402615
982,-0.0087469397112727,0.0298040062189102,-0.0585995279252529,-0.0957164242863655,-0.060649435967207,-0.0550822615623474
983,-0.0210649967193604,-0.0247523747384548,-0.071728877723217,-0.107688590884209,-0.0872015729546547,-0.123569242656231
984,-0.0265127308666706,-0.0745788663625717,-0.0597605481743813,-0.103697381913662,-0.0871350020170212,-0.146208569407463
985,-0.0251632761210203,-0.100752599537373,-0.0261407382786274,-0.080903023481369,-0.0596900209784508,-0.122370906174183
986,-0.0151756713166833,-0.0897923111915588,0.0216200724244118,-0.0435893796384335,-0.0159448236227036,-0.065418615937233
987,0.0009577824966982,-0.0475770905613899,0.0675064325332642,-0.0039723915979266,0.0235273521393538,-0.0016980031505227
988,0.0183554608374834,0.0008598660351708,0.0956773608922958,0.0273926705121994,0.0448037050664425,0.047598522156477
989,0.0298568774014711,0.0347120277583599,0.102936752140522,0.0454139485955238,0.0510250367224216,0.0852050334215164
990,0.0271529518067837,0.0495149716734886,0.095377005636692,0.0481278523802757,0.0504039190709591,0.117613017559052
991,0.0140486378222704,0.0549453906714916,0.0834067314863205,0.0399094521999359,0.0459525175392628,0.133444875478745
992,0.004673178307712,0.0597364455461502,0.0735028237104416,0.0249516982585192,0.036632314324379,0.116705901920795
993,0.0050363573245704,0.0616071969270706,0.0617086067795753,0.0035946255084127,0.0222355388104916,0.074105367064476
994,0.0069905971176922,0.0553870499134064,0.0450333058834076,-0.0175289567559958,0.0044529656879603,0.0351136289536953
995,0.0041992790065705,0.0407866314053535,0.0253368839621544,-0.0308535564690828,-0.0167083218693733,0.0173178073018789
996,0.0027268207632005,0.0271289702504873,0.0054743266664445,-0.0350703671574593,-0.0379820391535759,0.011969986371696
997,0.0091459583491087,0.0281181670725346,-0.0053873234428465,-0.0294037684798241,-0.0465895794332027,0.0107543021440506
998,0.0198827050626278,0.0467711761593819,-0.0035479115322232,-0.0195501148700714,-0.0370342247188091,0.0142919383943081
999,0.0291443429887295,0.0668421611189842,0.0019347321940586,-0.0175612810999155,-0.0192791912704706,0.0162797160446644
1000,0.0387559123337269,0.0123095037415624,0.0843016132712364,-0.0151926195248961,0.0503028370440006,0.017172297462821
1001,0.0470548160374165,0.0227187965065241,0.0912825763225555,0.0027781673707068,0.0577138066291809,0.0520593710243702
