,AF3,AF4,Fp1,Fp2,AF7,AF8
0,-0.0216284207999706,-0.0882642939686775,-0.0505910478532314,0.0692682266235352,-0.0507070533931255,-0.0490476787090302
1,-0.0042886254377663,-0.0572884194552898,-0.0100837917998433,0.191258564591408,-0.0135482242330909,-0.0571918040513992
2,0.006933179218322,-0.0249451231211424,0.0269857849925756,0.325574994087219,0.0071620419621467,-0.0493609309196472
3,0.0149680133908987,0.0049335639923811,0.0451759286224842,0.386297047138214,0.0044864676892757,-0.0308691747486591
4,0.0232304055243731,0.0349030494689941,0.0413394682109356,0.34594714641571,-0.0062532685697078,-0.006598190870136
5,0.0193701535463333,0.0503026843070984,0.0233039259910584,0.294025629758835,-0.0148321203887463,0.0115806721150875
6,0.0062859090976417,0.0423129200935364,0.0009156666346825,0.290233165025711,-0.0219360161572695,0.0156002221629024
7,0.0046754502691328,0.0259320866316557,-0.0157952681183815,0.269280076026917,-0.0239198748022318,0.0108787678182125
8,0.0161100253462791,0.0091186836361885,-0.0260433740913868,0.181934505701065,-0.0216936208307743,0.0007696170359849
9,0.0267718564718962,-0.0122403781861067,-0.034741785377264,0.108796432614326,-0.0245506204664707,-0.0145644173026085
10,0.0282547790557146,-0.0306463520973921,-0.0393653437495232,0.113869301974773,-0.0356436669826508,-0.026827709749341
11,0.02192697301507,-0.0274235401302576,-0.0328410379588604,0.0946431159973145,-0.0426015667617321,-0.0196090620011091
12,0.016478955745697,0.005354655906558,-0.0143527965992689,-0.0321787036955357,-0.0273101758211851,0.0224987026304007
13,0.0165669973939657,0.05134392157197,0.0081480043008923,-0.136619761586189,0.012599365785718,0.0912538170814514
14,0.0235550068318844,0.0880926847457886,0.024339510127902,-0.101294733583927,0.0620896071195602,0.145968973636627
15,0.0352040491998196,0.104678340256214,0.0286651644855738,-0.0310232657939196,0.101253382861614,0.148190602660179
16,0.0344432778656483,0.0914672091603279,0.0201312489807606,-0.0590408146381378,0.109278582036495,0.0962255746126175
17,0.0074241664260625,0.0413041934370995,-0.0009024883038364,-0.116139441728592,0.0754499584436417,0.0272673182189465
18,-0.03001126088202,-0.0240085665136576,-0.0231421291828156,-0.068804070353508,0.0180856324732304,-0.0148227429017425
19,-0.0502120703458786,-0.0640610978007317,-0.0286497212946415,0.0333801135420799,-0.0279110707342625,-0.0231645684689283
20,-0.0444016419351101,-0.0639004483819008,-0.0132835134863853,0.0598352514207363,-0.0430100001394749,-0.0147211421281099
21,-0.0236625764518976,-0.0348859801888466,0.0149845723062754,0.0393412709236145,-0.0288643501698971,0.0020712837576866
22,-0.0062383962795138,0.0080968858674168,0.0407116860151291,0.0816138759255409,-0.0010940454667434,0.0202246308326721
23,-0.0003756632795557,0.0504832044243813,0.0479830205440521,0.161585256457329,0.0243850201368332,0.0352639593183994
24,0.0011497784871608,0.0794027373194695,0.0403677970170975,0.167053431272507,0.0463006123900414,0.0455572940409184
25,0.0006357020465657,0.0799367278814316,0.0251274853944778,0.100314892828465,0.0529165118932724,0.0342063494026661
26,-0.0055371071211993,0.0439291298389435,-0.0002711155393626,0.0823878645896912,0.0277329795062542,-0.0048718666657805
27,-0.010871659964323,-0.0105711352080107,-0.0281172171235085,0.13597559928894,-0.012245723977685,-0.0400365926325321
28,-0.0082039199769496,-0.0527178533375263,-0.0465485565364361,0.1420738697052,-0.0441189594566822,-0.0449102260172367
29,-0.0027219201438128,-0.0670306906104088,-0.0539573989808559,0.0600807555019856,-0.0610254034399986,-0.0291486233472824
30,-0.0036585994530469,-0.0611212775111198,-0.0527453385293484,0.0025977226905524,-0.0562638081610203,-0.0128997508436441
31,-0.0060034566558897,-0.0484341979026794,-0.0400516092777252,0.010339479893446,-0.0256202761083841,-0.0034455531276762
32,-0.0029386433307081,-0.0415096096694469,-0.0214078146964312,-0.0156830418854952,0.015891071408987,-0.0040140761993825
33,-0.0066725267097353,-0.0558758974075317,-0.0199650228023529,-0.0786273032426834,0.0373113229870796,-0.0232544876635075
34,-0.0246151797473431,-0.0866376459598541,-0.0405978634953499,-0.0620474144816399,0.0304673034697771,-0.0551834516227245
35,-0.0452883541584015,-0.108333878219128,-0.0617292150855064,0.0622059851884842,0.0139628192409873,-0.0799185112118721
36,-0.0597131103277206,-0.108675457537174,-0.0725885331630707,0.2001993060112,-0.0027358448132872,-0.0902013778686523
37,-0.0662127062678337,-0.0932663530111313,-0.0796013027429581,0.270978152751923,-0.0191161185503006,-0.0794302523136139
38,-0.0625127926468849,-0.072584867477417,-0.0859372541308403,0.294529527425766,-0.0279046017676592,-0.0367506146430969
39,-0.0533594712615013,-0.0626219213008881,-0.0968577191233635,0.313670486211777,-0.031371995806694,0.0092301191762089
40,-0.0505604259669781,-0.0658881142735481,-0.125376001000404,0.28802627325058,-0.0473974756896496,0.010193046182394
41,-0.0583417266607285,-0.0575123429298401,-0.164516448974609,0.180836856365204,-0.0816222727298737,-0.0269940663129091
42,-0.0710947215557098,-0.0332364849746227,-0.185770764946938,0.0703763738274574,-0.117654532194138,-0.0629865750670433
43,-0.0778900757431984,-0.0172884091734886,-0.167686805129051,0.0556338205933571,-0.132293596863747,-0.0839312747120857
44,-0.0738366693258286,-0.0209666658192873,-0.11586270481348,0.101580537855625,-0.122194990515709,-0.0962174832820892
45,-0.0650731176137924,-0.043243519961834,-0.0577486604452133,0.101430512964725,-0.105506114661694,-0.105872817337513
46,-0.0517746433615685,-0.0678766071796417,-0.0088795544579625,0.0687347427010536,-0.0828366428613663,-0.107466593384743
47,-0.0314577966928482,-0.0697309747338295,0.0326062552630901,0.089707188308239,-0.0387920998036861,-0.0914760157465935
48,-0.011865065433085,-0.0474224574863911,0.0638405829668045,0.138754859566689,0.0196122340857983,-0.0561187863349915
49,-0.0010854610009118,-0.0219115354120731,0.076474703848362,0.119132980704308,0.0647209584712982,-0.0129281049594283
50,-3.12868178298231e-05,-0.0083164712414145,0.0697231367230415,0.0376638174057007,0.0782936811447144,0.0173899624496698
51,-0.0047298977151513,-0.0009560858015902,0.0518851280212402,0.0048543186858296,0.0647714510560036,0.0273253135383129
52,-0.0116872908547521,0.0110027054324746,0.0277386102825403,0.0423075631260872,0.0380180925130844,0.0257642641663551
53,-0.0182055030018091,0.0262126214802265,-0.0009494853438809,0.0311146546155214,0.0109365554526448,0.0213581901043653
54,-0.0196760836988688,0.0377175323665142,-0.0238871648907661,-0.062942273914814,0.0035832591820508,0.0205898322165012
55,-0.0135400779545307,0.0394243560731411,-0.031269833445549,-0.11122689396143,0.0259052254259586,0.0231059789657593
56,-0.0033683185465633,0.0295341070741415,-0.0277501698583364,-0.066426083445549,0.0503694340586662,0.0180415362119675
57,0.0016734449891373,0.0110214343294501,-0.0268026236444712,-0.0539288036525249,0.0413376688957214,0.0020817455369979
58,-0.0027306827250868,-0.0098096849396824,-0.0334144346415997,-0.125469163060188,0.0037737472448498,-0.0109174288809299
59,-0.0111703583970666,-0.0168527122586966,-0.0385797955095768,-0.153528600931168,-0.0273765027523041,-0.0001988028088817
60,-0.0225782059133053,-0.0001851055130828,-0.0366617292165756,-0.0771923810243607,-0.0374534092843533,0.0369955413043499
61,-0.0414443463087082,0.0239822454750538,-0.0348341464996338,-0.0259165056049824,-0.0414128117263317,0.070012092590332
62,-0.0599862411618233,0.0381094515323639,-0.036992896348238,-0.0789630338549614,-0.0461464636027813,0.0716021135449409
63,-0.0656585320830345,0.0418535619974136,-0.0401139557361603,-0.110149659216404,-0.0406892374157906,0.0497985258698463
64,-0.0518448799848557,0.0400072671473026,-0.0417803823947906,-0.0267194975167513,-0.0160023178905249,0.0253430940210819
65,-0.0100425397977233,0.0490594394505024,-0.026089183986187,0.0359273366630077,0.0299095772206783,0.0178446676582098
66,0.0486975200474262,0.0791404247283936,0.0186307858675718,-0.0736508592963219,0.0787558332085609,0.0359567366540432
67,0.0876783058047295,0.102196224033833,0.0626261010766029,-0.256126761436462,0.0951656922698021,0.0605182982981205
68,0.0886069536209106,0.0970438197255135,0.0747855678200722,-0.304521232843399,0.0724247023463249,0.0693197324872017
69,0.0666279420256615,0.0839143246412277,0.0651159062981606,-0.201251462101936,0.0401379093527794,0.0639326050877571
70,0.0453960970044136,0.0788441747426987,0.0534302964806557,-0.0732353329658508,0.02369075268507,0.0553461834788322
71,0.0376430749893188,0.0732239484786987,0.0446436069905758,0.032835491001606,0.0239278879016638,0.0429345890879631
72,0.0350469909608364,0.0595300123095512,0.03579181432724,0.155414164066315,0.0274409055709839,0.0191970188170671
73,0.0268520042300224,0.0424780622124672,0.0247806366533041,0.271593302488327,0.029486320912838,-0.0057512870989739
74,0.0186952576041222,0.0258866418153048,0.0041364841163158,0.305652886629105,0.0276632979512215,-0.0198283921927214
75,0.0105884307995439,0.0039770789444446,-0.0367185100913048,0.257682293653488,0.0070050843060016,-0.0377055667340755
76,-0.0039018760435283,-0.0161395724862814,-0.08218614757061,0.213061019778252,-0.0291868206113577,-0.052991509437561
77,-0.0241832062602043,-0.0155599331483245,-0.106346748769283,0.198628664016724,-0.0608033500611782,-0.0389472879469395
78,-0.0465759001672268,0.0010748247150331,-0.104340367019176,0.155483826994896,-0.0795097053050995,-0.0137995015829802
79,-0.0595606304705143,0.0144153395667672,-0.0819186791777611,0.084043987095356,-0.0798943340778351,-0.0038958850782364
80,-0.0512003526091576,0.0203513652086258,-0.0487173274159431,0.0673069804906845,-0.0622917674481869,0.0014306412776932
81,-0.0239930246025324,0.024660037830472,-0.0145434597507119,0.115832611918449,-0.0384841971099377,0.0161164812743664
82,0.0055214734748005,0.0248465780168772,0.0108983907848597,0.100323729217052,-0.0177280101925135,0.0293937921524048
83,0.0197679903358221,0.0145729128271341,0.021488718688488,-0.0420229882001877,0.0002300107298651,0.0234401971101761
84,0.0172753594815731,-0.0012822522548958,0.0251942258328199,-0.160183429718018,0.0192773621529341,0.0012275276239961
85,0.0107504706829786,-0.01430943608284,0.0301739312708378,-0.139173865318298,0.0359351858496666,-0.0233933962881565
86,0.0088307717815041,-0.0220332741737366,0.0324513353407383,-0.098577655851841,0.0388170219957829,-0.0425928346812725
87,0.0105032427236438,-0.0198669247329235,0.029166279360652,-0.152689933776855,0.0255140643566847,-0.0516720898449421
88,0.0129720168188214,-0.0076749897561967,0.0257210545241833,-0.209947466850281,0.0130375185981393,-0.0502758361399174
89,0.0185695104300976,-0.0015811752527952,0.0213059298694134,-0.171081095933914,0.0150265237316489,-0.0483073629438877
90,0.028574762865901,-0.0140157174319029,0.0078576318919658,-0.11557300388813,0.0207880157977343,-0.0540412031114101
91,0.032835628837347,-0.0321768298745155,-0.0141589660197496,-0.156161084771156,0.0135527085512877,-0.0581157989799976
92,0.0194612070918083,-0.0340728275477886,-0.0372229740023613,-0.235699057579041,-0.00914485193789,-0.0469302050769329
93,-0.0076678460463881,-0.0081554800271987,-0.0509167239069939,-0.223364621400833,-0.0342238023877144,-0.0185068100690842
94,-0.030249385163188,0.0442758277058601,-0.0464675165712833,-0.158754929900169,-0.0453949421644211,0.0263236928731203
95,-0.0363500192761421,0.104769200086594,-0.0259121619164944,-0.186567008495331,-0.0374567918479443,0.0826550424098969
96,-0.0356002822518349,0.146370783448219,-0.0049174977466464,-0.277735471725464,-0.0219423547387123,0.11999935656786
97,-0.0405413657426834,0.142894148826599,-0.0094104669988155,-0.285564422607422,-0.0228452514857054,0.0991742685437202
98,-0.035958718508482,0.0898223593831062,-0.033029954880476,-0.225235253572464,-0.0353380441665649,0.0367878898978233
99,-0.0004392747941892,0.024590564891696,-0.0303838215768337,-0.236960530281067,-0.0218393988907337,-0.0080425646156072
100,0.051177129149437,-0.0169398877769709,0.0084431273862719,-0.319925785064697,0.0204955767840147,-0.0170121192932129
101,0.0877707824110985,-0.0306826811283827,0.0498592182993889,-0.32323369383812,0.0595442093908787,-0.007802274543792
102,0.10122649371624,-0.0225032027810812,0.0729859992861748,-0.230352476239204,0.0787803009152412,0.0033551123924553
103,0.0968188792467117,-0.0003410044591873,0.0764466822147369,-0.168660759925842,0.0771981254220009,-0.0011156718246638
104,0.0754186660051346,0.0259377658367157,0.062326904386282,-0.149874374270439,0.0555711984634399,-0.0239567346870899
105,0.0368004478514194,0.0479526109993458,0.0322528779506683,-0.0873497501015663,0.0181794241070747,-0.050498615950346
106,-0.0061478866264224,0.061816394329071,-0.0076667466200888,0.0300499480217695,-0.0197225753217936,-0.0669566988945007
107,-0.0257263835519552,0.069996602833271,-0.0410352796316147,0.123787321150303,-0.0352227613329887,-0.0666296407580376
108,-0.0146342907100916,0.0692386105656624,-0.0550717674195766,0.150997757911682,-0.020504292100668,-0.0608510971069336
109,0.0073275128379464,0.0507294163107872,-0.0518797934055328,0.166652217507362,0.0067743868567049,-0.0645698606967926
110,0.0262653715908527,0.0200021751224995,-0.0407273806631565,0.205592572689056,0.0221773590892553,-0.065732903778553
111,0.0371564924716949,-0.0009073533583432,-0.0290181133896112,0.198833450675011,0.0142411049455404,-0.0467699393630028
112,0.0348511002957821,0.0023014666512608,-0.0212117247283459,0.0969021543860435,-0.0180225521326065,-0.0145630640909076
113,0.0195954088121653,0.0209533665329218,-0.0183442886918783,-0.0082966089248657,-0.0623749531805515,0.014290988445282
114,-0.0006565196672454,0.0428228713572025,-0.0140717886388302,-0.0117678912356496,-0.0859235599637032,0.030251195654273
115,-0.0179990753531456,0.0622606985270977,-0.0034786546602845,0.0253055691719055,-0.0676808878779411,0.0335130579769611
116,-0.0285011157393456,0.066386841237545,-0.0032028341665864,-0.02495520375669,-0.035575907677412,0.0180017687380314
117,-0.0266030058264732,0.0456550903618336,-0.0344888716936111,-0.137639209628105,-0.0310592986643314,-0.0253930073231459
118,-0.011511379852891,0.0125264320522547,-0.0790450349450111,-0.176792696118355,-0.0483501218259335,-0.0740821734070778
119,0.0060201887972652,-0.011855935677886,-0.0961962416768074,-0.141172990202904,-0.0521565340459347,-0.101287052035332
120,0.0184129606932402,-0.0178920477628708,-0.069755494594574,-0.150149971246719,-0.0304079931229353,-0.107363782823086
121,0.0278371442109346,-0.0059315636754036,-0.0146391857415438,-0.185044333338737,0.0009950787061825,-0.0934152826666832
122,0.0290706269443035,0.0155700789764524,0.035203717648983,-0.130037993192673,0.0199956893920898,-0.0643220320343971
123,0.0164287630468607,0.0336635336279869,0.0546714588999748,-0.0277708154171705,0.0184192191809416,-0.0351475663483143
124,0.0021151106338948,0.0459208860993385,0.0497976578772068,-0.0278926491737366,0.0092870304360985,-0.009364609606564
125,-0.0005664577474817,0.0566697530448437,0.0360557846724987,-0.11955638974905,0.0114703830331564,0.0156008806079626
126,0.0082179233431816,0.0684871971607208,0.0145147684961557,-0.153635412454605,0.0259399097412825,0.0312399696558714
127,0.0213973261415958,0.0851752534508705,-0.0158114023506641,-0.126102209091187,0.0310216937214136,0.0215399153530598
128,0.0288488119840622,0.0944449380040169,-0.0498172268271446,-0.192564770579338,0.0081397695466876,-0.0269348826259375
129,0.022057518362999,0.0682783722877502,-0.0869743973016739,-0.369621068239212,-0.0369780883193016,-0.108013823628426
130,0.0081604830920696,0.0111216399818659,-0.118977800011635,-0.461054474115372,-0.07943245023489,-0.175979092717171
131,0.0075454716570675,-0.0345782414078712,-0.118034169077873,-0.371611088514328,-0.0848778039216995,-0.175757244229317
132,0.0285236705094576,-0.0398642495274544,-0.0681511536240578,-0.256397128105164,-0.0378648228943348,-0.109489478170872
133,0.0497694313526154,-0.0248719975352287,0.0002180024603148,-0.248205661773682,0.0210148692131042,-0.0391029007732868
134,0.048418752849102,-0.0294835641980171,0.0368381179869175,-0.256058633327484,0.0368735864758492,-0.0090973637998104
135,0.0422672405838966,-0.0504032522439957,0.0318958051502705,-0.194345414638519,0.0125628169625998,-0.0003168832918163
136,0.0524641536176205,-0.0543748773634434,0.0088945552706718,-0.16977071762085,-0.0159388706088066,0.0112126525491476
137,0.0553204528987408,-0.0348781161010265,-0.0200729519128799,-0.234386131167412,-0.0387649461627007,0.0120876245200634
138,0.0322344824671745,-0.0095121785998344,-0.0497151836752892,-0.25316709280014,-0.0640242770314217,-0.0028941556811332
139,0.0060626063495874,0.0111439097672701,-0.069150909781456,-0.148216247558594,-0.088078998029232,-0.0179741699248552
140,-0.0009470143122598,0.0309753865003586,-0.0761096850037575,-0.0123166851699352,-0.102253086864948,-0.0271806456148624
141,0.0069913999177515,0.0492808446288109,-0.082324206829071,0.0574088171124458,-0.108667597174644,-0.0312732234597206
142,0.0148361688479781,0.0492034703493118,-0.0993449985980988,0.0818239450454712,-0.113422200083733,-0.0338228419423103
143,0.0160852950066328,0.025432076305151,-0.123786859214306,0.115995518863201,-0.113426357507706,-0.0537131652235985
144,0.0126548605039716,-0.0063990419730544,-0.146549329161644,0.126460254192352,-0.107409536838531,-0.101254232227802
145,0.0093928985297679,-0.0303016789257526,-0.166785135865211,0.0495907887816429,-0.10637491196394,-0.15312172472477
146,0.0079592941328883,-0.0365096367895603,-0.183060079813004,-0.0681634321808815,-0.119172476232052,-0.183008894324303
147,0.000983465812169,-0.0238252747803926,-0.185792177915573,-0.118419587612152,-0.14264053106308,-0.187705740332603
148,-0.0132934059947729,0.0028907146770507,-0.168597906827927,-0.108859904110432,-0.166327565908432,-0.171298190951347
149,-0.0248281713575125,0.0356987826526165,-0.139929547905922,-0.161328136920929,-0.175447627902031,-0.14037199318409
150,-0.0287679359316826,0.0675302892923355,-0.115893758833408,-0.293452680110931,-0.161628291010857,-0.104769065976143
151,-0.0337998084723949,0.0975731760263443,-0.112072467803955,-0.377282828092575,-0.142126441001892,-0.0702695474028587
152,-0.0474446043372154,0.110723055899143,-0.137290745973587,-0.385298907756805,-0.145864903926849,-0.0563324578106403
153,-0.0551754832267761,0.0859393924474716,-0.171905875205994,-0.425029814243317,-0.166539505124092,-0.0782928988337517
154,-0.0411466471850872,0.0444706566631794,-0.185581102967262,-0.490802049636841,-0.172277435660362,-0.106464482843876
155,-0.0139573365449905,0.0251033212989569,-0.177970230579376,-0.45043095946312,-0.161196529865265,-0.103660874068737
156,0.0190949607640505,0.0314310416579247,-0.161656439304352,-0.297993808984756,-0.149173453450203,-0.0703781992197037
157,0.0558789037168026,0.0482270382344723,-0.141821622848511,-0.205930978059769,-0.136825695633888,-0.0316618829965591
158,0.0785836577415466,0.061395451426506,-0.126815006136894,-0.254596263170242,-0.123788334429264,-0.0125757157802582
159,0.0785468518733978,0.0565761066973209,-0.124539703130722,-0.295157998800278,-0.115637108683586,-0.0267019923776388
160,0.0693454518914223,0.0361671186983585,-0.131258860230446,-0.224774435162544,-0.112129233777523,-0.0688287615776062
161,0.0627218335866928,0.021250082179904,-0.137682676315308,-0.186620682477951,-0.104160308837891,-0.112482070922852
162,0.0631761774420738,0.0266465563327074,-0.143161863088608,-0.30911859869957,-0.087829478085041,-0.132736936211586
163,0.0630608052015305,0.050006527453661,-0.158747300505638,-0.458370476961136,-0.0830669105052948,-0.135785534977913
164,0.0414773225784302,0.0797424539923668,-0.196090325713158,-0.4770767390728,-0.11822348088026,-0.148245334625244
165,0.0005222352338023,0.104091212153435,-0.242679730057716,-0.453232079744339,-0.177808523178101,-0.170183748006821
166,-0.0256548095494509,0.115342564880848,-0.260944098234177,-0.5,-0.197470024228096,-0.174267962574959
167,-0.0275644045323133,0.101638205349445,-0.24404664337635,-0.5,-0.162060663104057,-0.167990118265152
168,-0.0285050142556429,0.0516361147165298,-0.223896592855453,-0.5,-0.137491032481194,-0.180115014314651
169,-0.0382509306073189,-0.0227372292429209,-0.212834358215332,-0.5,-0.163252145051956,-0.199070066213608
170,-0.0493940636515617,-0.0882929936051369,-0.202681332826614,-0.5,-0.209875524044037,-0.199782267212868
171,-0.0481329932808876,-0.113737806677818,-0.196946799755096,-0.403682768344879,-0.239735305309296,-0.1827692091465
172,-0.0331227295100689,-0.0981238260865211,-0.208267867565155,-0.264737695455551,-0.254207789897919,-0.167658254504204
173,-0.0221433471888304,-0.0658581927418709,-0.227586433291435,-0.128148168325424,-0.264791160821915,-0.165380552411079
174,-0.0200899597257376,-0.0362523272633553,-0.224345505237579,-0.0584058277308941,-0.255379736423492,-0.162400841712952
175,-0.0187557563185692,-0.0175169352442026,-0.193829283118248,-0.0333926565945148,-0.217589855194092,-0.153393343091011
176,-0.0160803571343422,-0.0054706162773072,-0.156461581587791,0.0264812186360359,-0.166630327701569,-0.151338770985603
177,-0.0138980252668262,0.0086750080808997,-0.123531065881252,0.116959065198898,-0.119936808943748,-0.155793890357018
178,-0.0153861595317721,0.0226854849606752,-0.101551108062267,0.132781103253365,-0.0938096940517426,-0.149420186877251
179,-0.0190445054322481,0.0303221307694912,-0.0915269404649735,0.0506026372313499,-0.0850152596831322,-0.117854289710522
180,-0.0233084391802549,0.0306315124034882,-0.0862959250807762,-0.0098675172775983,-0.0765974372625351,-0.0727338045835495
181,-0.0333849564194679,0.0176554303616285,-0.0873290598392487,-0.0033549470826983,-0.0712821185588837,-0.0487327724695206
182,-0.0490712113678455,-0.0139613570645452,-0.0932134911417961,-0.0635848566889763,-0.0726132318377495,-0.0583410039544106
183,-0.0638484582304955,-0.0463808551430702,-0.0852438360452652,-0.226095274090767,-0.0657844543457031,-0.072626031935215
184,-0.0714320465922356,-0.0560958236455917,-0.0513510517776012,-0.296695053577423,-0.041153509169817,-0.0605759546160698
185,-0.0648990198969841,-0.0423565804958344,-0.0041506206616759,-0.194689378142357,-0.0044233677908778,-0.0244404096156359
186,-0.0428373441100121,-0.0194897577166557,0.0321623496711254,-0.115407079458237,0.0319462902843952,0.0224090460687876
187,-0.0164954867213964,-0.0002335319150006,0.0386561639606953,-0.197169542312622,0.0548003055155277,0.070991612970829
188,-0.000685358128976,0.0122453607618809,0.0146671524271369,-0.308209657669067,0.0566271431744099,0.0914111882448196
189,-0.0041424254886806,0.023841954767704,-0.0199678540229797,-0.304707139730453,0.0412697494029999,0.0593002960085869
190,-0.0198538284748793,0.043958093971014,-0.0398896038532257,-0.270710617303848,0.0275772847235203,0.0034470607060939
191,-0.0293780174106359,0.0703353732824326,-0.0403877608478069,-0.325742185115814,0.0257740542292595,-0.0311723276972771
192,-0.0317957438528538,0.0833578556776047,-0.0400425493717194,-0.376888364553452,0.017570985481143,-0.0399334654211998
193,-0.0328724645078182,0.0738639086484909,-0.0398286953568459,-0.277571380138397,0.0023579865228384,-0.0354671813547611
194,-0.023667685687542,0.05185242369771,-0.0222308728843927,-0.111516535282135,0.0140645215287805,-0.0183348450809717
195,-0.0018510564696043,0.0275287907570601,0.0071839005686342,-0.0792638882994652,0.0632157176733017,0.0033023457508534
196,0.019774429500103,0.0034973870497196,0.0292568672448397,-0.159360706806183,0.114784143865108,0.0145729724317789
197,0.024554030969739,-0.0184266790747643,0.0396598018705845,-0.171481564640999,0.128441154956818,0.0175187420099974
198,0.0056537883356213,-0.0214993134140968,0.0481129363179207,-0.136184498667717,0.104341186583042,0.0329852625727654
199,-0.0275867879390717,0.0014847037382423,0.0581152513623238,-0.235447153449059,0.0696890130639076,0.0674358755350113
200,-0.0653535351157188,0.0172087457031012,0.0542124100029469,-0.438690423965454,0.0339900813996792,0.0976990908384323
201,-0.0964781418442726,-0.0002784078242257,0.0345777943730354,-0.496670305728912,0.0042581469751894,0.112989582121372
202,-0.109324172139168,-0.0320965982973576,0.0179426241666079,-0.344161838293076,-0.0047209025360643,0.117717459797859
203,-0.10372768342495,-0.0547330304980278,0.0101475724950433,-0.171513959765434,0.005989144090563,0.106887929141521
204,-0.0843163803219795,-0.0688337311148643,0.0060312780551612,-0.0856591388583183,0.0285906475037336,0.0842178165912628
205,-0.0587202832102776,-0.0751318708062172,0.0053169769234955,-0.0120830778032541,0.0574812442064285,0.0588170811533928
206,-0.032766904681921,-0.0565525628626347,0.0187017414718866,0.0908106192946434,0.0880863517522812,0.0407935753464699
207,-0.0105199674144387,-0.0136958165094256,0.0506250150501728,0.149661883711815,0.113280862569809,0.0422091111540794
208,-0.0017009677831083,0.0220717061311007,0.0792337581515312,0.132981613278389,0.118556514382362,0.0514353178441525
209,-0.0095662316307425,0.0301010049879551,0.082963153719902,0.124862089753151,0.100539833307266,0.0476687327027321
210,-0.0215315166860819,0.0189168751239777,0.0697976648807526,0.1733468323946,0.0811426788568497,0.0358492471277714
211,-0.0242836121469736,0.0093792295083403,0.0589717328548431,0.175435319542885,0.0802792906761169,0.0295113231986761
212,-0.0201083552092314,0.0119798136875033,0.0557791106402874,0.0422748327255249,0.090359278023243,0.026323651894927
213,-0.0189184006303549,0.0174825564026833,0.0579044669866562,-0.110195025801659,0.098108634352684,0.0253703519701958
214,-0.0205825250595808,0.0105772484093905,0.0622357688844204,-0.138065740466118,0.102305047214031,0.0368128232657909
215,-0.0166049748659134,-0.0093244221061468,0.0649396702647209,-0.111717395484447,0.102636188268662,0.0633798986673355
216,-0.0067533091641962,-0.0272959638386965,0.0706450715661049,-0.146222770214081,0.0992503091692925,0.103086523711681
217,0.0029581047128886,-0.0272299498319626,0.0879177451133728,-0.16668039560318,0.10199261456728,0.153658553957939
218,0.0108914142474532,-0.0083527714014053,0.115710183978081,-0.0688176229596138,0.122047133743763,0.191683873534203
219,0.0187937710434198,0.0131829315796494,0.146197304129601,0.0491767413914204,0.157097473740578,0.192734748125076
220,0.0298202335834503,0.0239303652197123,0.175917401909828,0.0249074082821608,0.192851096391678,0.167258620262146
221,0.0404873639345169,0.0209662839770317,0.201776295900345,-0.0790401101112366,0.211640819907188,0.144399836659431
222,0.0370912663638592,0.00854660756886,0.209817573428154,-0.0775890648365021,0.200647681951523,0.14859439432621
223,0.0188692528754473,0.0070822807028889,0.196275591850281,0.0068199215456843,0.170839130878448,0.182413637638092
224,0.0050240824930369,0.0339759439229965,0.179219707846642,0.0038675684481859,0.147986099123955,0.215861201286316
225,0.0027168868109583,0.0722000822424889,0.166096061468124,-0.0760407745838165,0.136388257145882,0.214424520730972
226,0.0076669394038617,0.100330613553524,0.154547452926636,-0.0673797875642776,0.136320322751999,0.174734070897102
227,0.0259567126631737,0.111653938889503,0.152704849839211,0.0175512339919806,0.16403192281723,0.121346637606621
228,0.060886561870575,0.0972266346216202,0.164460003376007,-0.00213208142668,0.21654200553894,0.0766745656728745
229,0.0927595570683479,0.0573116615414619,0.174241542816162,-0.139376923441887,0.254871219396591,0.0469964928925037
230,0.092372752726078,0.0097179701551795,0.161165356636047,-0.203184932470322,0.243044540286064,0.0335786752402782
231,0.0622150115668774,-0.0165874231606722,0.133697763085365,-0.126356706023216,0.193147093057632,0.0509422905743122
232,0.0259268935769796,-0.0096286376938223,0.117415964603424,-0.0372063294053078,0.139999151229858,0.105618022382259
233,-0.0152798518538475,-0.0007465700036846,0.109619185328484,0.015139102935791,0.0906964838504791,0.151609912514687
234,-0.0636347979307175,-0.0215019211173058,0.0906975641846657,0.103739157319069,0.0375895276665688,0.13613660633564
235,-0.100588440895081,-0.0625752657651901,0.0578945018351078,0.23634247481823,-0.0115529727190733,0.0733563080430031
236,-0.106520354747772,-0.0932629853487015,0.0321967527270317,0.3317531645298,-0.0298358760774136,0.0176130160689354
237,-0.0813153833150864,-0.098810538649559,0.0356070138514042,0.343993276357651,0.0031484437640756,0.0033576332498341
238,-0.0485031194984913,-0.0966449752449989,0.0551886521279812,0.329840570688248,0.0601404309272766,0.0251067914068699
239,-0.031446136534214,-0.100142396986485,0.0622968003153801,0.35035651922226,0.0869763717055321,0.0576165057718754
240,-0.0264809224754572,-0.0917646065354347,0.0568530410528183,0.357345521450043,0.073420338332653,0.0856105461716652
241,-0.0146864568814635,-0.0576221272349358,0.0530231967568398,0.282712161540985,0.0564836114645004,0.0964929610490799
242,0.0120398961007595,-0.019509743899107,0.0546040795743465,0.183806493878365,0.0606598034501076,0.0762097090482712
243,0.0393644794821739,-0.0103180222213268,0.0577868819236755,0.149430349469185,0.0701388269662857,0.0293197631835938
244,0.0371603779494762,-0.0351478792726994,0.0502761043608189,0.0967028215527534,0.0530735515058041,-0.0274670589715242
245,0.0045396359637379,-0.0755726769566536,0.0314215198159218,-0.089576743543148,0.014624354429543,-0.067436657845974
246,-0.0158616248518229,-0.104259103536606,0.0320542976260185,-0.263678014278412,0.0001918689231388,-0.0589477568864822
247,-0.0027645821683108,-0.102874636650085,0.0731919780373573,-0.206073060631752,0.0259052962064743,-0.0039740605279803
248,0.0227234605699778,-0.0743484050035477,0.135953843593597,0.0105914091691375,0.0689537301659584,0.0676039382815361
249,0.0437775999307632,-0.0231444556266069,0.190791338682175,0.148945614695549,0.118247158825397,0.134450942277908
250,0.0626948103308678,0.0446547083556652,0.216417044401169,0.160894706845284,0.16743603348732,0.184132367372513
251,0.0776419267058373,0.107321731746197,0.20758543908596,0.186830058693886,0.19481186568737,0.211355328559875
252,0.067719466984272,0.134372755885124,0.175338312983513,0.249195858836174,0.182551503181458,0.213053971529007
253,0.0211102217435837,0.108510106801987,0.130018442869186,0.19939860701561,0.133675366640091,0.178716391324997
254,-0.0361948572099209,0.0416677705943584,0.0825901031494141,0.0323929451406002,0.0719714686274529,0.107540383934975
255,-0.0688987523317337,-0.0374765321612358,0.0479157492518425,-0.051589448004961,0.028449397534132,0.0232937317341566
256,-0.0626263171434402,-0.0959437116980553,0.043260246515274,0.0174237955361605,0.0274773258715868,-0.0302278380841017
257,-0.0263965539634228,-0.110803693532944,0.0730186775326729,0.0726432651281357,0.0695272907614708,-0.0232677347958088
258,0.0177940111607313,-0.090145081281662,0.109972015023232,0.0174673963338137,0.124300740659237,0.0175614915788174
259,0.0542000643908978,-0.0558795593678951,0.12564617395401,-0.0191562157124281,0.159433916211128,0.0421630404889584
260,0.0791436210274696,-0.0166241861879826,0.122924208641052,0.0239688865840435,0.172946020960808,0.0457853972911835
261,0.0938589051365852,0.0192409697920084,0.116382300853729,-0.0240438301116228,0.172961309552193,0.0469596534967422
262,0.0910537168383598,0.0301126018166542,0.106159396469593,-0.236485153436661,0.144628629088402,0.0401390753686428
263,0.0625821128487587,0.0063029616139829,0.086068831384182,-0.391443341970444,0.0818151757121086,0.0221721474081278
264,0.020325904712081,-0.0294387098401785,0.0610406324267387,-0.310454189777374,0.0131752854213119,0.0100873596966267
265,-0.0174942761659622,-0.0501293540000916,0.0433403812348843,-0.109785884618759,-0.0309021286666393,0.0107130566611886
266,-0.0489867590367794,-0.0572016909718513,0.0342641621828079,0.0384578257799149,-0.048167061060667,0.0144765870645642
267,-0.076404944062233,-0.0651043727993965,0.0245545171201229,0.133495166897774,-0.0521188005805016,0.0175461694598198
268,-0.0865405723452568,-0.0700551494956017,0.0129784410819411,0.240767121315002,-0.046015553176403,0.0241451300680637
269,-0.0766208469867706,-0.0573347918689251,0.0057562305592,0.321683049201965,-0.0245189275592566,0.0320150330662727
270,-0.0690440684556961,-0.0340959466993809,0.0037098918110132,0.293178856372833,0.0105262836441398,0.034200131893158
271,-0.0706623941659927,-0.0212805382907391,-6.32676819805056e-05,0.203416213393211,0.0410507768392563,0.032616950571537
272,-0.0707249790430069,-0.0243293233215809,-0.0145414043217897,0.168001681566238,0.0408731326460838,0.0242912247776985
273,-0.0711917579174042,-0.0410741902887821,-0.0352691486477852,0.164762958884239,0.0062942346557974,0.00384196289815
274,-0.0787226930260658,-0.0700699761509895,-0.0426847040653229,0.0742526277899742,-0.037460770457983,-0.0146458866074681
275,-0.0896392986178398,-0.0990975424647331,-0.0265328269451857,-0.0803844928741455,-0.0650548487901688,-0.0232628211379051
276,-0.0893031880259514,-0.108952723443508,0.0054534967057406,-0.11951369792223,-0.0643122643232346,-0.029475636780262
277,-0.0645905956625938,-0.0941887497901917,0.0387714914977551,-0.0125732403248549,-0.0366409458220005,-0.0313947536051273
278,-0.0216900520026684,-0.0683093890547752,0.063611164689064,0.0522687956690788,0.0047483113594353,-0.0262803006917238
279,0.0165819376707077,-0.0545492097735405,0.074782632291317,0.0083429375663399,0.0456946492195129,-0.0286108832806349
280,0.0313163474202156,-0.0695663467049599,0.061214916408062,-0.0041365348733961,0.0680027678608894,-0.0540728121995926
281,0.0280766095966101,-0.0981170162558556,0.0273365769535303,0.0709028616547585,0.0589168705046177,-0.0853556767106056
282,0.0256015118211508,-0.107101745903492,0.0090295346453785,0.122654393315315,0.0378762148320675,-0.0863869935274124
283,0.0248506553471088,-0.0841555073857307,0.0292188040912151,0.100515425205231,0.0349617823958397,-0.0477703399956226
284,0.0166659541428089,-0.0374390110373497,0.0704996883869171,0.120760440826416,0.0537671260535717,0.0123980948701501
285,0.007974156178534,0.0218994282186031,0.107505157589912,0.24706007540226,0.082615002989769,0.0790862515568733
286,0.0163160525262356,0.0858722031116486,0.132932484149933,0.352445185184479,0.118102222681046,0.150044456124306
287,0.0380506813526154,0.14177043735981,0.149621918797493,0.342822670936584,0.156458079814911,0.215470522642136
288,0.047882191836834,0.168939486145973,0.157249346375465,0.319682717323303,0.180712699890137,0.25426709651947
289,0.0381939150393009,0.162161335349083,0.15496127307415,0.365185528993607,0.177568942308426,0.253264427185059
290,0.0224331896752119,0.134256109595299,0.148296371102333,0.35049107670784,0.153116509318352,0.211744427680969
291,0.0021759022492915,0.0897077322006226,0.134861454367638,0.156856313347816,0.114917561411858,0.134319856762886
292,-0.0305888745933771,0.0332968160510063,0.101880475878716,-0.0642080456018448,0.0606092363595963,0.0397133082151413
293,-0.0620575994253159,-0.0115723228082061,0.0583121292293072,-0.0863316506147385,0.0042456276714801,-0.0280763227492571
294,-0.0672909468412399,-0.0291009191423655,0.0320117920637131,0.0760791376233101,-0.0231941677629948,-0.0355401784181595
295,-0.0421591550111771,-0.0283297244459391,0.0331053175032139,0.252357989549637,-0.0084282727912068,0.0012202216312289
296,-0.001414397615008,-0.0257772412151098,0.0487424619495869,0.368920981884003,0.0339191444218159,0.0359824784100056
297,0.0343127883970737,-0.0326603502035141,0.0573148317635059,0.450737148523331,0.0762117579579353,0.0335696376860142
298,0.0516741201281548,-0.0509562939405441,0.0421746037900448,0.486126899719238,0.0964051187038422,-0.0028612038586288
299,0.0475907772779465,-0.0796559303998947,0.002702702069655,0.44050595164299,0.0870618224143982,-0.0492292046546936
300,0.0229893866926432,-0.110499285161495,-0.0409114398062229,0.357784986495972,0.0557408593595028,-0.0913784727454185
301,-0.0123167615383863,-0.119735039770603,-0.0573361925780773,0.341025501489639,0.0186262540519238,-0.107802249491215
302,-0.0437863729894161,-0.0966414958238602,-0.0365602821111679,0.391669273376465,-0.0128283137455583,-0.0809934139251709
303,-0.063225656747818,-0.0590238831937313,0.0010550741571933,0.382531464099884,-0.0311332009732723,-0.0323235727846622
304,-0.06682138890028,-0.0256864372640848,0.0370424203574657,0.28698518872261,-0.0217055026441813,0.0080325193703174
305,-0.0542475208640099,-0.0071895024739205,0.0629410222172737,0.225690007209778,0.0145788658410311,0.0299513079226017
306,-0.0385988280177116,-0.0118888719007373,0.0697345659136772,0.226715341210365,0.0445071086287498,0.038712415844202
307,-0.0379230976104736,-0.0328091382980347,0.0576824210584164,0.186837315559387,0.0472635217010975,0.0441269390285015
308,-0.0445673391222954,-0.04646060988307,0.0407935939729214,0.0909564644098282,0.0421122498810291,0.0472118966281414
309,-0.0345736965537071,-0.0421950444579124,0.03556152805686,0.0649384185671806,0.0504269450902939,0.0459066182374954
310,-0.0126213012263179,-0.0299824327230453,0.0462125726044178,0.155333176255226,0.0644909366965294,0.0415139719843864
311,-0.0071879504248499,-0.01557482406497,0.0617990493774414,0.225699484348297,0.0625688210129738,0.0378472730517387
312,-0.0255197938531637,-0.0006580749177373,0.0682588815689087,0.174897029995918,0.0347939468920231,0.0381373837590218
313,-0.0480619892477989,0.0099023673683404,0.0613074563443661,0.114648833870888,-0.0024656967725604,0.0444810427725315
314,-0.0568056143820286,0.0200837720185518,0.0471285991370678,0.162388041615486,-0.0169453211128712,0.0598190017044544
315,-0.0479470826685429,0.042848888784647,0.032439112663269,0.219141885638237,0.0049929488450288,0.0750722736120224
316,-0.0291665345430374,0.07532599568367,0.0208024214953184,0.160448655486107,0.0412473976612091,0.0707906782627106
317,-0.0216397903859615,0.0827913656830788,0.0037954507861286,0.0614716038107872,0.0459991209208965,0.0435734316706657
318,-0.0423566661775112,0.0455018803477287,-0.0274688564240932,0.0425416901707649,-0.0018523427424952,0.0157703775912523
319,-0.0737931877374649,0.0001094848339562,-0.049644760787487,0.0317618139088154,-0.0615872517228127,0.0045520570129156
320,-0.0840059220790863,-0.0141689274460077,-0.0341195799410343,-0.102992825210094,-0.0821193382143974,0.000470675935503
321,-0.0721781179308891,-0.0126279629766941,0.0041638449765741,-0.270060062408447,-0.0638116002082825,-0.0135896988213062
322,-0.0612461045384407,-0.0271202903240919,0.0287318453192711,-0.276267975568771,-0.0406346954405308,-0.0420369058847427
323,-0.0526593066751957,-0.0484222285449505,0.0345009304583073,-0.123092569410801,-0.0233184993267059,-0.0621317327022552
324,-0.0325380712747574,-0.054271399974823,0.0382335148751736,0.0422639660537243,0.0034088680986315,-0.0520214401185513
325,-0.0052924412302672,-0.0545000396668911,0.0372806899249554,0.148975595831871,0.0362912863492966,-0.0324541293084621
326,0.0200735293328762,-0.0604089163243771,0.0218009427189827,0.240175679326057,0.0539558604359627,-0.0320675186812878
327,0.0383633673191071,-0.0589256510138512,-0.0017614788375794,0.334661364555359,0.0451876670122147,-0.0447614081203938
328,0.0419929847121239,-0.0385311879217625,-0.0202266722917557,0.382218837738037,0.0197523925453424,-0.0509212762117386
329,0.034739725291729,-0.00782788451761,-0.0232167113572359,0.377758115530014,0.0015404014848172,-0.0475360862910748
330,0.0252921804785728,0.0095457173883914,-0.0106992283836007,0.386847525835037,-0.0006780455005355,-0.0460051037371159
331,0.018360985442996,0.0017659270670265,0.0066275503486394,0.416513442993164,0.0040661138482391,-0.0528966933488846
332,0.0235440898686647,-0.0173063576221466,0.0211882274597883,0.379277288913727,0.0156252086162567,-0.0622423589229584
333,0.0377505607903004,-0.0312693566083908,0.0336389765143394,0.249281287193298,0.0360284000635147,-0.0652174353599548
334,0.0410512015223503,-0.0351683124899864,0.0453470833599567,0.140130430459976,0.0530233681201935,-0.0570931471884251
335,0.0311366878449917,-0.0305656548589468,0.0505813881754875,0.133459001779556,0.0527426972985268,-0.0380429327487946
336,0.0217115394771099,-0.0177670530974865,0.0417072623968124,0.144733875989914,0.0371392890810966,-0.0158837307244539
337,0.0183535534888506,0.0057312618009746,0.0223924033343792,0.0996922925114632,0.0206518433988094,-0.0016368384240195
338,0.0243758261203766,0.0350085198879242,0.0041763880290091,0.0879964306950569,0.0162305980920792,0.0056053465232253
339,0.0421058759093285,0.0633042901754379,-0.0015890598297119,0.180992498993874,0.028108898550272,0.0254010781645775
340,0.0605136603116989,0.0915706977248192,0.0132142780348659,0.27057671546936,0.0449755303561687,0.0651907548308373
341,0.0623719766736031,0.111563436686993,0.0384484939277172,0.234141141176224,0.0465382002294064,0.0892465859651566
342,0.0414686799049377,0.105876512825489,0.0509268902242184,0.144739210605621,0.0240512937307358,0.0649175941944122
343,0.0115877790376544,0.0813292190432549,0.0494379438459873,0.151814565062523,-0.0074432385154068,0.0264755357056856
344,-0.0053486018441617,0.0650554820895195,0.0564965382218361,0.227902263402939,-0.0170753728598356,0.0403057560324669
345,0.00101523718331,0.0641005486249924,0.0768616050481796,0.230011656880379,0.0090667884796857,0.103475615382195
346,0.026324737817049,0.0605739317834377,0.085940033197403,0.166901931166649,0.0484438687562943,0.137842133641243
347,0.0486631765961647,0.0421254374086857,0.0715354755520821,0.16003991663456,0.0645876526832581,0.106084086000919
348,0.0494052655994892,0.0208057630807161,0.0585215091705322,0.174984842538834,0.0496354512870312,0.0547880828380585
349,0.0376714542508125,0.007311831228435,0.0662376135587692,0.085209034383297,0.0266585908830166,0.0237441286444664
350,0.0231089144945145,-0.0114386295899749,0.0718392506241798,-0.0623297207057476,0.0061070024967193,-0.0045314808376133
351,0.002234864514321,-0.0375733226537704,0.0527535565197468,-0.100092492997646,-0.0157510247081518,-0.0431192107498646
352,-0.025868397206068,-0.0525567196309567,0.0189365781843662,0.0001984208502108,-0.0298213511705399,-0.0715253949165344
353,-0.055657684803009,-0.0581417456269264,-0.0153649132698774,0.110728189349175,-0.0334818325936794,-0.081874817609787
354,-0.0751823931932449,-0.0678661614656448,-0.0427178703248501,0.167275965213776,-0.0423979945480824,-0.0803304091095924
355,-0.075496569275856,-0.0739703550934792,-0.0545159801840782,0.22933554649353,-0.0580137632787228,-0.0622598379850388
356,-0.0543981119990349,-0.0601531900465488,-0.0446819886565208,0.315244108438492,-0.0634168311953545,-0.0270667206496
357,-0.0156432371586561,-0.0240226797759533,-0.0186082497239113,0.337147295475006,-0.0493424348533154,0.0120782107114792
358,0.0229873359203339,0.0198163222521544,0.0005700687179341,0.254901379346848,-0.02534044906497,0.0373367555439472
359,0.0447420962154865,0.0527826547622681,-0.0041599962860345,0.167049005627632,-0.0083939721807837,0.0374689064919949
360,0.0485958270728588,0.061322957277298,-0.0243675485253334,0.144220754504204,-0.002346396446228,0.0148574206978083
361,0.036380872130394,0.039315115660429,-0.0479811802506447,0.0897020846605301,-0.0039593167603015,-0.0237425304949284
362,0.0086167836561799,0.0028949596453458,-0.0632552951574326,-0.0725409388542175,-0.0120525760576129,-0.0635315403342247
363,-0.0263900700956583,-0.0235276874154806,-0.0561714135110378,-0.199967488646507,-0.0172245539724827,-0.0780245289206505
364,-0.0554013922810555,-0.0443851575255394,-0.037606630474329,-0.158926695585251,-0.0183457303792238,-0.0633806586265564
365,-0.0694474801421165,-0.0727584809064865,-0.0275934506207705,-0.0695315152406693,-0.0283365119248629,-0.0398844741284847
366,-0.0647326335310936,-0.0931145846843719,-0.0157353654503822,-0.0814326405525208,-0.0395460464060307,-0.0152495317161083
367,-0.0439927950501442,-0.0823002532124519,0.0157830771058798,-0.115424506366253,-0.0304882992058992,0.0151356179267168
368,-0.0125974370166659,-0.0381610579788685,0.0670783296227455,-0.0351662635803223,0.0097102522850036,0.0590425170958042
369,0.024580916389823,0.0230237431824207,0.124471068382263,0.0849769338965416,0.0740108639001846,0.117083445191383
370,0.0605757161974907,0.075885683298111,0.159845113754272,0.0764193311333656,0.127812251448631,0.163142845034599
371,0.083076573908329,0.104061171412468,0.154050752520561,-0.0189972780644894,0.136137098073959,0.17274121940136
372,0.0771318152546883,0.111772932112217,0.116797462105751,-0.0261973608285189,0.0997953563928604,0.154358044266701
373,0.0523035377264023,0.114770069718361,0.0760675072669983,0.0404871962964535,0.0557019747793674,0.13345655798912
374,0.0386201255023479,0.119919940829277,0.0511839650571346,0.0114351892843843,0.0420207679271698,0.121854946017265
375,0.0358745865523815,0.107903443276882,0.0267331339418888,-0.129264086484909,0.0491235964000225,0.0972887352108955
376,0.0239166859537363,0.0733480080962181,-0.0097772553563118,-0.216859519481659,0.0442274063825607,0.05366200953722
377,0.0113681629300117,0.0520939975976944,-0.0292178187519312,-0.216124475002289,0.0325263179838657,0.0318154208362103
378,0.020016722381115,0.0618645548820496,-0.0139429001137614,-0.237909778952599,0.032678984105587,0.0408618710935116
379,0.0470328219234943,0.0747399255633354,0.0086106415838003,-0.257278710603714,0.0346601270139217,0.0418320223689079
380,0.0668577998876572,0.0593439638614655,0.0162301324307919,-0.163810208439827,0.0227557644248009,0.0172924771904945
381,0.0643358901143074,0.019980737939477,0.02097262814641,0.0193272326141596,0.0032335841096937,-0.0081412335857749
382,0.0504853576421738,-0.010725324973464,0.0353338345885277,0.157881498336792,-0.0065007572993636,-0.0045324633829295
383,0.0367448478937149,-0.0118936747312546,0.0454428531229496,0.186092674732208,-0.0043826252222061,0.0264062974601984
384,0.0202114917337894,0.0119804898276925,0.0322528854012489,0.185691028833389,-0.008855459280312,0.0646721050143242
385,0.0015615010634064,0.0400681495666504,0.0020526319276541,0.22972683608532,-0.0287534389644861,0.093232087790966
386,-0.01177076715976,0.0429895222187042,-0.0240398067981005,0.245065972208977,-0.0527774579823017,0.0941736921668053
387,-0.0141180902719498,0.010335803963244,-0.0340014323592186,0.155807688832283,-0.0641128048300743,0.0691149905323982
388,-0.000303387583699,-0.0342357121407986,-0.0291640982031822,0.0474029704928398,-0.0445594228804111,0.0397136546671391
389,0.0228816457092762,-0.0654668807983398,-0.0242039859294891,0.0049141766503453,-0.000858680694364,0.0096692657098174
390,0.0388800054788589,-0.0733910650014877,-0.026874978095293,-0.0726827681064606,0.0329199321568012,-0.0242169518023729
391,0.0460914708673954,-0.0566631630063057,-0.0259772967547178,-0.253566086292267,0.0461046062409878,-0.0440920293331146
392,0.054986871778965,-0.0236780382692814,-0.0170260369777679,-0.37760266661644,0.0527674816548824,-0.0343309827148914
393,0.0677980110049248,0.0137612232938409,-0.0058398963883519,-0.307918161153793,0.0583971105515957,-0.0076210824772715
394,0.0759562700986862,0.0434170439839363,0.009068495593965,-0.154049634933472,0.0623012147843838,0.0159389898180962
395,0.0739192366600037,0.0574557967483997,0.0292632430791855,-0.0865379795432091,0.0596773140132427,0.0324638411402702
396,0.0682226419448853,0.061129342764616,0.0497370287775993,-0.0717337653040886,0.046404130756855,0.0425246991217136
397,0.062085784971714,0.0599351711571217,0.062398049980402,0.020803552120924,0.0248316675424576,0.0422218255698681
398,0.0482346713542938,0.0494011975824833,0.0567969530820847,0.140113681554794,-0.0048656640574336,0.0283014662563801
399,0.028369115665555,0.0277351420372725,0.0325919389724731,0.131836041808128,-0.034807987511158,0.0062786536291241
400,0.0152308428660035,0.0043430468067526,0.0069870040751993,0.0318465679883957,-0.0477527379989624,-0.0024084884207695
401,0.0177699439227581,-0.0006944137858226,-0.0007613252964802,0.0220688674598932,-0.0352876745164394,0.0175523608922958
402,0.0332350879907608,0.0240004155784845,0.0110842930153012,0.109394982457161,-0.0045338813215494,0.0517441630363464
403,0.0514588803052902,0.0588463805615902,0.0270898472517729,0.106265492737293,0.0262476615607738,0.077421173453331
404,0.0589302368462086,0.0722379758954048,0.0303390752524138,-0.0566951632499695,0.0384872704744339,0.0808282047510147
405,0.0441488102078438,0.0561434999108315,0.0165382362902164,-0.196627378463745,0.02853037789464,0.0587721578776836
406,0.0194205474108458,0.0256124306470156,-0.0042530726641416,-0.161385476589203,0.0094010904431343,0.0289274342358112
407,0.0058321058750152,-0.0095499185845255,-0.0270953848958015,-0.0449695400893688,-0.0095886429771781,0.008337770588696
408,0.0005397871718741,-0.0484990105032921,-0.0578911900520325,0.0255445707589388,-0.0286836512386799,-0.0083112046122551
409,-0.0106398342177272,-0.0826699286699295,-0.09349524974823,0.0716752931475639,-0.0440868847072124,-0.0221163686364889
410,-0.0308503173291683,-0.103628449141979,-0.11800891906023,0.137933656573296,-0.0493149757385254,-0.0202072001993656
411,-0.0466934889554977,-0.116122893989086,-0.118511043488979,0.17634117603302,-0.0479480586946011,-0.0084164775907993
412,-0.0433840230107307,-0.118607744574547,-0.0948846191167831,0.156245425343513,-0.050179623067379,-0.0056822672486305
413,-0.0301187746226788,-0.100132644176483,-0.0551329553127289,0.151845932006836,-0.0561840273439884,-0.0127099473029375
414,-0.0285750739276409,-0.0665798932313919,-0.0122266262769699,0.199240744113922,-0.0604353472590446,-0.0232464466243982
415,-0.0402837134897709,-0.0368477404117584,0.0105473725125194,0.188264161348343,-0.0692754089832306,-0.0400463044643402
416,-0.0554225668311119,-0.0302169770002365,-0.0089542148634791,0.0184432808309793,-0.0957238301634789,-0.072596400976181
417,-0.0672784522175789,-0.0542606115341187,-0.0586438067257404,-0.197005301713943,-0.126386493444443,-0.111005418002605
418,-0.0640731155872345,-0.0812375247478485,-0.096967414021492,-0.263622015714645,-0.125923871994019,-0.119372703135014
419,-0.0478419624269009,-0.0774205327033997,-0.106395743787289,-0.229370266199112,-0.09888806194067,-0.095490999519825
420,-0.0380896106362343,-0.0468236804008484,-0.104007810354233,-0.277824610471725,-0.083451010286808,-0.0741333812475204
421,-0.0413603112101555,-0.0116929858922958,-0.102636493742466,-0.35723477602005,-0.0845213681459427,-0.0614269189536572
422,-0.0561974905431271,0.0131461089476943,-0.105365730822086,-0.298252284526825,-0.0881640240550041,-0.0431728921830654
423,-0.0759853571653366,0.0265725776553154,-0.108481511473656,-0.161576360464096,-0.0928981378674507,-0.0228545088320971
424,-0.0807802453637123,0.0286728516221046,-0.0957198590040207,-0.131599396467209,-0.0884164273738861,-0.0101688886061311
425,-0.0565661266446114,0.0100454445928335,-0.0618449635803699,-0.182535499334335,-0.0598963052034378,-0.005659110378474
426,-0.0090911211445927,-0.0166779924184084,-0.0179877877235413,-0.132704123854637,-0.0099018299952149,0.0026872765738517
427,0.0350421369075775,-0.0263987388461828,0.0222813598811626,0.0016804502811282,0.035424966365099,0.0208581387996674
428,0.0531026124954224,-0.0200175810605288,0.0483501255512238,0.0209881998598576,0.0499231219291687,0.0400312393903732
429,0.0488499626517296,-0.0154030863195658,0.0504144094884396,-0.0985428169369698,0.0336618646979332,0.0511224046349525
430,0.0303871463984251,-0.0273234695196152,0.0225645676255226,-0.175490111112595,-0.0025112978182733,0.0484247878193855
431,0.0029760168399661,-0.0426149629056454,-0.0125167770311236,-0.177925437688828,-0.0382569469511509,0.0424606204032898
432,-0.0192728023976088,-0.0371098294854164,-0.0283418372273445,-0.257300406694412,-0.0509540736675262,0.0448311492800713
433,-0.0252875220030546,-0.0277359914034605,-0.0402081571519375,-0.393258988857269,-0.051973357796669,0.034145925194025
434,-0.0202744472771883,-0.0409277565777302,-0.0694828480482101,-0.396233320236206,-0.0664442703127861,-0.0138261625543237
435,-0.0217278208583593,-0.0598442405462265,-0.103498391807079,-0.23660746216774,-0.097123347222805,-0.078748531639576
436,-0.037901259958744,-0.0577261038124561,-0.122317858040333,-0.0702427178621292,-0.131528675556183,-0.118841573596001
437,-0.0549713000655174,-0.0346188843250275,-0.123921297490597,0.0083453087136149,-0.148680299520493,-0.121252536773682
438,-0.0588394589722157,-0.0073366751894354,-0.117113746702671,0.0641843527555466,-0.132663786411285,-0.106035776436329
439,-0.0521573349833488,0.005431966856122,-0.10659846663475,0.164455220103264,-0.0972596406936646,-0.0960067734122276
440,-0.0412837788462639,0.0002806633419822,-0.0875857546925545,0.240967079997063,-0.0711589828133583,-0.0952339768409729
441,-0.030987910926342,-0.0125199407339096,-0.0604348070919514,0.203703463077545,-0.0638800859451294,-0.0983048751950264
442,-0.0240669101476669,-0.024993110448122,-0.038076464086771,0.109108276665211,-0.0676958858966827,-0.100761257112026
443,-0.0153396502137184,-0.0327344574034214,-0.027754008769989,0.0624311678111553,-0.0699754506349564,-0.0966988503932953
444,0.0020861006341874,-0.0404133424162865,-0.0245362557470798,-0.0004328893846832,-0.0580834522843361,-0.0864522084593773
445,0.0280956644564867,-0.0540106073021889,-0.0230417307466269,-0.177556723356247,-0.0329528339207172,-0.075627513229847
446,0.0559321828186512,-0.0606154799461365,-0.0151626113802195,-0.333739340305328,-0.0045410385355353,-0.0593201331794262
447,0.080221988260746,-0.0438855290412903,0.0067019104026258,-0.285356938838959,0.0236570201814175,-0.0282010566443205
448,0.101264998316765,-0.0089457649737596,0.0374704040586948,-0.112815074622631,0.04622558131814,0.0140775786712766
449,0.11614216119051,0.0249353367835283,0.0628405660390854,-0.0411343276500702,0.053796049207449,0.0583960600197315
450,0.113703541457653,0.0457112416625023,0.0703468024730682,-0.0846667885780334,0.0461171083152294,0.102260038256645
451,0.0858937650918961,0.0575298257172108,0.0582885593175888,-0.0652821063995361,0.0248389262706041,0.146244794130325
452,0.0344446673989296,0.0628600269556046,0.026589646935463,0.0324754491448402,-0.0161127168685198,0.175619646906853
453,-0.0247902423143387,0.0570227056741714,-0.0235505774617195,0.0425998046994209,-0.0715987235307693,0.165125101804733
454,-0.0674272701144218,0.0442298427224159,-0.0700126811861992,-0.0515415631234646,-0.114701986312866,0.108966216444969
455,-0.0803734734654427,0.0290336459875107,-0.0818312019109726,-0.0711983069777489,-0.12167689204216,0.0256960149854422
456,-0.0557605996727943,0.0200572069734335,-0.0438332185149193,0.0360893756151199,-0.084721103310585,-0.0407583639025688
457,0.0100111346691847,0.0305004920810461,0.0301595348864794,0.0879055708646774,-0.0088615026324987,-0.0507685132324696
458,0.0852897465229034,0.0436222702264786,0.0907881781458855,-0.0282300803810358,0.0710853412747383,-0.0263191070407629
459,0.119318477809429,0.0346212349832058,0.0942210182547569,-0.148469284176826,0.101710624992847,-0.0218747276812792
460,0.100503258407116,0.0081483358517289,0.0488267280161381,-0.10304793715477,0.0643768012523651,-0.0488767363131046
461,0.0532080568373203,-0.028022974729538,-0.0101485699415207,0.0407614670693874,-0.0128090046346188,-0.0823136195540428
462,0.0012634181184694,-0.0693434923887253,-0.0573932565748692,0.152422308921814,-0.0854309126734734,-0.102252915501595
463,-0.038432452827692,-0.0978255644440651,-0.0810884088277817,0.224963217973709,-0.120148062705994,-0.0977928191423416
464,-0.0561776682734489,-0.103302717208862,-0.0872087776660919,0.299257129430771,-0.117517359554768,-0.077070988714695
465,-0.0491690523922443,-0.0927191153168678,-0.0880371630191803,0.339724719524384,-0.0978059247136116,-0.0626555159687996
466,-0.0240109637379646,-0.0715280994772911,-0.0880028381943703,0.299069225788116,-0.0722483918070793,-0.0592020303010941
467,0.0017460469389334,-0.0500503070652485,-0.0891928821802139,0.22706738114357,-0.0527903586626053,-0.0629141852259636
468,0.0153879299759865,-0.0438708290457726,-0.0900070369243622,0.197707891464233,-0.0549198091030121,-0.0771540477871895
469,0.009204956702888,-0.0561646819114685,-0.0950996056199074,0.16074001789093,-0.0840442031621933,-0.106523387134075
470,-0.0221091918647289,-0.0742404386401176,-0.110773950815201,0.0077853905968368,-0.127087876200676,-0.145439729094505
471,-0.0590917840600014,-0.0786151140928268,-0.119300901889801,-0.184009552001953,-0.148862287402153,-0.167244091629982
472,-0.0752029791474342,-0.0683419480919838,-0.104600697755814,-0.220757111907005,-0.129579946398735,-0.155613243579865
473,-0.0700225308537483,-0.056732140481472,-0.078553706407547,-0.12089591473341,-0.0912219434976578,-0.115481466054916
474,-0.0579654462635517,-0.042680200189352,-0.0640298128128052,-0.065892867743969,-0.0632915422320366,-0.0480056963860989
475,-0.0507522001862526,-0.0187714118510485,-0.0791616663336754,-0.0742737874388695,-0.0586384125053883,0.0201415866613388
476,-0.0381541140377522,0.0137467151507735,-0.109188720583916,-0.0094686644151806,-0.0684309378266335,0.0410360284149647
477,-0.0091946693137288,0.036288145929575,-0.114339403808117,0.131629213690758,-0.0752724260091782,0.0129594411700964
478,0.0144121050834656,0.026460574939847,-0.0825892984867096,0.193510502576828,-0.0748536810278893,-0.0258776713162661
479,0.0188569650053978,-0.0028224904090166,-0.0334967598319054,0.138968765735626,-0.0660479739308357,-0.0486781224608421
480,0.0124692255631089,-0.0220675021409988,0.0036771080922335,0.1084054261446,-0.0546417757868767,-0.0535717345774174
481,0.0023965395521372,-0.0204171016812325,0.0173926167190075,0.163369327783585,-0.0485764592885971,-0.0410928353667259
482,0.0004233208892401,0.0014179031131789,0.0281864628195763,0.204091295599937,-0.0357212461531162,-0.0042548836208879
483,0.0117351040244102,0.0336806327104568,0.0492190197110176,0.177853912115097,-0.0075007365085184,0.0461646318435669
484,0.025832274928689,0.0628749802708626,0.0673433393239975,0.169195830821991,0.0265963524580002,0.0878163874149323
485,0.0330889187753201,0.0779940709471703,0.0672437846660614,0.220460370182991,0.0551695786416531,0.109597392380238
486,0.0272668246179819,0.069721594452858,0.0417329184710979,0.263306200504303,0.0564195476472378,0.0999866500496864
487,0.0099519416689872,0.0444634854793549,-0.002504511270672,0.263755589723587,0.0138146663084626,0.0567994862794876
488,-0.0026074862107634,0.0202153827995062,-0.0471098348498344,0.263902425765991,-0.0456402897834778,0.0041249520145356
489,0.0017051208997145,0.0071650543250143,-0.0785149782896042,0.295705527067184,-0.0785212516784668,-0.0298157650977373
490,0.0163201950490475,0.0118180513381958,-0.0902082249522209,0.331714481115341,-0.0748834684491158,-0.0306369252502918
491,0.0241970010101795,0.0307779964059591,-0.0831291303038597,0.336790412664413,-0.0591294281184673,-0.0093731647357344
492,0.017890939489007,0.0430398918688297,-0.06413833796978,0.333256006240845,-0.0529646873474121,0.002513758605346
493,0.0132041508331895,0.0393798537552357,-0.036500483751297,0.353743970394135,-0.049908060580492,-0.007319732569158
494,0.0264222547411919,0.0245987772941589,-0.0100195044651628,0.341080993413925,-0.0406429655849934,-0.0270717572420835
495,0.0451276786625385,-0.0018530285451561,-0.0047441138885915,0.214786306023598,-0.0343956835567951,-0.0481181405484676
496,0.0540151186287403,-0.0301740597933531,-0.021824961528182,0.0431485548615456,-0.0312426667660475,-0.0585101433098316
497,0.0587724596261978,-0.0453100018203259,-0.0396383740007877,-0.0276246313005686,-0.0210646409541368,-0.044192373752594
498,0.0631235986948013,-0.0431526154279709,-0.04269989579916,-0.0046246568672359,-0.0085506495088338,-0.0114120785146952
499,0.0632175952196121,-0.0221654586493969,-0.0291522182524204,-0.014910832978785,-0.0010278000263497,0.0176559258252382
500,0.0616399981081486,0.0163021944463253,-0.000456231588032,-0.0520241521298885,0.0082633066922426,0.0299117173999548
501,0.0622678101062775,0.0626124516129494,0.0389211811125278,0.004826835822314,0.0323926322162151,0.0385015197098255
502,0.0586464032530785,0.104534432291985,0.0762916207313538,0.125792190432549,0.0710208639502525,0.0618033185601234
503,0.0506354160606861,0.134000033140183,0.0929447486996651,0.141144528985024,0.105359390377998,0.0881340950727463
504,0.0485706031322479,0.141098216176033,0.0716068595647812,0.025129048153758,0.111088648438454,0.0866805464029312
505,0.0363387241959572,0.118331491947174,0.005279897712171,-0.0638929456472397,0.0641735941171646,0.045830000191927
506,-0.0028385566547513,0.0821797624230385,-0.0784510150551796,-0.0542913600802422,-0.0277717709541321,-0.0094944816082716
507,-0.0354032069444656,0.064191646873951,-0.117592841386795,-0.0423755496740341,-0.102223977446556,-0.0315596275031567
508,-0.0229043159633875,0.0688340291380882,-0.0841579735279083,-0.0763063728809357,-0.10949695110321,-0.000115698276204
509,0.0260949395596981,0.0750842019915581,-0.0154289565980434,-0.0662293583154678,-0.0645671263337135,0.0563055016100407
510,0.0817097350955009,0.0763701125979424,0.0468576774001122,0.0095519879832863,-0.002347043948248,0.105998381972313
511,0.126882895827293,0.0810429006814957,0.0919365137815475,0.0360801964998245,0.0565094090998173,0.137905865907669
512,0.148558095097542,0.0903602838516235,0.107664003968239,-0.0174948442727327,0.089436374604702,0.142347052693367
513,0.134666904807091,0.0910934880375862,0.0735884010791779,-0.0522762387990952,0.0751005038619041,0.105141498148441
514,0.0903613716363907,0.0653351098299026,-0.0002977953699883,-0.024675227701664,0.0217543393373489,0.0275503993034363
515,0.0350518673658371,0.0147457653656602,-0.0694094598293304,-6.40713842585683e-05,-0.0296014826744795,-0.0613399967551231
516,-0.013307336717844,-0.0388873405754566,-0.100733824074268,-0.0228775478899479,-0.0459021702408791,-0.129221946001053
517,-0.0485225990414619,-0.081582322716713,-0.0967718586325645,-0.0312710516154766,-0.0340639725327492,-0.159222796559334
518,-0.0638106763362885,-0.109497137367725,-0.0717572942376137,0.0374921075999737,-0.0131661724299192,-0.148079141974449
519,-0.0491192676126957,-0.117402166128159,-0.0436839535832405,0.118245661258698,0.0008480505784973,-0.113300062716007
520,-0.0148324593901634,-0.103517614305019,-0.03117142803967,0.108330778777599,-0.0102389929816127,-0.0750192627310753
521,0.0144331557676196,-0.0677342712879181,-0.0272351577877998,0.043179739266634,-0.0375914312899113,-0.0359496399760246
522,0.0267949122935534,-0.0172984357923269,-0.0201248303055763,0.0281194131821394,-0.0542966909706593,-0.0039677247405052
523,0.0243244655430317,0.0247423965483904,-0.0217065066099167,0.0425109639763832,-0.0550491847097874,0.0011961238924413
524,0.0060975910164415,0.0347785279154778,-0.0436736904084682,-0.0155903799459338,-0.0540962740778923,-0.0288620293140411
525,-0.0292323548346758,0.0086193606257438,-0.0817829370498657,-0.123219229280949,-0.0688879936933517,-0.0804451778531075
526,-0.0647012069821358,-0.0317970886826515,-0.119099572300911,-0.147307530045509,-0.0998260825872421,-0.117657795548439
527,-0.0737253054976463,-0.0535345748066902,-0.136842712759972,-0.0809638351202011,-0.118406929075718,-0.105820298194885
528,-0.05191845074296,-0.0376320630311966,-0.127832129597664,-0.0692604780197144,-0.0955421850085258,-0.0411567911505699
529,-0.0257996581494808,0.0033632104750722,-0.0977392420172691,-0.148465752601624,-0.0389630123972893,0.0462739840149879
530,-0.0211840253323317,0.038151279091835,-0.0593850016593933,-0.181201010942459,0.0177055317908525,0.106192141771317
531,-0.0300537142902613,0.0513686537742615,-0.0163654368370771,-0.110352665185928,0.0541408658027649,0.111005246639252
532,-0.027439022436738,0.0471471548080444,0.0308359488844872,-0.0579160377383232,0.0618012621998787,0.0813041925430298
533,-0.0104427523910999,0.0304005667567253,0.0633949190378189,-0.0978395715355873,0.0359095148742199,0.0487000979483128
534,0.0079793352633714,0.0073646907694637,0.0666617453098297,-0.123889476060867,-0.0034643483813852,0.0285898949950933
535,0.020716842263937,-0.0088703352957963,0.050145473331213,-0.0885535702109337,-0.0247469116002321,0.0232780203223228
536,0.0228337645530701,-0.0127953998744488,0.024401469156146,-0.112455479800701,-0.0284429769963026,0.0198222659528255
537,0.0100892754271626,-0.0156055893748999,-0.0100290458649397,-0.206856995820999,-0.0385129190981388,0.006329602561891
538,-0.0137274675071239,-0.0259493198245764,-0.0467002131044865,-0.223208129405975,-0.0563137568533421,-0.008202351629734
539,-0.0342097990214825,-0.0376654975116253,-0.0683664605021477,-0.119305714964867,-0.0609166398644447,-0.0202917587012053
540,-0.0314915664494038,-0.0405627079308033,-0.0654463842511177,-0.0120717259123921,-0.0396384373307228,-0.0424765571951866
541,-0.0026354987639933,-0.0302914846688509,-0.046930093318224,0.0107751861214638,0.0024244063533842,-0.0680997893214226
542,0.0301466193050146,-0.0154330907389522,-0.0265648439526558,0.0061833742074668,0.0499724373221397,-0.0770825520157814
543,0.0458590500056744,-0.0082157216966152,-0.011044898070395,0.0543107874691486,0.0858199670910835,-0.0667452439665794
544,0.0366165079176426,-0.0107710119336843,-0.0081527633592486,0.0937722250819206,0.0823444873094559,-0.0550421513617039
545,0.0122208930552006,-0.0167340990155935,-0.0270011946558952,0.0243820287287235,0.0194177068769932,-0.0547032319009304
546,-0.009063103236258,-0.0178165268152952,-0.0561750754714012,-0.0975514426827431,-0.0707446113228798,-0.0553260743618011
547,-0.0286470018327236,-0.0192895643413067,-0.0747887939214706,-0.148840323090553,-0.134858042001724,-0.0548495948314667
548,-0.0462575778365135,-0.025152038782835,-0.0751304030418396,-0.145103633403778,-0.149339959025383,-0.0532367378473282
549,-0.0448848195374012,-0.0168493110686541,-0.0565798580646515,-0.182507708668709,-0.115832231938839,-0.0285024642944336
550,-0.0271397735923529,0.0166316106915474,-0.0270307250320911,-0.232085973024368,-0.0584068857133389,0.016972852870822
551,-0.0130658950656652,0.0580409914255142,0.0007369143422693,-0.175778418779373,-0.0079790139570832,0.052905086427927
552,-0.011310838162899,0.0817260518670082,0.0153116211295128,-0.0457369908690453,0.0213869698345661,0.0661577433347702
553,-0.0181501023471355,0.0813780128955841,0.013889349065721,-0.0051181651651859,0.0332828983664513,0.0582711547613144
554,-0.0201045218855143,0.0689412802457809,0.0107729258015752,-0.0618955045938492,0.0467047467827797,0.0374525673687458
555,-0.0035216172691434,0.0503775998950005,0.0186118222773075,-0.0525162853300571,0.0753046348690987,0.0201841108500957
556,0.0334598533809185,0.0280586667358875,0.0375305004417896,0.0609874278306961,0.11014486849308,0.0202408265322447
557,0.0808904841542244,0.0083124283701181,0.0570214539766312,0.127403989434242,0.138027936220169,0.0389732457697392
558,0.109816581010818,-0.0119549874216318,0.0490236654877663,0.0573745742440224,0.141116634011269,0.0463289394974709
559,0.0921873077750206,-0.0440224520862103,-0.0048834485933184,-0.0522507838904858,0.0930447280406952,0.0009435683605261
560,0.0438256151974201,-0.0775669515132904,-0.0677466541528702,-0.105094321072102,0.0067622591741383,-0.0689620822668076
561,0.0054105697199702,-0.0825031399726868,-0.0808213949203491,-0.125142216682434,-0.0596623457968235,-0.0887702256441116
562,-0.0061563593335449,-0.0526993088424206,-0.0382194146513939,-0.113525167107582,-0.0744394734501839,-0.047779381275177
563,0.0032206785399466,-0.0064143775962293,0.0210374537855387,-0.0125737451016903,-0.0498433373868465,0.0097768828272819
564,0.0213783606886864,0.0396049581468105,0.0647202208638191,0.159422695636749,-0.0056639807298779,0.0543743818998337
565,0.0348965041339397,0.0690158233046532,0.0831738337874413,0.29533115029335,0.043523084372282,0.0764186158776283
566,0.0371149405837059,0.0650404691696167,0.0754704177379608,0.321106046438217,0.0798615738749504,0.067294105887413
567,0.028367456048727,0.0265421774238348,0.0397238619625568,0.274944126605988,0.0800700858235359,0.0239408258348703
568,0.0138030145317316,-0.0217438098043203,-0.0120651535689831,0.235857412219048,0.0441942624747753,-0.0338238812983036
569,-0.0021453986410051,-0.0544349029660225,-0.0585516132414341,0.191598191857338,-0.002583792200312,-0.0801164582371712
570,-0.0118922544643283,-0.0676478147506714,-0.0937657877802849,0.0771756172180176,-0.0360475331544876,-0.101126685738564
571,0.0004337822028901,-0.0603032484650612,-0.118724510073662,-0.069249264895916,-0.0414041355252266,-0.0838419273495674
572,0.0273208878934383,-0.03350018709898,-0.128918305039406,-0.149348899722099,-0.0371973365545273,-0.0413444936275482
573,0.0351070538163185,-0.0083453394472599,-0.123327046632767,-0.174957036972046,-0.0568796135485172,-0.0217800512909889
574,0.0084482785314321,0.002988412277773,-0.106253899633884,-0.231189996004105,-0.0935840457677841,-0.0395719259977341
575,-0.0322033576667309,0.0149154113605618,-0.0791304185986519,-0.285164058208466,-0.115627631545067,-0.0547997877001762
576,-0.0563918240368366,0.0322924554347992,-0.0401999540627003,-0.209911093115807,-0.106230199337006,-0.0372165217995644
577,-0.0561193935573101,0.0434602461755276,0.0009685548720881,-0.0325450822710991,-0.0700259357690811,0.0044712265953421
578,-0.0418323203921318,0.0430986844003201,0.0265897028148174,0.0663153901696205,-0.02175647392869,0.0435549952089787
579,-0.0235337112098932,0.0324592590332031,0.0351688675582409,0.0410157665610313,0.0248168222606182,0.0548972673714161
580,-0.0085596339777112,0.0137677006423473,0.0343762300908566,0.0280901398509741,0.0524453334510326,0.0369184166193008
581,0.0017583646113053,-0.0003872395027428,0.0264389682561159,0.080335721373558,0.0542068593204021,0.0179884694516659
582,0.0150036504492164,0.0083291614428162,0.0180892869830132,0.0860179364681244,0.0523720532655716,0.0213714316487312
583,0.0354205779731274,0.0332572311162949,0.0154939470812678,-0.0029618865810334,0.0661906152963638,0.0354685261845589
584,0.0537234395742416,0.0490124970674515,0.0179152693599463,-0.0735097751021385,0.0832142308354378,0.0398337803781033
585,0.0584361962974072,0.0505379699170589,0.0257809795439243,-0.0675912201404572,0.084561824798584,0.0359547361731529
586,0.0478050820529461,0.0474460422992706,0.0307171680033207,-0.0560260340571404,0.0639143735170364,0.0273373685777187
587,0.0279531665146351,0.0402730032801628,0.0142477434128523,-0.0643669292330742,0.0244043283164501,0.0093455482274293
588,0.0075417789630591,0.0240297149866819,-0.0272707678377628,-0.0491901114583015,-0.0209917835891247,-0.0214161407202482
589,-0.0032565677538514,-0.0065087601542472,-0.0785120129585266,-0.0025977045297622,-0.0542914867401123,-0.0682361945509911
590,-0.003128801472485,-0.0504007712006569,-0.1186792999506,0.0276146586984396,-0.0675064399838448,-0.117960125207901
591,-0.0076626958325505,-0.0932056978344917,-0.131894379854202,0.0150261698290706,-0.0721919909119606,-0.145179390907288
592,-0.0257266368716955,-0.117642730474472,-0.123344644904137,0.0123639246448874,-0.0846840515732765,-0.148580759763718
593,-0.0459467209875584,-0.115586452186108,-0.108344115316868,0.0712986215949059,-0.0987288430333138,-0.142817184329033
594,-0.0535085871815681,-0.0916760191321373,-0.0845229774713516,0.140216991305351,-0.0905778259038925,-0.1250219643116
595,-0.0400959402322769,-0.0599404685199261,-0.0429410636425018,0.135033562779427,-0.0526949651539326,-0.0879354551434517
596,-0.0044444049708545,-0.0268513131886721,0.0086523499339819,0.0820790603756905,0.0021207218524068,-0.0413313582539558
597,0.0423884019255638,0.0044776266440749,0.0454692244529724,0.0657464638352394,0.0551362074911594,-0.0084827551618218
598,0.0743842944502831,0.0222832504659891,0.0454554036259651,0.0530567653477192,0.0827922448515892,-0.0048102582804858
599,0.0725597590208054,0.0237255599349737,0.0112339593470097,-0.0488363206386566,0.0670110359787941,-0.0161819607019424
600,0.0466096624732018,0.0208273157477379,-0.0353246331214905,-0.176365420222282,0.0156424567103386,-0.0190633665770292
601,0.015591592527926,0.0269034821540117,-0.0669784694910049,-0.178076848387718,-0.0363196618855,-0.0058085042983293
602,-0.0121531095355749,0.0407583676278591,-0.0676006972789764,-0.0738761499524117,-0.0584205575287342,0.0129068978130817
603,-0.0296453703194857,0.0479186400771141,-0.0455584973096848,-0.0329616405069828,-0.0483398139476776,0.0210277959704399
604,-0.0301422998309135,0.0390193201601505,-0.0168672818690538,-0.0919762328267097,-0.0193648841232061,0.0145358946174383
605,-0.0226817168295383,0.0104955080896616,0.0008864956325851,-0.112513907253742,0.0060851662419736,-0.0049157575704157
606,-0.0224478002637625,-0.0283803530037403,-0.0101690078154206,-0.0575620569288731,0.005754797719419,-0.0285703260451555
607,-0.0336057990789413,-0.0520436353981495,-0.0477236099541187,-0.0541181489825249,-0.0243124943226576,-0.0386872589588165
608,-0.056453462690115,-0.0509865880012512,-0.0910286754369736,-0.145750403404236,-0.0732083171606064,-0.0321354307234287
609,-0.0796756446361542,-0.0327939353883266,-0.114381909370422,-0.203619286417961,-0.11029490083456,-0.0186891853809357
610,-0.0759239941835403,0.0023228749632835,-0.10038235783577,-0.14111040532589,-0.0975342765450478,-0.0038434325251728
611,-0.039908442646265,0.0365961976349354,-0.0668000131845474,-0.0295081809163094,-0.0488480180501938,0.0007102251402102
612,-0.0026661604642868,0.0282528270035982,-0.0497206151485443,0.0479979775846004,-0.0215944033116102,-0.019530862569809
613,0.0115506462752819,-0.0270598120987415,-0.0470645017921925,0.110577993094921,-0.0308057852089405,-0.0484008230268955
614,0.0085750762373209,-0.0805157497525215,-0.0284126028418541,0.197947159409523,-0.0400653965771198,-0.0519234128296375
615,-0.0007987123681232,-0.0939104855060577,0.0118585666641593,0.257745921611786,-0.0225708167999983,-0.0244975406676531
616,-0.0176930297166109,-0.0775853469967842,0.0431337431073189,0.224289953708649,0.0106720579788089,0.0083050765097141
617,-0.0347564779222012,-0.0667990446090698,0.0335174910724163,0.142061293125153,0.0299618914723396,0.0108327595517039
618,-0.0282807126641274,-0.0767307728528976,-0.0089422678574919,0.0938878878951073,0.0229148361831903,-0.0290649309754372
619,-0.0041327639482915,-0.0929739400744438,-0.0532480180263519,0.0432014688849449,-0.0019310632487759,-0.0856879353523254
620,0.0025810962542891,-0.0965590626001358,-0.0791613012552261,-0.111634217202663,-0.0239305775612593,-0.124739579856396
621,-0.0125293815508485,-0.0775700807571411,-0.0729976445436478,-0.295072585344315,-0.0154842790216208,-0.124271839857101
622,-0.0290288217365742,-0.0434450767934322,-0.0384045913815498,-0.32267564535141,0.0210153460502625,-0.090902715921402
623,-0.0334785208106041,-0.0084006004035472,0.0010891404235735,-0.220055505633354,0.0516452006995678,-0.0526159480214119
624,-0.0249599441885948,0.0199262276291847,0.0243625622242689,-0.164798751473427,0.0552654899656773,-0.0265982840210199
625,-0.0179290510714054,0.0285730697214603,0.0151201039552689,-0.183878421783447,0.0277688708156347,-0.0208917427808046
626,-0.0242436639964581,0.0092086186632514,-0.0252105835825205,-0.164681643247604,-0.0252659860998392,-0.0348374061286449
627,-0.0397166162729263,-0.0163064282387495,-0.064849890768528,-0.0979561656713486,-0.0763499513268471,-0.0457221306860447
628,-0.0548077523708344,-0.0082711111754179,-0.0736062899231911,-0.100391246378422,-0.0938510596752167,-0.0278688240796328
629,-0.0670841857790947,0.0451971255242825,-0.0562613680958748,-0.186834186315537,-0.0795854926109314,0.0139565216377378
630,-0.0814739763736725,0.103747010231018,-0.0363101214170456,-0.218856126070023,-0.0613023042678833,0.0509939230978489
631,-0.0931784734129906,0.119744129478931,-0.0187419839203358,-0.155302748084068,-0.0485649071633816,0.0735362395644188
632,-0.0899125784635544,0.0927291586995125,0.0053896843455731,-0.153342917561531,-0.028586857020855,0.0937789008021355
633,-0.0726240798830986,0.0456360168755054,0.0309991482645273,-0.304828882217407,0.0001743461034493,0.104069903492928
634,-0.0495422333478928,-0.0053587411530315,0.0470287352800369,-0.439058482646942,0.0298208389431238,0.0848575159907341
635,-0.0276365075260401,-0.0441280640661716,0.0532320141792297,-0.386706203222275,0.0604497790336609,0.0435552448034287
636,-0.017158342525363,-0.0687283873558044,0.0467203371226788,-0.238897457718849,0.0812556371092796,-0.003469395218417
637,-0.0207762736827135,-0.0854270160198212,0.0219913870096207,-0.139707535505295,0.0720158815383911,-0.0500608645379543
638,-0.0322721637785435,-0.0902025699615479,-0.0140681052580476,-0.0780845358967781,0.0341620333492756,-0.0873373448848724
639,-0.050964642316103,-0.0866153240203857,-0.0516268461942673,-0.0050045126117765,-0.0146871656179428,-0.11032947152853
640,-0.0713878720998764,-0.083416573703289,-0.0803544074296951,0.0371612086892128,-0.0542695671319962,-0.121235124766827
641,-0.0774301588535309,-0.0784219577908516,-0.0870296880602837,-0.0013832389377057,-0.0658847168087959,-0.120025366544724
642,-0.0589767210185528,-0.0662942379713058,-0.0694427043199539,-0.0589906312525272,-0.045222420245409,-0.100694008171558
643,-0.0207446087151766,-0.0425089225172997,-0.0383761823177338,-0.0582773201167583,-0.0042599276639521,-0.0597579963505268
644,0.0137401884421706,-0.0071754450909793,-0.0114952921867371,-0.0813103467226028,0.0319883488118649,-0.0157646834850311
645,0.0213290378451347,0.030673211440444,-0.0018925014883279,-0.218009933829308,0.044799879193306,0.0121717704460025
646,0.0066756270825862,0.0662603154778481,-0.007986394688487,-0.34213325381279,0.0442661233246326,0.0363132990896702
647,-0.0136107699945569,0.0936923623085022,-0.0257825572043657,-0.307891309261322,0.0416564792394638,0.0702539384365082
648,-0.0321937799453735,0.0918001756072044,-0.0540164336562157,-0.192059189081192,0.0235667154192925,0.0907618477940559
649,-0.0511367432773113,0.0508311539888382,-0.0878175273537636,-0.169803962111473,-0.0254932194948196,0.0589113086462021
650,-0.0771382302045822,-0.0099043166264891,-0.117882542312145,-0.231507763266563,-0.0952981486916542,-0.0232518892735243
651,-0.0993774458765984,-0.0561427809298038,-0.121068015694618,-0.199946090579033,-0.138225838541985,-0.0974593982100487
652,-0.09474778175354,-0.0611726492643356,-0.0801194831728935,-0.0548507533967495,-0.113183476030827,-0.111080288887024
653,-0.0654517635703087,-0.0331402607262135,-0.0194896105676889,0.0242995154112577,-0.0422392226755619,-0.0724023431539536
654,-0.0314697809517384,-0.002539396751672,0.021729426458478,-0.0233304034918547,0.0254334937781096,-0.021912470459938
655,-0.0058558131568133,0.0195364840328693,0.0340928882360458,-0.06232750415802,0.07138941437006,0.0132894096896052
656,0.0100665325298905,0.0411357581615448,0.0357275083661079,-0.0526755861938,0.105391763150692,0.030107356607914
657,0.0219033844769001,0.0574722029268742,0.0425353944301605,-0.0994028970599175,0.132246285676956,0.0363506376743317
658,0.0250285863876343,0.0513927340507507,0.0492466874420643,-0.182527601718903,0.135536700487137,0.0281716845929623
659,0.0111868595704436,0.016053544357419,0.0451138950884342,-0.170622080564499,0.10510378330946,0.0050872387364506
660,-0.0135849313810468,-0.0306942518800497,0.0299328994005919,-0.0557664632797241,0.0545707754790783,-0.0104114785790443
661,-0.035282451659441,-0.0531595274806023,0.0092360023409128,0.0498996935784817,0.0037094701547175,-0.0038246526382863
662,-0.042076863348484,-0.0400581918656826,-0.0095614325255155,0.0816972181200981,-0.0321069955825806,0.0145076820626855
663,-0.0318418815732002,-0.0151824383065104,-0.0191588532179594,0.0949226766824722,-0.0434084571897984,0.0308720730245113
664,-0.0124349556863308,0.0010620498796924,-0.0193373765796423,0.152207896113396,-0.0320557728409767,0.0293489117175341
665,0.004705948755145,0.0038402166683226,-0.0172312445938587,0.197496026754379,-0.0098407501354813,-0.0041617485694587
666,0.0129388654604554,-0.0059931753203272,-0.0129508143290877,0.152168229222298,0.0155780296772718,-0.0549939647316933
667,0.016725430265069,-0.021107217296958,-0.0014416200574487,0.0728228688240051,0.039206251502037,-0.0825998485088348
668,0.022124707698822,-0.0295960959047079,0.0084627298638224,0.0637065395712852,0.0489024445414543,-0.0691914036870003
669,0.0266871601343155,-0.029886282980442,0.0037527766544371,0.080000601708889,0.0365940928459167,-0.0435543246567249
670,0.0258234329521656,-0.0248450860381126,-0.0102821188047528,0.0118204234167933,0.0123425144702196,-0.0304195415228605
671,0.0187246259301901,-0.0017602705629542,-0.020446265116334,-0.0834461003541946,-0.0048022349365055,-0.0183764323592186
672,0.0003596608585212,0.0490490458905697,-0.0261927619576454,-0.0743313580751419,-0.0090838754549622,0.0035252012312412
673,-0.0285485778003931,0.10326711833477,-0.0301065985113382,-0.0015336925862357,-0.0073214364238083,0.0245680045336485
674,-0.0533835925161839,0.121088661253452,-0.0290906019508839,-0.0022563470993191,-0.0069635696709156,0.0291995797306299
675,-0.0658561289310455,0.0941301956772804,-0.0239183586090803,-0.0650310218334198,-0.0097056049853563,0.0115395206958056
676,-0.0621980838477612,0.0490065589547157,-0.0134667446836829,-0.0621429309248924,-0.0030667681712657,-0.0161094907671213
677,-0.0399059914052486,0.0160227492451668,0.0039271209388971,0.0020874494221061,0.0225583892315626,-0.029961034655571
678,-0.0043588713742792,0.0075356517918407,0.0271995775401592,0.0009257696801796,0.0616390407085419,-0.014644892886281
679,0.0321735888719559,0.0127082476392388,0.0507014654576778,-0.0760100036859512,0.099030427634716,0.0170295126736164
680,0.0478764027357101,0.0142696173861623,0.0512949861586094,-0.109638132154942,0.105184085667133,0.0348268449306488
681,0.0385364778339863,0.0148367946967483,0.0208647586405277,-0.0511748194694519,0.0720077231526375,0.0450077652931213
682,0.0251320749521255,0.0260888524353504,-0.0140008041635156,0.040984034538269,0.0336457192897797,0.0671845972537994
683,0.0166974719613791,0.0407300777733326,-0.0314633958041668,0.127396836876869,0.0139729743823409,0.076626256108284
684,0.0091275526210665,0.0446594730019569,-0.033635389059782,0.220643758773804,0.0040777642279863,0.055385485291481
685,0.0018281545490026,0.034127626568079,-0.032676350325346,0.314398288726807,-0.0092905918136239,0.0230904798954725
686,-0.0082994336262345,0.0107347182929516,-0.0334224514663219,0.355208665132523,-0.0275140758603811,-0.0077332658693194
687,-0.022116769105196,-0.0172065645456314,-0.0296264626085758,0.320302367210388,-0.0401916578412056,-0.0360848419368267
688,-0.0292350500822067,-0.0312620662152767,-0.0158614534884691,0.274686008691788,-0.0366899482905865,-0.0528178736567497
689,-0.0267021395266056,-0.0200797151774168,0.00269878632389,0.268362134695053,-0.0248688217252493,-0.0522012189030647
690,-0.0249342806637287,0.0031577823683619,0.0146910278126597,0.22402922809124,-0.0203407779335976,-0.0402191951870918
691,-0.0272582732141018,0.0205385144799948,0.0147331533953547,0.0700481384992599,-0.0203745719045401,-0.0212136413902044
692,-0.0309089682996273,0.0296514350920916,0.0027390897739678,-0.0847183614969254,-0.0155377518385649,-0.0003076597058679
693,-0.0346764363348484,0.0354884266853333,-0.0159112084656954,-0.105358816683292,-0.0080476012080907,0.01120734680444
694,-0.0334459543228149,0.038827084004879,-0.0251893866807222,-0.0531136952340603,0.0024509823415428,0.0061148577369749
695,-0.0227621905505657,0.0245703049004078,-0.0176964551210403,-0.0622706189751625,0.0256231930106878,-0.0159388575702906
696,-0.0053745969198644,-0.0153170935809612,-0.0056095123291015,-0.0983755886554718,0.0590969175100327,-0.0433801971375942
697,0.010599578730762,-0.060633409768343,-0.0053742369636893,-0.0497010201215744,0.0761157870292664,-0.0616568140685558
698,0.0181943494826555,-0.0879756435751915,-0.0186875686049461,0.0313672795891762,0.0593809932470322,-0.0641529262065887
699,0.0163403302431107,-0.0795352458953857,-0.0229932889342308,0.0192891974002123,0.0332306921482086,-0.0300741698592901
700,0.0037899790331721,-0.0342764854431152,-0.0042719724588096,-0.0420535989105701,0.0248939655721188,0.0411171242594719
701,-0.0107762860134244,0.0241372343152761,0.027260560542345,-0.0128259025514126,0.0377168171107769,0.102774299681187
702,-0.0079981693997979,0.0716964080929756,0.0624679401516914,0.0679886266589165,0.0680704265832901,0.127474099397659
703,0.0077247289009392,0.094260036945343,0.0884033367037773,0.0384545736014843,0.0965283885598183,0.128080144524574
704,0.011687551625073,0.0906399786472321,0.0853821262717247,-0.0822696834802628,0.0914917066693306,0.119261391460896
705,-0.0021179493051022,0.0719540566205978,0.049874410033226,-0.123042076826096,0.0445947162806988,0.0968675166368485
706,-0.0114201782271266,0.0522204339504242,0.0070511251688003,-0.0319426320493221,-0.0108185736462474,0.0590913966298103
707,0.0026644214522093,0.0427177809178829,-0.0081221554428339,0.0943953916430473,-0.0288518033921719,0.0289984550327063
708,0.0287638455629349,0.0435683876276016,0.0103959515690804,0.185799941420555,-0.0015538107836619,0.0247438549995422
709,0.04601164534688,0.0456894487142563,0.0343539156019688,0.255516976118088,0.0364055223762989,0.034814864397049
710,0.0484332889318466,0.0388279631733894,0.039922583848238,0.308219462633133,0.0529683604836464,0.0380539670586586
711,0.0382324978709221,0.0129474997520447,0.0265900660306215,0.290048211812973,0.0475584715604782,0.0259680226445198
712,0.019426129758358,-0.0320064388215542,0.0030569368973374,0.176913246512413,0.0361690856516361,0.0033710757270455
713,-0.0007101187948137,-0.0779914930462837,-0.0175306852906942,0.0547424852848053,0.0269291028380394,-0.0240449383854866
714,-0.0166769362986088,-0.0990330129861832,-0.0239830613136292,0.0099461702629923,0.0151899829506874,-0.0490098521113396
715,-0.0271702408790588,-0.0788899511098862,-0.0161300953477621,-0.0075183776207268,-0.0016801604069769,-0.0511298030614853
716,-0.0311155337840319,-0.0234759822487831,-0.0005122432485222,-0.0754755064845085,-0.0132599901407957,-0.0215218979865313
717,-0.0258743204176426,0.0398534014821053,0.0162204224616289,-0.128618344664574,-0.0025046248920261,0.014557302929461
718,-0.009223086759448,0.0753068327903748,0.029742669314146,-0.0737596601247787,0.0364454463124275,0.0368145555257797
719,0.0147968670353293,0.0632272958755493,0.0381006300449371,0.0081609170883894,0.0870569795370102,0.0515392757952213
720,0.0315455794334412,0.0250908378511667,0.041868194937706,-0.022799139842391,0.118855141103268,0.0560375787317753
721,0.0285597946494818,0.0009393108193762,0.039171140640974,-0.114148862659931,0.107077367603779,0.0412715412676334
722,0.0099690910428762,0.0077391676604747,0.0289564896374941,-0.114271335303783,0.054933276027441,0.0245453417301178
723,-0.0076906201429665,0.0405975989997387,0.0249094665050507,-0.042146347463131,-0.0012815346708521,0.0299122873693705
724,-0.0109861083328724,0.0808369293808937,0.0375935584306717,-0.0362120196223259,-0.0280743986368179,0.0524448528885841
725,-0.003350465092808,0.102302849292755,0.0493022985756397,-0.110791310667992,-0.0302237290889025,0.0679861307144165
726,0.0072473869659006,0.0954879224300385,0.0430409759283066,-0.138739347457886,-0.0253271143883467,0.0682727470993996
727,0.0158232189714909,0.0684384107589722,0.0258423015475273,-0.0652986168861389,-0.0156160006299615,0.0589245110750198
728,0.0133755719289184,0.0279554724693298,0.0068852575495839,0.0256779119372368,-0.003239728976041,0.0366209335625172
729,-0.0001960488589247,-0.0152060342952609,-0.0089493039995431,0.075022891163826,0.0089043462648987,0.0020009570289403
730,-0.0153615139424801,-0.0492862574756145,-0.0194129049777985,0.114891983568668,0.0231084115803242,-0.0339192859828472
731,-0.0256917122751474,-0.077274776995182,-0.0349526964128017,0.151510894298553,0.030262878164649,-0.0709689185023308
732,-0.0359229557216167,-0.10751561075449,-0.0672088116407394,0.123718932271004,0.0098382756114006,-0.116885676980019
733,-0.0588525198400021,-0.134182870388031,-0.10942268371582,0.0260065235197544,-0.0430116727948189,-0.16247084736824
734,-0.0878579095005989,-0.133587926626205,-0.134883895516396,-0.0427168905735016,-0.0987062230706215,-0.173798158764839
735,-0.101477846503258,-0.0974271595478058,-0.123263835906982,-0.0349901057779789,-0.117250606417656,-0.132238373160362
736,-0.0942553207278252,-0.0529821999371052,-0.0839380249381065,-0.0690177381038666,-0.0873399525880814,-0.0692451298236847
737,-0.0675971955060959,-0.0229475982487202,-0.034504521638155,-0.217419669032097,-0.0250747557729483,-0.0239481795579195
738,-0.0255805607885122,-0.0059966328553855,0.009916266426444,-0.33397588133812,0.0417216643691063,-0.0046451478265225
739,0.0201410464942455,0.0062396726571023,0.0321623496711254,-0.302238702774048,0.0860498771071434,-0.002209048718214
740,0.0585767738521099,0.0224296636879444,0.0299010649323463,-0.234828591346741,0.0956036821007729,0.0015303861582651
741,0.074912428855896,0.038888443261385,0.0163403712213039,-0.256534516811371,0.0755739361047745,0.0284623540937901
742,0.0591280609369278,0.0431153327226639,0.0049275690689683,-0.287399232387543,0.0429926849901676,0.0718505084514618
743,0.0248014125972986,0.037002544850111,0.0034253962803632,-0.210793346166611,0.0145286060869694,0.0947296395897865
744,0.0010159813100472,0.0323599427938461,0.0104084294289351,-0.104016207158566,0.0007455107988789,0.0820121541619301
745,-0.0003545235085766,0.0333669297397137,0.0188823472708464,-0.100404806435108,0.0026747880037874,0.0560640841722488
746,0.0067901844158768,0.0351917818188667,0.0248258430510759,-0.142062738537788,0.012163101695478,0.0409698262810707
747,0.0081101115792989,0.0343836694955826,0.028609361499548,-0.111220099031925,0.0262584276497364,0.0362662449479103
748,0.0068605574779212,0.0417422503232956,0.0441696308553219,-0.0801982507109642,0.0530454590916634,0.0413197986781597
749,0.0052238851785659,0.0585308335721493,0.0738353803753853,-0.158207789063454,0.0836348682641983,0.0617269761860371
750,-0.0116644157096744,0.0517304874956608,0.073343887925148,-0.262369304895401,0.0777966305613518,0.0682802274823189
751,-0.0398872680962086,0.005390656646341,0.0141356587409973,-0.26009327173233,0.0188293177634478,0.0306398943066597
752,-0.0556607693433762,-0.0443895682692528,-0.0637340992689133,-0.162570968270302,-0.0558358244597912,-0.0285886842757463
753,-0.0531595461070538,-0.0580017827451229,-0.104746431112289,-0.0619104355573654,-0.10219843685627,-0.0662269070744514
754,-0.0419504716992378,-0.0365511067211628,-0.0950504019856453,0.0101778358221054,-0.105310678482056,-0.0680191740393639
755,-0.03023368306458,-0.0128195630386472,-0.0613192953169346,0.0887249186635017,-0.0711058378219604,-0.0601611025631428
756,-0.0159495901316404,-0.0105599658563733,-0.0339614488184452,0.155932351946831,-0.016833296045661,-0.0755532681941986
757,0.0045071514323353,-0.0263562574982643,-0.0226542335003614,0.115336649119854,0.0291524305939674,-0.113100148737431
758,0.0244605727493763,-0.0498030781745911,-0.0230810064822435,-0.0427496843039989,0.049435842782259,-0.138538554310799
759,0.0366227217018604,-0.0686923712491989,-0.0283494591712952,-0.17016214132309,0.0518405437469482,-0.120491102337837
760,0.033760417252779,-0.0686835646629334,-0.0332101061940193,-0.174398139119148,0.0405344590544701,-0.0748990327119827
761,0.007796857971698,-0.0517632663249969,-0.0363277457654476,-0.165439277887344,0.0065516205504536,-0.0441327653825283
762,-0.0301125552505255,-0.0302008911967278,-0.0365301296114922,-0.227729737758636,-0.0423477664589882,-0.0307800304144621
763,-0.0520980916917324,-0.0061676790937781,-0.0293613225221634,-0.244580239057541,-0.073042243719101,-0.0081592425704002
764,-0.0499047301709652,0.0182011835277081,-0.0122766420245171,-0.132417693734169,-0.0635075271129608,0.0248397793620825
765,-0.0379782281816006,0.0391775295138359,0.0153253907337785,-0.0206373184919357,-0.0226029716432095,0.0515353977680206
766,-0.0221503376960754,0.0671263262629509,0.0485866405069828,-0.0331971757113934,0.0287200845777988,0.0742578208446503
767,-0.0010564654367044,0.101143650710583,0.0713608935475349,-0.0775981992483139,0.0685674175620079,0.0967894420027733
768,0.0246353633701801,0.118733279407024,0.0802473574876785,-0.0274415872991085,0.0901597589254379,0.111361943185329
769,0.0542847141623497,0.118607416749001,0.0905591323971748,0.0366249643266201,0.104485392570496,0.120644718408585
770,0.0769180133938789,0.11708889901638,0.100456260144711,-0.0416311696171761,0.111685074865818,0.12559024989605
771,0.0780392214655876,0.11165551841259,0.0910882875323296,-0.201571851968765,0.0987951010465622,0.118005260825157
772,0.0565486773848534,0.0893319547176361,0.0544485189020634,-0.240252554416656,0.0598864518105984,0.0916352197527885
773,0.0243426635861397,0.0435396581888199,-0.0027956976555287,-0.140558212995529,0.0023809510748833,0.0414603874087334
774,-0.0035720225423574,-0.0198676809668541,-0.0613137818872929,-0.0399173051118851,-0.0505766607820988,-0.0232602190226316
775,-0.0196503046900034,-0.0815024673938751,-0.0985852479934692,0.0184765160083771,-0.0711174830794334,-0.0826568379998207
776,-0.0217306986451149,-0.120366767048836,-0.105018965899944,0.08681770414114,-0.0497822873294353,-0.124450147151947
777,-0.0080385459586978,-0.129401534795761,-0.0903078317642212,0.156766101717949,-0.0043364102020859,-0.134546607732773
778,0.0148734971880913,-0.114690095186234,-0.0721203833818436,0.153656035661697,0.0326288416981697,-0.102149851620197
779,0.0283572543412447,-0.0799604654312134,-0.0528753623366356,0.0841834843158722,0.0382899567484856,-0.04481365904212
780,0.0138359423726797,-0.040693674236536,-0.0286663565784693,0.0464905984699726,0.011023317463696,-9.10164817469195e-05
781,-0.0226948149502277,-0.0237161424010992,-0.0080658420920372,0.0659864842891693,-0.0321188643574715,0.0104039292782545
782,-0.0502722412347794,-0.0250520445406437,0.0062522091902792,0.0547436624765396,-0.0645773708820343,0.0017190254293382
783,-0.0512009784579277,-0.0165837425738573,0.0258105434477329,-0.0117317903786898,-0.0669570490717888,0.005397274158895
784,-0.0332370102405548,0.0133031662553549,0.0544219985604286,-0.0268946420401335,-0.0371501184999943,0.0358924940228462
785,-0.0125311035662889,0.0577612109482288,0.078746035695076,0.0510598868131638,0.00599991902709,0.0809228122234344
786,-0.0067449924536049,0.101033709943295,0.0774341523647308,0.087977223098278,0.0280508920550346,0.110820442438126
787,-0.020952669903636,0.119224317371845,0.0425524972379208,-0.0030807242728769,0.0100708026438951,0.107322096824646
788,-0.0380505695939064,0.0962678715586662,-0.0038173284847289,-0.0867301151156425,-0.0255436077713966,0.0830047577619553
789,-0.0390643663704395,0.0453909263014793,-0.0277957934886217,-0.0447903908789158,-0.0363360457122326,0.0588036701083183
790,-0.0135212792083621,0.006937017198652,-0.0131239043548703,0.0173613559454679,0.0064985398203134,0.0421990975737572
791,0.0384635552763939,0.00191890692804,0.0247314609587193,-0.0306919272989035,0.0939758196473122,0.0244014710187912
792,0.08981903642416,0.0047215451486408,0.0477933771908283,-0.130994498729706,0.171971201896667,-0.0104590924456716
793,0.107340417802334,-0.0067653157748282,0.0388610735535622,-0.14495562016964,0.187390714883804,-0.0544200912117958
794,0.0810743346810341,-0.0196775570511818,0.0080777453258633,-0.058106254786253,0.126758366823196,-0.0779320076107979
795,0.0233899187296629,-0.0247282143682241,-0.0365183986723423,0.0429487489163876,0.0110574001446366,-0.0726990178227425
796,-0.0361990295350552,-0.0316393040120602,-0.0763287618756294,0.128982096910477,-0.107035472989082,-0.04617665335536
797,-0.0719193369150162,-0.0412914082407951,-0.0881752669811249,0.229396402835846,-0.171762645244598,-0.0051065259613096
798,-0.0755940675735474,-0.0390354134142399,-0.0699707567691803,0.31895238161087,-0.16598804295063,0.0335165895521641
799,-0.0509776398539543,-0.0163754597306252,-0.032975509762764,0.337712287902832,-0.114680640399456,0.0586953982710838
800,-0.0181772857904434,0.0135690132156014,0.0039263227954506,0.294071316719055,-0.0594976991415024,0.0692942142486572
801,0.0013833921402692,0.0362173244357109,0.0271716266870499,0.255406767129898,-0.0191239695996046,0.0627896711230278
802,0.0038954780902713,0.0472119301557541,0.0346872694790363,0.206142142415047,0.0067694843746721,0.0345428325235844
803,-0.0099230427294969,0.0363747142255306,0.0236093625426292,0.0632283762097359,0.009124469012022,-0.0137352244928479
804,-0.0277605503797531,0.0052282712422311,0.0042937663383781,-0.102484367787838,-0.0012690715957433,-0.0546400807797909
805,-0.0222677607089281,-0.0231610741466284,-8.06150419521146e-05,-0.121939182281494,0.0110185360535979,-0.0608715191483498
806,0.0183220766484737,-0.0319540835916996,0.0169985983520746,0.0019489739788696,0.0595718435943127,-0.0333032384514809
807,0.0758744478225708,-0.0217322334647179,0.0433257557451725,0.0877474024891853,0.118873834609985,0.0118266912177205
808,0.106901347637177,-0.0046834903769195,0.0645054280757904,0.0489908456802368,0.142094135284424,0.0467116869986057
809,0.0807095244526863,0.0109945852309465,0.0733215659856796,0.0080584362149238,0.106073759496212,0.0525166727602482
810,0.0213060695677996,0.0305083207786083,0.073109857738018,0.0503119826316834,0.0413449332118034,0.0444976277649403
811,-0.0219110157340765,0.0639179795980453,0.0772553160786629,0.079643614590168,0.0047828117385506,0.0501686036586761
812,-0.0273000560700893,0.106241881847382,0.0935826599597931,0.0314877070486546,0.0191480107605457,0.0740253329277039
813,-0.009822953492403,0.131901487708092,0.109052829444408,0.0033153351396322,0.0535861030220985,0.0983535945415497
814,0.0075677852146327,0.124160021543503,0.104198612272739,0.039940070360899,0.0716521516442299,0.112393975257874
815,0.0177300181239843,0.0910639539361,0.0733913034200668,0.0607497654855251,0.0662836134433746,0.114967443048954
816,0.0204327497631311,0.049796674400568,0.0275962129235268,0.0501321107149124,0.0500084832310677,0.0998438447713852
817,0.010744190774858,0.0091373892500996,-0.0159944277256727,0.0670870020985603,0.035414032638073,0.0683802887797356
818,-0.0096334936097264,-0.0286070853471756,-0.0515197403728962,0.121143862605095,0.0174770634621382,0.0285000000149012
819,-0.0265855491161346,-0.0610646679997444,-0.0846028178930283,0.159557312726974,-0.0167925115674734,-0.0225361995398998
820,-0.0322634167969227,-0.091039165854454,-0.113502375781536,0.144971892237663,-0.0630303248763084,-0.0774101316928864
821,-0.0358301214873791,-0.118023090064526,-0.124882750213146,0.116180129349232,-0.101326152682304,-0.107563883066177
822,-0.0448559261858463,-0.133986860513687,-0.113349139690399,0.124765276908875,-0.117250040173531,-0.104361265897751
823,-0.0496572703123093,-0.133451029658318,-0.0940427184104919,0.112114906311035,-0.116936638951302,-0.0953862443566322
824,-0.0414430946111679,-0.111177459359169,-0.079582504928112,-0.0219527129083872,-0.111022993922234,-0.097412534058094
825,-0.035266499966383,-0.072268545627594,-0.0691825151443481,-0.207661807537079,-0.102314114570618,-0.10016555339098
826,-0.0468318648636341,-0.0368748754262924,-0.0621394850313663,-0.270347416400909,-0.0940938293933868,-0.0960805788636208
827,-0.0639278516173363,-0.021051062270999,-0.0576576218008995,-0.204048320651054,-0.0825564488768578,-0.0850745439529419
828,-0.0645007714629173,-0.0256146583706141,-0.0500543341040611,-0.158524379134178,-0.0567248202860355,-0.0652238875627518
829,-0.0435696542263031,-0.0349959395825863,-0.0285031087696552,-0.171397820115089,-0.0163339748978615,-0.0324010960757732
830,-0.0152719533070922,-0.0304328147321939,0.0067202853970229,-0.125804096460342,0.0224108044058084,0.0102254580706358
831,0.0032734151463955,-0.0053432937711477,0.0404066070914268,-0.0026966128498315,0.0450450554490089,0.0513672381639481
832,0.0028909551911056,0.0266139879822731,0.0571748130023479,0.0513817183673382,0.0452262349426746,0.0766412615776062
833,-0.0165263600647449,0.0383497811853886,0.0473505668342113,-0.0179550163447857,0.0178921949118376,0.0694577768445015
834,-0.0396759770810604,0.0242523234337568,0.0251698400825262,-0.0679773986339569,-0.0190302580595016,0.0368837527930737
835,-0.0426604598760605,0.008995515294373,0.0249620098620653,-0.0243701729923487,-0.0263505540788174,0.0144526874646544
836,-0.0227902233600616,0.0041542169637978,0.0510202944278717,0.000849982665386,0.0034817240666598,0.0175082087516785
837,-0.0019993213936686,-0.0088521996513009,0.0657174214720726,-0.046290896832943,0.0303704049438238,0.0247781742364168
838,0.0011113621294498,-0.0411527641117573,0.0400186255574226,-0.0739413946866989,0.0157876089215279,0.0122566716745496
839,-0.0160730816423893,-0.0761239752173424,-0.0159655287861824,-0.0396034307777882,-0.0341209806501865,-0.0232266057282686
840,-0.0396235287189484,-0.0898984745144844,-0.0736909434199333,-0.0095491418614983,-0.0849602073431015,-0.062723696231842
841,-0.052319161593914,-0.0785652324557304,-0.115234330296516,-0.0239640325307846,-0.11445714533329,-0.0800179019570351
842,-0.055877398699522,-0.0643748268485069,-0.138542637228966,-0.0368608608841896,-0.121299609541893,-0.0789755880832672
843,-0.0613867528736591,-0.0667176246643066,-0.144529268145561,-0.0073425057344138,-0.115530766546726,-0.0923127010464668
844,-0.0709184780716896,-0.0832561254501343,-0.132710620760918,-0.0051070698536932,-0.109926044940948,-0.124741576611996
845,-0.0743424370884895,-0.0968926027417183,-0.102844022214413,-0.113015249371529,-0.102441176772118,-0.140931576490402
846,-0.0585362277925015,-0.0836063921451569,-0.051938783377409,-0.232134744524956,-0.0750731453299522,-0.109910987317562
847,-0.0276760645210743,-0.0405263043940067,0.0048331348225474,-0.210566014051437,-0.0321587957441807,-0.0499476902186871
848,0.0033588116057217,0.0044089653529226,0.0342753641307354,-0.10211893171072,0.0030770315788686,-0.0060645481571555
849,0.0226766336709261,0.0272776484489441,0.0292046424001455,-0.0549236312508583,0.0253774020820856,0.0116751147434115
850,0.0238462220877409,0.0236967224627733,0.0115226320922375,-0.0569412671029568,0.0327234230935574,0.0173413120210171
851,0.0188646502792835,0.004124276805669,0.0046234810724854,0.0066133486106991,0.0256591960787773,0.0179244801402092
852,0.0190302040427923,-0.0179102532565594,0.0144679816439748,0.11541161686182,0.0172563306987286,0.0143382148817182
853,0.0167533699423075,-0.0382401831448078,0.0268220808357,0.126673772931099,0.0127644464373589,0.0044412310235202
854,0.0061308313161134,-0.05041528865695,0.0275145340710878,0.0191611610352993,0.0068144788965582,-0.0115228770300746
855,-0.012313412502408,-0.0508812554180622,0.0095635345205664,-0.0765937343239784,-0.0108955511823297,-0.0299566201865673
856,-0.0367372520267963,-0.047742135822773,-0.0260371491312981,-0.13119874894619,-0.0481549873948097,-0.0481877736747265
857,-0.0668608546257019,-0.0476773343980312,-0.0686878859996796,-0.235492885112762,-0.100521802902222,-0.0697957947850227
858,-0.0950118601322174,-0.0520400255918503,-0.103270284831524,-0.354205518960953,-0.148604437708855,-0.0902097448706627
859,-0.100632041692734,-0.057065773755312,-0.111447103321552,-0.338037192821503,-0.161598771810532,-0.0873103812336922
860,-0.0773630514740944,-0.0567874722182751,-0.0868522599339485,-0.161548227071762,-0.123235329985619,-0.0556400902569294
861,-0.0404714941978455,-0.05142991989851,-0.0460606478154659,0.0399524345993996,-0.0555401146411896,-0.0228606034070253
862,-0.0090310424566268,-0.0487452521920204,-0.0130395842716098,0.149543806910515,0.0023558263201266,-0.0206390991806984
863,9.55287396209314e-05,-0.053651936352253,-0.0062780259177088,0.172931849956512,0.0295402780175209,-0.0558312684297562
864,-0.0180531125515699,-0.0592413693666458,-0.0313274785876274,0.164087191224098,0.0237969886511564,-0.0939311757683754
865,-0.0449332669377327,-0.0525694638490677,-0.0738299340009689,0.112320296466351,-0.0118012120947242,-0.0887104570865631
866,-0.0524877123534679,-0.0293571837246418,-0.103592485189438,-0.01546501647681,-0.0579348206520081,-0.0443999990820885
867,-0.0348487943410873,-0.0021142764016985,-0.0936566963791847,-0.132743135094643,-0.0826768204569817,-0.0044438117183744
868,-0.0118050407618284,0.0129477102309465,-0.0433199740946293,-0.115286529064178,-0.0762782245874405,0.0090056955814361
869,0.0033328637946397,0.0151969995349646,0.0245956927537918,-0.013250757008791,-0.0506190098822117,0.0070892660878598
870,0.0124859660863876,0.0154861072078347,0.0811843201518059,0.0389042906463146,-0.0206519663333893,0.011564358137548
871,0.0146357268095016,0.0230185985565186,0.103987902402878,0.0476302355527878,-0.00493008736521,0.0352764129638672
872,0.0050957617349922,0.0378165319561958,0.0913980379700661,0.0980776771903038,-0.0140230795368552,0.0655520036816597
873,-0.0077444561757147,0.055428259074688,0.0711231827735901,0.166113466024399,-0.0277246627956629,0.0840125977993011
874,-0.0054095550440251,0.0764047428965569,0.0725090280175209,0.162857100367546,-0.0146459667012095,0.0925362631678581
875,0.0112464139238,0.0908176973462105,0.0907256379723549,0.111447423696518,0.0250800140202045,0.0916762873530388
876,0.026206823065877,0.0854302942752838,0.108152031898499,0.110850796103477,0.0780994147062302,0.0796167254447937
877,0.0369269847869873,0.0700201168656349,0.118573173880577,0.126394793391228,0.134141206741333,0.0666089877486229
878,0.0482660979032516,0.0593808628618717,0.115844048559666,0.0377607755362988,0.166278675198555,0.057190228253603
879,0.0575330778956413,0.0539983697235584,0.0973900854587555,-0.112746380269527,0.153036504983902,0.0486900098621845
880,0.0604204386472702,0.0461769364774227,0.068272240459919,-0.158394798636436,0.100086204707623,0.0417746379971504
881,0.0590759105980396,0.0380335301160812,0.0371050573885441,-0.0518825240433216,0.0340747982263565,0.0391990728676319
882,0.0562617965042591,0.0418471209704876,0.0121297277510166,0.0970869734883308,-0.0124160815030336,0.040265429764986
883,0.0527455136179924,0.0529213063418865,-0.0066918996162712,0.193416655063629,-0.0286090448498726,0.0368042774498463
884,0.0523101687431335,0.0497455522418022,-0.0239707883447409,0.24255046248436,-0.0260926391929388,0.0212444178760052
885,0.0503110326826572,0.0179586298763752,-0.0420666411519051,0.265040755271912,-0.0196699667721987,0.0035658178385347
886,0.0312903225421906,-0.0330200642347336,-0.0573730207979679,0.229422330856323,-0.0204301606863737,0.0047790142707526
887,0.0021968430373817,-0.0695603638887405,-0.0551199875771999,0.126188233494759,-0.0236411672085524,0.0189939010888338
888,-0.0080823879688978,-0.0684557929635048,-0.0245764255523682,0.0462613478302956,-0.0143339792266488,0.0202087610960007
889,0.0032036919146776,-0.0449815317988396,0.0195988770574331,0.0616910420358181,0.0046195834875106,0.0069335224106907
890,0.0137583557516336,-0.0233521983027458,0.0534053072333336,0.0903283730149269,0.0187870990484953,-0.0024469580966979
891,0.0125481681898236,-0.0101734111085534,0.0668533071875572,0.0391489788889885,0.0233615059405565,-0.0039290864951908
892,0.0044421572238206,0.0010645533911883,0.0624169036746025,-0.0264120697975159,0.0206056404858828,-0.0028862000908702
893,-0.0028563786763697,0.0239635277539492,0.0465637147426605,-0.0117180189117789,0.0126776937395334,0.0082220248878002
894,-0.0020147976465523,0.0664719790220261,0.0350438468158245,0.0420203991234303,0.0099318819120526,0.0444440431892872
895,0.0163088198751211,0.125679805874825,0.0517199598252773,0.0583453252911568,0.0339055247604847,0.107168190181255
896,0.0479023866355419,0.1871397793293,0.100414723157883,0.073284700512886,0.0938526690006256,0.169554561376572
897,0.0735281929373741,0.227866187691689,0.153069198131561,0.135062456130981,0.163583770394325,0.195439636707306
898,0.0878285244107246,0.232559770345688,0.176617220044136,0.159120634198189,0.194949135184288,0.173594281077385
899,0.0926904305815697,0.197057351469994,0.161836624145508,0.0592534281313419,0.162595555186272,0.119737893342972
900,0.0802933275699615,0.12971818447113,0.121762923896313,-0.0794348269701004,0.0872886553406715,0.0582143999636173
901,0.0594175793230534,0.059406116604805,0.0779316574335098,-0.110489271581173,0.0189676191657782,0.0138096306473017
902,0.052631925791502,0.0123681295663118,0.0440685488283634,-0.0202404744923115,-0.0070090447552502,0.001470555900596
903,0.0617245137691498,-0.0107877161353827,0.0182182788848877,0.0921338424086571,0.0006563459755852,0.0127693293616176
904,0.0707560852169991,-0.0174537394195795,0.0039895414374768,0.1697678565979,0.0156628713011742,0.0315884687006474
905,0.065710224211216,-0.0162661578506231,0.0085519896820187,0.229681149125099,0.0241065789014101,0.0495988838374615
906,0.0430617518723011,-0.0173085387796164,0.0230483561754227,0.268583446741104,0.0237129088491201,0.0597928538918495
907,0.0064527983777225,-0.0202251225709915,0.0339796915650368,0.230188459157944,0.0150183560326695,0.0666999965906143
908,-0.0332781299948692,-0.0184504371136427,0.0378952845931053,0.107147224247456,-0.0006035540718585,0.0790712982416153
909,-0.0538473539054394,-0.0018237526528537,0.0341781228780746,0.0056454986333847,-0.0146829709410667,0.0823037475347519
910,-0.0459028668701649,0.0249720253050327,0.0116119664162397,-0.0078521128743886,-0.0239577256143093,0.0535680651664734
911,-0.0241512395441532,0.0411850661039352,-0.0259247962385416,-0.0052805440500378,-0.0304829347878695,0.0002063243155134
912,-0.0011704802745953,0.0530661605298519,-0.0435019955039024,-0.03433907777071,-0.0229667089879513,-0.0388072244822979
913,0.0216042064130306,0.0760309994220734,-0.0232132617384195,-0.0244162119925022,0.0040653189644217,-0.0355450809001923
914,0.0430552139878273,0.0943344607949257,0.0199109744280577,0.0671689510345459,0.0352821759879589,0.0017545729642733
915,0.0579126589000225,0.0963595807552338,0.0688069090247154,0.154144391417503,0.0592075102031231,0.0476209856569767
916,0.059710681438446,0.0919013023376465,0.102504149079323,0.144124358892441,0.0753572508692741,0.0774975493550301
917,0.0473454855382442,0.0795883908867836,0.0960778668522835,0.0747450292110443,0.0752861946821213,0.0761081427335739
918,0.0256265439093113,0.0549411438405514,0.0521943978965282,0.0162423606961966,0.046517439186573,0.0527176931500435
919,0.0013885200023651,0.0288599207997322,0.002279998967424,-0.0676198303699493,-0.0029740745667368,0.0314496532082558
920,-0.0150460340082645,0.007255301810801,-0.0301529467105865,-0.212530851364136,-0.0445903278887272,0.0167394764721394
921,-0.0140515947714448,-0.0166860353201628,-0.0402908027172089,-0.323088347911835,-0.0510382875800133,-0.0036923238076269
922,-0.0006446528132073,-0.0460591726005077,-0.0310859028249979,-0.295840680599213,-0.0232647489756346,-0.0330293327569962
923,0.0103610493242741,-0.0716418325901031,-0.0116587691009045,-0.170447796583176,0.0100783770903945,-0.0594853609800339
924,0.010555419139564,-0.0776845514774323,0.0081495223566889,-0.0548324324190617,0.0277869030833244,-0.0642828792333603
925,-0.0029477090574801,-0.0608246102929115,0.0161667838692665,0.013102799654007,0.0214122291654348,-0.045120146125555
926,-0.0237763822078705,-0.0283510126173496,0.0058608152903616,0.0633829087018967,-0.0080031603574752,-0.0123872561380267
927,-0.0490501038730145,0.0107810581102967,-0.0188169311732054,0.0813415721058846,-0.0492500215768814,0.0291962288320065
928,-0.0833752080798149,0.0434719175100327,-0.0542503632605076,0.0001243187289219,-0.0940643772482872,0.0612687841057777
929,-0.106524959206581,0.0635705888271332,-0.0846612975001335,-0.135864675045013,-0.125001341104507,0.056505125015974
930,-0.0963289886713028,0.0686007291078568,-0.0921336561441422,-0.181632846593857,-0.122529536485672,0.0139023130759597
931,-0.065637432038784,0.0518030263483524,-0.0804105624556541,-0.115535996854305,-0.096928209066391,-0.038538184016943
932,-0.0398447662591934,0.0133937001228333,-0.0641557574272156,-0.0585910007357597,-0.074932686984539,-0.0705606266856194
933,-0.0271476544439793,-0.0286305174231529,-0.0501825548708439,-0.0645618811249733,-0.0643173828721046,-0.0711539536714554
934,-0.0097806807607412,-0.0456711165606976,-0.0307372380048037,-0.0484667979180813,-0.0470556579530239,-0.0427825711667538
935,0.0325852520763874,-0.0304472558200359,-0.0002727501560002,0.0411884337663651,-0.0063176215626299,0.0057954718358814
936,0.0890956073999405,-0.0028432896360755,0.0334039553999901,0.114406883716583,0.0506266951560974,0.0543031878769398
937,0.121241174638271,0.0191121604293585,0.0581301525235176,0.0921013280749321,0.0992578640580177,0.080406665802002
938,0.105698175728321,0.0266673676669598,0.0637066960334778,0.0414320565760136,0.117080047726631,0.0743599608540535
939,0.0601546727120876,0.019479101523757,0.0490947961807251,0.0250579174607992,0.0990169271826744,0.045837514102459
940,0.0156408753246069,0.0060188472270965,0.0222389213740826,-0.0210750065743923,0.0574631243944168,0.0129840252920985
941,-0.0161325614899397,-0.0082403980195522,-0.0102104442194104,-0.116300992667675,0.0039363242685794,-0.0165542736649513
942,-0.0430648289620876,-0.021241556853056,-0.0429330393671989,-0.160940676927567,-0.0585744082927704,-0.0401557423174381
943,-0.0675569623708725,-0.0241247676312923,-0.0606501698493958,-0.105651095509529,-0.113779619336128,-0.0454008542001247
944,-0.0801963955163956,-0.0068277050741016,-0.0504114739596844,-0.0097390515729785,-0.137707471847534,-0.0259719397872686
945,-0.0761021301150322,0.025441637262702,-0.0281580835580826,0.0528353974223137,-0.12936532497406,-0.0006159441545605
946,-0.0577110536396503,0.0480863749980927,-0.0228240042924881,0.0701402425765991,-0.105253823101521,0.007149628829211
947,-0.0400473140180111,0.0323160029947758,-0.0452758707106113,0.0672819912433624,-0.0895463600754738,-0.0076372716575861
948,-0.0400334224104881,-0.0194337479770184,-0.0784429907798767,0.014950979501009,-0.0982870757579803,-0.0308370869606733
949,-0.0498316735029221,-0.0679076984524727,-0.0910842269659042,-0.116878636181355,-0.113171070814133,-0.0471166037023067
950,-0.0489434786140919,-0.0857606306672096,-0.0743336901068687,-0.231419995427132,-0.104110561311245,-0.0576525516808033
951,-0.0276340153068304,-0.081289254128933,-0.0470565408468246,-0.216190844774246,-0.0632020533084869,-0.0692333281040192
952,0.003553720889613,-0.0748265981674194,-0.0303890537470579,-0.119508653879166,-0.0125061869621277,-0.0783709138631821
953,0.0240640211850405,-0.071643590927124,-0.0292902048677206,-0.0739797130227089,0.0177689287811518,-0.0781938433647156
954,0.0282184351235628,-0.0636750161647797,-0.0314994789659977,-0.0929939746856689,0.0261512659490108,-0.0701989829540253
955,0.0171954296529293,-0.0484460964798927,-0.0284553002566099,-0.0734525546431541,0.0268235336989164,-0.0622184425592422
956,-0.0032166282180696,-0.0217761136591434,-0.0198812112212181,0.0009163687936961,0.0297867208719254,-0.0508043691515923
957,-0.0114439483731985,0.0219710953533649,-0.0059743300080299,0.0286448560655117,0.0495556592941284,-0.0255954880267382
958,0.0043395590037107,0.0656253695487976,0.0028236543294042,-0.0314941480755806,0.0762759745121002,0.0028472726698964
959,0.0231027007102966,0.0857813134789467,-0.0099630141630768,-0.0941707640886307,0.0613407306373119,0.0179364401847124
960,0.0149632096290588,0.0854545161128044,-0.0416897684335709,-0.103267177939415,-0.0151362027972937,0.0226289853453636
961,-0.0189816523343325,0.0769733563065529,-0.0699692592024803,-0.0969400331377983,-0.109857298433781,0.0239972565323114
962,-0.049165990203619,0.0570390596985817,-0.0779164433479309,-0.0836732611060143,-0.170000746846199,0.0210374929010868
963,-0.0571333393454552,0.0184445548802614,-0.0669995993375778,-0.0259696021676064,-0.176684468984604,0.0097053805366158
964,-0.0496623665094376,-0.0294589772820473,-0.0481604598462582,0.0656284689903259,-0.144857153296471,-0.0117558296769857
965,-0.0353637747466564,-0.0606448873877525,-0.0230238251388073,0.126658916473389,-0.099755235016346,-0.0322192385792732
966,-0.0134189538657665,-0.0562535747885704,0.0137605704367161,0.12689183652401,-0.0544291324913502,-0.0317840315401554
967,0.0162649173289537,-0.0244236495345831,0.052199050784111,0.108044356107712,-0.0164740048348904,-0.0031344706658273
968,0.0474791005253792,0.0114254131913185,0.0703957453370094,0.102034121751785,0.006258878391236,0.0418087877333164
969,0.0680319592356682,0.032396025955677,0.0576326176524162,0.0623627342283726,0.0134990978986025,0.0765236169099808
970,0.0725009143352509,0.0355684757232666,0.0272932518273592,-0.0376781895756722,0.0204281751066446,0.0819671526551247
971,0.0679878294467926,0.0347742922604084,0.0049855168908834,-0.116867616772652,0.0494843162596226,0.0650104358792305
972,0.0551139749586582,0.0417331270873547,-0.0037579627241939,-0.10598486661911,0.0889593735337257,0.0421028919517994
973,0.039789866656065,0.0544093772768974,-0.0084150480106473,-0.0582186728715897,0.101833499968052,0.0304191559553146
974,0.0402153953909874,0.0652829557657242,-0.0096415188163518,-0.0690611079335213,0.0823365896940231,0.035936027765274
975,0.0437180288136005,0.0669126659631729,-0.0168986935168505,-0.12605345249176,0.0434268936514854,0.0350556075572968
976,0.0242668837308884,0.0612469501793385,-0.0365198403596878,-0.125705629587173,-0.0046306322328746,0.013663187623024
977,-0.0055956686846911,0.0628102943301201,-0.0404319055378437,-0.0528607927262783,-0.0401467084884644,-0.0006735977949574
978,-0.0187790617346764,0.0770770385861397,-0.0065020234324038,-0.0187618881464005,-0.0500446893274784,0.0185196939855814
979,-0.010055978782475,0.0898783877491951,0.0433954074978828,-0.077120803296566,-0.0461561195552349,0.0585603304207325
980,0.0092068230733275,0.0886468961834908,0.0793093964457512,-0.118738189339638,-0.0400825068354607,0.0878161042928696
981,0.0303427763283253,0.0763654559850693,0.0970801636576653,-0.0583064258098602,-0.0269175916910172,0.0912039056420326
982,0.0520606078207493,0.0607462823390961,0.103435002267361,0.0403592959046364,-0.0001488813577452,0.074969582259655
983,0.0680196136236191,0.0480778776109219,0.100625388324261,0.110158517956734,0.0313322208821774,0.0534157603979111
984,0.0716220214962959,0.0473358072340488,0.0904828086495399,0.1600371748209,0.0524846725165844,0.0395568013191223
985,0.0645727515220642,0.0608536116778851,0.0749729126691818,0.193742886185646,0.0571703165769577,0.0369711145758629
986,0.0508573763072491,0.0689763948321342,0.0515696965157986,0.160157963633537,0.0457776337862015,0.0306040626019239
987,0.0393398702144623,0.0508786514401436,0.0160226672887802,0.0338713973760605,0.021852808073163,0.0038776723667979
988,0.0361055508255959,0.013269585557282,-0.0297253746539354,-0.100035220384598,-0.0066206865012645,-0.0172208175063133
989,0.0378246605396271,-0.0179921668022871,-0.0686108693480492,-0.144562885165215,-0.0189279727637768,0.0028026108630001
990,0.0417114496231079,-0.0195664297789335,-0.0741415321826935,-0.121386364102364,0.0068210335448384,0.0429234504699707
991,0.0452139042317867,0.0041846255771815,-0.0411735661327839,-0.0951713845133781,0.0544839650392532,0.0668712928891182
992,0.0481799356639385,0.0256968345493078,0.0043113967403769,-0.0539690889418125,0.0814095661044121,0.0685052052140236
993,0.0545711480081081,0.0396589860320091,0.041240468621254,0.0350220538675785,0.0738896057009697,0.0620805099606514
994,0.061933096498251,0.0585187785327435,0.0655887201428413,0.105854250490665,0.0451732166111469,0.0595825240015984
995,0.0644031390547752,0.0752474740147591,0.0714816972613335,0.0689364075660706,0.0076544159092009,0.052255604416132
996,0.0565573647618294,0.0742949321866035,0.0529930591583252,-0.0141333602368832,-0.0290479380637407,0.0297370553016663
997,0.0341836176812649,0.0587242245674133,0.0180294401943684,-0.0290940422564745,-0.0565854795277119,-0.0032740638125687
998,0.0147729916498065,0.0474814213812351,-0.0040313038043677,-0.021131468936801,-0.059279628098011,-0.0250121355056763
999,0.0221991892904043,0.0501770190894604,0.0116162849590182,-0.1030582934618,-0.0275511369109154,-0.01215616799891
1000,0.0377223901450634,-0.0180752109736204,-0.068684495985508,-0.144664034247398,-0.0190557856112719,0.0026692205574363
1001,0.0416076928377151,-0.0196506697684526,-0.0742162391543388,-0.121488958597183,0.0066913752816617,0.0427881330251694
1002,0.0451072677969933,0.0040980386547744,-0.0412503741681576,-0.0952768251299858,0.0543507002294064,0.0667322054505348
1003,0.0480700992047787,0.0256076287478209,0.0042322534136474,-0.0540777184069157,0.0812722742557526,0.0683619230985641
1004,0.0544590130448341,0.0395678952336311,0.0411596409976482,0.0349111184477806,0.0737494230270386,0.061934195458889
1005,0.0618202872574329,0.0584271289408207,0.0655073896050453,0.105742618441582,0.0450321733951569,0.059435311704874
1006,0.0642911344766617,0.0751564875245094,0.0714009553194046,0.0688255652785301,0.007514379452914,0.0521094426512718
