,AF3,AF4,Fp1,Fp2,AF7,AF8
0,0.0160229783505201,-0.0474994741380215,-0.0264778640121222,0.5,0.0147553272545338,-0.0615181848406792
1,-0.0021658206824213,-0.0200750809162855,-0.005643596407026,0.5,0.0361073724925518,-0.0337182804942131
2,-0.0254403613507748,0.004789903294295,0.0180739481002092,0.5,0.0515984818339348,-0.0055815107189118
3,-0.0441773049533367,0.0171457529067993,0.0272083152085543,0.5,0.0519539192318916,0.0110229793936014
4,-0.0511357598006725,0.0193619932979345,0.022377772256732,0.5,0.0455790013074875,0.0147117236629128
5,-0.0455130897462368,0.0197494272142649,0.0080007072538137,0.473996162414551,0.0408919714391232,0.011786182411015
6,-0.0363908782601357,0.0143770957365632,-0.02066894993186,0.333863586187363,0.0277694445103407,0.0008962514111772
7,-0.029217692092061,-0.004622723441571,-0.0569712594151497,0.164008587598801,0.002390238456428,-0.0184077881276608
8,-0.0231420900672674,-0.0319240912795067,-0.0832598060369492,0.0169749371707439,-0.0179688483476639,-0.0327515006065369
9,-0.0175610668957233,-0.053989727050066,-0.0880680754780769,-0.0823002234101295,-0.0130075654014945,-0.0258860196918249
10,-0.0096818674355745,-0.0604215264320374,-0.0769461914896965,-0.159803211688995,0.020896527916193,-0.0018174344440922
11,0.0020226256456226,-0.0564087256789207,-0.0669333413243294,-0.235128656029701,0.0641211420297623,0.016239944845438
12,0.0118646454066038,-0.0554247722029686,-0.0618098974227905,-0.267407715320587,0.0905514359474182,0.0169318318367004
13,0.0130390394479036,-0.0593689233064651,-0.0517873130738735,-0.199090078473091,0.0862172394990921,0.0051604961045086
14,0.0023457445204258,-0.063903845846653,-0.0323405005037785,-0.0342079512774944,0.0505956932902336,-0.0118912225589156
15,-0.0220499504357576,-0.0645469427108765,-0.0074480366893112,0.188862442970276,-0.0006984661449678,-0.0213048011064529
16,-0.0514287836849689,-0.0538923256099224,0.017942538484931,0.455839604139328,-0.0375687927007675,-0.0115914652124047
17,-0.0683807730674744,-0.0323622897267342,0.0411627441644669,0.5,-0.0396247766911983,0.0126704573631287
18,-0.0666394084692001,-0.0088027846068143,0.0556375421583653,0.5,-0.0140657927840948,0.039414219558239
19,-0.0516450889408588,0.0114740571007133,0.0555584952235222,0.5,0.019938588142395,0.0638315752148628
20,-0.0305565614253283,0.0249757189303637,0.0455368459224701,0.5,0.0496835000813007,0.0835438221693039
21,-0.01341881044209,0.0274286717176437,0.0318137854337692,0.5,0.0652537569403648,0.0888559222221375
22,-0.0117127979174256,0.0155080510303378,0.0113082965835929,0.5,0.0603376068174839,0.0666805058717728
23,-0.0207014344632626,-0.007892738096416,-0.0141768204048276,0.5,0.0481361038982868,0.0196154955774546
24,-0.0232850406318903,-0.0301147475838661,-0.0337066911160946,0.5,0.0475618466734886,-0.0316928960382938
25,-0.0168914329260588,-0.04606544226408,-0.050793468952179,0.5,0.0522477105259895,-0.071553573012352
26,-0.0093085411936044,-0.0616585314273834,-0.0742674991488457,0.5,0.0446046367287636,-0.0945196524262428
27,-0.0003444855974521,-0.0763250142335892,-0.0957960188388824,0.5,0.0269356742501259,-0.0965245366096497
28,0.0145007045939565,-0.0815918147563934,-0.102721899747849,0.5,0.0153115391731262,-0.0753069743514061
29,0.0339226424694061,-0.069957323372364,-0.092112772166729,0.5,0.0140647776424885,-0.038625955581665
30,0.046075414866209,-0.0411510653793812,-0.0664313137531281,0.5,0.0116567136719823,-0.0019972003065049
31,0.0409295149147511,0.0007561859092675,-0.0272483546286821,0.5,0.0027936603873968,0.0346519760787487
32,0.0307269394397736,0.0454459823668003,0.022198835387826,0.5,0.0015126093057915,0.0824642330408096
33,0.0310363322496414,0.0737827122211456,0.0709060952067375,0.5,0.0192917734384537,0.131023705005646
34,0.0355153903365135,0.0782928988337517,0.106828317046165,0.5,0.0485075563192368,0.157148018479347
35,0.0338718891143799,0.0685947015881538,0.123736791312695,0.5,0.0746897980570793,0.153108462691307
36,0.0262602958828211,0.0513971745967865,0.122070670127869,0.5,0.0891731455922127,0.128811836242676
37,0.0161552261561155,0.0284433849155903,0.104034893214703,0.5,0.0895688012242317,0.0955103561282158
38,0.0091713881120085,0.0064649581909179,0.0703760534524918,0.5,0.0802049338817596,0.0571348443627357
39,0.0065232021734118,-0.0103613855317235,0.0301290675997734,0.5,0.0698510482907295,0.021578611806035
40,-0.0002548107586335,-0.0299132689833641,-0.0067187207750976,0.5,0.0572314187884331,-0.0050679324194788
41,-0.0124542973935604,-0.0569686479866505,-0.0421687588095665,0.5,0.0394160151481628,-0.0301716085523367
42,-0.019057385623455,-0.0822820737957954,-0.0796397179365158,0.5,0.0249217934906483,-0.058300569653511
43,-0.0193897280842066,-0.0936873182654381,-0.110367603600025,0.5,0.0137881524860859,-0.0801446139812469
44,-0.0274130944162607,-0.0849499851465225,-0.120904333889484,0.5,-0.0035582494456321,-0.0830686539411545
45,-0.0468380600214005,-0.0601170882582664,-0.110678255558014,0.5,-0.0221507083624601,-0.0665724352002144
46,-0.0629688650369644,-0.028485119342804,-0.086465485394001,0.5,-0.0239103678613901,-0.0452318377792835
47,-0.0636576786637306,-0.0015147301601246,-0.0564602650702,0.5,-0.0081262122839689,-0.0372875668108463
48,-0.0560806132853031,0.0059377490542829,-0.0381917282938957,0.5,-0.001133075216785,-0.0522045642137527
49,-0.0556893385946751,-0.0112129300832748,-0.0409247651696205,0.5,-0.0190052278339863,-0.0816938430070877
50,-0.0635002851486206,-0.0402423217892647,-0.0505800805985928,0.5,-0.0467454306781292,-0.104514680802822
51,-0.066807895898819,-0.0592585131525993,-0.0497740507125854,0.5,-0.063554435968399,-0.102243334054947
52,-0.05685044080019,-0.057167861610651,-0.0361714661121368,0.5,-0.0614799335598946,-0.0713179484009743
53,-0.0371702797710896,-0.0408094301819801,-0.0190264713019133,0.5,-0.0402189791202545,-0.0253750365227461
54,-0.0180459972470999,-0.0203020311892033,-0.0066573279909789,0.5,-0.0012014518724754,0.0151728130877018
55,-0.0032674437388777,-0.0018311660969629,0.0010194667847827,0.371800273656845,0.0465273410081863,0.038420807570219
56,0.0095359785482287,0.0080878175795078,0.0077814096584916,-0.0569047778844833,0.0821990072727203,0.0431501977145672
57,0.0196146480739117,0.0048930770717561,0.0116826770827174,-0.5,0.0903764963150024,0.0306360181421041
58,0.0251413881778717,-0.0095131052657961,0.0047352667897939,-0.5,0.0761602818965912,0.0033429020550102
59,0.0249704215675592,-0.0292196273803711,-0.0180424116551876,-0.5,0.0562478117644787,-0.0303126089274883
60,0.020694175735116,-0.0463105961680412,-0.0512584410607815,-0.5,0.042997669428587,-0.0562859661877155
61,0.0102981775999069,-0.0531256347894669,-0.0915922895073891,-0.5,0.0283775702118874,-0.0659789219498634
62,-0.018768860027194,-0.0477119311690331,-0.146797686815262,-0.5,-0.0137757500633597,-0.0653120055794716
63,-0.0631144195795059,-0.039494451135397,-0.204911261796951,-0.5,-0.0850186124444008,-0.0634830668568611
64,-0.0977075472474098,-0.042125441133976,-0.225564703345299,-0.5,-0.141831278800964,-0.0569914728403091
65,-0.103650026023388,-0.0523210018873215,-0.184303417801857,-0.5,-0.140972226858139,-0.0371502637863159
66,-0.0771805495023727,-0.0547326169908047,-0.100746721029282,-0.5,-0.0881515964865685,-0.0112681584432721
67,-0.0346841774880886,-0.0504950061440468,-0.0198398046195507,-0.5,-0.0285499803721905,0.0001061691145878
68,0.0009114550193771,-0.0507447756826878,0.0291840527206659,-0.5,0.0089233489707112,-0.0067367111332714
69,0.0221196655184031,-0.057160310447216,0.0452425926923752,-0.5,0.0296592153608799,-0.017866138368845
70,0.0262171234935522,-0.0697357580065727,0.0331902019679546,-0.5,0.037921279668808,-0.0311141144484282
71,0.0106812184676528,-0.0829875394701958,0.0006789579056203,-0.5,0.0302747096866369,-0.0458871088922024
72,-0.0154389906674623,-0.0832846462726593,-0.0334784425795078,-0.5,0.0145021108910441,-0.0462457500398159
73,-0.0326872318983078,-0.0663014575839043,-0.0488229244947433,-0.5,0.0067987293004989,-0.0227539725601673
74,-0.0273607969284058,-0.0383318476378918,-0.0384098701179028,-0.5,0.0155457789078355,0.0158730708062649
75,-0.0089907264336943,-0.0105109149590135,-0.0177260674536228,-0.5,0.0305967442691326,0.0503075495362282
76,0.0028763632290065,0.0045006568543613,-0.0086918650195002,-0.5,0.0394885018467903,0.0618026368319988
77,0.0044503007084131,0.0002271136763738,-0.0179572701454163,-0.5,0.0438721925020218,0.0441150180995464
78,0.0074082207866013,-0.0164727885276079,-0.0400012619793415,-0.5,0.0481941290199757,0.0082614570856094
79,0.0257141776382923,-0.0311908461153507,-0.0619529187679291,-0.5,0.0575869977474213,-0.0222297683358192
80,0.0543395802378654,-0.0369890630245209,-0.0692957565188408,-0.5,0.0758365169167519,-0.030324412509799
81,0.0678572207689285,-0.033652912825346,-0.0611727349460125,-0.5,0.0898959711194038,-0.0191897451877594
82,0.0518197640776634,-0.0215994827449322,-0.0514398217201233,-0.5,0.0792564824223518,-0.0036206394433975
83,0.0140657993033528,-0.0030912454240024,-0.0517610460519791,-0.5,0.0375098325312138,0.006276115309447
84,-0.0267774891108274,0.0218731053173542,-0.0600035078823566,-0.5,-0.0185455288738012,0.0091110207140445
85,-0.0569149926304817,0.051620077341795,-0.0701458975672722,-0.5,-0.059763927012682,0.0017799913184717
86,-0.0741081759333611,0.0697020441293716,-0.0766877681016922,-0.5,-0.0722327157855034,-0.0157818142324686
87,-0.0763901695609093,0.0585493221879005,-0.0670756921172142,-0.5,-0.064153753221035,-0.0317182652652264
88,-0.0613916143774986,0.0238491278141737,-0.0333101414144039,-0.5,-0.0452179685235024,-0.0348209664225578
89,-0.0340488404035568,-0.0137528451159596,0.0117015792056918,-0.5,-0.0172964539378881,-0.0237266384065151
90,-0.0043589673005044,-0.0418436042964458,0.0440095625817776,-0.5,0.0131046585738659,-0.0050603970885276
91,0.0151489647105336,-0.0590765438973904,0.0522016435861588,-0.5,0.0323103442788124,0.012936832383275
92,0.0131732877343893,-0.0681870058178902,0.0428746566176414,-0.5,0.0346847362816334,0.0257475953549147
93,-0.0029501679819077,-0.0704958885908127,0.0314550437033176,-0.5,0.0348542258143425,0.0360940657556057
94,-0.0079096630215644,-0.063731886446476,0.0283594522625208,-0.5,0.0498885922133923,0.0514187142252922
95,0.0125772282481194,-0.051122423261404,0.024599289521575,-0.5,0.0730776190757751,0.0670699030160904
96,0.0454136505723,-0.0411357209086418,0.0052627278491854,-0.5,0.0851947814226151,0.0694257840514183
97,0.0586275607347488,-0.03427429869771,-0.0268676746636629,-0.5,0.0733839124441147,0.0573157332837582
98,0.0377470850944519,-0.0221829600632191,-0.0597666054964066,-0.5,0.0422172583639622,0.0392008982598782
99,0.0092447297647595,-0.0061087128706276,-0.0871627554297447,-0.5,0.0151576232165098,0.0149016203358769
100,-0.0026046182028949,-0.0072101149708032,-0.108669474720955,-0.5,-0.0003185594687238,-0.0244327429682016
101,-0.0096130287274718,-0.0317981950938702,-0.119447715580463,-0.5,-0.019900981336832,-0.0637733340263367
102,-0.0258236918598413,-0.0479541420936584,-0.106415934860706,-0.5,-0.0413067638874054,-0.0653564482927322
103,-0.0440637618303299,-0.0284763928502798,-0.0659265965223312,-0.5,-0.0453765131533146,-0.0232537873089314
104,-0.0521435588598251,0.0098030176013708,-0.015193865634501,-0.5,-0.0301027894020081,0.0229511931538582
105,-0.0462415181100369,0.0264422763139009,0.0220654085278511,-0.5,-0.0073730321601033,0.0391178578138351
106,-0.0291726738214493,0.0046352776698768,0.0354490578174591,-0.5,0.0145394178107381,0.0327182374894619
107,-0.0027495904359966,-0.0346638448536396,0.031306616961956,-0.5,0.0281462445855141,0.0212243366986513
108,0.0291242673993111,-0.0622198730707169,0.0249520484358072,-0.5,0.0292715504765511,0.007790211122483
109,0.0564071387052536,-0.0658692494034767,0.0260461512953043,-0.5,0.0283610988408327,3.75520949091879e-06
110,0.0716094821691513,-0.0461345538496971,0.02990379370749,-0.5,0.0379403159022331,0.0078925732523202
111,0.0736429244279861,-0.0085132159292697,0.0310542192310095,-0.5,0.0529088117182255,0.0303558204323053
112,0.0700577571988106,0.0310963112860918,0.0332678183913231,-0.5,0.0634762719273567,0.0582605414092541
113,0.0712881460785866,0.0477900989353657,0.0335865095257759,-0.5,0.0691378936171532,0.0752118229866028
114,0.0674748420715332,0.0266547612845898,0.0208887849003077,-0.5,0.0653897598385811,0.0651419758796692
115,0.0316243059933186,-0.0204673018306494,-0.0062754405662417,-0.5,0.0379887335002422,0.0299564134329557
116,-0.0331445783376694,-0.0621681027114391,-0.0381108000874519,-0.5,-0.012682487256825,-0.0067995274439454
117,-0.0817721262574196,-0.0731460675597191,-0.0612689778208733,-0.5,-0.0589752346277237,-0.0185750368982553
118,-0.0773824751377106,-0.0538818165659904,-0.0712312459945679,-0.5,-0.0777022540569305,-0.0076258312910795
119,-0.0257148407399654,-0.0279863718897104,-0.0725855603814125,-0.5,-0.069087415933609,-0.0010234626242891
120,0.0277356803417206,-0.0221967492252588,-0.0700394585728645,-0.5,-0.050349522382021,-0.0148419048637152
121,0.0370382107794285,-0.0403722375631332,-0.0681897476315498,-0.5,-0.0438656397163868,-0.0429253689944744
122,0.0062248804606497,-0.0572702698409557,-0.0634667053818703,-0.5,-0.0500881299376488,-0.0602391995489597
123,-0.0213366262614727,-0.0449822023510933,-0.0411399640142918,-0.5,-0.0465641878545284,-0.0357040017843246
124,-0.0196294710040092,-0.0027314752805978,0.0015515134437009,-0.5,-0.0216694474220276,0.034229401499033
125,-0.0019583164248615,0.0428216680884361,0.0406917929649353,-0.5,0.0086840530857443,0.108519166707993
126,0.012414320372045,0.0705780908465385,0.0523318089544773,-0.5,0.0250733010470867,0.140924394130707
127,0.0210289675742388,0.0775128677487373,0.0393537916243076,-0.0797412097454071,0.0273765455931425,0.125874161720276
128,0.0266884583979845,0.0627253204584122,0.023307990282774,0.139714568853378,0.0275346152484417,0.0877010971307755
129,0.0319980345666409,0.0290633272379637,0.0240606535226107,0.0705264583230019,0.0379150696098804,0.0527215488255024
130,0.0393069796264172,-0.0153292641043663,0.035743772983551,-0.197889044880867,0.0555176846683025,0.0257935486733913
131,0.049039501696825,-0.0591641589999199,0.0309441033750772,-0.5,0.0633991956710815,-0.007977832108736
132,0.0586526952683926,-0.0878978669643402,5.14582643518224e-05,-0.5,0.0563105084002018,-0.0472494661808014
133,0.0639703348278999,-0.0943225398659706,-0.036470964550972,-0.5,0.0454744249582291,-0.0714136511087418
134,0.0619995072484016,-0.0824303328990936,-0.0495217442512512,-0.5,0.0436085313558578,-0.0666039511561394
135,0.0460792221128941,-0.0666958391666412,-0.0363062396645546,-0.454013824462891,0.0398416891694069,-0.0430960990488529
136,0.0141642326489091,-0.059245128184557,-0.0241218730807304,-0.14986664056778,0.0089671676978468,-0.0253958813846111
137,-0.0126086007803679,-0.0501419082283974,-0.0285489205271006,0.177443906664848,-0.0408450327813625,-0.0208536926656961
138,-0.008709498681128,-0.025980718433857,-0.0353585034608841,0.457801759243011,-0.0712727159261703,-0.0138915311545134
139,0.019447909668088,0.0064179138280451,-0.0266305319964886,0.5,-0.0607091933488846,0.0094859562814235
140,0.0472337640821934,0.0284028425812721,-0.006409706082195,0.5,-0.0239082667976618,0.039056021720171
141,0.06362584233284,0.0271086767315865,0.011357662267983,0.5,0.0115340743213892,0.0540222525596619
142,0.0653108432888985,0.008478233590722,0.0240200310945511,0.5,0.0299206841737032,0.0491443611681461
143,0.0498134195804596,-0.0116458693519235,0.0347645319998264,0.5,0.0284053105860949,0.0336953736841679
144,0.0241321995854378,-0.0214068572968245,0.0440033189952374,0.5,0.0149487294256687,0.0229207258671522
145,0.0005372270243242,-0.0134019246324897,0.0514695271849632,0.5,0.002099723322317,0.0245360974222422
146,-0.0124334590509534,0.01002480648458,0.0571625865995884,0.5,-0.0010912998113781,0.0311549659818411
147,-0.0090538375079631,0.0347519405186176,0.0527422837913036,0.5,0.0051353140734136,0.0329762436449528
148,0.0095950998365879,0.0427337922155857,0.0265875067561865,0.5,0.0086987558752298,0.0264274869114161
149,0.0259684436023235,0.0264595430344343,-0.0108907613903284,0.5,0.0060308487154543,0.0148382810875773
150,0.0242471657693386,0.0024499723222106,-0.036984208971262,0.5,0.0110585447400808,0.0062660025432705
151,0.0117101082578301,-0.0028189432341605,-0.0436164289712906,0.5,0.0251766480505466,0.0045671486295759
152,0.000470762810437,0.0088987778872251,-0.0337862595915794,0.5,0.032599713653326,0.0053507625125348
153,-0.0066550225019455,0.00971838273108,-0.0161625146865845,0.5,0.0311090536415577,0.0048313150182366
154,-0.0053864251822233,-0.0065860413014888,-0.0010297854896634,0.5,0.0354309938848019,0.0057254764251411
155,0.0058060269802808,-0.0192683339118958,0.0058621321804821,0.5,0.0492267124354839,0.0096335038542747
156,0.0185582470148802,-0.0187288746237755,-0.0018779881065711,0.470905601978302,0.0539220459759235,0.0075710495002567
157,0.0290111973881722,-0.0201916787773371,-0.0285143852233887,0.210832551121712,0.0353848971426487,-0.0135608064010739
158,0.0409156270325184,-0.0344400629401207,-0.0599136836826801,-0.161644011735916,0.0058212191797792,-0.0456351116299629
159,0.0521713495254517,-0.0501529797911644,-0.0698138698935509,-0.5,-0.013890010304749,-0.0601126737892628
160,0.0568456090986729,-0.0551184453070164,-0.0501303486526012,-0.5,-0.0143791940063238,-0.0446199700236321
161,0.0555466152727604,-0.0483277551829815,-0.0183569584041834,-0.5,0.0015428678598254,-0.0122381886467338
162,0.052709624171257,-0.0356484055519104,0.0047591500915586,-0.5,0.022156648337841,0.0208207238465548
163,0.0513065606355667,-0.0183278806507587,0.0162264499813318,-0.5,0.0394524447619915,0.0489288344979286
164,0.0491931140422821,0.0017716968432068,0.0136372465640306,-0.5,0.0483977384865284,0.0638512223958969
165,0.0447404868900776,0.0079575404524803,-0.0197271071374416,-0.5,0.0414070263504982,0.0493322610855103
166,0.039797205477953,-0.0101071391254663,-0.0748852714896202,-0.5,0.024307232350111,0.0080910502001643
167,0.0346685871481895,-0.0349932573735714,-0.104614533483982,-0.5,0.020848210901022,-0.02517344430089
168,0.0337504968047142,-0.0406786650419235,-0.0851980224251747,-0.5,0.0384351946413517,-0.0171896889805794
169,0.0341208539903164,-0.0226781684905291,-0.0468613356351852,-0.5,0.0464203283190727,0.0180471763014793
170,0.0268222484737635,0.0075574531219899,-0.021486284211278,-0.5,0.0257303323596716,0.0399631783366203
171,0.0177006516605616,0.040228795260191,-0.008059755899012,-0.5,-7.07605795469135e-05,0.0376647412776947
172,0.0148438652977347,0.0664320588111877,0.0063093332573771,-0.5,-0.0055520804598927,0.0290390569716692
173,0.0160759650170803,0.0758794173598289,0.0291207358241081,-0.5,0.0109600620344281,0.0294701755046844
174,0.0199323929846287,0.0642564967274666,0.0586101114749908,-0.5,0.0409602597355843,0.0400555171072483
175,0.0286917947232723,0.0444166585803032,0.083663247525692,-0.5,0.0751812979578972,0.0537785515189171
176,0.0396422334015369,0.0313377901911736,0.0903147384524345,-0.5,0.0983912721276283,0.062857985496521
177,0.0469004474580288,0.0237666107714176,0.0752142369747162,-0.5,0.0972771942615509,0.0613557174801826
178,0.0466477684676647,0.0139141185209155,0.0457043871283531,-0.5,0.0743293091654778,0.0453878752887249
179,0.0346760116517544,-0.002746351994574,0.0007558184443041,-0.5,0.0365366451442242,0.0104811089113355
180,0.0141209065914154,-0.0252457763999701,-0.0592228770256042,-0.5,-0.0071501876227557,-0.0388094261288643
181,-0.0011065128492191,-0.048722181469202,-0.114402264356613,-0.5,-0.0373862385749817,-0.0796741545200348
182,-0.0041795764118433,-0.0675248056650162,-0.146068453788757,-0.5,-0.044781319797039,-0.0941041186451912
183,-3.11939511448145e-05,-0.0816667079925537,-0.161766961216927,-0.5,-0.0403570532798767,-0.0959864556789398
184,0.0061415513046085,-0.103212900459766,-0.184120044112206,-0.5,-0.0419083945453167,-0.113765686750412
185,0.0108998464420438,-0.126025274395943,-0.203355476260185,-0.5,-0.0534689836204052,-0.136504337191582
186,0.015634823590517,-0.113375388085842,-0.175773769617081,-0.5,-0.0518570505082607,-0.116542890667915
187,0.0237977728247643,-0.0553756505250931,-0.0933088809251785,-0.5,-0.0218822080641985,-0.0456959158182144
188,0.0354021713137627,0.0165305677801371,0.0029898199718445,-0.5,0.0204271357506514,0.0360039658844471
189,0.0494560301303864,0.0747549310326576,0.075544185936451,-0.5,0.0554617792367935,0.0975986868143082
190,0.059913694858551,0.106487348675728,0.112955048680305,-0.5,0.079096294939518,0.129585534334183
191,0.0597458928823471,0.112500682473183,0.123585656285286,-0.5,0.10264740884304,0.132414385676384
192,0.0476886294782162,0.100733205676079,0.104706473648548,-0.5,0.118624463677406,0.104909986257553
193,0.0221815314143896,0.0634729191660881,0.0345231220126152,-0.5,0.087150476872921,0.0434398800134659
194,-0.0185849890112877,0.0027406238950789,-0.0721288546919823,-0.5,-0.0021063573658466,-0.0283722802996635
195,-0.0609646439552307,-0.0481574311852455,-0.157221093773842,-0.5,-0.101423971354961,-0.0715819820761681
196,-0.0757988765835762,-0.067094475030899,-0.180283397436142,-0.5,-0.150392204523087,-0.0779070183634758
197,-0.052108146250248,-0.0636689886450768,-0.14776910841465,-0.5,-0.1258924305439,-0.0641160383820534
198,-0.004691953305155,-0.0493600443005562,-0.0903732627630234,-0.5,-0.0467327386140823,-0.0433925278484821
199,0.0407110787928104,-0.0350942872464657,-0.0392495505511761,-0.5,0.0408973172307014,-0.0317038744688034
200,0.0467177592217922,-0.0510986521840096,-0.0341712608933449,-0.5,0.0629663690924644,-0.0574942417442799
201,0.0009519544546492,-0.0934428721666336,-0.0882266238331795,-0.5,-0.0130494758486748,-0.110069528222084
202,-0.0623708590865135,-0.112491510808468,-0.153210386633873,-0.5,-0.121876537799835,-0.132608279585838
203,-0.10336297750473,-0.0980372652411461,-0.185753628611565,-0.5,-0.187980636954308,-0.112174704670906
204,-0.0943003445863724,-0.0691748335957527,-0.178141877055168,-0.5,-0.1879942715168,-0.0766336023807526
205,-0.0385448448359966,-0.0351800546050072,-0.132521167397499,-0.5,-0.131411239504814,-0.0372341498732567
206,0.0160119086503983,-0.0189191307872534,-0.0759112983942032,-0.5,-0.061047624796629,-0.0130845783278346
207,0.038301344960928,-0.0288614574819803,-0.0327702350914478,-0.5,-0.0145447589457035,-0.0157551150768995
208,0.0477400347590446,-0.029317531734705,0.0210358966141939,-0.0476308017969131,0.0281929448246956,-0.004725010599941
209,0.0682800337672234,0.0059113753959536,0.110170617699623,0.5,0.100566640496254,0.0532085597515106
210,0.097342848777771,0.0457166917622089,0.197439938783646,0.5,0.181041166186333,0.11912577599287
211,0.117474436759949,0.0504701547324657,0.228247702121735,0.5,0.217626333236694,0.140496864914894
212,0.118795305490494,0.0373894907534122,0.203640535473824,0.5,0.200754746794701,0.124679766595364
213,0.105470024049282,0.0421786457300186,0.155330270528793,0.5,0.159598216414452,0.102699935436249
214,0.080136276781559,0.0618722252547741,0.100316114723682,0.5,0.105922117829323,0.0836251974105835
215,0.0461372323334217,0.0814248025417328,0.0538727976381779,0.5,0.0438285656273365,0.0763894319534302
216,0.0207091402262449,0.0999745726585388,0.0367553196847439,0.5,0.0031546736136078,0.0929940566420555
217,0.0170988440513611,0.11429301649332,0.0503205731511116,0.5,0.0080332970246672,0.124070875346661
218,0.028670895844698,0.116589210927486,0.0704671964049339,0.5,0.0412199981510639,0.145801663398743
219,0.0403547920286655,0.0990832075476646,0.0726736187934875,0.5,0.0673522725701332,0.141119316220284
220,0.0430103354156017,0.0625165328383446,0.0556253641843796,0.5,0.072517529129982,0.109147883951664
221,0.0367320068180561,0.0308173540979624,0.0366975851356983,0.5,0.0681137964129448,0.0645159259438515
222,0.0255507547408342,0.0238654371351004,0.024079829454422,0.5,0.0651337653398514,0.0255522504448891
223,0.0126688834279776,0.0280212946236134,0.0094742970541119,0.5,0.0586958415806293,-0.0018827919848263
224,-0.0001531406451249,0.0245383847504854,-0.0137846218422055,0.5,0.0381180867552757,-0.024717565625906
225,-0.0145232072100043,0.0113934045657516,-0.0418314263224602,0.5,0.0065151816233992,-0.0477139540016651
226,-0.029460184276104,-0.0114548364654183,-0.0624323673546314,0.5,-0.013638311997056,-0.0663025304675102
227,-0.0339548476040363,-0.0472585372626781,-0.0699603110551834,0.5,-0.0079757971689105,-0.0811126977205276
228,-0.0270807556807995,-0.0914064347743988,-0.0760446339845657,0.5,0.0059431316331028,-0.102144300937653
229,-0.0253030527383089,-0.123825259506702,-0.0882470831274986,0.5,0.0013932855799794,-0.127295881509781
230,-0.0340065695345402,-0.130582392215729,-0.0965829491615295,0.5,-0.0257571078836918,-0.142606854438782
231,-0.0434792302548885,-0.12108638137579,-0.0939723402261734,0.5,-0.0575419701635838,-0.141466557979584
232,-0.0423877350986004,-0.104500986635685,-0.0862329676747322,0.5,-0.0686323195695877,-0.124752230942249
233,-0.0225573647767305,-0.0777014046907425,-0.0738661289215088,0.5,-0.0432364493608475,-0.0931084081530571
234,0.009862040169537,-0.0426984913647175,-0.0499367751181126,0.5,0.0061479993164539,-0.0480151064693928
235,0.0385640226304531,-0.0082179270684719,-0.0190259553492069,0.5,0.0486560650169849,0.0039497544057667
236,0.0520407147705555,0.0190476533025503,0.0023020699154585,0.5,0.0655411630868912,0.0454478301107883
237,0.0475005693733692,0.0300184097141027,0.0013604024425149,0.5,0.0604818575084209,0.0549376010894775
238,0.031568355858326,0.0214194916188717,-0.0176586732268333,0.5,0.0445229113101959,0.0290299095213413
239,0.0176945049315691,0.0074993632733821,-0.03666627779603,0.5,0.024082450196147,-0.0071610393933951
240,0.0107130091637373,0.0035292070824652,-0.0465704165399075,0.5,0.0021120065357536,-0.0268230065703392
241,-0.0010412287665531,0.0063316631130874,-0.0546951368451118,0.5,-0.022386385127902,-0.0286246966570616
242,-0.0185082387179136,0.0048475484363734,-0.0649101510643959,0.5,-0.0477388165891171,-0.0239462740719318
243,-0.0236339587718248,0.0006191942957229,-0.071621373295784,0.5,-0.0618652887642384,-0.0216662175953388
244,-0.0119106881320477,-0.0006871540681459,-0.0728490427136421,0.5,-0.053032398223877,-0.02577437274158
245,-0.0025264325086027,-0.0053902366198599,-0.070823535323143,0.5,-0.0249485764652491,-0.0371335037052631
246,-0.0121191833168268,-0.0249634254723787,-0.0681523680686951,0.5,0.0038054625038057,-0.061303898692131
247,-0.0395517125725746,-0.0617684684693813,-0.069106437265873,0.5,0.0141553850844502,-0.102767050266266
248,-0.067552238702774,-0.0978179275989532,-0.0696011036634445,0.5,0.0042449603788554,-0.145262211561203
249,-0.0667085647583008,-0.108495362102985,-0.060810774564743,0.5,-0.0093542523682117,-0.156579315662384
250,-0.025996632874012,-0.0961798056960106,-0.0492464192211628,0.5,-0.0104522835463285,-0.127688959240913
251,0.0297651160508394,-0.0833325684070587,-0.0489610135555267,0.5,0.0030326975975185,-0.0863616988062859
252,0.0760250687599182,-0.074752114713192,-0.0559487268328667,0.5,0.0250909272581339,-0.0577920749783516
253,0.105539865791798,-0.0540975071489811,-0.0498018339276314,0.5,0.0517977885901928,-0.0371640101075172
254,0.112249590456486,-0.0164206475019455,-0.0256679225713015,0.5,0.0719844996929169,-0.0110687064006925
255,0.0991261303424835,0.0226168595254421,-0.0009968696394935,0.5,0.0683302134275436,0.0222747474908829
256,0.0740025192499161,0.0469723120331764,0.0121337994933128,0.5,0.0416467487812042,0.0559702478349209
257,0.0370381511747837,0.0496671982109547,0.0134374080225825,0.5,0.0111976461485028,0.0762955397367477
258,-0.0008071557967923,0.0367189347743988,0.0062629743479192,0.5,-0.0013311717193573,0.0738905221223831
259,-0.0215855091810226,0.0189942345023155,-0.0038935474585741,0.5,0.0099928863346576,0.0521557815372944
260,-0.0226249843835831,-0.0011860047234222,-0.0132814766839147,0.5,0.0252880565822124,0.0167752131819725
261,-0.0132337529212236,-0.0194745734333992,-0.0175441987812519,0.5,0.0302050691097975,-0.021642392501235
262,-0.0041391057893633,-0.0313547179102898,-0.0166259650141001,0.5,0.0339038819074631,-0.0490154251456261
263,-0.0056518805213272,-0.0416796170175076,-0.0235616806894541,0.5,0.0403708852827549,-0.0616162605583668
264,-0.0313417091965675,-0.0557853803038597,-0.0549333989620209,0.5,0.0280530992895365,-0.0709060952067375
265,-0.0886558368802071,-0.0749792978167534,-0.111330509185791,0.5,-0.0263609904795885,-0.0914793536067009
266,-0.156962186098099,-0.0949295833706856,-0.167314261198044,0.5,-0.104780860245228,-0.113826632499695
267,-0.188805937767029,-0.10524820536375,-0.182238295674324,0.5,-0.146826088428497,-0.114363960921764
268,-0.145768508315086,-0.0931584909558296,-0.130661264061928,0.5,-0.105428926646709,-0.0853667855262756
269,-0.0387772209942341,-0.0581563450396061,-0.0330240651965141,-0.5,-0.0010157307842746,-0.0338542759418488
270,0.0766989216208458,-0.0210030563175678,0.0594507157802582,-0.5,0.102858237922192,0.0221560131758451
271,0.150210618972778,-0.0015003300504759,0.111281223595142,-0.5,0.165352910757065,0.0585937611758709
272,0.170448750257492,8.88111935637426e-06,0.122459217905998,-0.5,0.183940261602402,0.0666011348366737
273,0.156326308846474,-0.0104731610044837,0.105624243617058,-0.5,0.166365295648575,0.0547789372503757
274,0.127587392926216,-0.0283301118761301,0.0678187906742096,-0.5,0.11869540810585,0.0358019694685936
275,0.089044950902462,-0.0399022176861763,0.0257639028131962,-0.5,0.0600744336843491,0.0237793661653996
276,0.0435704700648785,-0.0309521406888962,0.0035893346648663,-0.371386140584946,0.0157924108207226,0.0239400900900364
277,0.0019998517818749,-0.0082004116848111,0.0043296916410327,0.432819753885269,-0.0068400353193283,0.0258946772664785
278,-0.026530746370554,0.0050276075489819,0.0078382343053817,0.5,-0.0167176574468613,0.0177959278225899
279,-0.0388553142547607,0.0015172880375757,0.0063667967915535,0.5,-0.0149519108235836,0.0035011901054531
280,-0.0353999249637127,0.0017785315867513,0.0138823790475726,0.5,0.0064245159737765,-9.26328502828255e-05
281,-0.0220078136771917,0.018424903973937,0.0318797193467617,0.5,0.0403252243995667,0.0134071335196495
282,-0.0094344951212406,0.0371651127934456,0.0433687046170235,0.5,0.0654839128255844,0.0344374105334282
283,-0.0063575319945812,0.0458287931978703,0.0383180305361748,0.5,0.0688589066267014,0.0554005578160286
284,-0.0165232997387648,0.0425557754933834,0.0168469380587339,0.5,0.049208976328373,0.0668601021170616
285,-0.0342216305434704,0.0239805188030005,-0.0143212294206023,0.5,0.0151683315634727,0.0500835217535496
286,-0.0471089854836464,-0.0102496044710279,-0.0428003445267677,0.5,-0.0150901461020112,0.001863183453679
287,-0.051389466971159,-0.0574088841676712,-0.064867191016674,0.5,-0.031243909150362,-0.0522665418684483
288,-0.0417245514690876,-0.102990284562111,-0.0776602476835251,0.5,-0.0282046776264906,-0.0781007781624794
289,-0.0135796731337905,-0.127241581678391,-0.0746800601482391,0.5,-0.005079458002001,-0.0686421915888786
290,0.0146683761849999,-0.123111687600613,-0.0592861510813236,0.5,0.019145168364048,-0.0453785881400108
291,0.0293318349868059,-0.0904379710555077,-0.0341395661234856,0.5,0.0293138548731804,-0.0187501218169928
292,0.0401509180665016,-0.0479730442166328,-0.0049081211909651,0.5,0.0280693117529154,0.0030136946588754
293,0.0473214909434319,-0.0282263103872538,0.0115101225674152,0.5,0.0194067694246769,0.0017643620958551
294,0.0402673296630383,-0.0344818942248821,0.010401451960206,0.5,0.0125028500333428,-0.0143895810469985
295,0.0246600396931171,-0.0353076942265034,0.0057869502343237,0.5,0.0193117167800665,-0.0130998557433486
296,0.01590371504426,-0.0077828844077885,0.0089305080473423,0.5,0.0334527976810932,0.0160053204745054
297,0.0200472343713045,0.031910952180624,0.0195182785391808,0.5,0.0397238694131374,0.049881137907505
298,0.0324325002729893,0.0580723322927952,0.0377523638308048,0.5,0.0426008366048336,0.072596862912178
299,0.0474930442869663,0.0680645257234573,0.0640512406826019,0.121834471821785,0.0527576133608818,0.0894993841648102
300,0.0560069754719734,0.0647090673446655,0.0838952288031578,-0.434087008237839,0.0578692890703678,0.0959955006837845
301,0.0398345813155174,0.0422042608261108,0.0696175917983055,-0.5,0.034743070602417,0.0746175646781921
302,-0.0037468620575964,0.001923632575199,0.0101977130398154,-0.480418533086777,-0.016258267685771,0.0250127296894789
303,-0.0522469505667686,-0.0417765825986862,-0.0631840154528618,-0.0888330265879631,-0.0667049661278725,-0.0277305729687214
304,-0.083906851708889,-0.0778041854500771,-0.107419639825821,0.391232162714005,-0.091222956776619,-0.0548224188387394
305,-0.0886667966842651,-0.0969774574041367,-0.110960878431797,0.5,-0.0850379765033722,-0.0481541492044926
306,-0.0646193772554398,-0.0912023559212685,-0.0883819088339806,0.5,-0.0568963438272476,-0.0241564139723778
307,-0.0207584388554096,-0.0701361298561096,-0.0562614947557449,0.5,-0.0185505971312523,-0.0029439695645123
308,0.0289627723395824,-0.0444617420434952,-0.0205664709210396,0.5,0.0281432084739208,0.0087625449523329
309,0.0782511681318283,-0.0172656513750553,0.0168921109288931,0.5,0.0836763679981232,0.0106209358200431
310,0.120432376861572,-0.0048367511481046,0.0445308014750481,0.5,0.130056411027908,-0.0003453765530139
311,0.13327893614769,-0.0206563230603933,0.0439299121499062,0.5,0.142712458968163,-0.0199851021170616
312,0.10517206788063,-0.0518429093062878,0.008235634304583,0.5,0.114671379327774,-0.0393987149000168
313,0.0590768419206142,-0.0716913118958473,-0.0431461594998837,0.5,0.0582161396741867,-0.0572388544678688
314,0.0159245748072863,-0.0648821741342545,-0.0786514133214951,0.5,-0.004299288149923,-0.0696430578827858
315,-0.0229175016283989,-0.0301985889673233,-0.0795106217265129,0.5,-0.0469302497804165,-0.0680198892951012
316,-0.050666581839323,0.0316461324691772,-0.0449495948851109,0.5,-0.0534949786961079,-0.0454138927161694
317,-0.0547622516751289,0.0974714308977127,0.0033015697263181,0.5,-0.0349473729729652,-0.0018809440080076
318,-0.034090481698513,0.124239526689053,0.025750994682312,0.5,-0.0187829192727804,0.0420450121164322
319,-0.0026643513701856,0.108854979276657,0.0102955894544721,0.5,-0.0151342516764998,0.0680931508541107
320,0.0224259328097105,0.0818143486976624,-0.0119491433724761,0.5,-0.0126913012936711,0.0809132009744644
321,0.0364217832684517,0.0571561641991138,-0.0120395990088582,0.0834214761853218,-0.0004164705460425,0.086002990603447
322,0.0473629012703896,0.0370846800506115,0.0126877436414361,-0.200821951031685,0.0243073869496584,0.0835104808211327
323,0.0610661506652832,0.0213811881840229,0.0470538176596165,-0.291278630495071,0.0533835478127003,0.0758446380496025
324,0.0757363364100456,0.0053729643113911,0.0663060769438744,-0.259821057319641,0.0701564475893974,0.0653115436434746
325,0.0873478651046753,-0.0114433076232672,0.0546759739518166,-0.192701399326324,0.0689969137310982,0.0508432127535343
326,0.0935113504528999,-0.0259023867547512,0.0233276579529047,-0.144028812646866,0.0652954056859016,0.0276788789778948
327,0.0838308110833168,-0.0443700961768627,-0.0158645678311586,-0.161573469638824,0.0582990162074566,-0.0125686610117555
328,0.0438844747841358,-0.0732245892286301,-0.0659013614058495,-0.250984340906143,0.0237784963101149,-0.0687982365489006
329,-0.0089066037908196,-0.0971543416380882,-0.107756465673447,-0.335048615932465,-0.0304789189249277,-0.111578576266766
330,-0.0366745218634605,-0.0921357125043869,-0.109611839056015,-0.334276795387268,-0.0648395121097565,-0.104313999414444
331,-0.0296698994934559,-0.0567436851561069,-0.0738376006484032,-0.253813296556473,-0.0597273893654346,-0.0492747351527214
332,-0.00777641357854,-0.0146394483745098,-0.0273683965206146,-0.120974354445934,-0.0271754413843155,0.0132490880787373
333,0.0108145512640476,0.0152067001909018,0.0121013754978776,0.0684090182185173,0.0111192781478167,0.0520234741270542
334,0.0216012429445982,0.0302876643836498,0.039630189538002,0.282258421182632,0.0388222150504589,0.0652080923318863
335,0.0216583013534546,0.032683227211237,0.0525723621249199,0.457296848297119,0.0469445250928402,0.058038592338562
336,0.0107276812195778,0.0215787999331951,0.0398703180253506,0.5,0.0303861480206251,0.0289855729788542
337,-0.0042633558623492,-0.0033013171050697,-0.0049925139173865,0.5,-0.0078597497195005,-0.0102792624384165
338,-0.0142279705032706,-0.0295236129313707,-0.0553926266729832,0.5,-0.0446235276758671,-0.0309708490967751
339,-0.0120330546051264,-0.0446720011532307,-0.0775337889790535,0.5,-0.0547983460128307,-0.0274630282074213
340,-0.0002327432011952,-0.0543798021972179,-0.0706225633621216,0.5,-0.0391422472894192,-0.0232001394033432
341,0.0160086434334517,-0.0665754675865173,-0.0504996217787266,0.5,-0.0131951747462153,-0.0303575620055199
342,0.0345539636909962,-0.075338788330555,-0.0252662301063538,0.5,0.0104792192578316,-0.0373279899358749
343,0.048893827944994,-0.0666847676038742,0.002470490289852,0.5,0.028685076162219,-0.0272150319069624
344,0.0504571162164211,-0.0370987057685852,0.0270981024950743,0.5,0.0462845377624035,-0.0019376549171283
345,0.0374452322721481,-0.004542700946331,0.0372165516018867,0.5,0.0622171089053154,0.0175522807985544
346,0.0151948109269142,0.0047146910801529,0.0186528787016869,0.5,0.0629849806427956,0.0147467674687505
347,-0.0083967139944434,-0.0201042145490646,-0.0261279325932264,0.5,0.0368034094572067,-0.0128713054582477
348,-0.0207024272531271,-0.06501654535532,-0.068099707365036,0.5,-0.0070901908911764,-0.0518439337611198
349,-0.0134517466649413,-0.0998958647251129,-0.0770480930805206,0.360373079776764,-0.0382513329386711,-0.0765873789787292
350,0.0027094646356999,-0.0970134735107422,-0.0456308126449585,0.315926194190979,-0.0310747064650059,-0.0714166760444641
351,0.0091067506000399,-0.0537351742386818,0.0069371722638607,0.339765667915344,0.0076068537309765,-0.0456517562270164
352,0.0013137068599462,-0.0028209437150508,0.0475568771362305,0.363904297351837,0.0405337698757648,-0.0219880454242229
353,-0.0116830328479409,0.0120709231123328,0.0489870756864548,0.333090305328369,0.0323339961469173,-0.0179016571491957
354,-0.0240350253880024,-0.0135374134406447,0.0158109199255705,0.251513928174973,-0.012594479136169,-0.0294608026742935
355,-0.0282131992280483,-0.0418503694236279,-0.0120583334937692,0.16063417494297,-0.0508004240691662,-0.0281732901930809
356,-0.0121538247913122,-0.0414058454334736,-0.0048446697182953,0.0704481899738312,-0.0474516451358795,0.0070077730342745
357,0.0183475352823734,-0.0147533202543855,0.0237233005464077,-0.0209532137960196,-0.0147026777267456,0.0585798881947994
358,0.0428440868854523,0.0109279491007328,0.0396306216716766,-0.090892493724823,0.007319722790271,0.0944767966866493
359,0.0507220476865768,0.0114341294392943,0.0247644018381834,-0.149635121226311,-0.0019364538602531,0.104237549006939
360,0.0450583137571812,-0.0179550070315599,-0.0158478822559118,-0.242645666003227,-0.0284454971551895,0.0839296281337738
361,0.0416498780250549,-0.0629299357533455,-0.0583317428827286,-0.368948549032211,-0.0432003773748875,0.0323860943317413
362,0.0536883920431137,-0.0942955985665321,-0.0786329582333565,-0.46252304315567,-0.0267547480762005,-0.0230090171098709
363,0.0714257955551147,-0.0882180854678154,-0.0766363888978958,-0.488744050264359,0.0199389290064573,-0.05079735070467
364,0.0738232135772705,-0.0588256940245628,-0.0687341839075089,-0.5,0.0687596648931503,-0.0608393214643002
365,0.048133347183466,-0.0443049967288971,-0.067295216023922,-0.5,0.0762632936239243,-0.0816331952810287
366,0.0035238801501691,-0.0521570481359959,-0.0685683414340019,-0.5,0.0302807688713074,-0.107160724699497
367,-0.0401877798140049,-0.0575295761227608,-0.0612168721854687,-0.5,-0.0369560346007347,-0.109878256917
368,-0.0712227672338486,-0.0427138954401016,-0.0396387577056885,-0.5,-0.0842626020312309,-0.0801934897899628
369,-0.0780090913176537,-0.0134013425558805,-0.0053642741404473,-0.5,-0.0925368592143059,-0.0318647734820843
370,-0.0515299625694752,0.0160303171724081,0.0280035976320505,-0.486760646104813,-0.0714430809020996,0.0132133280858397
371,0.0011889180168509,0.0419263653457165,0.0465841107070446,-0.283824771642685,-0.0407927855849266,0.052677720785141
372,0.056014746427536,0.0575690716505051,0.0523609146475792,-0.0990056917071342,-0.0106349438428879,0.0912123024463654
373,0.08933325111866,0.0479403734207153,0.0519612915813923,0.0558607988059521,0.0227815229445696,0.108113385736942
374,0.099955178797245,0.0175645388662815,0.0451384373009205,0.155654340982437,0.0640180855989456,0.0880284160375595
375,0.0977195203304291,-0.0137397143989801,0.0234994739294052,0.212031573057175,0.0938590839505196,0.0466121844947338
376,0.0812247395515442,-0.0376343429088593,-0.0163077749311924,0.264006823301315,0.0839498192071915,0.0023177650291472
377,0.0509983859956265,-0.0529555417597294,-0.0505823418498039,0.320784837007523,0.0431389063596725,-0.0346044637262821
378,0.0208037663251162,-0.0547883063554764,-0.0496319755911827,0.348160088062286,0.007158909458667,-0.0521225854754448
379,0.0041945087723434,-0.0401916690170765,-0.0158245246857405,0.347764372825623,-0.0053825047798454,-0.0446401536464691
380,0.0075683551840484,-0.0141566162928939,0.0280323475599289,0.373476594686508,0.0040622386150062,-0.0190282259136438
381,0.0217006038874388,0.0112568838521838,0.0592852234840393,0.446079790592194,0.0240864269435406,0.0088886944577097
382,0.0302153695374727,0.0235251951962709,0.056994192302227,0.5,0.0410507954657078,0.0163465887308121
383,0.0270575173199177,0.0110851861536503,0.014788256958127,0.5,0.04692767187953,-0.0098982229828834
384,0.0057011959142983,-0.0255332421511412,-0.0537728145718575,0.5,0.0309343226253986,-0.0597167834639549
385,-0.0320385657250881,-0.0596216842532158,-0.116776362061501,0.5,-0.0077587561681866,-0.108123697340488
386,-0.0637746304273605,-0.0673956722021103,-0.137461856007576,0.5,-0.0443073436617851,-0.131820902228355
387,-0.072075143456459,-0.0585266388952732,-0.108759045600891,0.5,-0.055976115167141,-0.122625961899757
388,-0.0606772974133492,-0.0540074147284031,-0.0594262629747391,0.5,-0.0514409095048904,-0.0878789722919464
389,-0.045168898999691,-0.0553076639771461,-0.0302739441394806,0.5,-0.0576956793665886,-0.0460565388202667
390,-0.0351992063224316,-0.052918553352356,-0.0401952303946018,0.5,-0.0836077108979225,-0.0219360534101725
391,-0.0239697564393282,-0.0438913777470589,-0.0658758953213692,0.5,-0.105294786393642,-0.0232423692941666
392,-0.0014594660606235,-0.0270889960229397,-0.0662651881575584,0.5,-0.0939547121524811,-0.0274651572108269
393,0.0273535009473562,-0.0014027238357812,-0.0256000608205795,0.5,-0.0534747093915939,-0.0127326073125005
394,0.0503400191664696,0.0302544143050909,0.0346355214715004,0.5,-0.0101704439148307,0.0187212042510509
395,0.0627603307366371,0.0572609603404999,0.081162616610527,0.5,0.0198736023157835,0.0515921004116535
396,0.0640522241592407,0.0598375611007214,0.0927403941750526,0.5,0.0310924872756004,0.0671785399317741
397,0.0551948063075542,0.0354631878435612,0.0728423595428467,0.5,0.0294301528483629,0.0568036586046219
398,0.0420117974281311,0.0102103613317013,0.046966377645731,0.5,0.0405875779688358,0.0334522128105164
399,0.0274534579366446,-0.0024737264029681,0.0285753402858973,0.5,0.0709296762943268,0.0091999061405658
400,0.0107841221615672,-0.0148867582902312,0.0079626739025116,0.5,0.0828963965177536,-0.0225189253687859
401,-0.0021429120097309,-0.030677143484354,-0.02074652351439,0.5,0.0471817925572395,-0.0637878850102425
402,-0.0100436070933938,-0.0399073623120785,-0.0542014203965664,0.5,-0.0222022365778685,-0.0977286621928215
403,-0.0152615020051599,-0.0355566404759884,-0.0790569558739662,0.5,-0.0835965573787689,-0.0993588790297508
404,-0.0084939133375883,-0.0147913657128811,-0.0747213587164879,0.5,-0.100365996360779,-0.0564664863049984
405,0.0118250930681825,0.0134345013648272,-0.0455187447369099,0.5,-0.0785462409257889,0.0088910637423396
406,0.0273139420896769,0.0310747288167477,-0.0233817864209414,0.5,-0.0565917231142521,0.0592665709555149
407,0.0275214556604624,0.0300803352147341,-0.0316726341843605,0.5,-0.0545078292489052,0.0731450244784355
408,0.0248230658471584,0.0079864617437124,-0.0746738910675049,0.5,-0.0659078136086464,0.035904411226511
409,0.0319057814776897,-0.0272226668894291,-0.135318651795387,0.44382056593895,-0.0791338160634041,-0.0475547350943089
410,0.0449770279228687,-0.0501851327717304,-0.174986734986305,0.298065215349197,-0.0851578935980797,-0.132390275597572
411,0.0530771352350712,-0.0508486516773701,-0.172007113695145,0.170900866389275,-0.0859775319695473,-0.179968148469925
412,0.0539241544902325,-0.0412139296531677,-0.142572179436684,0.0361711569130421,-0.0871764421463013,-0.191819354891777
413,0.0559694245457649,-0.0315529257059097,-0.11933971196413,-0.113272130489349,-0.0922666788101196,-0.191749691963196
414,0.0606809258460999,-0.0288680493831635,-0.125308841466904,-0.252681732177734,-0.110157445073128,-0.200831949710846
415,0.0520252734422684,-0.0366362780332565,-0.157289162278175,-0.3576400578022,-0.142317175865173,-0.221096754074097
416,0.0222826674580574,-0.04497030377388,-0.190807089209557,-0.405350089073181,-0.172560036182404,-0.235330373048782
417,-0.0091514904052019,-0.0359834879636765,-0.203231871128082,-0.382488608360291,-0.185327708721161,-0.222591251134872
418,-0.0251556690782309,-0.0029616223182529,-0.192110657691956,-0.312365263700485,-0.181849285960197,-0.179433062672615
419,-0.0283464603126049,0.0373887345194817,-0.169064342975616,-0.236654713749886,-0.169283539056778,-0.122240796685219
420,-0.0250926371663809,0.0596307218074799,-0.146442577242851,-0.186807096004486,-0.142968595027924,-0.0757749453186989
421,-0.0178815722465515,0.054773848503828,-0.133960828185081,-0.16923363506794,-0.096684955060482,-0.0647187083959579
422,-0.0138090047985315,0.0349832251667976,-0.139931201934814,-0.175401329994202,-0.0531969405710697,-0.0981162264943123
423,-0.023851003497839,0.0182165037840605,-0.174653023481369,-0.227249562740326,-0.0566079914569855,-0.163994207978249
424,-0.0452751815319061,-0.0034667223226279,-0.243497520685196,-0.376036286354065,-0.126708775758743,-0.242883533239365
425,-0.0603908449411392,-0.051494188606739,-0.323457479476929,-0.5,-0.227861404418945,-0.308216392993927
426,-0.0511579290032387,-0.104272045195103,-0.360847562551498,-0.5,-0.290253549814224,-0.322528213262558
427,-0.0123036410659552,-0.112157389521599,-0.319949328899384,-0.5,-0.274082213640213,-0.263720691204071
428,0.0414593443274498,-0.0620438680052757,-0.220278725028038,-0.5,-0.199623286724091,-0.160359367728233
429,0.0858150273561478,0.011877765879035,-0.118424706161022,-0.5,-0.124183915555477,-0.0723491013050079
430,0.105526216328144,0.0621744394302368,-0.0676578506827354,-0.5,-0.0953649282455444,-0.0360954366624355
431,0.106279008090496,0.0671022236347198,-0.0783129408955574,-0.5,-0.110221184790134,-0.0444881170988083
432,0.100788921117783,0.0399032011628151,-0.117480531334877,-0.5,-0.13275820016861,-0.072529174387455
433,0.0880025550723076,0.0064695738255977,-0.14559768140316,-0.5,-0.137884080410004,-0.104966603219509
434,0.0650846436619759,-0.0112893022596836,-0.142373070120811,-0.5,-0.125319868326187,-0.130920767784119
435,0.0414868108928204,-0.0079312827438116,-0.11673828959465,-0.5,-0.11164828389883,-0.141601070761681
436,0.026904633268714,0.0061196172609925,-0.0969014316797256,-0.5,-0.111195810139179,-0.14221653342247
437,0.0145456055179238,0.0189119074493647,-0.103172533214092,-0.5,-0.124048501253128,-0.147407829761505
438,-0.0051711085252463,0.0228482484817505,-0.126620262861252,-0.39463347196579,-0.13597260415554,-0.157982707023621
439,-0.0243686772882938,0.0093755153939127,-0.146416291594505,-0.35339817404747,-0.137116014957428,-0.164324268698692
440,-0.0330025814473629,-0.0254883710294962,-0.15805695950985,-0.422236204147339,-0.138775423169136,-0.170822754502296
441,-0.0262280181050301,-0.0615887828171253,-0.161816373467445,-0.5,-0.14247989654541,-0.178906813263893
442,0.0002473620697855,-0.0770372971892357,-0.159428179264069,-0.5,-0.129898503422737,-0.181140661239624
443,0.0337342247366905,-0.0817205607891083,-0.172171339392662,-0.5,-0.110123239457607,-0.186921134591103
444,0.0521425977349281,-0.0900016948580742,-0.221362039446831,-0.5,-0.121543236076832,-0.208816945552826
445,0.046149168163538,-0.0937375277280808,-0.279428333044052,-0.5,-0.166760548949242,-0.226060643792152
446,0.01734315790236,-0.0797109454870224,-0.285244554281235,-0.5,-0.199498847126961,-0.19985194504261
447,-0.018661430105567,-0.0455855019390583,-0.216987580060959,-0.5,-0.184656694531441,-0.124913521111012
448,-0.0371100269258022,-0.0012040426954627,-0.105025582015514,-0.5,-0.124073423445225,-0.0325267501175404
449,-0.028508709743619,0.0351918786764145,0.0021848322357982,-0.5,-0.04190668836236,0.0435148030519485
450,-0.0043402868323028,0.0504204928874969,0.0658134073019028,-0.5,0.0304157920181751,0.0880659595131874
451,0.0193281620740891,0.0477108657360077,0.081613264977932,-0.5,0.0759076103568077,0.107763305306435
452,0.0340526551008224,0.0388524085283279,0.0727872624993324,-0.5,0.0967877805233002,0.113291405141354
453,0.0385995991528034,0.0341032184660435,0.0550811514258385,-0.5,0.0939440503716469,0.102070949971676
454,0.0319189019501209,0.0322641208767891,0.0302228648215532,-0.5,0.0644163489341736,0.0680308267474175
455,0.0173746775835752,0.020172756165266,0.0080447234213352,-0.5,0.0226139612495899,0.0221911575645208
456,0.0057166102342307,-0.0024597255978733,0.0004920830251649,-0.5,-0.0092433504760265,-0.0125056058168411
457,-0.0017844100948423,-0.0204751081764698,-0.0014048350276425,-0.5,-0.0286266412585974,-0.0267112031579018
458,-0.013419539667666,-0.0282769352197647,-0.0164038054645061,-0.5,-0.0457648821175098,-0.0276392810046673
459,-0.0304533820599318,-0.0316274575889111,-0.0479395054280758,-0.5,-0.0621076934039593,-0.0214983224868774
460,-0.0447192266583443,-0.0266038104891777,-0.0746258124709129,-0.5,-0.062185775488615,-0.009023904800415
461,-0.045873437076807,-0.0094720162451267,-0.0743062868714333,-0.5,-0.0313739739358425,0.0011573081137612
462,-0.0368131995201111,-0.0028971603605896,-0.0608861409127712,-0.5,0.0153724206611514,-0.0062983757816255
463,-0.0297150369733572,-0.0281853098422289,-0.0613160654902458,-0.5,0.0469648949801922,-0.028564590960741
464,-0.0194886792451143,-0.0735870152711868,-0.0707571730017662,-0.5,0.0506475903093815,-0.0433072485029697
465,0.0001388092932756,-0.112147808074951,-0.069045253098011,-0.5,0.0352982990443707,-0.0332015976309776
466,0.0119553180411458,-0.126936629414558,-0.0510908365249634,-0.5,0.0207436922937632,-0.0001938940695254
467,0.0024796344805508,-0.117917373776436,-0.0197973977774382,-0.5,0.0246359966695309,0.0423602014780045
468,-0.0170896630734205,-0.0908076912164688,0.0245638117194176,-0.5,0.0532252937555313,0.0874079316854477
469,-0.0262512378394604,-0.0538654960691929,0.0748951807618141,-0.5,0.0991592332720757,0.130224719643593
470,-0.0182466506958008,-0.0210693683475256,0.114269331097603,-0.5,0.139801904559135,0.160454288125038
471,-0.0053581604734063,-0.001122788991779,0.132751122117043,-0.5,0.153430432081223,0.171360954642296
472,0.0006118493620306,0.0056998482905328,0.131436035037041,-0.5,0.13529571890831,0.163375571370125
473,-0.0057195127010345,0.0069486736319959,0.11595805734396,-0.5,0.0929489508271217,0.142552271485329
474,-0.03071004524827,0.0170014835894108,0.097056619822979,-0.5,0.041064377874136,0.118173219263554
475,-0.0645964667201042,0.0325795151293278,0.0865121930837631,-0.5,0.0012360338587313,0.0984187126159668
476,-0.0771664157509804,0.0316229872405529,0.091172844171524,-0.5,-0.0032728554215282,0.0903807058930397
477,-0.0534566789865494,0.0110209174454212,0.109367713332176,-0.5,0.0368149690330029,0.0961936265230179
478,-0.0115913534536958,-0.0146886063739657,0.124791108071804,-0.5,0.0992108806967735,0.102741427719593
479,0.0195957347750664,-0.0367014855146408,0.114943064749241,-0.5,0.14091768860817,0.0902130678296089
480,0.0278288256376982,-0.0465147458016872,0.0840493142604828,-0.5,0.142892733216286,0.0675658360123634
481,0.0249413121491671,-0.0387903042137623,0.0691587030887604,-0.5,0.130985110998154,0.0730961933732033
482,0.0301653947681189,-0.0204733796417713,0.0932970121502876,-0.5,0.141998574137688,0.118502736091614
483,0.0531836375594139,-0.003850323613733,0.135122179985046,-0.5,0.184694170951843,0.176689982414246
484,0.0779109373688698,-0.0039356532506644,0.150365442037582,-0.470222473144531,0.222708135843277,0.217533558607101
485,0.0675774142146111,-0.0228998530656099,0.119205914437771,-0.491074591875076,0.20412789285183,0.22086489200592
486,0.0156743675470352,-0.0412695556879044,0.0732895061373711,-0.5,0.130720883607864,0.190681234002113
487,-0.042067214846611,-0.0466017313301563,0.0544298626482487,-0.5,0.0593491457402706,0.154149830341339
488,-0.076412059366703,-0.0454306155443192,0.0629782825708389,-0.5,0.0274390410631895,0.124706082046032
489,-0.0930945426225662,-0.0480005480349064,0.068486824631691,-0.5,0.0156321432441473,0.0889528542757034
490,-0.10991383343935,-0.0524375587701797,0.0634046047925949,-0.415284395217896,-0.000245677831117,0.0461642742156982
491,-0.120791807770729,-0.042697299271822,0.0784521177411079,-0.310172468423843,-0.0023620303254574,0.0287107564508915
492,-0.106661438941956,-0.0117855789139867,0.12441723793745,-0.245362982153893,0.0270895417779684,0.0574523657560349
493,-0.0702770799398422,0.0238626282662153,0.169474601745605,-0.252233177423477,0.0700724050402641,0.112349562346935
494,-0.0317894406616688,0.0433257259428501,0.186218842864037,-0.327866107225418,0.105109959840775,0.160279586911201
495,-0.0070453225634992,0.0390302538871765,0.171067357063293,-0.453746140003204,0.128415152430534,0.181584432721138
496,7.51104266782932e-07,0.0179172083735466,0.136413604021072,-0.5,0.140182942152023,0.174426376819611
497,-0.003015165682882,-0.0027598487213254,0.104706801474094,-0.5,0.142838329076767,0.154752373695374
498,-0.0057818084023892,-0.0097881592810154,0.0891041085124016,-0.5,0.142612263560295,0.141410827636719
499,-0.0039676087908446,-0.0028430169913917,0.0880414173007011,-0.5,0.140021473169327,0.139253154397011
500,0.0014239012962207,0.0098334597423672,0.0910368114709854,-0.5,0.131517142057419,0.138946086168289
501,0.0085682803764939,0.014105536043644,0.0785903558135033,-0.5,0.115417182445526,0.123888902366161
502,0.0187663640826941,0.0011430574813857,0.0489080026745796,-0.5,0.0950442776083946,0.0911603718996048
503,0.0304586738348007,-0.0192504525184631,0.0341337285935879,-0.5,0.0859063491225243,0.0668883845210075
504,0.0332889258861542,-0.0294709578156471,0.0582359321415424,-0.5,0.105711914598942,0.0756663084030151
505,0.023826751857996,-0.0223026014864445,0.108106449246407,-0.5,0.150086522102356,0.111086949706078
506,0.0086981579661369,-0.0048756678588688,0.152009189128876,-0.5,0.183573082089424,0.148032426834106
507,-0.0177192743867636,0.0031766460742801,0.158746615052223,-0.5,0.163101941347122,0.162109896540642
508,-0.0558497793972492,-0.0040757847018539,0.128191024065018,-0.5,0.0993427559733391,0.150939956307411
509,-0.0794941112399101,-0.004776339046657,0.100921362638474,-0.5,0.0557506754994392,0.133933424949646
510,-0.080688089132309,0.0042620757594704,0.0927071198821068,-0.5,0.0509483516216278,0.116593711078167
511,-0.0755035728216171,0.0020498430822044,0.077718585729599,-0.5,0.0506432838737965,0.0935081467032433
512,-0.0596479885280132,-0.0084009310230612,0.0597591996192932,-0.5,0.0496545732021332,0.0809461027383804
513,-0.0285611785948277,-0.005633445456624,0.0669916719198227,-0.5,0.0636508837342262,0.0939513817429543
514,0.0013013738207519,0.0126244127750397,0.0947233662009239,-0.5,0.0857419595122337,0.117877520620823
515,0.0185024794191122,0.0308371484279633,0.121168211102486,-0.469164788722992,0.107368238270283,0.133723050355911
516,0.0224352031946182,0.0408502593636513,0.136368364095688,-0.400036543607712,0.125516772270203,0.138914242386818
517,0.0192834325134754,0.0421154983341694,0.133042693138123,-0.347961813211441,0.128983676433563,0.133504703640938
518,0.0199888925999403,0.0294138006865978,0.103658564388752,-0.319270849227905,0.111407779157162,0.107946433126926
519,0.0229809805750847,0.0036046977620571,0.0595630034804344,-0.38064444065094,0.0789811909198761,0.0645796582102776
520,0.020288810133934,-0.0171571485698223,0.0349905230104923,-0.5,0.0480780825018883,0.0354777425527573
521,0.0157216377556324,-0.0169250145554543,0.0517358258366585,-0.5,0.0362306199967861,0.0449363999068737
522,0.0102793714031577,0.000749620667193,0.0968222916126251,-0.5,0.0442199744284153,0.0812769010663033
523,-0.0032358665484935,0.0244379322975874,0.142712891101837,-0.5,0.0576703138649464,0.124634183943272
524,-0.0238458719104528,0.0484708212316036,0.172194570302963,-0.5,0.0674179568886757,0.165285497903824
525,-0.0425680987536907,0.0716355219483376,0.18470823764801,-0.5,0.0747481361031532,0.196445986628532
526,-0.0560014545917511,0.0880759134888649,0.184669435024261,-0.5,0.0772262737154961,0.20715893805027
527,-0.0667658597230911,0.0874692425131798,0.173925027251244,-0.5,0.0714512094855309,0.189031511545181
528,-0.0722815096378326,0.0655242875218391,0.150830805301666,-0.5,0.0674674510955811,0.153473198413849
529,-0.0687589198350906,0.0272462349385023,0.110329739749432,-0.5,0.0750516280531883,0.117446787655354
530,-0.0587558895349503,-0.0160493161529303,0.0594910830259323,-0.5,0.0839964225888252,0.0820430740714073
531,-0.0435848720371723,-0.0467557199299335,0.021960599347949,-0.5,0.0822388455271721,0.0540613010525703
532,-0.0193768087774515,-0.0480045489966869,0.0189497359097004,-0.5,0.0787257850170136,0.0535708479583263
533,0.0087897330522537,-0.0224367454648018,0.0508244745433331,-0.5,0.0841380059719086,0.075948677957058
534,0.0251194778829813,0.0009783370187506,0.0854032933712006,-0.5,0.0863425880670547,0.0846310034394264
535,0.0242903009057045,-0.008984294719994,0.0855025202035904,-0.5,0.0697350278496742,0.0566825121641159
536,0.0183527488261461,-0.0504759177565575,0.0555819272994995,-0.5,0.0463910177350044,0.0104879662394524
537,0.0180322118103504,-0.0961808189749718,0.0220341775566339,-0.5,0.033905278891325,-0.0243497006595135
538,0.0139252645894885,-0.124620817601681,-0.0015146498335525,-0.5,0.025330301374197,-0.0353696458041668
539,-0.0083142220973968,-0.125118300318718,-0.0087044453248381,-0.144483178853989,0.0088949147611856,-0.0228912085294724
540,-0.0357012487947941,-0.0944187864661217,-6.00510793447029e-05,0.213000416755676,-0.0116526624187827,0.0050658900290727
541,-0.0415220856666565,-0.0357283465564251,0.0259480271488428,0.42510911822319,-0.016112919896841,0.0431530997157097
542,-0.0283172242343426,0.0337943509221077,0.0773384571075439,0.490444004535675,0.0142481476068497,0.0879554972052574
543,-0.0244132652878761,0.0806494802236557,0.135710045695305,0.458355337381363,0.0647624731063843,0.124131388962269
544,-0.0399090424180031,0.0845930352807045,0.164380222558975,0.357374966144562,0.0998271629214287,0.137874811887741
545,-0.054956391453743,0.0608959682285786,0.162212729454041,0.201997444033623,0.107073150575161,0.133187159895897
546,-0.0478723347187042,0.0373274236917496,0.154548108577728,0.0334912091493607,0.10383303463459,0.119201868772507
547,-0.0125089017674327,0.0276466365903616,0.151082709431648,-0.12954768538475,0.111164085566998,0.104328408837318
548,0.0386470891535282,0.0304383579641581,0.146697595715523,-0.322970390319824,0.133892029523849,0.0967101156711578
549,0.0773190930485725,0.0389620661735535,0.13515131175518,-0.5,0.155796751379967,0.0970349311828613
550,0.0793190076947212,0.0497933737933636,0.113670684397221,-0.5,0.154509752988815,0.104796342551708
551,0.0491179302334785,0.0574051439762115,0.0850720331072807,-0.5,0.130430370569229,0.117859788239002
552,0.0167564265429974,0.0491584949195385,0.0529272742569447,-0.5,0.106564097106457,0.120661213994026
553,0.0051124761812388,0.0209782943129539,0.0217982698231936,-0.5,0.0961740165948868,0.100408300757408
554,0.0139592029154301,-0.0114127192646265,0.0024061815347522,-0.5,0.0927254259586334,0.0703568682074547
555,0.0319459475576878,-0.0295381527394056,0.0059397155418992,-0.5,0.0932954773306847,0.0486013516783714
556,0.048388447612524,-0.0302643459290266,0.0308359302580357,-0.5,0.101204641163349,0.0333801656961441
557,0.0590517856180668,-0.022240974009037,0.059697862714529,-0.5,0.109497666358948,0.0198154952377081
558,0.0604125373065472,-0.0147753991186619,0.0759103670716286,-0.5,0.106748946011066,0.0116005185991526
559,0.0427057631313801,-0.0078592663630843,0.0808130726218224,-0.5,0.0886935666203499,0.0139329461380839
560,0.0102751739323139,0.0089457146823406,0.0878361091017723,-0.5,0.0694553703069687,0.0316446274518967
561,-0.0090494453907012,0.0403600968420506,0.102647610008717,-0.5,0.0771484076976776,0.0617342367768288
562,-0.0054702800698578,0.0705510005354881,0.113339714705944,-0.5,0.108393259346485,0.0857449844479561
563,-0.0060053151100873,0.076882891356945,0.0984097495675087,-0.5,0.114662028849125,0.085158072412014
564,-0.0275284145027399,0.0543204694986343,0.055085152387619,-0.5,0.0706494525074959,0.0589843317866325
565,-0.0490485914051533,0.0125775057822466,0.0098073473200202,-0.5,0.0093201762065291,0.0199656095355749
566,-0.0449622385203838,-0.0362875573337078,-0.0166340991854668,-0.5,-0.0325970910489559,-0.0123947868123651
567,-0.0196526795625687,-0.0796736180782318,-0.0319536216557026,-0.5,-0.0527813211083412,-0.0279031973332167
568,0.0053277784027159,-0.10731166601181,-0.0478057079017162,-0.5,-0.0589212030172348,-0.0375677682459354
569,0.0250161401927471,-0.110490746796131,-0.0504978597164154,-0.5,-0.0385310240089893,-0.0435299202799797
570,0.0529620945453644,-0.0800735875964165,-0.0116941221058369,-0.5,0.0292221270501614,-0.0229060668498278
571,0.0928818732500076,-0.0206033065915108,0.0687950327992439,-0.5,0.134126394987106,0.0309384055435658
572,0.120794743299484,0.0426468253135681,0.150396883487701,-0.5,0.223412305116653,0.0875244662165642
573,0.118071123957634,0.0870755091309547,0.19393453001976,-0.5,0.244571521878242,0.122073970735073
574,0.098964087665081,0.108585275709629,0.198215797543526,-0.5,0.199283793568611,0.142567560076714
575,0.0797381773591042,0.114518567919731,0.192404270172119,-0.5,0.137716859579086,0.163544982671738
576,0.060402125120163,0.116822645068169,0.193727985024452,-0.5,0.0973908603191376,0.184043109416962
577,0.0391191467642784,0.119000963866711,0.182603091001511,-0.5,0.0762146860361099,0.191326662898064
578,0.0167200453579426,0.111444316804409,0.140188351273537,-0.5,0.0555364154279232,0.172432795166969
579,-0.0080239027738571,0.0830818489193916,0.0798461958765984,-0.5,0.0227940380573273,0.119594357907772
580,-0.0288656949996948,0.0334881767630577,0.0258106123656034,-0.5,-0.0111497053876519,0.0418382883071899
581,-0.0313582420349121,-0.01816719584167,-0.0057455427013337,-0.5,-0.0193684380501509,-0.0269877202808857
582,-0.0158127695322037,-0.0491840504109859,-0.0096762618049979,-0.5,0.0071148388087749,-0.0578769706189632
583,0.0013843970373272,-0.0577420555055141,0.0061785597354173,-0.5,0.0445763245224953,-0.0547678731381893
584,0.008267680183053,-0.0582692734897137,0.0280706491321325,-0.476477473974228,0.0585410222411156,-0.0417805761098862
585,0.0060439258813858,-0.0581728294491768,0.0461760088801384,-0.330403357744217,0.0406155101954937,-0.0289036501199007
586,0.0066546197049319,-0.048261746764183,0.0604535192251205,-0.202934071421623,0.0160900522023439,-0.0036682386416941
587,0.0163455456495285,-0.0226782597601414,0.0731765329837799,-0.0865013748407364,0.0103495316579938,0.0387378931045532
588,0.0217084810137749,0.006453841459006,0.076642744243145,0.0183331407606602,0.0224921815097332,0.0790668055415154
589,0.0091685922816395,0.0258270651102066,0.0613216124475002,0.0677531138062477,0.0361096486449242,0.0892307609319687
590,-0.013607619330287,0.0318154022097588,0.027463411912322,0.0106465211138129,0.0408395901322365,0.0567562766373158
591,-0.0329613015055656,0.0195392481982708,-0.0160610880702734,-0.136947527527809,0.032306082546711,-0.0047400300391018
592,-0.0443370491266251,-0.0146763678640127,-0.0549055002629757,-0.312926262617111,0.0064770122990012,-0.0679270476102829
593,-0.0398461706936359,-0.054518535733223,-0.0673051476478577,-0.469367384910584,-0.0249613430351019,-0.0983849093317986
594,-0.01434235740453,-0.0667124465107918,-0.0351493395864964,-0.5,-0.0364475212991238,-0.0673463642597198
595,0.0161629021167755,-0.0334479175508022,0.0286023635417223,-0.5,-0.0204810667783022,0.0131970942020416
596,0.0316951684653759,0.025198781862855,0.0876669064164162,-0.5,0.0066867182031273,0.094743624329567
597,0.0356335863471031,0.0711577758193016,0.118028976023197,-0.5,0.0369173623621464,0.129679381847382
598,0.0427514165639877,0.0746894702315331,0.110715240240097,-0.5,0.0656952485442162,0.0931305289268494
599,0.0495339259505272,0.0294029824435711,0.0663491562008858,-0.5,0.0633502677083015,0.0025748771149665
600,0.043505422770977,-0.0282544139772654,0.013198608532548,-0.5,0.0193876381963491,-0.0828236192464828
601,0.0250408966094255,-0.0511151440441608,-0.006306326482445,-0.5,-0.0254871938377619,-0.109239391982555
602,0.0052802399732172,-0.035070214420557,0.0196174737066031,-0.5,-0.0350122563540936,-0.0731893628835678
603,-0.0045515899546444,-0.0043100235052406,0.0654092356562614,-0.5,-0.0113179981708527,-0.0117988921701908
604,-0.0039352364838123,0.0201006736606359,0.0965392589569092,-0.5,0.0218050088733435,0.0353811532258987
605,0.000453382206615,0.0267811305820942,0.0933182537555695,-0.5,0.0369117185473442,0.0526292622089386
606,0.003386974800378,0.0160252954810858,0.0569972358644009,-0.5,0.0194889437407255,0.0463602282106876
607,0.0014850471634417,-0.0029174871742725,0.0082202702760696,-0.5,-0.0149440253153443,0.0267985947430134
608,-0.0019084858940914,-0.0148480664938688,-0.0244510713964701,-0.5,-0.0357827432453632,0.0077809984795749
609,-0.0040930500254035,-0.0109200794249773,-0.0314293466508389,-0.5,-0.0379104390740395,0.002902990905568
610,-0.0118662258610129,0.0024808845482766,-0.0255201384425163,-0.5,-0.0401583313941956,0.0089651821181178
611,-0.0255755167454481,0.0121113993227482,-0.0217895545065403,-0.460556358098984,-0.0516717918217182,0.0068234456703066
612,-0.03354736790061,0.0080946525558829,-0.0262384749948978,-0.302045583724976,-0.0619046613574028,-0.0228107441216707
613,-0.0287767704576254,-0.0072973244823515,-0.0348741300404072,-0.236895129084587,-0.0595937930047512,-0.0744127929210663
614,-0.0178559832274914,-0.0270879622548819,-0.0397779084742069,-0.198021993041039,-0.0493637286126614,-0.117940738797188
615,-0.0097360340878367,-0.0437854304909706,-0.0345927625894547,-0.137333452701569,-0.0400372110307217,-0.130115836858749
616,0.0021783569827675,-0.0360955856740475,-0.0084824310615658,-0.0248420927673578,-0.0208085179328918,-0.100574292242527
617,0.0303368419408798,0.0086835669353604,0.0451787710189819,0.138795167207718,0.0262035485357046,-0.0330856963992119
618,0.0645946860313416,0.062494907528162,0.0979614406824112,0.293221682310104,0.0799011662602425,0.0351626612246037
619,0.0787846371531487,0.0840392708778381,0.109305128455162,0.365132182836533,0.0927624851465225,0.0605330355465412
620,0.0664764419198036,0.0705970153212547,0.0845561325550079,0.350068032741547,0.0542514286935329,0.0465804524719715
621,0.045854989439249,0.0554975941777229,0.0581686124205589,0.316177487373352,-0.0021255267783999,0.0306496545672417
622,0.0298004671931267,0.0542393252253532,0.0410146862268448,0.333787232637405,-0.0403498411178589,0.0296704471111298
623,0.0166833866387606,0.0468994230031967,0.0208713728934526,0.415193289518356,-0.0493471585214138,0.0268886890262365
624,0.0048637064173817,0.0214655809104443,-0.0068087526597082,0.5,-0.0386388264596462,0.0079717049375176
625,-0.0028556389734149,-0.0049346489831805,-0.0248813796788454,0.5,-0.0194541867822409,-0.0133262630552053
626,-0.0052104964852333,-0.0186967868357897,-0.0180612951517105,0.5,-0.0065386029891669,-0.0241738837212324
627,-0.0039935307577252,-0.0262930151075125,0.004881979431957,0.473691046237946,-0.0132266553118825,-0.0319263339042664
628,-0.0030675358138978,-0.0347877889871597,0.0238111838698387,0.332922726869583,-0.0370562560856342,-0.0435641519725323
629,-0.006035182159394,-0.0399294644594193,0.025829553604126,0.120963722467422,-0.0677272006869316,-0.0567012652754784
630,-0.0101749738678336,-0.0282698627561331,0.0152519280090928,-0.112784400582314,-0.0911926105618477,-0.0580967627465725
631,-0.0106599731370807,0.0063082510605454,0.0045796311460435,-0.311009645462036,-0.0937071815133095,-0.033398300409317
632,-0.0051619280129671,0.0503920800983906,-0.00496472325176,-0.468727350234985,-0.0747234597802162,0.0102896215394139
633,0.0059736222028732,0.0819773003458977,-0.0195110272616148,-0.5,-0.0479408092796803,0.0487262085080147
634,0.0181600023061037,0.0848117396235466,-0.0320880226790905,-0.5,-0.0265545211732388,0.0598866082727909
635,0.0268051140010357,0.0620945617556572,-0.0273211169987917,-0.5,-0.0111970482394099,0.0384687855839729
636,0.0248215571045876,0.0304213259369135,-0.0096164466813206,-0.5,-0.0016715176170691,-0.0038664059247821
637,0.0073808492161333,-0.0014789168490096,-0.004877149593085,-0.5,-0.0041171535849571,-0.0565365478396416
638,-0.0101391999050975,-0.0329346880316734,-0.0256128218024969,-0.416287273168564,-0.0150817353278399,-0.112702094018459
639,-0.0078746424987912,-0.0629449859261513,-0.0528053566813469,-0.304863154888153,-0.0249416287988424,-0.156067684292793
640,0.0115011166781187,-0.0848544836044312,-0.0627965331077576,-0.216833084821701,-0.035261008888483,-0.165333077311516
641,0.0318005830049515,-0.0824818089604378,-0.0480629093945026,-0.154609709978104,-0.0457444824278355,-0.129164949059486
642,0.0420604273676872,-0.0436299853026867,-0.0075874454341828,-0.104577593505383,-0.0418127253651619,-0.0534965507686138
643,0.0428650975227356,0.0226220432668924,0.0504406951367855,-0.0660068094730377,-0.0176846347749233,0.0346883423626423
644,0.0381758809089661,0.0894733965396881,0.0986528098583221,-0.0501959174871445,0.0081232180818915,0.0978786125779152
645,0.0265445001423359,0.127463772892952,0.109009370207787,-0.0582185201346874,0.0106253297999501,0.114326223731041
646,0.0085450354963541,0.124908924102783,0.0796715095639229,-0.0685866922140121,-0.0157519578933716,0.0896604433655739
647,-0.0095681371167302,0.0951355174183846,0.0357107371091843,-0.0607898645102978,-0.0497756451368332,0.0476511716842651
648,-0.0222682356834412,0.0594628192484379,0.0047413189895451,-0.0297788232564926,-0.064572662115097,0.0131834847852588
649,-0.0247012823820114,0.0342239625751972,-0.0072632320225238,0.032222505658865,-0.0538478568196297,-0.0061677708290517
650,-0.0144227026030421,0.0199309904128313,-0.013965742662549,0.112470880150795,-0.0326926484704018,-0.0217533726245165
651,0.0045094899833202,0.0003230960865039,-0.027794674038887,0.182911574840546,-0.0198830533772707,-0.0421626418828964
652,0.0253699868917465,-0.0240300744771957,-0.0430051721632481,0.248688623309135,-0.0177896618843079,-0.0542102009057999
653,0.0405760891735554,-0.031575158238411,-0.0438654236495495,0.320326328277588,-0.01348059438169,-0.0412349887192249
654,0.0441344901919365,-0.0193426143378019,-0.0311801321804523,0.398194193840027,-0.0052013881504535,-0.0096106808632612
655,0.0396581552922726,-0.0024586375802755,-0.0182216502726078,0.496759802103043,-0.0005052871420048,0.027542682364583
656,0.034778967499733,0.0137287313118577,-0.007183167617768,0.5,0.0045429854653775,0.0632461309432983
657,0.0284625049680471,0.0296356528997421,0.0003992622368969,0.5,0.0159611329436302,0.0767030864953995
658,0.0183645989745855,0.0349487774074078,-0.005336657166481,0.43950629234314,0.0281479321420193,0.0488091520965099
659,0.0089353583753109,0.0233810190111399,-0.0181712303310633,0.256815671920776,0.0333258621394634,-0.0041215801611542
660,0.0062723569571971,0.0045294668525457,-0.024632329121232,0.0729698464274406,0.0267997160553932,-0.0523688197135925
661,0.011303554289043,-0.0149269364774227,-0.0277396366000175,-0.13224595785141,0.0045820889063179,-0.0801270380616188
662,0.01803776063025,-0.0315378941595554,-0.0303206294775009,-0.370728194713593,-0.0266020968556404,-0.0792025625705719
663,0.0239716824144125,-0.0372901558876038,-0.0257644634693861,-0.5,-0.0504501052200794,-0.0515335761010647
664,0.0318427532911301,-0.0308720599859953,-0.0089758932590484,-0.5,-0.0568940602242947,-0.0119176134467125
665,0.0430350825190544,-0.0172082297503948,0.0142589313909411,-0.5,-0.0468481853604317,0.0210232213139534
666,0.05807189270854,-0.0020598862320184,0.0268099866807461,-0.5,-0.0311604347079992,0.0290600229054689
667,0.0691075325012207,0.0108966436237097,0.020808607339859,-0.5,-0.0214893650263548,0.0141849340870976
668,0.0667289048433304,0.0240474790334702,0.0096763493493199,-0.5,-0.0148867387324572,0.00412138691172
669,0.0579139851033688,0.0387126095592976,0.0102957542985678,-0.5,-0.0009948571678251,0.014778227545321
670,0.0520444922149181,0.0498143918812275,0.0241530034691095,-0.5,0.0216524712741375,0.0358909070491791
671,0.0478973798453808,0.0522003024816513,0.0385260172188282,-0.5,0.0454823151230812,0.0522006489336491
672,0.0419568605720997,0.0460472218692303,0.0405410155653954,-0.5,0.0619184337556362,0.0521451942622662
673,0.0306353289633989,0.0294157173484564,0.0231796763837337,-0.370452344417572,0.0628643482923508,0.0264166817069054
674,0.0125969117507339,-0.0005568221095018,-0.0118093257769942,-0.215434074401855,0.0402269698679447,-0.0246558487415314
675,-0.0058847647160291,-0.0300404168665409,-0.0464374087750912,-0.127546831965446,0.0014343714574351,-0.0778481140732765
676,-0.0159111227840185,-0.0330464355647564,-0.0628064349293709,-0.114181913435459,-0.0278663784265518,-0.0978375226259232
677,-0.0127553511410952,-0.004281498491764,-0.0668578594923019,-0.174663037061691,-0.033012468367815,-0.0788077414035797
678,0.0026539976242929,0.0338388085365295,-0.0688778534531593,-0.315205991268158,-0.0170544367283583,-0.0446703210473061
679,0.0221105460077524,0.0541850924491882,-0.0628561675548553,-0.5,0.0123900389298797,-0.016371700912714
680,0.0365514382719994,0.0518400259315968,-0.043314702808857,-0.5,0.0401698499917984,0.0032423690427094
681,0.0443346537649632,0.0465220101177692,-0.0141205759719014,-0.5,0.0533708371222019,0.0215303879231215
682,0.0526155754923821,0.0404153801500797,0.0170807726681232,-0.5,0.055983766913414,0.0285165049135685
683,0.0640204921364784,0.0171665418893099,0.0373089462518692,-0.5,0.0546981170773506,0.0132177658379078
684,0.0659772157669067,-0.017813241109252,0.0328439399600029,-0.5,0.0462685078382492,-0.0159200988709927
685,0.054673545062542,-0.0405661389231682,0.0081204324960708,-0.5,0.0342706069350243,-0.0474431663751602
686,0.0430400036275387,-0.0393510535359383,-0.0166651047766209,-0.5,0.0331556014716625,-0.0714261382818222
687,0.0321191698312759,-0.0267994478344917,-0.0351063422858715,-0.5,0.0405291393399239,-0.0898360013961792
688,0.0089472746476531,-0.0211019180715084,-0.0600427202880383,-0.5,0.0305777713656425,-0.112757585942745
689,-0.0222384091466665,-0.0278312396258116,-0.0952387750148773,-0.438893407583237,-0.0092751709744334,-0.137746557593346
690,-0.0376734621822834,-0.0411090590059757,-0.121030427515507,-0.309120178222656,-0.0517467297613621,-0.153076559305191
691,-0.0245519913733006,-0.050095297396183,-0.118310198187828,-0.186269015073776,-0.0593187622725964,-0.149803206324577
692,0.0064260303042829,-0.0499049313366413,-0.0902104750275612,-0.0877089351415634,-0.0330127030611038,-0.129919439554214
693,0.036865446716547,-0.0448572672903538,-0.052944790571928,-0.0279132276773453,-0.0041099740192294,-0.102795787155628
694,0.0629573911428452,-0.0420969575643539,-0.0217433627694845,-0.0112838232889771,0.011004664003849,-0.0750587284564972
695,0.0887338370084763,-0.0479252971708775,-0.0116678643971682,-0.0374584570527077,0.0132648041471839,-0.0515722222626209
696,0.1002531722188,-0.059327956289053,-0.0310952346771955,-0.0946004539728165,0.0012850585626438,-0.0406907461583614
697,0.0824490115046501,-0.062638133764267,-0.0628106743097305,-0.173574045300484,-0.0161788892000914,-0.0433549620211124
698,0.0552118420600891,-0.0472311265766621,-0.074745811522007,-0.29915463924408,-0.0146473236382008,-0.0454495139420033
699,0.0435211956501007,-0.0205214060842991,-0.0583023019134998,-0.486459225416183,0.0137860672548413,-0.0417531989514828
700,0.0372871495783329,-0.0028320704586803,-0.0365025959908962,-0.5,0.0491520129144192,-0.0412123389542103
701,0.0215097647160292,0.0036178855225443,-0.0299491286277771,-0.5,0.0714222639799118,-0.0494775883853436
702,0.002655932214111,0.0159580633044243,-0.0345174558460712,-0.5,0.0764178335666656,-0.0725801736116409
703,-0.0118749383836985,0.0322422944009304,-0.0363172441720963,-0.5,0.0691643282771111,-0.113118752837181
704,-0.0225920844823122,0.0272602830082178,-0.0359375104308128,-0.5,0.0562817715108395,-0.164833292365074
705,-0.0265317652374506,-0.007016290910542,-0.0512166023254395,-0.5,0.0374525561928749,-0.218015104532242
706,-0.021309407427907,-0.0442197397351265,-0.0851502269506454,-0.237747117877007,0.009660099633038,-0.242173314094543
707,-0.009053380228579,-0.0597840137779713,-0.10853486508131,-0.0068697612732648,-0.0173834078013897,-0.213755235075951
708,0.0067101446911692,-0.0537445358932018,-0.0991489961743355,0.0851012393832207,-0.031543105840683,-0.156309798359871
709,0.0195797588676214,-0.0368132777512074,-0.0703233405947685,0.0447774231433868,-0.0312511436641216,-0.100551478564739
710,0.0265272799879313,-0.0234166216105223,-0.0460338853299618,-0.0764454230666161,-0.0203730575740337,-0.0610242262482643
711,0.0307975448668003,-0.0225200187414885,-0.0335736870765686,-0.206295326352119,-0.0019504084484651,-0.0501135773956776
712,0.0315414033830166,-0.0286156982183456,-0.0310476906597614,-0.289922922849655,0.0141655076295137,-0.0676784813404083
713,0.0259640924632549,-0.0307730175554752,-0.0382924042642117,-0.314765870571136,0.01180100440979,-0.0907131731510162
714,0.0220918226987123,-0.0289333462715149,-0.0528596341609955,-0.307652652263641,-0.0057829874567687,-0.0989697575569153
715,0.0288455504924059,-0.0313137322664261,-0.0741869360208511,-0.315758019685745,-0.0269401650875807,-0.093387208878994
716,0.0440383329987526,-0.0410333462059498,-0.0968363583087921,-0.355438590049744,-0.0448146238923073,-0.0858735144138336
717,0.0633576735854149,-0.0565147362649441,-0.107657223939896,-0.40503066778183,-0.0437343940138817,-0.0901157781481743
718,0.0867926254868507,-0.0783043652772903,-0.109978921711445,-0.445013165473938,-0.0195556171238422,-0.122632272541523
719,0.107522189617157,-0.106379859149456,-0.119782321155071,-0.470271497964859,0.0068345656618475,-0.191372931003571
720,0.103074289858341,-0.125708505511284,-0.134473398327827,-0.472287386655808,0.01175940874964,-0.253082990646362
721,0.0589381754398346,-0.114224255084991,-0.130180850625038,-0.414868712425232,-0.0092371944338083,-0.243739783763886
722,-0.0035181124694645,-0.0690485388040543,-0.0914436131715775,-0.261010617017746,-0.0379571504890919,-0.162869930267334
723,-0.0464648306369781,-0.008475380949676,-0.0308545920997858,-0.0259195081889629,-0.050120934844017,-0.0629191622138023
724,-0.0530188530683517,0.0437509156763554,0.0275821965187788,0.248870253562927,-0.0306905508041382,0.0119051011279225
725,-0.0305776409804821,0.0712938234210014,0.0714954137802124,0.5,0.0206717476248741,0.0484264828264713
726,0.0026664133183658,0.0724432989954948,0.095853790640831,0.5,0.0834950059652328,0.0540252551436424
727,0.0272636450827122,0.0565584041178226,0.0942713692784309,0.5,0.121865145862103,0.0417108349502087
728,0.0334663800895214,0.0339967869222164,0.0662538856267929,0.5,0.111817486584187,0.0187167599797249
729,0.0294923167675734,0.0131280859932303,0.0235885120928288,0.5,0.0681683048605919,-0.0173778142780066
730,0.0290318671613932,0.0057050506584346,-0.0178724862635136,0.5,0.0297191757708788,-0.051770281046629
731,0.0287575703114271,0.0140853701159358,-0.0541867427527905,0.5,0.0131552238017321,-0.0551543496549129
732,0.0170074682682753,0.0180173479020596,-0.0918610244989395,0.5,0.0013165874406695,-0.0388165600597858
733,-0.0046791695058345,0.0027885485906153,-0.129385486245155,0.5,-0.0280459932982922,-0.0420364066958427
734,-0.0266958028078079,-0.0228481329977512,-0.151747360825539,0.5,-0.0719377845525742,-0.067470595240593
735,-0.0387015044689178,-0.0442990809679031,-0.14246678352356,0.5,-0.0997839793562889,-0.08055829256773
736,-0.0286898706108332,-0.0528507679700851,-0.0971273556351662,0.5,-0.0854738280177116,-0.0589580088853836
737,0.0018564616329968,-0.0469637364149094,-0.0316933654248714,0.5,-0.0334215089678764,-0.0174705591052771
738,0.0366896875202656,-0.0348939634859562,0.0284485779702663,0.5,0.0299850758165121,0.0138619700446725
739,0.0649113059043884,-0.0295646507292986,0.0648819133639336,0.5,0.0788410529494286,0.0210589878261089
740,0.0805151760578156,-0.0340857096016407,0.0684440582990646,0.5,0.0986093729734421,0.0106700044125319
741,0.0781042650341988,-0.038659855723381,0.0453942455351353,0.5,0.0881638824939728,-0.0049512865953147
742,0.0600119344890118,-0.0343114696443081,0.0129960281774402,0.391924232244492,0.0588528625667095,-0.0187815483659506
743,0.0338337533175945,-0.023679330945015,-0.0178700294345617,0.208764865994453,0.025967214256525,-0.0274986755102873
744,0.0039192070253193,-0.0154327023774385,-0.0462382435798645,0.0040858904831111,-0.0041896100156009,-0.0308372937142849
745,-0.0224527716636658,-0.0117632690817118,-0.0722481682896614,-0.228755995631218,-0.0273885205388069,-0.0371402055025101
746,-0.031786534935236,-0.0123902903869748,-0.0927887260913849,-0.451575011014938,-0.0332323610782623,-0.0555607862770557
747,-0.028825405985117,-0.0237686317414045,-0.104586333036423,-0.5,-0.0284187849611044,-0.0799151062965393
748,-0.0275919046252966,-0.0442676655948162,-0.099154993891716,-0.5,-0.0283811688423157,-0.0957247242331505
749,-0.0245546493679285,-0.0571680665016174,-0.0709583759307861,-0.5,-0.0302094276994467,-0.0966213494539261
750,-0.0108573818579316,-0.0487585328519344,-0.030251681804657,-0.5,-0.0249213241040707,-0.0737884789705276
751,0.0157005097717047,-0.0211228895932436,0.0063206423074007,-0.5,-0.0114097753539681,-0.0237844195216894
752,0.0418258793652058,0.0124862436205149,0.0264406558126211,-0.466872870922089,0.0010663071880117,0.0312636382877827
753,0.0483684688806534,0.0370824486017227,0.0262697860598564,-0.288632869720459,0.0009399083210155,0.0677346587181091
754,0.0359230153262615,0.0374056324362755,0.0048049045726656,-0.143632113933563,-0.0157071892172098,0.079004168510437
755,0.0177651289850473,0.0138279991224408,-0.0305631048977375,-0.0246738828718662,-0.0401854999363422,0.0660489127039909
756,-0.0015244252281263,-0.0079273832961916,-0.0562638938426971,0.0719919055700302,-0.0528032295405865,0.0378457382321358
757,-0.0229488052427769,-0.0104376478120685,-0.0551249161362648,0.169329881668091,-0.0415835753083229,0.0080514214932918
758,-0.0381282903254032,-0.0012479805154725,-0.0293079745024443,0.280594259500504,-0.0124865090474486,-0.0155234513804317
759,-0.0389017127454281,0.0113510238006711,0.0103818662464619,0.376129806041718,0.0203893519937992,-0.0255777314305305
760,-0.0263909865170717,0.0286419801414013,0.0532850921154022,0.420543253421783,0.0544215627014637,-0.0106451399624348
761,0.0002655122953001,0.0490511171519756,0.0886214971542358,0.387297451496124,0.097151979804039,0.0232853554189205
762,0.0278496872633696,0.053077332675457,0.0945210829377174,0.251067638397217,0.12652425467968,0.0335598923265934
763,0.0294929947704077,0.0203801915049553,0.0559563040733337,0.0533512756228447,0.102535024285316,-0.0130450529977679
764,0.0133806280791759,-0.0298869181424379,0.0066280402243137,-0.0902735590934753,0.0427983738481998,-0.0787877067923546
765,0.0146303148940206,-0.0545544847846031,-0.0006515145068988,-0.111491575837135,0.009938795119524,-0.0940211191773415
766,0.0392325893044472,-0.0374273620545864,0.0374297238886356,-0.0398697219789028,0.0210735257714987,-0.0406501516699791
767,0.0618852898478508,0.0033521067816764,0.0842662081122398,0.0646759495139122,0.0416359342634678,0.0448576919734478
768,0.0639858543872833,0.0416107103228569,0.112108007073402,0.159870952367783,0.0442156195640564,0.116135336458683
769,0.050054669380188,0.0617874339222908,0.115139424800873,0.209042564034462,0.0277790371328592,0.144250154495239
770,0.0332520231604576,0.0624565370380878,0.0994546264410019,0.192046105861664,0.0032661892473697,0.129461050033569
771,0.0179378818720579,0.0517080202698708,0.0702536478638649,0.134059473872185,-0.0175560712814331,0.089748777449131
772,0.0074603976681828,0.0412853136658669,0.0335572510957718,0.0442400947213173,-0.0190033167600632,0.0458002872765064
773,0.0085479672998189,0.0337944999337196,-0.002464935882017,-0.0959831327199936,0.0003685597330331,0.0092183733358979
774,0.0118268085643649,0.0157776679843664,-0.0381162613630295,-0.247259646654129,0.0103672184050083,-0.0264123231172562
775,-8.51198055897839e-05,-0.0150021780282259,-0.0705404281616211,-0.348796635866165,-0.0080618299543857,-0.0565548837184906
776,-0.0316600576043129,-0.0338856056332588,-0.0921573117375374,-0.390422344207764,-0.0446374602615833,-0.0603949017822742
777,-0.0744631737470627,-0.01994245685637,-0.10513349622488,-0.385147482156754,-0.0856682956218719,-0.0419787727296352
778,-0.10596714168787,0.0163883753120899,-0.10810274630785,-0.350133240222931,-0.115023240447044,-0.0235376078635454
779,-0.10116896033287,0.0421648696064949,-0.0939629003405571,-0.308093696832657,-0.117141269147396,-0.01256512850523
780,-0.0571655929088593,0.0340231694281101,-0.0626674965023994,-0.266213774681091,-0.0906275883316994,-0.0072041247040033
781,0.0002147388731827,4.37772469012998e-05,-0.0191667564213276,-0.206994816660881,-0.0471886657178402,-0.0060274675488472
782,0.0472873672842979,-0.0348578616976738,0.0236929189413786,-0.115680187940598,0.0037627548445016,-0.0060324529185891
783,0.0853450819849968,-0.059669878333807,0.0412027351558208,0.0018712428864091,0.0540400221943855,-0.0091265784576535
784,0.104084014892578,-0.0750332474708557,0.0212678741663694,0.146006643772125,0.0814664140343666,-0.0119789959862828
785,0.0789835676550865,-0.0766824707388878,-0.009424296207726,0.322084188461304,0.0710214525461197,0.0044062230736017
786,0.0235142670571804,-0.0591252483427525,-0.0116030527278781,0.5,0.0366074107587337,0.0450652539730072
787,-0.0234131366014481,-0.0250600632280111,0.0158656612038612,0.5,-0.0025843989569693,0.0834902450442314
788,-0.0407123453915119,0.0130019802600145,0.0428304672241211,0.5,-0.0321493484079838,0.0931125059723854
789,-0.0302099958062172,0.0433210358023643,0.0548188649117947,0.5,-0.0376727096736431,0.0754450783133507
790,-0.0123941330239177,0.0601959079504013,0.0550190843641758,0.5,-0.0208417885005474,0.0474195517599583
791,-0.0037739006802439,0.0611416175961494,0.0462816394865513,0.5,0.0075282347388565,0.0225270204246044
792,-0.0001257700496353,0.0484371297061443,0.0325170382857323,0.5,0.0406553745269775,0.0040796161629259
793,0.0049770837649703,0.0242323484271765,0.0082785263657569,0.5,0.0574393831193447,-0.0176584310829639
794,0.0022666319273412,-0.0084132421761751,-0.040976095944643,0.5,0.0264224298298359,-0.0520716868340969
795,-0.0161795746535063,-0.0301648862659931,-0.100650131702423,0.5,-0.0441097803413868,-0.0855110511183739
796,-0.0357812382280827,-0.0220909845083952,-0.129370868206024,0.5,-0.103338181972504,-0.0913699269294739
797,-0.0420481562614441,0.0042446409352123,-0.111759677529335,0.5,-0.120028711855412,-0.0642364919185638
798,-0.0372052751481533,0.0200941376388073,-0.0678921118378639,0.5,-0.100040823221207,-0.0243421886116266
799,-0.0276832096278667,0.0086566628888249,-0.0252260752022266,0.5,-0.0606855638325214,0.0041730301454663
800,-0.0164521932601929,-0.0244417004287243,0.0007074920576997,0.5,-0.0147240618243814,0.0135821858420968
801,-0.0032655934337526,-0.0608107820153236,0.0090639339759945,0.5,0.0306733995676041,0.0108216749504209
802,0.0124897817149758,-0.0828406736254692,0.0082149486988782,0.5,0.0679752454161644,0.0071412925608456
803,0.0348663553595543,-0.0799913108348846,0.0105099827051163,0.5,0.0970019102096558,0.0147164892405272
804,0.0679609254002571,-0.0581353455781937,0.0188385397195816,0.5,0.119285389780998,0.028594633564353
805,0.0994583442807198,-0.0375516153872013,0.0203600041568279,0.5,0.117034256458282,0.0279677361249924
806,0.105555325746536,-0.0338640846312046,0.0028922578785568,0.5,0.0749909281730652,0.005843018181622
807,0.0785341113805771,-0.0468607358634472,-0.0311766751110554,0.5,0.008979607373476,-0.0258553177118301
808,0.0305406879633665,-0.0644339472055435,-0.0675566494464874,0.5,-0.0567471794784069,-0.0518451370298862
809,-0.0227241553366184,-0.0765856578946114,-0.0902953818440437,0.5,-0.109991610050201,-0.0649736747145653
810,-0.0648706182837486,-0.0775900334119797,-0.0879951491951942,0.5,-0.137283623218536,-0.0610603168606758
811,-0.0795563980937004,-0.0600660629570484,-0.0582024827599525,0.5,-0.125379979610443,-0.032859243452549
812,-0.0640053898096085,-0.0243483949452639,-0.0148122869431973,0.5,-0.0827722325921059,0.0200729724019766
813,-0.0335790403187275,0.0189736690372229,0.0248207896947861,0.5,-0.0316139869391918,0.0830748230218887
814,-0.0064622806385159,0.0592945255339146,0.054802555590868,0.5,0.0141602037474513,0.127737477421761
815,0.0046475022099912,0.0892444923520088,0.0671853944659233,0.5,0.0417553186416626,0.130405709147453
816,-0.0039594145491719,0.102580077946186,0.0516087263822556,0.5,0.0407205447554588,0.0946997851133347
817,-0.01953792758286,0.0944015011191368,0.0136142475530505,0.5,0.0209610909223557,0.0446623452007771
818,-0.0260186325758696,0.0602280385792255,-0.0311417784541845,0.5,-0.0014054721686989,-0.0057670730166137
819,-0.0250717233866453,-0.0018082376336678,-0.0715150460600853,0.5,-0.0247740875929594,-0.0557110272347927
820,-0.0265666302293539,-0.0741836056113243,-0.097434364259243,0.5,-0.0497902184724808,-0.0927128121256828
821,-0.031443253159523,-0.115358173847198,-0.0957431793212891,0.5,-0.0661542266607285,-0.0940756350755692
822,-0.0361799374222755,-0.0957072675228119,-0.0666709542274475,0.5,-0.0668316707015038,-0.0484263449907303
823,-0.0319866985082626,-0.0319942757487297,-0.0310190282762051,0.5,-0.0570144653320313,0.0318361446261406
824,-0.0106484163552523,0.0330177694559097,-0.0047794883139431,0.5,-0.0331670641899109,0.112212710082531
825,0.0182616040110588,0.0679326057434082,0.0111012812703848,0.5,0.0166990030556917,0.153525426983833
826,0.0317900851368904,0.0661572888493538,0.0098367910832166,0.5,0.0672970861196518,0.133773937821388
827,0.0115407360717654,0.0385272204875946,-0.0209870133548975,0.5,0.0587989836931229,0.0599686205387115
828,-0.0307918768376112,-0.0017615933902561,-0.0595991872251034,0.5,-0.0137350661680102,-0.02488006465137
829,-0.0566895008087158,-0.0358538217842579,-0.0541165806353092,0.327465742826462,-0.0785104408860207,-0.0596186630427837
830,-0.0463895760476589,-0.0461569540202618,0.007042798679322,0.224629834294319,-0.0814070850610733,-0.0201950743794441
831,-0.0156516246497631,-0.0316709578037262,0.0818351581692696,0.144631505012512,-0.0346799194812775,0.0600770637392998
832,0.007004979532212,-0.0057626068592071,0.126497253775597,0.043594591319561,0.0154056707397103,0.126634076237679
833,0.0076239998452365,0.0138121657073498,0.126923695206642,-0.0708247125148773,0.0352619737386703,0.148634642362595
834,-0.0033796306233853,0.0167097467929125,0.096927598118782,-0.19172927737236,0.0303315874189138,0.134216487407684
835,-0.0083089331164956,0.0036249349359422,0.0570906884968281,-0.322064518928528,0.0181991886347532,0.104575373232365
836,-0.0030020093545317,-0.0139061510562897,0.0195980593562126,-0.440497279167175,0.0024129680823534,0.0761838927865028
837,0.0023388448171317,-0.0227431375533342,-0.0092008197680115,-0.5,-0.0118394428864121,0.0611728206276894
838,-0.0017963426653295,-0.0219149347394705,-0.0264723803848028,-0.5,-0.0198433790355921,0.0601145140826702
839,-0.0205760225653648,-0.0181631147861481,-0.0369196720421314,-0.5,-0.0309151019901037,0.0638394355773926
840,-0.0536089576780796,-0.0138483755290508,-0.0474790520966053,-0.5,-0.0496656522154808,0.069182313978672
841,-0.0868387520313263,-0.0044712042436003,-0.0560931153595448,-0.5,-0.0644640326499939,0.0766302645206451
842,-0.110401250422001,0.0120714530348778,-0.0605723448097706,-0.5,-0.0715498030185699,0.0707199349999428
843,-0.133817434310913,0.0214851591736078,-0.0749324858188629,-0.5,-0.085396371781826,0.029343917965889
844,-0.154870897531509,0.0050713531672954,-0.10632362216711,-0.5,-0.107265390455723,-0.0391517728567123
845,-0.146850124001503,-0.0362576395273209,-0.12988606095314,-0.5,-0.116738103330135,-0.0928228199481964
846,-0.100041463971138,-0.076931893825531,-0.118567451834679,-0.5,-0.101673983037472,-0.0988826677203178
847,-0.0396707616746426,-0.0834400951862335,-0.068956546485424,-0.5,-0.0627619698643684,-0.0590578690171242
848,0.0057799513451755,-0.0457381121814251,0.0027373230550438,-0.5,-0.0069090453907847,0.0032446724362671
849,0.0274882595986128,0.0123099787160754,0.0643539130687714,-0.5,0.0440378002822399,0.0634738281369209
850,0.0318912155926228,0.0561979003250599,0.0932685732841492,-0.278655350208282,0.0688598826527596,0.111065611243248
851,0.0298343244940043,0.0719673186540604,0.0978342443704605,-0.0081584686413407,0.0734501630067825,0.149459719657898
852,0.0287667773663998,0.0686274021863937,0.0962805971503258,0.102957405149937,0.081427164375782,0.186724349856377
853,0.0275762695819139,0.057130191475153,0.0940172150731087,0.109865956008434,0.101498335599899,0.214435815811157
854,0.0165527537465096,0.0414928123354912,0.0851540118455887,0.111719772219658,0.111994288861752,0.20633752644062
855,-0.008564818650484,0.0254412852227688,0.0629212856292725,0.146116688847542,0.0861782804131508,0.15904039144516
856,-0.0390075594186783,0.0122643709182739,0.0235456340014935,0.214706614613533,0.0243316125124693,0.0958239212632179
857,-0.0648738145828247,-0.0023194768000394,-0.0325641445815563,0.342808336019516,-0.0534874200820923,0.0376823209226131
858,-0.081538699567318,-0.0231072902679443,-0.0892991796135902,0.5,-0.125746205449104,-0.00288110319525
859,-0.0879060104489326,-0.048470139503479,-0.120787486433983,0.5,-0.169573277235031,-0.0200097877532244
860,-0.0853068307042122,-0.0746479853987694,-0.121353209018707,0.5,-0.169075667858124,-0.0113859381526709
861,-0.078852117061615,-0.092121496796608,-0.106264062225819,0.5,-0.131255820393562,0.0132897105067968
862,-0.0763429030776024,-0.0895677655935287,-0.0904072374105453,0.5,-0.0820242241024971,0.0281401928514242
863,-0.0741879716515541,-0.0671528428792953,-0.0789852365851402,0.5,-0.0457247085869312,0.0196292195469141
864,-0.0653235465288162,-0.0351320877671242,-0.0660687610507011,0.5,-0.0310461726039648,0.0019910624250769
865,-0.0562225431203842,-0.0024071971420198,-0.0424041412770748,0.5,-0.0296088121831417,6.42410668660887e-05
866,-0.0529747605323792,0.0332051739096642,-0.0086325295269489,0.5,-0.0292962081730366,0.0242951232939959
867,-0.0573490001261234,0.0725784227252007,0.0216516107320786,0.5,-0.0304234717041254,0.06074583157897
868,-0.0667862817645073,0.0972638055682182,0.0394899323582649,0.5,-0.0337976738810539,0.0888857468962669
869,-0.0650831088423729,0.0887353643774986,0.0508499555289745,0.5,-0.0269619729369879,0.104930952191353
870,-0.0421391315758228,0.0583496280014515,0.0612407475709915,0.5,-0.0007184688583947,0.118786565959454
871,-0.0100112799555063,0.0292153507471085,0.0631885603070259,0.5,0.0394803211092949,0.12942761182785
872,0.0183433201164007,0.008432432077825,0.0476789772510529,0.5,0.0805604979395866,0.123560763895512
873,0.0321579240262508,-0.0025534806773066,0.0166097078472376,0.5,0.10653742402792,0.0890365317463875
874,0.0214827600866556,-0.0028002141043543,-0.0201251339167356,0.5,0.106508292257786,0.0270811170339584
875,0.008142165839672,0.003378968918696,-0.0443818904459476,0.5,0.0899387747049332,-0.0296542905271053
876,0.0276362225413322,0.0102567076683044,-0.04588732868433,0.5,0.0821681097149849,-0.046791173517704
877,0.0658303648233414,0.0071765328757464,-0.0406724624335766,0.5,0.0897806584835052,-0.0383169651031494
878,0.0733119919896126,-0.0149765238165855,-0.0493301041424274,0.5,0.0836309045553207,-0.0307119879871607
879,0.0360736027359962,-0.0427513048052788,-0.0693564042448998,0.5,0.0395008698105812,-0.0205963123589754
880,-0.0179762896150351,-0.0516410022974014,-0.079639658331871,0.5,-0.021528996527195,-0.0108868312090635
881,-0.0591726079583168,-0.0373510979115963,-0.0624848529696465,0.5,-0.0573193654417992,-0.0110812932252884
882,-0.0734913274645805,-0.0092410743236541,-0.018895510584116,0.5,-0.0512973926961422,-0.0045744348317384
883,-0.0640075132250786,0.0217786971479654,0.0293898247182369,0.5,-0.0232421346008778,0.0213641151785851
884,-0.0453230626881123,0.0409758798778057,0.0558368787169456,0.5,-0.0002523792500142,0.0477194264531136
885,-0.0302812550216913,0.0450331903994083,0.0523153617978096,0.5,0.0111697018146515,0.0542057454586029
886,-0.0240604914724827,0.0421824902296066,0.0274952612817287,0.5,0.0137673960998654,0.0408817417919636
887,-0.0223349835723639,0.0361408293247223,-0.0049522928893566,0.5,0.0097072636708617,0.0179845057427883
888,-0.011952631175518,0.0265395604074001,-0.0259025022387505,0.5,0.0132751259952784,0.0001445298257749
889,0.0128143634647131,0.0138054369017482,-0.0244983173906803,0.5,0.0363763868808746,-0.0022761833388358
890,0.0386615470051765,0.0026464248076081,-0.0119220362976193,0.473934471607208,0.0665789917111397,0.0109261041507125
891,0.0540121458470821,-0.002366786589846,-0.0056518483906984,0.44650399684906,0.0876126512885094,0.0347373597323895
892,0.064717099070549,-0.0041238307021558,-0.0100952386856079,0.5,0.101475849747658,0.052819799631834
893,0.0743926391005516,-0.0082623977214098,-0.0186381544917822,0.5,0.111505158245564,0.0521188005805016
894,0.074590191245079,-0.0147313633933663,-0.0232835467904806,0.5,0.115433506667614,0.0429533272981644
895,0.0636887401342392,-0.0200070980936289,-0.0230705048888922,0.5,0.120963998138905,0.0285777226090431
896,0.0543368235230446,-0.0333401151001453,-0.035035390406847,0.5,0.126349121332169,-0.0111501198261976
897,0.0511227250099182,-0.0698514431715012,-0.0748031213879585,0.5,0.106225825846195,-0.0828847363591194
898,0.0360943637788296,-0.121569141745567,-0.122809179127216,0.5,0.0513414517045021,-0.154123067855835
899,-0.000126776882098,-0.157065987586975,-0.139916732907295,0.5,-0.0094266142696142,-0.176875382661819
900,-0.0310567878186703,-0.153457149863243,-0.110806085169315,0.5,-0.0355351641774178,-0.136269629001617
901,-0.0327104218304157,-0.115447729825974,-0.0571983121335506,0.5,-0.0121944909915328,-0.0683205872774124
902,-0.0206607189029455,-0.0632319524884224,-0.0072963675484061,0.5,0.038418959826231,-0.017044685781002
903,-0.0223518330603838,-0.0214686430990696,0.025165967643261,0.5,0.0797158181667328,0.0057018776424229
904,-0.0385972335934639,-0.0057878149673342,0.0332540906965733,0.5,0.0876264348626137,0.007333043962717
905,-0.0507554449141026,-0.0098377773538231,0.0209363978356123,0.5,0.0646778717637062,0.0031390339136123
906,-0.0485120750963688,-0.0159016363322735,0.0043377517722547,0.5,0.03213731944561,0.0139618385583162
907,-0.0357906259596348,-0.0141230402514338,-0.0032404831144958,0.5,0.0067029418423771,0.0407091490924358
908,-0.0205184109508991,-0.0073465392924845,-0.0011421502567827,0.5,-0.0084703406319022,0.0621639266610146
909,-0.0053303316235542,-0.0012372139608487,0.0052256393246352,0.5,-0.0119661185890436,0.0748302489519119
910,0.0128330802544951,0.0036638709716498,0.0141213405877352,0.5,0.0031881644390523,0.0919020101428032
911,0.0358815975487232,0.0062171104364097,0.0203597210347652,0.5,0.0335024408996105,0.0968400985002518
912,0.0584438852965832,-0.0025731606874615,0.0182533711194992,0.5,0.0647331699728966,0.0639724433422089
913,0.0716548264026642,-0.0264390967786312,0.0159508194774389,0.5,0.0962821915745735,0.0066854516044259
914,0.0706943422555923,-0.0538781322538853,0.0144723923876882,0.5,0.123368382453918,-0.0472621470689774
915,0.052956935018301,-0.0690316632390022,-0.0057291183620691,0.5,0.115410022437572,-0.0851051285862923
916,0.0159683525562286,-0.0631300136446953,-0.051000352948904,0.5,0.0534743927419186,-0.101452387869358
917,-0.0266913790255785,-0.0423224195837975,-0.093942865729332,0.5,-0.0297889430075884,-0.0944321677088737
918,-0.0477151721715927,-0.0269850287586451,-0.101284973323345,0.5,-0.077523410320282,-0.063466839492321
919,-0.0399344600737095,-0.0260685123503208,-0.068743534386158,0.5,-0.0719219669699669,-0.0108574638143182
920,-0.0230042263865471,-0.0239009875804186,-0.0195753835141659,0.5,-0.0414392575621605,0.0446846410632133
921,-0.016265083104372,-0.0097569227218627,0.0224183611571789,0.5,-0.0156312976032496,0.079389825463295
922,-0.015571653842926,0.0083384541794657,0.052763793617487,0.5,0.0045538716949522,0.0929716005921364
923,-0.0054802852682769,0.0152706280350685,0.0755877420306206,0.5,0.0339862480759621,0.100332699716091
924,0.0207043904811144,-0.0040024537593126,0.0854824110865593,0.5,0.0729037076234818,0.0979090631008148
925,0.0542360357940197,-0.0488076098263264,0.0734600946307182,0.5,0.0999582782387733,0.0726654902100563
926,0.0718225985765457,-0.100464202463627,0.0354507938027382,0.5,0.0982415601611137,0.028188182041049
927,0.0616533793509007,-0.136393308639526,-0.020259540528059,0.5,0.0742598846554756,-0.0276273917406797
928,0.0288878828287125,-0.142054915428162,-0.0676002502441406,0.5,0.0331405289471149,-0.0800559967756271
929,-0.0184589624404907,-0.121510222554207,-0.0819393992424011,0.5,-0.0244474913924932,-0.101887322962284
930,-0.0602172948420048,-0.086011029779911,-0.0606425814330578,0.5,-0.0704080238938332,-0.0776733756065369
931,-0.0732428058981895,-0.0462222248315811,-0.0262358281761408,0.5,-0.0770707875490189,-0.0252428408712149
932,-0.0671028718352318,-0.0249142237007618,-0.0179238151758909,0.5,-0.0663012638688087,0.0090480633080005
933,-0.0729778483510017,-0.0324284434318542,-0.0479431450366974,0.5,-0.0745892748236656,0.0055585172958672
934,-0.0932836979627609,-0.0409872755408287,-0.0718179121613503,0.5,-0.0947270318865776,-0.0003991754201706
935,-0.102061562240124,-0.023499732837081,-0.0428456254303455,0.5,-0.0948462560772896,0.0256520174443722
936,-0.0842785313725472,0.0146368918940425,0.0307371187955141,0.5,-0.0649461969733238,0.0789716169238091
937,-0.0474858917295933,0.0509412251412869,0.105974689126015,0.5,-0.0186770223081112,0.135073363780975
938,-0.0093830740079283,0.0669435188174248,0.150202065706253,0.5,0.0265282653272152,0.173844709992409
939,0.0130300465971231,0.0582905933260918,0.154442295432091,0.5,0.0564908795058727,0.188208520412445
940,0.0142257371917367,0.035737544298172,0.128927066922188,0.448002398014069,0.0663770288228989,0.17906442284584
941,0.0021709033753722,0.014681207947433,0.0909655541181564,0.0765865966677666,0.0594285354018211,0.145156025886536
942,-0.0104859014973044,0.0018025755416601,0.0513415895402431,-0.34180474281311,0.041638258844614,0.0903958529233933
943,-0.0146545274183154,-0.0034832849632948,0.0098140705376863,-0.5,0.0233939588069916,0.0293541382998228
944,-0.013254951685667,-0.0009825100423768,-0.0401341505348682,-0.5,0.008229655213654,-0.0206613596528769
945,-0.016099389642477,0.0062237535603344,-0.0913549959659576,-0.5,-0.0094308648258447,-0.045118186622858
946,-0.0251691266894341,0.0022344989702105,-0.12406662851572,-0.5,-0.0309666842222214,-0.0476345159113407
947,-0.0291385427117348,-0.0232322681695223,-0.123758494853973,-0.5,-0.0439986772835255,-0.0464591830968857
948,-0.0186864398419857,-0.0520221255719662,-0.0834384933114052,-0.5,-0.030468512326479,-0.0463883578777313
949,-0.0069788061082363,-0.0639804303646088,-0.017341423779726,-0.5,0.0048523023724556,-0.0426964312791824
950,-0.0123004605993629,-0.066735677421093,0.0363456904888153,-0.5,0.0338643752038479,-0.0422367937862873
951,-0.032406534999609,-0.0761137679219246,0.0480121001601219,-0.5,0.032145369797945,-0.0538388453423977
952,-0.0525962598621845,-0.0830060318112373,0.0257270280271769,-0.5,0.0007371371611952,-0.0647413954138756
953,-0.0610354281961918,-0.063816100358963,0.0054442500695586,-0.5,-0.0318515449762344,-0.0462886989116669
954,-0.0574716217815876,-0.0207769274711609,0.0088808126747608,-0.5,-0.0440365076065063,0.0087264878675341
955,-0.0499212443828583,0.0206476598978043,0.0213436689227819,-0.5,-0.0432407781481743,0.0753241702914238
956,-0.0409252494573593,0.0452125146985054,0.0150537667796016,-0.468704611063004,-0.0443570278584957,0.119397073984146
957,-0.0298074260354042,0.0508278794586658,-0.0090442327782511,-0.409833878278732,-0.0464641191065311,0.118891939520836
958,-0.0171009711921215,0.0401289276778698,-0.0211491268128157,-0.38115394115448,-0.0415766425430775,0.0839647799730301
959,-0.0031742819119244,0.0223276764154434,-0.0101815657690167,-0.364051997661591,-0.0371918529272079,0.0445123352110386
960,0.00866234395653,0.0065444195643067,0.0056262877769768,-0.342416673898697,-0.0434417948126793,0.0144605506211519
961,0.0194614734500647,-0.0032692931126803,0.015688743442297,-0.30621001124382,-0.0462324544787407,0.000666212348733
962,0.0316595248878002,0.0011000864906236,0.0277833603322506,-0.247985199093819,-0.026510301977396,0.026866752654314
963,0.0387912504374981,0.0225606597959995,0.0401461534202099,-0.160831868648529,0.0073866988532245,0.0874853357672691
964,0.0366693958640099,0.0384780839085579,0.0350956097245216,-0.0623627491295338,0.0326540060341358,0.118071839213371
965,0.0271530784666538,0.0227272212505341,0.0054827826097607,-0.0029019063804298,0.0340214408934116,0.0757278650999069
966,0.0113415978848934,-0.018020948395133,-0.0294532384723425,-0.0274215955287218,0.0118229929357767,-0.0079672820866107
967,-0.0067674592137336,-0.0496640242636204,-0.0361963547766209,-0.158449664711952,-0.0109701566398144,-0.0702651217579842
968,-0.0185773484408855,-0.0514642894268036,-0.0032854762393981,-0.368200600147247,-0.0093960221856832,-0.0760299414396286
969,-0.0166501887142658,-0.0349174402654171,0.0452587753534317,-0.5,0.0137934442609549,-0.0388483554124832
970,-0.00684275617823,-0.0209111720323563,0.0772590339183807,-0.5,0.02972043864429,0.00385911623016
971,-0.0045742937363684,-0.0171327255666256,0.0785686373710632,-0.499077469110489,0.0156689211726189,0.0308041293174028
972,-0.0138495834544301,-0.0164231359958649,0.0604008696973324,-0.257171988487244,-0.0175143014639616,0.0475405864417553
973,-0.0291524473577738,-0.0104770520702004,0.0438369102776051,0.0252052247524261,-0.0421413667500019,0.0672139078378677
974,-0.0459880456328392,0.0002510266785975,0.0369934067130089,0.278485834598541,-0.0484606102108955,0.0959583595395088
975,-0.0570171996951103,0.0126044806092978,0.0355427302420139,0.465838819742203,-0.0460663326084614,0.123413980007172
976,-0.0560872033238411,0.0230910703539848,0.0358016267418861,0.5,-0.0431438200175762,0.125610023736954
977,-0.0505967698991299,0.023136381059885,0.0380882136523724,0.5,-0.0404256358742714,0.091911256313324
978,-0.0501907207071781,0.0092358365654945,0.0395501963794231,0.5,-0.0350778698921204,0.0379545241594315
979,-0.0469025857746601,-0.0063596423715353,0.0290277116000652,0.463407337665558,-0.0255997013300657,-0.0137714352458715
980,-0.0292830280959606,-0.0097235739231109,-0.0009675472974777,0.338561087846756,-0.0133598214015365,-0.0472289323806763
981,-0.0078412676230073,-0.0070105087943375,-0.042371328920126,0.209822475910187,0.0013043922372162,-0.0573324710130692
982,-0.0030105004552751,-0.0175635982304811,-0.0756018310785294,0.0658906996250153,0.0140951387584209,-0.0550626441836357
983,-0.0169065315276384,-0.0390320904552937,-0.0833560302853584,-0.109759867191315,0.0128028048202395,-0.0414510779082775
984,-0.0377728715538979,-0.0401048175990582,-0.0665825754404068,-0.271691918373108,-0.0110780112445354,0.0027370881289243
985,-0.0531697534024715,-0.0008940592524595,-0.0388811007142067,-0.348610579967499,-0.0472638867795467,0.0707374289631844
986,-0.0510607585310936,0.0562122911214828,-0.0046724770218133,-0.344747096300125,-0.0684750825166702,0.121916569769382
987,-0.0278173629194498,0.0918923914432526,0.0386859886348248,-0.341968536376953,-0.0533680878579617,0.133960381150246
988,0.005540466401726,0.0918709486722946,0.0818956568837166,-0.366551697254181,-0.0067233112640678,0.116509571671486
989,0.0362041145563126,0.0667613819241524,0.103598721325397,-0.352068096399307,0.0441149771213531,0.083340585231781
990,0.0644082352519035,0.0312986299395561,0.0897319540381432,-0.247938618063927,0.0725214779376984,0.0457640327513218
991,0.0870359539985657,-0.0028850613161921,0.0488678105175495,-0.0737640932202339,0.0693438798189163,0.0203847400844097
992,0.0865010693669319,-0.0273714270442724,0.0065302988514304,0.0947574153542519,0.0410199947655201,0.0136976838111877
993,0.0597599372267723,-0.0414236038923264,-0.0174540188163519,0.172649741172791,0.0062495684251189,0.010896890424192
994,0.0278984103351831,-0.0510692521929741,-0.022118242457509,0.119963020086288,-0.0173154268413782,0.0011347059626132
995,0.0054523707367479,-0.0537247695028782,-0.0185416545718908,-0.0430755726993084,-0.032662395387888,-0.0082266684621572
996,-0.0170081090182066,-0.0408970490098,-0.0195533651858568,-0.249329745769501,-0.0549014881253242,-0.0114266481250525
997,-0.0523691177368164,-0.0229058470577002,-0.030345244333148,-0.439716458320618,-0.0878670513629913,-0.015174069441855
998,-0.0924640446901321,-0.0215784069150686,-0.043202493339777,-0.5,-0.117889210581779,-0.0231954026967287
999,-0.11486043035984,-0.0392706356942654,-0.0448736138641834,-0.5,-0.127180382609367,-0.0284454450011253
1000,-0.0147262271493673,-0.0035043668467551,0.009745811112225,-0.5,0.0233826749026775,0.02934998460114
1001,-0.0133277010172606,-0.0010039053158834,-0.0402034148573875,-0.5,0.0082182120531797,-0.0206655524671078
1002,-0.016174178570509,0.0062017571181058,-0.0914262160658836,-0.5,-0.0094426237046718,-0.0451224707067013
1003,-0.0252461861819029,0.0022118370980024,-0.1241400167346,-0.5,-0.0309787951409817,-0.0476389043033123
1004,-0.0292172338813543,-0.023255405947566,-0.123833432793617,-0.5,-0.0440110415220261,-0.0464636497199535
1005,-0.0187656115740538,-0.052045401185751,-0.0835138782858849,-0.5,-0.0304809510707855,-0.046392846852541
1006,-0.0070574092678725,-0.0640035346150398,-0.0174162574112415,-0.5,0.0048399548977613,-0.04270089417696
1007,-0.0123780881986022,-0.0667584985494614,0.0362717881798744,-0.5,0.033852182328701,-0.0422412045300007
1008,-0.0324836038053036,-0.0761364325881004,0.047938734292984,-0.5,0.0321332700550556,-0.0538432225584984
1009,-0.0526737421751022,-0.0830288231372833,0.0256532579660416,-0.5,0.0007249761256389,-0.0647457763552666
1010,-0.0611143223941326,-0.0638393089175224,0.0053691300563514,-0.5,-0.0318639203906059,-0.0462931431829929
1011,-0.0575523898005486,-0.0208006855100393,0.0088039021939039,-0.5,-0.0440491735935211,0.0087219635024666
1012,-0.0500035919249058,0.0206234436482191,0.0212652552872896,-0.5,-0.0432536862790585,0.0753195807337761
1013,-0.0410082936286926,0.045188095420599,0.0149746984243393,-0.468886762857437,-0.0443700440227985,0.119392447173595
1014,-0.029890164732933,0.0508035533130169,-0.0091230049729347,-0.410015314817429,-0.0464770905673504,0.118887327611446
1015,-0.0171828214079142,0.0401048585772514,-0.0212270468473434,-0.381333351135254,-0.0415894724428654,0.0839602127671242
1016,-0.0032553486526012,0.0223038345575333,-0.0102587379515171,-0.364229619503021,-0.037204559892416,0.044507808983326
1017,0.0085813542827963,0.0065205940045416,0.0055491845123469,-0.342594116926193,-0.0434544831514359,0.014456033706665
1018,0.019379660487175,-0.0032933633774519,0.0156108513474464,-0.306389302015305,-0.0462452694773674,0.0006616673199459
1019,0.0315762907266617,0.001075598760508,0.027704106643796,-0.248167678713799,-0.0265233311802149,0.0268621500581503
1020,0.0387066043913364,0.0225357618182898,0.0400655567646027,-0.16101747751236,0.0073734549805522,0.0874806791543961
1021,0.036583948880434,0.0384529531002045,0.0350142531096935,-0.0625501200556755,0.0326406396925449,0.118067145347595
1022,0.0270676929503679,0.0227021127939224,0.0054014907218515,-0.0030890931375324,0.0340080820024014,0.0757231712341309
1023,0.011256942525506,-0.0180458426475525,-0.0295338295400143,-0.027607100084424,0.0118097476661205,-0.007971940562129
1024,-0.0068512489087879,-0.0496886670589447,-0.0362761169672012,-0.158633202314377,-0.0109832677990198,-0.0702697336673737
1025,-0.0186607092618942,-0.0514888130128384,-0.0033648335374891,-0.368383139371872,-0.0094090644270181,-0.0760345309972763
1026,-0.0167338661849499,-0.0349420644342899,0.0451791100203991,-0.5,0.0137803573161364,-0.0388529524207115
1027,-0.0069273933768272,-0.0209360755980015,0.0771784484386444,-0.5,0.0297072101384401,0.0038544866256415
1028,-0.0046600839123129,-0.0171579644083977,0.0784869566559792,-0.499265491962433,0.015655517578125,0.0307994559407234
1029,-0.0139361806213856,-0.0164486058056355,0.0603184178471565,-0.257361829280853,-0.0175278261303902,0.0475358814001083
1030,-0.0292391665279865,-0.0105025544762611,0.0437543503940105,0.025015152990818,-0.0421549119055271,0.0672091990709305
1031,-0.0460742227733135,0.0002256830775877,0.0369113683700562,0.278297036886215,-0.0484740734100342,0.0959536731243134
1032,-0.0571025311946869,0.0125793796032667,0.0354614965617657,0.465651959180832,-0.0460796691477299,0.123409330844879
1033,-0.0561718940734863,0.0230661537498236,0.0357210077345371,0.5,-0.0431570559740067,0.125605419278145
1034,-0.0506813712418079,0.0231114849448204,0.0380076728761196,0.5,-0.0404388532042503,0.0919066593050957
1035,-0.050275843590498,0.0092107877135276,0.0394691564142704,0.5,-0.0350911617279053,0.0379499085247517
1036,-0.0469885505735874,-0.0063849352300167,0.028945866972208,0.463219076395035,-0.0256131161004305,-0.0137760750949383
1037,-0.0293697100132704,-0.0097490726038813,-0.0010500741191208,0.338371157646179,-0.0133733414113522,-0.0472335927188396
1038,-0.0079281777143478,-0.0070360708050429,-0.0424540713429451,0.209632024168968,0.0012908370699733,-0.0573371425271034
1039,-0.0030970494262874,-0.0175890531390905,-0.0756842195987701,0.0657010897994041,0.0140816364437342,-0.0550672970712185
1040,-0.0169923324137926,-0.0390573292970657,-0.0834377110004425,-0.109947741031647,0.0127894142642617,-0.0414557009935379
1041,-0.0378579311072826,-0.0401298440992832,-0.0666635483503342,-0.271878033876419,-0.0110912891104817,0.0027324988041073
1042,-0.0532544329762459,-0.0009189800475724,-0.0389617159962654,-0.348795831203461,-0.0472771041095257,0.0707328617572784
1043,-0.0511455722153187,0.0561873316764832,-0.0047532212920486,-0.344932675361633,-0.0684883147478104,0.121912002563477
1044,-0.0279026869684458,0.0918672829866409,0.0386047586798668,-0.342155307531357,-0.0533813908696175,0.133955806493759
1045,0.0054545868188142,0.0918456837534904,0.0818138942122459,-0.36673977971077,-0.0067366920411586,0.116504989564419
1046,0.0361179746687412,0.0667360424995422,0.103516720235348,-0.352256834506989,0.0441015586256981,0.0833359956741333
1047,0.0643223077058792,0.0312733575701714,0.0896501615643501,-0.248126834630966,0.0725080966949463,0.0457594580948353
1048,0.0869506448507309,-0.0029101551044732,0.0487866029143333,-0.0739508718252182,0.0693305879831314,0.0203801859170198
1049,0.0864165127277374,-0.0273963063955307,0.0064498051069676,0.0945723950862885,0.0410068072378635,0.0136931613087654
1050,0.0596759393811226,-0.0414483249187469,-0.0175339784473181,0.172466039657593,0.0062364684417843,0.0108923967927694
1051,0.0278145894408226,-0.0510939247906208,-0.0221980363130569,0.119779713451862,-0.0173284951597452,0.001130228745751
1052,0.0053683617152273,-0.0537494942545891,-0.0186216309666634,-0.0432593673467636,-0.0326754823327065,-0.0082311397418379
1053,-0.0170924607664347,-0.0409218706190586,-0.0196336694061756,-0.249514415860176,-0.0549146197736263,-0.0114311203360558
1054,-0.0524536855518818,-0.0229307245463133,-0.0304257515817881,-0.439901679754257,-0.0878802090883255,-0.0151785397902131
1055,-0.0925484895706177,-0.0216032471507788,-0.0432828851044178,-0.5,-0.117902353405952,-0.0231998637318611
1056,-0.114944390952587,-0.0392953343689442,-0.0449535399675369,-0.5,-0.127193465828896,-0.0284498874098063
1057,-0.102815546095371,-0.064145416021347,-0.0364017710089684,-0.5,-0.109023816883564,-0.0296565685421228
1058,-0.0631647929549217,-0.08744927495718,-0.0380521304905415,-0.5,-0.0738517194986343,-0.0336269326508045
1059,-0.0256890114396811,-0.0979348570108414,-0.0585507340729237,-0.5,-0.0424081422388554,-0.0404987558722496
1060,-0.0086923344060778,-0.0855358466506004,-0.0782828703522682,-0.5,-0.0282779615372419,-0.0426617190241814
1061,-0.0068141063675284,-0.054813127964735,-0.0751764178276062,-0.5,-0.0273159481585026,-0.022583207115531
1062,-0.0096656549721956,-0.0168186780065298,-0.0442266203463078,-0.5,-0.0199584402143955,0.0361889414489269
1063,-0.0148655995726585,0.0226522963494062,0.0006160758202895,-0.5,0.0017936640651896,0.107809871435165
1064,-0.0255414117127657,0.053798396140337,0.0328515879809856,-0.5,0.0169197674840689,0.135669469833374
1065,-0.0357373394072056,0.0653244405984879,0.0430508069694042,-0.5,0.0128705194219947,0.113285169005394
1066,-0.0331341959536076,0.0610222518444061,0.0463189110159874,-0.5,0.0039478805847466,0.0859829261898994
1067,-0.0138868307694793,0.0497262440621853,0.0527884960174561,-0.5,0.0040768268518149,0.0753469169139862
1068,0.0113345589488745,0.0298530478030443,0.0547499358654022,-0.5,0.0116666369140148,0.0707796439528465
1069,0.0255197454243898,0.0003899593721143,0.0391570702195168,-0.5,0.0150747979059815,0.0655337795615196
1070,0.0237045846879482,-0.0310535673052073,0.0082262065261602,-0.5,0.0078847436234355,0.0555321238934994
1071,0.0125729087740183,-0.0557330250740051,-0.0204973872750998,-0.5,-0.0060286740772426,0.0330354049801826
1072,-1.34832789626671e-05,-0.0672692731022835,-0.0351801365613937,-0.5,-0.0206374134868383,0.0041299061849713
1073,-0.0060411221347749,-0.0656853243708611,-0.0372657403349876,-0.5,-0.0306175667792559,-0.0184467919170856
1074,-0.0017057694494724,-0.0548595041036606,-0.0264389775693417,-0.5,-0.0288165025413036,-0.0287577491253614
1075,0.0065478589385747,-0.0386900268495083,-0.0005535306991077,-0.5,-0.0145789999514818,-0.0249100010842085
1076,0.0090260235592722,-0.0217611007392406,0.0288008395582438,-0.5,0.0013367349747568,-0.013566117733717
1077,0.0043539805337786,-0.001668318756856,0.0453770123422146,-0.5,0.0120719373226166,0.0043937056325376
1078,-0.0032907179556787,0.0187677070498466,0.0428010374307632,-0.403758078813553,0.0196368563920259,0.0331806167960167
1079,-0.0119171077385545,0.0270940717309713,0.0260246004909277,-0.0922744646668434,0.021301070228219,0.0563106127083302
1080,-0.0247669946402311,0.0246938765048981,0.0063756224699318,-0.0100074084475636,0.0094030620530247,0.0573349855840206
1081,-0.0429330430924892,0.0205690637230873,-0.0080102616921067,-0.165142044425011,-0.0132085252553225,0.0453733876347542
1082,-0.0557510778307915,0.0149729624390602,-0.0133199775591493,-0.444287776947021,-0.0325391329824924,0.0330241546034813
1083,-0.0556804127991199,0.0026761007029563,-0.0097732618451118,-0.5,-0.0395634062588215,0.0193654280155897
1084,-0.0453513674438,-0.0160674136132002,-0.000813988619484,-0.5,-0.0286112986505032,0.0069827111437916
1085,-0.0258612297475338,-0.0316990949213505,0.0072256526909768,-0.5,0.0044802883639931,0.0049151191487908
1086,-0.0062712300568819,-0.0418123938143253,0.0010647816816344,-0.5,0.0407445132732391,0.0017530197510495
1087,-0.0074053355492651,-0.0515260770916939,-0.0235466435551643,-0.5,0.0449238866567612,-0.0212359875440598
1088,-0.0306001491844654,-0.0567437075078487,-0.0480348132550716,-0.5,0.0085927303880453,-0.0472367703914642
1089,-0.0454846806824207,-0.0450733564794064,-0.0470757596194744,-0.5,-0.0292986463755369,-0.0367136895656586
1090,-0.0261163394898176,-0.0157270897179842,-0.0168749187141657,-0.5,-0.0249346438795328,0.0130707323551178
1091,0.0154016222804785,0.0086172251030802,0.0074092238210141,-0.5,0.0056051020510494,0.0521376430988312
1092,0.0454007461667061,0.0127162635326386,-0.0050758463330566,-0.5,0.0126742394641042,0.0458543747663498
1093,0.0499383583664894,0.011741116642952,-0.0261541567742825,-0.5,-0.0036926562897861,0.0197694357484579
1094,0.0393838360905647,0.0224276538938284,-0.0088411243632435,-0.5,-0.0021842787973582,0.0130016105249524
1095,0.025885421782732,0.0378422923386097,0.045140840113163,-0.5,0.0323855951428413,0.0289193280041218
