,AF3,AF4,Fp1,Fp2,AF7,AF8
0,0.0108258668333292,-0.178170934319496,0.044694360345602,0.5,-0.271801501512527,-0.403669238090515
1,-0.0093485526740551,-0.174432516098022,0.0390161164104939,0.5,-0.287097096443176,-0.407855540513992
2,-0.0222699660807848,-0.178340017795563,0.032042033970356,0.5,-0.29235565662384,-0.408094555139542
3,-0.0168570298701525,-0.182658076286316,0.0308682471513748,0.5,-0.283386826515198,-0.392939835786819
4,0.0045925793237984,-0.171471878886223,0.0445053651928902,0.5,-0.260860472917557,-0.358114510774612
5,0.0335517749190331,-0.142348855733871,0.0729823485016823,0.5,-0.226570695638657,-0.316364973783493
6,0.0635136887431145,-0.1113121509552,0.101803176105022,0.5,-0.188849940896034,-0.288613557815552
7,0.0867691710591316,-0.0929482355713844,0.113861747086048,0.5,-0.162685111165047,-0.284295648336411
8,0.0949652940034866,-0.0911189317703247,0.105061866343021,0.5,-0.158564254641533,-0.299121469259262
9,0.0868201032280922,-0.10480584949255,0.0823304876685143,0.5,-0.179037198424339,-0.327954888343811
10,0.0683119148015976,-0.127323195338249,0.0566085204482079,0.5,-0.210784018039703,-0.363525927066803
11,0.042444035410881,-0.148540884256363,0.0355526022613049,0.5,-0.232354819774628,-0.391793757677078
12,0.013993919827044,-0.157559499144554,0.0225434713065624,0.5,-0.237074121832848,-0.398432433605194
13,-0.0036528359632939,-0.145984873175621,0.0218286719173193,0.5,-0.235911816358566,-0.374668806791306
14,-0.0038286000490188,-0.114872552454472,0.0319926925003529,0.5,-0.241526558995247,-0.32185697555542
15,0.0035307160578668,-0.0797159746289253,0.0433047153055668,0.5,-0.254549711942673,-0.260850638151169
16,0.0090947989374399,-0.0575218610465527,0.0509913936257362,0.5,-0.264419585466385,-0.223443150520325
17,0.0175434220582247,-0.0485831834375858,0.0558783896267414,0.5,-0.26271265745163,-0.221218541264534
18,0.0339584536850452,-0.0532307848334312,0.0547968633472919,0.5,-0.255380481481552,-0.244396671652794
19,0.0532625578343868,-0.0826770216226578,0.043718509376049,0.5,-0.255159795284271,-0.285153418779373
20,0.0706141144037247,-0.134313374757767,0.0215661972761154,0.5,-0.26341837644577,-0.336607545614243
21,0.0812321826815605,-0.184139668941498,-0.0077321277931332,-0.0056703183799982,-0.277960568666458,-0.389408946037292
22,0.0754677578806877,-0.213541463017464,-0.0302788689732552,-0.5,-0.30451887845993,-0.433652997016907
23,0.0552243888378143,-0.218546271324158,-0.0278233122080565,-0.5,-0.336612343788147,-0.448155164718628
24,0.037051435559988,-0.198751822113991,0.0055799335241317,-0.5,-0.352236688137054,-0.416673213243485
25,0.0320509932935238,-0.165188357234001,0.0569485053420067,-0.5,-0.340286493301392,-0.35837721824646
26,0.0412731170654297,-0.136162325739861,0.104331463575363,-0.5,-0.30877560377121,-0.307113975286484
27,0.0632063150405884,-0.117514662444592,0.132333353161812,-0.5,-0.270964056253433,-0.274095714092255
28,0.0910237058997154,-0.105059094727039,0.140852048993111,-0.5,-0.236830115318298,-0.250991761684418
29,0.108447410166264,-0.0964367389678955,0.135899603366852,-0.5,-0.215400665998459,-0.232187137007713
30,0.103283792734146,-0.0912030413746834,0.121672570705414,-0.453908324241638,-0.210737347602844,-0.222876787185669
31,0.0808944031596184,-0.0884892269968987,0.100090637803078,-0.340777933597565,-0.219033092260361,-0.232882171869278
32,0.0570678897202015,-0.0913049131631851,0.0748174637556076,-0.0710956752300262,-0.229944363236427,-0.255439907312393
33,0.0434015765786171,-0.10987912863493,0.0547308512032032,0.5,-0.232664853334427,-0.26849964261055
34,0.0335438549518585,-0.15401104092598,0.0354669652879238,0.5,-0.240146040916443,-0.283718198537827
35,0.0129145309329033,-0.215501755475998,0.0045861382968723,0.5,-0.279132753610611,-0.332277685403824
36,-0.0169541370123625,-0.265747666358948,-0.0303686298429966,0.5,-0.344140231609344,-0.392304033041
37,-0.0373225174844265,-0.280965089797974,-0.051699873059988,0.5,-0.397215962409973,-0.408189803361893
38,-0.0330479256808758,-0.264619112014771,-0.0516453720629215,0.5,-0.411452680826187,-0.36262246966362
39,-0.0067571350373327,-0.238342791795731,-0.0345527082681656,0.5,-0.393101006746292,-0.296340018510818
40,0.0269323606044054,-0.216981261968613,-0.0105697177350521,0.5,-0.361309319734573,-0.263672918081284
41,0.0541434921324253,-0.197915494441986,0.0170144829899073,0.5,-0.323175430297852,-0.267244070768356
42,0.0707642361521721,-0.171544224023819,0.0537601299583912,0.5,-0.277973145246506,-0.266925930976868
43,0.0784449949860573,-0.140238434076309,0.0955298617482185,0.5,-0.236172005534172,-0.247517421841621
44,0.0811005830764771,-0.117272064089775,0.123168252408504,0.5,-0.213463023304939,-0.230268284678459
45,0.0875704735517502,-0.111280426383018,0.128656655550003,0.5,-0.20562432706356,-0.229914844036102
46,0.105903543531895,-0.126030027866364,0.125016748905182,0.5,-0.193395659327507,-0.24324668943882
47,0.126793518662453,-0.162021979689598,0.121191143989563,0.5,-0.174972251057625,-0.268848925828934
48,0.126343876123428,-0.20858570933342,0.108555763959885,0.5,-0.171008855104446,-0.302743375301361
49,0.0997162088751793,-0.2437983751297,0.0773400887846947,0.5,-0.196868941187859,-0.325636982917786
50,0.063710480928421,-0.248781219124794,0.0369798429310322,0.5,-0.243822380900383,-0.322988867759705
51,0.0288438126444817,-0.22582334280014,0.0115245645865798,0.5,-0.286782681941986,-0.304068922996521
52,-0.0008988315239548,-0.197185441851616,0.011016002856195,0.5,-0.309714525938034,-0.284433722496033
53,-0.0136523023247719,-0.176619932055473,0.0228348877280951,0.5,-0.315056979656219,-0.264340341091156
54,0.0012931794626638,-0.154398828744888,0.0362588688731194,0.5,-0.305409371852875,-0.235964193940163
55,0.0335711166262627,-0.124504990875721,0.0515017844736576,0.5,-0.280349433422089,-0.206909149885178
56,0.0607759393751621,-0.108751155436039,0.0644153207540512,0.5,-0.252104729413986,-0.199740305542946
57,0.076257698237896,-0.126108795404434,0.071458712220192,0.5,-0.234490424394608,-0.21809709072113
58,0.087364174425602,-0.167270436882973,0.0734885856509209,0.5,-0.228007033467293,-0.246533781290054
59,0.0960865095257759,-0.216737568378448,0.0652179718017578,0.5,-0.229527831077576,-0.276175230741501
60,0.102691814303398,-0.255265921354294,0.0517397373914719,0.5,-0.230006992816925,-0.284002155065537
61,0.108501628041267,-0.26046821475029,0.0493626147508621,0.5,-0.219444185495377,-0.243740066885948
62,0.110238216817379,-0.225745290517807,0.0629416555166245,0.5,-0.203935965895653,-0.173509180545807
63,0.109538488090038,-0.171202629804611,0.0852154046297073,0.5,-0.191574096679688,-0.116582117974758
64,0.113164484500885,-0.138756275177002,0.0959314182400703,0.5,-0.185618206858635,-0.106100223958492
65,0.118806533515453,-0.148974940180779,0.0824265256524086,0.5,-0.189799711108208,-0.148362189531326
66,0.116024531424046,-0.177035734057426,0.0647662729024887,0.5,-0.19313907623291,-0.206280007958412
67,0.101108320057392,-0.188045889139175,0.0674869269132614,0.5,-0.181011363863945,-0.232169717550278
68,0.0824403017759323,-0.174185663461685,0.0872512683272362,0.5,-0.165285930037498,-0.220438346266747
69,0.0650236904621124,-0.148974016308784,0.100145526230335,0.5,-0.171813577413559,-0.196318417787552
70,0.0463408045470715,-0.119319170713425,0.0985228940844536,0.5,-0.199989378452301,-0.164601013064384
71,0.0337785631418228,-0.0900206491351128,0.102484598755836,0.5,-0.218775391578674,-0.11435379087925
72,0.0370938330888748,-0.0754523351788521,0.118728145956993,0.5,-0.210979700088501,-0.0675192922353745
73,0.0510440915822983,-0.0845950096845627,0.122776389122009,-0.0166654735803604,-0.19255268573761,-0.0667831152677536
74,0.0655016824603081,-0.113276332616806,0.0965431556105614,-0.5,-0.187009066343308,-0.120860449969769
75,0.0762873217463493,-0.149660617113113,0.0564500950276852,-0.5,-0.203412175178528,-0.196245700120926
76,0.0814096629619598,-0.181901901960373,0.0310037303715944,-0.5,-0.230178073048592,-0.251773118972778
77,0.0844297483563423,-0.199818804860115,0.0312518738210201,-0.5,-0.245195433497429,-0.262957572937012
78,0.0915288552641869,-0.194945052266121,0.0536357834935188,-0.5,-0.23580664396286,-0.229556947946548
79,0.100171811878681,-0.167440161108971,0.0905893445014954,-0.5,-0.205494076013565,-0.163951098918915
80,0.110138736665249,-0.130162239074707,0.128408402204514,-0.5,-0.162697523832321,-0.0801989808678627
81,0.124515660107136,-0.100061431527138,0.14526854455471,-0.5,-0.119426004588604,-0.012499650940299
82,0.134566962718964,-0.0874370113015175,0.128176987171173,-0.5,-0.0964775532484055,0.0037761672865599
83,0.130916625261307,-0.0957273542881012,0.08913704007864,-0.5,-0.107858881354332,-0.0283191241323948
84,0.116428129374981,-0.120857603847981,0.052459329366684,-0.5,-0.145318582653999,-0.0790515840053558
85,0.0962112545967102,-0.151761502027512,0.0375300049781799,-0.5,-0.181851536035538,-0.12040638178587
86,0.0680085122585297,-0.177240684628487,0.049328476190567,-0.5,-0.194762974977493,-0.143897816538811
87,0.0324038304388523,-0.188456401228905,0.0751049146056175,-0.5,-0.184089243412018,-0.153785318136215
88,0.0040314244106411,-0.181774601340294,0.0992964953184128,-0.5,-0.164708659052849,-0.148846954107285
89,-0.0064959875307977,-0.16150164604187,0.115741714835167,-0.5,-0.151260584592819,-0.129958584904671
90,-0.0033328852150589,-0.135917320847511,0.126044973731041,-0.5,-0.145421952009201,-0.106228858232498
91,0.009615421295166,-0.117139749228954,0.135476008057594,-0.5,-0.137955665588379,-0.0842546448111534
92,0.0295065939426422,-0.113809406757355,0.14278981089592,-0.5,-0.125881999731064,-0.0677707195281982
93,0.0491469204425812,-0.120230592787266,0.136660873889923,-0.5,-0.118134021759033,-0.0612001717090607
94,0.0651078671216965,-0.126032143831253,0.113763518631458,-0.5,-0.116289675235748,-0.0650444403290749
95,0.0809973254799843,-0.13029620051384,0.09011210501194,-0.5,-0.104023359715939,-0.0722399428486824
96,0.0979041531682014,-0.136546209454536,0.0840543061494827,-0.5,-0.0720212236046791,-0.0710273087024689
97,0.107693880796433,-0.145462140440941,0.0933499410748482,-0.5,-0.0353022404015064,-0.0594418421387672
98,0.106100335717201,-0.162633031606674,0.0969954952597618,-0.5,-0.0163482651114464,-0.0549484677612782
99,0.103655353188515,-0.184231713414192,0.0846509635448456,-0.5,-0.0205255635082722,-0.0642717331647873
100,0.10589037835598,-0.186253562569618,0.0656969547271729,-0.5,-0.03676837682724,-0.0607311874628067
101,0.101813413202763,-0.160972505807877,0.0487134605646133,-0.5,-0.060058418661356,-0.0271750371903181
102,0.0790538936853409,-0.13062559068203,0.0352814495563507,-0.5,-0.0941129177808762,0.0185542590916157
103,0.0363547950983047,-0.118645884096622,0.0239469688385725,-0.5,-0.136087596416473,0.0513282604515553
104,-0.0109171094372869,-0.127786248922348,0.0171845611184835,-0.5,-0.172956541180611,0.048155639320612
105,-0.0409951880574226,-0.144104287028313,0.0278600566089153,-0.5,-0.186268091201782,0.0055313282646238
106,-0.0456540770828724,-0.153344497084618,0.0618316568434238,-0.5,-0.165372520685196,-0.0447639711201191
107,-0.03081907145679,-0.146869674324989,0.103735208511353,-0.5,-0.121925257146358,-0.0700026303529739
108,-0.0057745724916458,-0.123357683420181,0.134659230709076,-0.5,-0.0787659585475922,-0.0622151717543602
109,0.0203437563031912,-0.0900766476988792,0.148019686341286,-0.5,-0.0503320917487144,-0.03042615018785
110,0.0422020293772221,-0.0559498816728592,0.142069637775421,-0.5,-0.0409627668559551,0.0073575950227677
111,0.0521029680967331,-0.0379061698913574,0.109337359666824,-0.5,-0.0547850541770458,0.0216281171888113
112,0.0377494432032108,-0.0554462447762489,0.0496965162456036,-0.5,-0.0951684936881065,-0.0057417606003582
113,0.005339266732335,-0.0969297215342522,-0.0123059982433915,-0.5,-0.14659084379673,-0.0542714111506939
114,-0.0208605881780386,-0.136794283986092,-0.0445810593664646,-0.361490696668625,-0.175820648670197,-0.0894787460565567
115,-0.023269223049283,-0.163460746407509,-0.0333718024194241,-0.156233072280884,-0.160663366317749,-0.0908771529793739
116,-0.0016831582179293,-0.165576562285423,0.0115617094561458,0.0578634887933731,-0.111034914851189,-0.0572641864418983
117,0.0326164960861206,-0.142735108733177,0.0674299225211143,0.213163837790489,-0.0574501007795334,-0.0111633250489831
118,0.0683241039514542,-0.111573413014412,0.112655363976955,0.297092705965042,-0.0225083604454994,0.0186292175203562
119,0.0964360609650612,-0.0860229879617691,0.134686782956123,0.342766910791397,-0.0132818222045898,0.0283167138695717
120,0.109597206115723,-0.0741889551281929,0.13530907034874,0.325641632080078,-0.0239556953310966,0.0417370945215225
121,0.104237981140614,-0.075353130698204,0.130473509430885,0.157398760318756,-0.0350809805095196,0.0754066780209541
122,0.0830889269709587,-0.081289179623127,0.132677733898163,-0.162516504526138,-0.034550491720438,0.116343840956688
123,0.0547417365014553,-0.0860875099897385,0.134228840470314,-0.45634725689888,-0.0368645302951336,0.141269370913506
124,0.0268200747668743,-0.0851147472858429,0.122034512460232,-0.5,-0.0569173768162727,0.130935952067375
125,0.0028281095437705,-0.0780357122421265,0.100693225860596,-0.5,-0.0820540711283684,0.0865501537919044
126,-0.0108261201530695,-0.0669831186532974,0.0877558141946793,-0.5,-0.090189516544342,0.0396042354404926
127,-0.0072671486996114,-0.0505264028906822,0.0913008451461792,-0.467478007078171,-0.0737144276499748,0.0147765856236219
128,0.0061090216040611,-0.0310556292533875,0.100019194185734,-0.282525658607483,-0.0405360870063305,0.010875690728426
129,0.0191703625023365,-0.0143143283203244,0.100618153810501,-0.0294597484171391,-0.0043148328550159,0.0212275274097919
130,0.0371303372085094,-0.0056071206927299,0.0934783965349197,0.16674517095089,0.0214956179261208,0.0414346680045128
131,0.0598101168870926,-0.0107069881632924,0.0839475765824318,0.20205794274807,0.025684280321002,0.0630466043949127
132,0.0739198699593544,-0.0294830724596977,0.0751854330301285,0.0609330981969833,0.0107169458642602,0.0720756649971008
133,0.0711128860712051,-0.0591891445219517,0.0695803761482239,-0.264423102140427,-0.0107703991234303,0.0586084723472595
134,0.0480595603585243,-0.0970127955079079,0.0653276443481445,-0.5,-0.0376092977821827,0.0268974900245667
135,0.0136438058689237,-0.1238182336092,0.062050461769104,-0.5,-0.0690498799085617,-0.0046833590604364
136,-0.007486721035093,-0.115933440625668,0.0682378336787224,-0.5,-0.0854556560516357,-0.0151572078466415
137,-0.0012450641952455,-0.0813848003745079,0.0895222127437592,-0.5,-0.0746852159500122,0.0014093524077907
138,0.0242693983018398,-0.0485623367130756,0.117599450051785,-0.5,-0.0486703962087631,0.0376005508005619
139,0.0529287867248058,-0.0305544622242451,0.136343151330948,-0.5,-0.0226847156882286,0.0843798816204071
140,0.0709911212325096,-0.0246163494884968,0.137399345636368,-0.5,-0.0038443184457719,0.126751333475113
141,0.0711349323391914,-0.0278856679797173,0.125892907381058,-0.479593455791473,0.0072651673108339,0.147115543484688
142,0.0595555454492569,-0.0402508713304996,0.112243302166462,-0.369560450315475,0.0132672991603613,0.138062208890915
143,0.0530920065939426,-0.0555015541613102,0.10322804749012,-0.447262018918991,0.0155306663364172,0.103396110236645
144,0.0585506185889244,-0.0598163902759552,0.0967185348272324,-0.5,0.0116720320656896,0.0557752661406994
145,0.0628915354609489,-0.0519335046410561,0.0860496535897255,-0.5,-0.0023213382810354,0.0057093533687293
146,0.054817371070385,-0.0455384850502014,0.0717364773154259,-0.5,-0.0221656281501055,-0.0381816886365414
147,0.0450160168111324,-0.0373145081102848,0.062618300318718,-0.5,-0.0362617895007133,-0.0474431961774826
148,0.0468469373881817,-0.0102652786299586,0.0624536126852036,-0.5,-0.0416897051036358,0.0014968083705753
149,0.0565280020236969,0.0315433032810688,0.0673670694231987,-0.5,-0.041205033659935,0.0835245549678802
150,0.0683831498026848,0.0660054311156273,0.0757762938737869,-0.5,-0.0278831720352173,0.154433637857437
151,0.0825655981898308,0.0740761905908585,0.0867924243211746,-0.5,0.0084732491523027,0.192020639777184
152,0.0992432609200478,0.0508163012564182,0.0985670611262321,-0.5,0.0592832341790199,0.18415167927742
153,0.114747270941734,0.0109884319826961,0.10763343423605,-0.5,0.0933515802025795,0.130802884697914
154,0.115107864141464,-0.0241658501327038,0.104956820607185,-0.5,0.083580456674099,0.0657386109232903
155,0.089170403778553,-0.0415939129889011,0.0887852609157562,-0.5,0.0357182696461678,0.0312623456120491
156,0.0477229654788971,-0.0453035309910774,0.0719221010804176,-0.5,-0.0136702191084623,0.036604892462492
157,0.0198285765945911,-0.050490390509367,0.0688819065690041,-0.5,-0.0278018247336149,0.0646506324410439
158,0.0230457428842783,-0.0553778931498528,0.083888828754425,-0.5,-0.0033334472682327,0.101608902215958
159,0.0413345359265804,-0.0498999692499638,0.106360226869583,-0.5,0.0292868446558714,0.137911930680275
160,0.0549243874847889,-0.0365855917334557,0.121218450367451,-0.372768670320511,0.0445739440619946,0.158498674631119
161,0.065735436975956,-0.0205936972051859,0.12099926173687,-0.0615318045020103,0.0390701591968536,0.153866246342659
162,0.071455791592598,-0.0103533184155822,0.1088972017169,0.0845960080623627,0.0160471387207508,0.131043776869774
163,0.0628656223416328,-0.0106955543160439,0.0959559828042984,0.0520840249955654,-0.0163634307682514,0.109243579208851
164,0.0491179898381233,-0.009099518880248,0.090184859931469,-0.113160662353039,-0.0434110499918461,0.105538420379162
165,0.0468498691916466,0.0077538331970572,0.0940796211361885,-0.349339216947556,-0.0525791086256504,0.121497839689255
166,0.0593595318496227,0.0379213765263557,0.106237709522247,-0.5,-0.0406465232372284,0.146326392889023
167,0.0772911459207535,0.0725762695074081,0.119379058480263,-0.5,-0.0151996426284313,0.175641074776649
168,0.0917505919933319,0.102870106697083,0.124501578509808,-0.5,0.0122856488451362,0.21419632434845
169,0.103160701692104,0.117794632911682,0.118994072079659,-0.5,0.0375226922333241,0.252907663583755
170,0.111332662403584,0.108342349529266,0.108006574213505,-0.5,0.0612762682139874,0.262648433446884
171,0.110080987215042,0.0734653398394585,0.0984199270606041,-0.5,0.081726185977459,0.228335604071617
172,0.0991652607917786,0.0239524971693754,0.0918675363063812,-0.5,0.0940070971846581,0.170214101672173
173,0.0810265392065048,-0.0196873154491186,0.0783872082829475,-0.5,0.0878304541110992,0.118499405682087
174,0.0541964694857597,-0.0392799191176891,0.0507984831929207,-0.11888138204813,0.0562859587371349,0.0949321910738945
175,0.0248111896216869,-0.0334247946739197,0.0237913019955158,0.47740712761879,0.0137933781370521,0.110998153686523
176,0.008094199001789,-0.0143887996673584,0.0207510236650705,0.5,-0.0078290896490216,0.158963054418564
177,0.0124418176710606,0.009210592135787,0.0467358715832233,0.5,0.0072010108269751,0.216094121336937
178,0.030602864921093,0.0340714529156685,0.0793316066265106,0.5,0.0355517491698265,0.259733706712723
179,0.0517279244959354,0.053956001996994,0.0928674712777138,0.5,0.0466849282383919,0.274731874465942
180,0.0724432840943336,0.0658581256866455,0.0887864157557487,0.5,0.0440574027597904,0.261282444000244
181,0.0949944853782654,0.0768097713589668,0.0857732966542244,0.5,0.0478933937847614,0.235781535506248
182,0.118625767529011,0.0979845523834229,0.0906527936458588,0.456281721591949,0.0582230687141418,0.213885843753815
183,0.131670370697975,0.130397245287895,0.0952808633446693,0.0282799731940031,0.0604618452489376,0.198703020811081
184,0.123705945909023,0.150654181838036,0.092801533639431,-0.408197373151779,0.0498812161386013,0.186489567160606
185,0.10116321593523,0.134118586778641,0.0848553776741028,-0.5,0.0343270748853683,0.174244359135628
186,0.079583577811718,0.0871025994420052,0.0753498077392578,-0.5,0.0226097088307142,0.160169556736946
187,0.0708306357264519,0.0355155132710934,0.0671575590968132,-0.5,0.0230124741792679,0.146648824214935
188,0.076410323381424,0.0013810308882966,0.0654671341180801,-0.5,0.0442906357347965,0.143870934844017
189,0.0858718007802963,-0.0085362140089273,0.0727214440703392,-0.358152836561203,0.0815791934728622,0.15888400375843
190,0.0891381576657295,-0.0024266669061034,0.0818649083375931,-0.0654468461871147,0.114643685519695,0.183082789182663
191,0.0851772427558899,0.0073758754879236,0.0821466594934464,0.12617589533329,0.130344778299332,0.197994068264961
192,0.074708491563797,0.0133144510909915,0.0671368613839149,0.153299510478973,0.13192680478096,0.194546416401863
193,0.0586799159646034,0.0151475686579943,0.0365770757198334,0.0496651791036129,0.119383223354816,0.187264025211334
194,0.0393757559359074,0.0176691748201847,-0.0003147747775074,-0.0976536273956299,0.0873689278960228,0.192420288920403
195,0.0208252593874931,0.0241848062723875,-0.020599726587534,-0.241158455610275,0.0492764823138714,0.201779305934906
196,0.0156984440982342,0.0345332436263561,-0.0080306939780712,-0.406338185071945,0.0275743193924427,0.204871639609337
197,0.0296467822045088,0.0497782751917839,0.0219052247703075,-0.5,0.0243619903922081,0.211400359869003
198,0.0487914644181728,0.071362778544426,0.0440294183790684,-0.5,0.0245804116129875,0.235785692930222
199,0.0616394318640232,0.0972584933042526,0.0550170466303825,-0.5,0.0211242344230413,0.276725620031357
200,0.0659482702612877,0.120095290243626,0.0592249184846878,-0.5,0.0176038257777691,0.308116316795349
201,0.0553388297557831,0.130837723612785,0.0521751344203949,-0.45277401804924,0.0126282190904021,0.296128481626511
202,0.0253948774188757,0.124679356813431,0.0336962826550007,-0.125391110777855,0.0025221891701221,0.239492774009705
203,-0.0082475431263446,0.10119166970253,0.0096529060974717,0.210837736725807,-0.0114023014903069,0.170827925205231
204,-0.0166009478271008,0.0680082961916924,-0.0149087803438306,0.417461037635803,-0.0221417136490345,0.123682871460915
205,0.0101944878697395,0.0369108915328979,-0.0318915322422981,0.463036090135574,-0.0198074672371149,0.111080586910248
206,0.046113844960928,0.0148985860869288,-0.0374410152435303,0.487785935401917,-0.003718220628798,0.117656148970127
207,0.0606324560940266,0.004753628745675,-0.0334507636725903,0.5,0.0200099721550941,0.123778730630875
208,0.0543377958238125,0.0043237851932644,-0.0158783532679081,0.5,0.0503227263689041,0.132969155907631
209,0.0436352379620075,0.010455290786922,0.0178282242268324,0.5,0.0841850563883781,0.159028217196465
210,0.0330095179378986,0.0232492331415415,0.0575203187763691,0.5,0.107128478586674,0.203123420476913
211,0.0185166671872139,0.0412827916443348,0.0879145860671997,0.5,0.103767409920692,0.258082449436188
212,0.0018637017346918,0.0626752823591232,0.0986466333270073,0.5,0.0781292766332626,0.316783547401428
213,-0.0124460766091943,0.0868002250790596,0.0861681774258614,0.5,0.0500862412154675,0.355551213026047
214,-0.021542627364397,0.104851566255093,0.055502463132143,0.5,0.0358184911310673,0.347414165735245
215,-0.0179591421037912,0.102807641029358,0.0210455860942602,0.5,0.0408148355782032,0.299722671508789
216,0.0026438003405928,0.0797079429030418,0.0010572550818324,0.5,0.057793453335762,0.242448449134827
217,0.0302913282066584,0.0492829717695713,0.0066637904383242,0.5,0.0712550953030586,0.198590204119682
218,0.0520965829491615,0.0254921782761812,0.0303102657198906,0.5,0.0697640627622604,0.175990656018257
219,0.0610790848731995,0.0111906826496124,0.0465266183018684,0.5,0.054141279309988,0.169378787279129
220,0.052217572927475,0.0022011483088135,0.0327266454696655,0.183021172881126,0.0298384837806225,0.17551577091217
221,0.0269297566264868,0.0053628990426659,-0.0057799154892563,-0.224752843379974,-0.0008370703435502,0.196695908904076
222,-0.0035367533564567,0.0338771343231201,-0.04272635653615,-0.5,-0.0323836877942085,0.218114763498306
223,-0.0322583243250847,0.0782132372260094,-0.0643075555562973,-0.5,-0.0601184591650963,0.215771347284317
224,-0.0625146776437759,0.11282829195261,-0.0741550847887993,-0.216640442609787,-0.0809411332011223,0.19062913954258
225,-0.084438867866993,0.124871127307415,-0.0672716274857521,0.354050278663635,-0.0788899511098862,0.167550176382065
226,-0.0748336017131805,0.115388676524162,-0.0353445336222649,0.5,-0.0383960716426373,0.166502147912979
227,-0.0323900133371353,0.094381757080555,0.0069774501025676,0.5,0.0263226833194494,0.184476986527443
228,0.0194972530007362,0.0756890550255775,0.0410692058503628,0.5,0.0848951488733292,0.210225775837898
229,0.0573536567389965,0.0679736658930779,0.0682026445865631,0.5,0.120606139302254,0.24324181675911
230,0.072243869304657,0.0712411478161812,0.089781291782856,0.5,0.134399875998497,0.283939003944397
231,0.0698942467570305,0.0781571343541145,0.0960226505994797,0.5,0.136646121740341,0.316730707883835
232,0.0628176033496857,0.080083079636097,0.0826967731118202,0.5,0.134385570883751,0.318423599004745
233,0.0616689622402191,0.07171980291605,0.0562949292361736,0.5,0.125469535589218,0.288624852895737
234,0.0649902075529099,0.0595186315476894,0.0269981939345598,0.5,0.106481060385704,0.2564537525177
235,0.0672221928834915,0.0637044161558151,0.0051500992849469,0.5,0.0808515474200249,0.248724475502968
236,0.0636808723211288,0.0931629613041878,-0.0062352889217436,0.5,0.0517226867377758,0.265485376119614
237,0.0402805358171463,0.122850768268108,-0.0169650409370661,0.5,0.0130840428173542,0.278249979019165
238,-0.0084810955449938,0.116752080619335,-0.0371074676513672,0.5,-0.0336425006389618,0.249372124671936
239,-0.0601066276431084,0.0760191082954407,-0.0568975768983364,0.5,-0.0647462904453278,0.186203017830849
240,-0.0848003476858139,0.0380991026759148,-0.0554706789553165,0.5,-0.059554684907198,0.140659242868423
241,-0.0749929845333099,0.0292407609522343,-0.0267557222396135,0.5,-0.0250726416707039,0.141369163990021
242,-0.0474294684827328,0.0471953079104424,0.0157830733805895,0.419571876525879,0.0154873812571168,0.177491575479507
243,-0.0234277173876762,0.0796293690800667,0.0514608025550842,-0.256131082773209,0.0422168709337711,0.227077379822731
244,-0.0119177177548409,0.118343755602837,0.0690386816859245,-0.5,0.0523049496114254,0.27151545882225
245,-0.0073745585978031,0.150579169392586,0.0731950104236603,-0.5,0.0618135295808315,0.297922760248184
246,0.0025321634020656,0.160354122519493,0.0803371071815491,-0.5,0.0872303396463394,0.308290809392929
247,0.023711159825325,0.147678032517433,0.099523164331913,-0.5,0.121813327074051,0.315866559743881
248,0.0445379912853241,0.120344452559948,0.109504945576191,-0.5,0.136720016598701,0.317415207624435
249,0.0479155853390694,0.0804778933525085,0.0808420777320862,-0.5,0.113036371767521,0.293307363986969
250,0.0335944443941116,0.0347059927880764,0.0164762455970049,-0.5,0.065141499042511,0.240693882107735
251,0.0150653822347522,-0.0014854167820885,-0.0533305779099464,-0.5,0.0203472971916199,0.18288192152977
252,0.0009047558414749,-0.0142262754961848,-0.0974017754197121,-0.5,-0.0089999241754412,0.149180576205254
253,-0.0067344210110604,0.0022005334030836,-0.0995780229568481,-0.5,-0.0214139483869076,0.159199073910713
254,-0.0062123709358274,0.041644211858511,-0.0672525390982628,-0.5,-0.0148154627531767,0.205737128853798
255,-0.0010186658473685,0.089682400226593,-0.0232645496726036,-0.5,0.0117878457531333,0.256583541631699
256,-0.0024774423800408,0.133004978299141,0.0073613934218883,-0.5,0.0457209907472134,0.287329971790314
257,-0.0212555136531591,0.160942584276199,0.0127635197713971,-0.5,0.0624959133565426,0.288453727960587
258,-0.0496038384735584,0.167241528630257,0.0025410975795239,-0.5,0.0539852418005466,0.256919145584106
259,-0.0644556656479836,0.156899869441986,-0.0066630574874579,-0.5,0.0390343144536018,0.211852088570595
260,-0.0590780936181545,0.145161420106888,-0.0088897049427032,-0.5,0.0307590458542109,0.184773504734039
261,-0.0495573282241821,0.137542799115181,-0.0135978413745761,-0.5,0.0177406333386898,0.175444647669792
262,-0.0484193451702595,0.121947340667248,-0.028370501473546,-0.5,-0.0059352689422667,0.163139224052429
263,-0.0455390959978104,0.0969440042972565,-0.0396511144936085,-0.5,-0.0176095776259899,0.154975682497025
264,-0.0221513938158751,0.0793478861451149,-0.028855737298727,-0.5,0.009412040002644,0.172725558280945
265,0.0180261749774218,0.075594499707222,0.0012705615954473,-0.5,0.0677441284060478,0.212776184082031
266,0.04761753231287,0.0778586864471436,0.0336240977048874,-0.5,0.120788857340813,0.251753270626068
267,0.0497062876820564,0.0818394124507904,0.0571586824953556,-0.5,0.145794674754143,0.272863626480103
268,0.04267193749547,0.0901815146207809,0.0657106190919876,-0.5,0.155294567346573,0.276363164186478
269,0.050651703029871,0.0973816439509392,0.0433471873402596,-0.256834506988525,0.159210756421089,0.262283980846405
270,0.0623536892235279,0.0891511291265488,-0.0155208455398679,0.0396394543349743,0.137520045042038,0.227806881070137
271,0.0522322990000248,0.0712996944785118,-0.0797862559556961,0.239156037569046,0.0806615948677063,0.193657174706459
272,0.0222346968948841,0.069007933139801,-0.109326511621475,0.438092023134232,0.0169406104832888,0.193071752786636
273,-0.0071283495053648,0.0910362005233765,-0.0915802791714668,0.5,-0.012563506141305,0.236542746424675
274,-0.0247745290398598,0.122298620641232,-0.0449127368628979,0.5,0.0062487213872373,0.296877592802048
275,-0.0312967002391815,0.148046791553497,0.0022401274181902,0.5,0.0482125133275986,0.334298729896545
276,-0.0343167744576931,0.164246410131454,0.030733373016119,0.5,0.0807282626628876,0.333389759063721
277,-0.0428800396621227,0.170301616191864,0.0361749865114689,0.5,0.0921266451478004,0.303934514522552
278,-0.0541305281221867,0.16401319205761,0.0252254325896502,0.5,0.0899891927838326,0.267232000827789
279,-0.0560949482023716,0.145900562405586,0.008985586464405,0.5,0.0893472507596016,0.241091385483742
280,-0.0451080575585365,0.125222966074944,-0.0041828444227576,0.5,0.0980314090847969,0.226680055260658
281,-0.0298379343003035,0.107766956090927,-0.0176648423075676,0.5,0.107758432626724,0.215083569288254
282,-0.0195451658219099,0.0945243909955025,-0.0370323546230793,0.5,0.108205556869507,0.205249309539795
283,-0.0151890181005001,0.0949439257383347,-0.0572576001286507,0.5,0.0998565554618835,0.203041300177574
284,-0.0137124806642532,0.112396284937859,-0.0697841346263886,0.5,0.08756934851408,0.210052117705345
285,-0.0091587211936712,0.12959460914135,-0.0701793730258942,0.5,0.0784483030438423,0.222764000296593
286,0.0018282625824213,0.130134969949722,-0.061267975717783,0.5,0.0766506567597389,0.229750737547874
287,0.010458942502737,0.122839465737343,-0.0494225770235062,0.5,0.0765554904937744,0.225658059120178
288,0.0094577223062515,0.122913248836994,-0.0381329730153084,0.5,0.0696658417582512,0.221813455224037
289,-0.0002212374092778,0.125605285167694,-0.0320445373654366,0.5,0.0517782755196095,0.223700895905495
290,-0.018267460167408,0.119719177484512,-0.0344984084367752,0.5,0.0295448824763298,0.226136758923531
291,-0.036749217659235,0.104305855929852,-0.037289671599865,0.5,0.0213708616793156,0.231459423899651
292,-0.0350402295589447,0.0886654183268547,-0.0256364829838276,0.5,0.0454709678888321,0.252959847450256
293,0.003090473357588,0.0832493230700493,0.0027797007933259,0.5,0.102967850863934,0.292935401201248
294,0.0655030831694603,0.0875971019268036,0.0284341126680374,0.430667996406555,0.169292837381363,0.32431834936142
295,0.111822135746479,0.0931416973471642,0.0293297879397869,0.235397487878799,0.212157964706421,0.313217371702194
296,0.111804626882076,0.0913988947868347,0.004517687484622,0.195765420794487,0.215605169534683,0.254030644893646
297,0.0732400938868523,0.0799699053168297,-0.0298513565212488,0.20658315718174,0.184548616409302,0.176462680101395
298,0.0255627855658531,0.0664776563644409,-0.0533650033175945,0.289895117282867,0.143575072288513,0.126405373215675
299,-0.0081208376213908,0.0650730654597282,-0.0550555177032948,0.5,0.118498593568802,0.129232823848724
300,-0.0241048727184534,0.0867123976349831,-0.0469048209488392,0.5,0.106414407491684,0.169588968157768
301,-0.0319386012852192,0.122734405100346,-0.0492933578789234,0.5,0.0876357406377792,0.214139848947525
302,-0.0355327762663364,0.146261274814606,-0.0598613619804382,0.5,0.0623551234602928,0.23872572183609
303,-0.0291648339480162,0.146146595478058,-0.0570597983896732,0.5,0.0497357249259949,0.236930057406425
304,-0.00984672550112,0.1395493298769,-0.0336516052484512,0.5,0.0600066371262074,0.221004009246826
305,0.0160712711513042,0.137456402182579,-0.005190547555685,0.5,0.0836994051933289,0.206395789980888
306,0.0330905765295029,0.124907575547695,0.0079624727368354,0.5,0.101544350385666,0.188542723655701
307,0.0295437928289175,0.0903608575463295,0.0010026384843513,0.5,0.102975875139236,0.1617731153965
308,0.0136322285979986,0.0503749698400497,-0.0112080164253712,0.5,0.0932926312088966,0.148013696074486
309,-0.0003643395612016,0.0288610514253378,-0.0166645683348179,0.5,0.080219104886055,0.164045795798302
310,-0.0079620480537414,0.0372594371438026,-0.0179241448640823,0.5,0.0698902010917664,0.197596281766891
311,-0.0086248600855469,0.0708082988858223,-0.0206812918186188,0.5,0.071439653635025,0.23408916592598
312,-0.0027681104838848,0.103620409965515,-0.0257193613797426,0.5,0.0897301286458969,0.258492678403854
313,0.0078004412353038,0.115264303982258,-0.0277315620332956,0.5,0.117167450487614,0.254024416208267
314,0.0196430739015341,0.112887047231197,-0.0266207177191973,0.5,0.135892793536186,0.223355636000633
315,0.0246436726301908,0.10767113417387,-0.0344204157590866,0.5,0.127559334039688,0.180732041597366
316,0.0172382369637489,0.0993756651878357,-0.0538100712001324,0.5,0.0925978794693947,0.141435950994492
317,0.0061533283442258,0.0842830464243889,-0.0676313787698746,0.5,0.0610290542244911,0.124587938189507
318,0.0024420078843832,0.0644383206963539,-0.0622523054480553,0.5,0.0598082356154919,0.137357831001282
319,0.0023580465931445,0.0473514497280121,-0.0447116233408451,0.5,0.0834414437413216,0.162761032581329
320,-0.0027201890479773,0.0348956882953644,-0.0316622704267502,0.5,0.113489203155041,0.177774727344513
321,-0.0080733308568596,0.0233299192041159,-0.0293405652046204,0.5,0.139565661549568,0.181434825062752
322,-0.0023952224291861,0.015031561255455,-0.0352220460772514,0.5,0.150219112634659,0.186858519911766
323,0.0067016840912401,0.0215457156300545,-0.0527126789093018,0.5,0.124317109584808,0.18658658862114
324,0.0001882908691186,0.0531011112034321,-0.0796892791986465,0.5,0.0607607662677765,0.167324021458626
325,-0.0203251298516989,0.102683000266552,-0.0967749729752541,0.5,-0.0011791674187406,0.143467620015144
326,-0.0399265699088573,0.144517660140991,-0.0901795327663422,0.5,-0.0241343397647142,0.134582489728928
327,-0.0509795472025871,0.161411926150322,-0.0656081810593605,0.5,-0.0084700845181942,0.148788213729858
328,-0.0488213114440441,0.157048791646957,-0.0340067707002163,0.5,0.0251566786319017,0.186651825904846
329,-0.0331973917782307,0.139800503849983,-0.0017960594268515,0.5,0.0599398650228977,0.231250420212746
330,-0.012096275575459,0.115819610655308,0.022385261952877,0.5,0.0862884745001793,0.251407474279404
331,0.0070879603736102,0.0899103432893753,0.0291310455650091,0.5,0.10131960362196,0.226512566208839
332,0.0215849056839943,0.0721576809883118,0.024037703871727,0.40302237868309,0.110589168965817,0.175979033112526
333,0.0271961614489555,0.0652855113148689,0.0149073787033558,0.5,0.114323154091835,0.133727580308914
334,0.0169878173619509,0.056687269359827,-0.0011554496595636,0.5,0.105698093771935,0.108421109616756
335,-0.0067959381267428,0.0488821566104889,-0.0192002467811108,0.5,0.0940894782543182,0.105032868683338
336,-0.0308050625026226,0.0576038844883442,-0.0311858877539635,0.5,0.0952743738889694,0.124674886465073
337,-0.0417224876582623,0.0776013284921646,-0.0402136743068695,0.5,0.103240855038166,0.140877559781075
338,-0.0320326946675777,0.0888413265347481,-0.0493364669382572,0.5,0.0997356772422791,0.134218245744705
339,-0.0085625732317566,0.090851753950119,-0.052916269749403,0.5,0.0819589719176292,0.124104984104633
340,0.0105395773425698,0.097021259367466,-0.0456833243370056,0.5,0.0636304169893265,0.137689158320427
341,0.0128640905022621,0.107543438673019,-0.0339841954410076,0.5,0.0544288568198681,0.172259107232094
342,-0.0028586937114596,0.114303305745125,-0.0287132170051336,0.5,0.0547421239316463,0.19966422021389
343,-0.0251186043024063,0.116387106478214,-0.0276526417583227,-0.0203672926872969,0.0610998086631298,0.201781466603279
344,-0.0369525142014027,0.122813537716866,-0.0186871476471424,-0.5,0.069152370095253,0.189723789691925
345,-0.0337635651230812,0.133988752961159,-0.0021692896261811,-0.5,0.0747663304209709,0.179794549942017
346,-0.0274514742195606,0.132386192679405,0.00779126631096,-0.5,0.0724279880523682,0.16868956387043
347,-0.0328888557851315,0.110430724918842,0.0034733801148831,-0.5,0.0636932849884033,0.147962331771851
348,-0.0484861098229885,0.0830983817577362,-0.0099495248869061,-0.5,0.0580243058502674,0.1269810795784
349,-0.0565489269793034,0.0604112036526203,-0.0232216082513332,-0.5,0.0586213991045952,0.123334378004074
350,-0.0488292910158634,0.0400081425905228,-0.0331428349018097,-0.5,0.0591054074466228,0.143749713897705
351,-0.0353328324854374,0.0265311896800995,-0.0433705486357212,-0.5,0.0520838908851147,0.168648689985275
352,-0.0236064847558737,0.0273081380873919,-0.0522790625691414,-0.5,0.0415387861430645,0.164035215973854
353,-0.0097849546000361,0.0392489172518253,-0.0571350604295731,-0.5,0.035989336669445,0.128858208656311
354,0.0097740804776549,0.0516386665403843,-0.0620358698070049,-0.5,0.0388831570744514,0.0943714454770088
355,0.0304585788398981,0.0568655133247375,-0.0593921914696693,-0.5,0.0595485344529152,0.0838065072894096
356,0.0442684069275856,0.0556936264038086,-0.0383627377450466,-0.5,0.0989992395043373,0.0987888798117638
357,0.0458391606807709,0.0506686456501484,-0.0144609715789557,-0.5,0.131599232554436,0.125291511416435
358,0.0302326716482639,0.04439752176404,-0.0083790235221386,-0.5,0.131354928016663,0.145018607378006
359,0.0031871621031314,0.0416370704770088,-0.0142591902986169,-0.5,0.10405757278204,0.149567231535912
360,-0.0107770236209035,0.0442731119692326,-0.0170648489147425,-0.5,0.0832653269171715,0.142552673816681
361,-0.0028725708834826,0.0521625019609928,-0.0204460229724646,-0.5,0.0872993767261505,0.131896659731865
362,0.0047576744109392,0.0635170117020607,-0.0386807583272457,-0.5,0.0935732573270798,0.121418051421642
363,-0.0034457766450941,0.0728536769747734,-0.0663837566971779,-0.5,0.0752843394875526,0.11164578795433
364,-0.0217880588024855,0.0786347836256027,-0.0804099887609482,-0.5,0.0384627878665924,0.107237569987774
365,-0.0381693281233311,0.0862062051892281,-0.0728548541665077,-0.5,0.0077150999568402,0.110573783516884
366,-0.0468582808971405,0.0943060293793678,-0.0583719536662102,-0.5,-0.0062868520617485,0.113963708281517
367,-0.051635418087244,0.0913119167089462,-0.0520397126674652,-0.5,-0.0103049296885729,0.104853563010693
368,-0.057226087898016,0.0707557871937752,-0.0563212148845196,-0.5,-0.0124265272170305,0.0804446265101433
369,-0.0603150427341461,0.0408611409366131,-0.0652472078800201,-0.5,-0.0144146885722876,0.0579401142895222
370,-0.0508478246629238,0.0240520741790533,-0.0667911767959595,-0.5,-0.009629150852561,0.0584811717271805
371,-0.0277015529572964,0.0388784073293209,-0.0531868189573288,-0.5,0.0091288462281227,0.0822765305638313
372,-0.0059671313501894,0.0710189491510391,-0.0343100167810917,-0.5,0.0368260517716408,0.108598992228508
373,0.0008928600582294,0.0854810625314713,-0.026088047772646,-0.5,0.0590002350509167,0.121681749820709
374,-0.0008002549293451,0.069097712635994,-0.033195786178112,-0.5,0.0687805190682411,0.122439332306385
375,0.0026205778121948,0.0365495346486568,-0.0541325137019157,-0.5,0.0673411637544632,0.10314703732729
376,0.0099614029750227,0.0074550174176693,-0.085569903254509,-0.5,0.0514966584742069,0.0572957023978233
377,0.0119300363585353,-0.0072026527486741,-0.116129040718079,-0.5,0.0210658330470324,0.0092751607298851
378,0.0098186219111084,-0.0062861898913979,-0.135518163442612,-0.5,-0.0103219728916883,-0.015613866969943
379,0.0124815003946424,0.001463278545998,-0.141038715839386,-0.5,-0.0214510001242161,-0.0161850899457932
380,0.0181124620139599,0.00648088240996,-0.133942857384682,-0.5,-0.0078390007838606,-0.0023181785363704
381,0.0153885874897242,0.0091749066486954,-0.125187590718269,-0.5,0.0043883346952498,0.0151827819645405
382,0.0032646369654685,0.010819518007338,-0.126113399863243,-0.5,-0.0063153402879834,0.0334639549255371
383,-0.0071375295519828,0.0112411752343178,-0.13037234544754,-0.5,-0.0252497158944607,0.0470815449953079
384,-0.0113657545298338,0.0141984671354294,-0.126346185803413,-0.5,-0.0280351713299751,0.0394959896802902
385,-0.0159957073628902,0.0248995572328568,-0.11693674325943,-0.5,-0.0134659763425589,0.007502342108637
386,-0.0238858852535486,0.0446119755506516,-0.112074859440327,-0.5,0.0050198128446936,-0.0319083854556084
387,-0.0284227654337883,0.0652274414896965,-0.111942775547504,-0.5,0.0207974668592215,-0.0580923818051815
388,-0.0255297720432281,0.0763742476701736,-0.115028120577335,-0.5,0.0299809947609901,-0.0653987526893616
389,-0.0151834543794394,0.0728622823953629,-0.125824481248856,-0.5,0.0325763002038002,-0.0695269927382469
390,0.0098524037748575,0.0591587238013744,-0.139724597334862,-0.5,0.0401281341910362,-0.0753920897841454
391,0.0442203767597675,0.0426437854766846,-0.151534155011177,-0.5,0.0484123341739178,-0.0701122730970383
392,0.0612558238208294,0.0190810095518827,-0.168750748038292,-0.5,0.036485031247139,-0.067238062620163
393,0.0487907938659191,-0.0137715535238385,-0.194924488663673,-0.5,0.0057798521593213,-0.0948351919651031
394,0.022420497611165,-0.0450997948646545,-0.218669012188911,-0.5,-0.0169904045760632,-0.140084877610207
395,0.0033857801463455,-0.0617895685136318,-0.227139726281166,-0.5,-0.015359123237431,-0.163567304611206
396,-0.0018443561857566,-0.0589845441281796,-0.222649827599525,-0.5,-0.0033395956270396,-0.151363164186478
397,0.0043205884285271,-0.0442494861781597,-0.213824793696404,-0.5,0.0043324008584022,-0.120742991566658
398,0.0239961408078671,-0.029837416484952,-0.206673681735992,-0.24927319586277,0.0103637604042888,-0.0977062657475472
399,0.0550889708101749,-0.02363664470613,-0.210170403122902,0.117746837437153,0.0121231060475111,-0.0974849760532379
400,0.0770642012357712,-0.0236408915370703,-0.232391908764839,0.315360605716705,-0.0048437383957207,-0.117848359048367
401,0.0658668577671051,-0.0231597423553467,-0.269835233688354,0.366716325283051,-0.0478307604789734,-0.153071045875549
402,0.0305562727153301,-0.0260465238243341,-0.30080372095108,0.387583136558533,-0.0957764610648155,-0.195167005062103
403,0.0052514048293232,-0.0357863008975983,-0.301158308982849,0.465956449508667,-0.115114219486713,-0.224926918745041
404,0.0046490151435136,-0.0371069498360157,-0.26984891295433,0.5,-0.0968290269374847,-0.22695317864418
405,0.0145775713026524,-0.0180925745517015,-0.229420408606529,0.476113051176071,-0.0623243078589439,-0.21237887442112
406,0.0177193935960531,0.0045075248926878,-0.201750367879868,0.185059204697609,-0.0370199978351593,-0.205416917800903
407,0.0149276806041598,0.0117564797401428,-0.187453776597977,-0.227315679192543,-0.0190961491316557,-0.208424657583237
408,0.0200425758957863,0.0123406639322639,-0.175512880086899,-0.5,0.0114438673481345,-0.207530602812767
409,0.0408479124307632,0.0183741133660078,-0.161386638879776,-0.5,0.0569378025829792,-0.195552706718445
410,0.0695081204175949,0.0210791490972042,-0.150263965129852,-0.5,0.0962277725338936,-0.172582134604454
411,0.0904173702001572,0.0085348924621939,-0.150648012757301,-0.5,0.106806829571724,-0.139117076992989
412,0.0980133265256882,-0.0119330622255802,-0.160888180136681,-0.5,0.0881480053067207,-0.101692788302898
413,0.0919198766350746,-0.0186631307005882,-0.174220457673073,-0.5,0.0573276616632938,-0.0863560885190964
414,0.0702623352408409,-0.0048100389540195,-0.19752348959446,-0.5,0.0213090591132641,-0.118562132120132
415,0.0434735380113125,0.015033645555377,-0.231552958488464,-0.5,-0.0140734408050776,-0.177598282694817
416,0.0287376008927822,0.0299335420131683,-0.247565656900406,-0.5,-0.0207589659839869,-0.211935877799988
417,0.0326088778674603,0.0328161716461182,-0.222623646259308,-0.5,0.0221084896475077,-0.210675612092018
418,0.0469988510012627,0.0170966442674398,-0.172584801912308,-0.5,0.0946725830435753,-0.203802198171616
419,0.0599962025880814,-0.0130237555131316,-0.127659618854523,-0.5,0.155975997447968,-0.202590748667717
420,0.0637055188417435,-0.04955143481493,-0.103035256266594,-0.5,0.178045615553856,-0.192425280809402
421,0.0522038787603378,-0.0835029929876328,-0.10033093392849,-0.5,0.156849220395088,-0.174743741750717
422,0.0268212258815765,-0.102756261825562,-0.113289624452591,-0.5,0.109774187207222,-0.17171785235405
423,0.0003986125520896,-0.0982176512479782,-0.125665724277496,-0.5,0.0673012137413025,-0.182970821857452
424,-0.0125277964398265,-0.0697169229388237,-0.122507520020008,-0.5,0.0527343302965164,-0.185997009277344
425,-0.0110755739733577,-0.0325185619294643,-0.109593160450459,-0.5,0.0630421489477158,-0.169322118163109
426,-0.0071345209144055,-0.0027792619075626,-0.103638015687466,-0.5,0.0815572664141655,-0.13176403939724
427,-0.0093421190977096,0.0181907750666142,-0.107484355568886,-0.5,0.100835435092449,-0.083696186542511
428,-0.0156132318079472,0.024344589561224,-0.112683601677418,-0.5,0.118605963885784,-0.0482184328138828
429,-0.0244071576744318,0.003481755265966,-0.119895920157433,-0.5,0.125626757740974,-0.0371774397790432
430,-0.0351459644734859,-0.040623415261507,-0.137029737234116,-0.5,0.11217325180769,-0.0491542927920818
431,-0.0391497798264027,-0.0894008427858353,-0.154424116015434,-0.5,0.0876200348138809,-0.0795365646481514
432,-0.0298401080071926,-0.114530742168427,-0.145027592778206,-0.5,0.0802633687853813,-0.109175965189934
433,-0.0095262378454208,-0.0970859527587891,-0.101609215140343,-0.5,0.106387406587601,-0.110664859414101
434,0.0095766233280301,-0.0557758770883083,-0.0516169182956219,-0.5,0.147691681981087,-0.0770777687430382
435,0.013038114644587,-0.0236333403736353,-0.0193175803869963,-0.5,0.175394237041473,-0.0246412716805935
436,0.0041549270972609,-0.0081120301038026,0.0005603096215054,-0.254089057445526,0.18915531039238,0.022238202393055
437,-0.0007238446269184,0.0016651265323162,0.0190167743712664,0.284165143966675,0.204704791307449,0.0494534708559513
438,0.0047136857174336,0.0122678708285093,0.0309226233512163,0.5,0.216908410191536,0.0630018413066864
439,0.0120921153575182,0.0267744436860085,0.0264043472707272,0.452114015817642,0.211326718330383,0.0583019889891148
440,0.0128552662208676,0.0355492457747459,0.0050516379997134,0.348362356424332,0.188564047217369,0.0197715051472187
441,0.0053874514997005,0.0159500204026699,-0.0236860476434231,0.365524679422379,0.157261162996292,-0.041576262563467
442,-0.0095936320722103,-0.0338502377271652,-0.0456265024840832,0.5,0.132307097315788,-0.0979525744915009
443,-0.022192882373929,-0.090881310403347,-0.0546916946768761,0.5,0.128083050251007,-0.132303789258003
444,-0.0168470349162817,-0.13249771296978,-0.0584190115332603,0.5,0.142172932624817,-0.140969574451447
445,0.0006152882124297,-0.14904996752739,-0.0611810237169266,0.5,0.161559849977493,-0.124524630606174
446,0.0101550063118339,-0.139340773224831,-0.0521901957690716,0.5,0.172466233372688,-0.0780180916190147
447,0.0062996898777782,-0.104099333286285,-0.0227374676615,0.5,0.166267171502113,-0.001947948243469
448,-0.0059625334106385,-0.0545136705040932,0.0138282049447298,0.5,0.144927263259888,0.0729598104953766
449,-0.020686911419034,-0.0140394661575556,0.0337800271809101,0.5,0.117695979773998,0.109808854758739
450,-0.0304084029048681,0.004961512517184,0.0314526408910751,0.5,0.0955892354249954,0.108132489025593
451,-0.0320481173694134,0.0121952584013343,0.0239222887903452,0.5,0.0863830968737602,0.0919844880700111
452,-0.0258289221674204,0.0182069912552834,0.027324490249157,0.5,0.0951261892914772,0.0815188139677048
453,-0.0112784625962377,0.0194211080670357,0.0386029481887817,0.5,0.121898107230663,0.0746705308556557
454,0.0025056686718016,0.0062885237857699,0.0409889668226242,0.5,0.151754662394524,0.0496408827602863
455,0.000280426669633,-0.0201459173113108,0.0316640064120293,0.5,0.173271998763084,0.003293247660622
456,-0.0157901421189308,-0.0455742999911308,0.0314153432846069,0.5,0.195980116724968,-0.0311723630875349
457,-0.0257463324815035,-0.0566678792238235,0.0499851815402508,0.5,0.220478504896164,-0.023917505517602
458,-0.0208420623093843,-0.0526361241936684,0.0678554326295853,0.5,0.225691348314285,0.0129897659644485
459,-0.0192376021295786,-0.0451501831412315,0.0599686689674854,0.5,0.194449812173843,0.039375077933073
460,-0.0388197973370552,-0.0503231547772884,0.0255170874297619,0.262987941503525,0.134957119822502,0.0283343940973282
461,-0.0623012222349644,-0.0689285546541214,-0.002791000297293,0.114414796233177,0.0859976559877396,-0.0034693104680627
462,-0.0514567084610462,-0.0774901136755943,0.0080285854637622,0.0946094021201134,0.08428705483675,-0.0176381729543209
463,-0.001163953449577,-0.0598947815597057,0.0511938184499741,0.0846467539668083,0.123356431722641,0.0002117925323545
464,0.048075757920742,-0.0328515283763409,0.0915524810552597,0.0725240483880043,0.165266826748848,0.0349520109593868
465,0.0636491253972054,-0.0250905938446522,0.10659359395504,0.182069405913353,0.182590454816818,0.067998431622982
466,0.0508862733840942,-0.0397996678948402,0.102329269051552,0.487682938575745,0.177166655659676,0.0977765917778015
467,0.0264943744987249,-0.0551190599799156,0.0943195149302483,0.5,0.164765015244484,0.120931379497051
468,0.0009691935265436,-0.0568925105035305,0.0862931981682777,0.5,0.151582568883896,0.119094483554363
469,-0.0203568320721388,-0.0492994897067547,0.0699883550405502,0.5,0.128765478730202,0.0818324238061905
470,-0.0405767038464546,-0.0409122258424759,0.0422132350504398,0.5,0.0914864093065262,0.0241171754896641
471,-0.0578982308506966,-0.0256959274411201,0.0237920004874468,0.5,0.0615959167480469,-0.0095897167921066
472,-0.0598730593919754,0.0082262754440307,0.0363403670489788,0.5,0.0698009580373764,0.021875124424696
473,-0.0441726595163345,0.051298301666975,0.0623021274805069,0.23753909766674,0.113473296165466,0.0995637848973274
474,-0.0212047975510359,0.0801706612110138,0.0717023462057114,-0.26052251458168,0.156602084636688,0.161510437726974
475,-0.0044200886040926,0.0818065330386162,0.0655133798718452,-0.5,0.170947894454002,0.174752131104469
476,-0.0043674474582076,0.0589135847985744,0.0607920587062836,-0.5,0.158183380961418,0.150573298335075
477,-0.0198307316750288,0.0251871589571238,0.0622422955930233,-0.5,0.133954346179962,0.112951695919037
478,-0.0438173860311508,-0.0061520906165242,0.0639547929167748,-0.488756060600281,0.109322510659695,0.0720686092972755
479,-0.0720367506146431,-0.0336906351149082,0.0602623634040356,-0.161462038755417,0.0866657197475433,0.0236283671110868
480,-0.0979238077998161,-0.058053445070982,0.047163650393486,0.110807247459888,0.0634259209036827,-0.0287679526954889
481,-0.110808312892914,-0.0707899630069733,0.0272144358605146,0.308647900819778,0.0415803343057632,-0.0638593956828117
482,-0.10610581189394,-0.0655579194426537,0.0125909307971597,0.46810981631279,0.0269999653100967,-0.0542165078222752
483,-0.0942072421312332,-0.0532463416457176,0.0044944952242076,0.5,0.0140023902058601,-0.0060239462181925
484,-0.0886029303073883,-0.0526488684117794,-0.0089049860835075,0.3566934466362,-0.0031698318198323,0.0285071041435003
485,-0.0848571807146072,-0.0648357942700386,-0.0189141314476728,-0.0279692485928535,-0.0056616179645061,0.0240559112280607
486,-0.0705919936299324,-0.0749290958046913,-0.0080590834841132,-0.44279807806015,0.0176752582192421,0.0127616180106997
487,-0.0486958660185337,-0.0727724656462669,0.0161046292632818,-0.5,0.042924489825964,0.0235752742737532
488,-0.0259674731642008,-0.0608570724725723,0.0366417914628983,-0.5,0.0517219752073288,0.0532964393496513
489,-0.0031589507125318,-0.0487241968512535,0.0456007495522499,-0.5,0.0550932139158249,0.0830144137144089
490,0.0115190483629704,-0.0358877927064896,0.0410419031977654,-0.5,0.0678563266992569,0.0952988415956497
491,0.0057472959160804,-0.0163905080407858,0.0256825890392065,-0.5,0.0830214694142342,0.0863274559378624
492,-0.0205359943211079,0.0007283797021955,0.0078329090029001,-0.5,0.0789579525589943,0.0652585104107857
493,-0.0546550117433071,0.0062165157869458,-0.0006154672591947,-0.5,0.050862830132246,0.0455943308770657
494,-0.0798773989081383,0.0090840114280581,0.008764854632318,-0.5,0.0203897915780544,0.0389162264764309
495,-0.0881782844662666,0.0166190657764673,0.0323733761906624,-0.5,0.0087757911533117,0.0475536212325096
496,-0.08478944003582,0.0192963294684887,0.0582410991191864,-0.5,0.0198326744139194,0.0672172382473946
497,-0.0768444165587425,0.0059780646115541,0.076403021812439,-0.5,0.0456444099545479,0.0910759270191193
498,-0.0715990662574768,-0.0269879568368196,0.074876181781292,-0.5,0.0696736574172974,0.104601003229618
499,-0.0726762562990189,-0.0755660310387611,0.0432741604745388,-0.5,0.0764245018362999,0.087689682841301
500,-0.0760347917675972,-0.123646222054958,-0.0064487596973776,-0.5,0.059651043266058,0.0314210094511509
501,-0.0798667892813683,-0.149271115660667,-0.0470137149095535,-0.5,0.0225860625505447,-0.0389015339314938
502,-0.0849128663539886,-0.142380595207214,-0.0648357570171356,-0.5,-0.0189617294818163,-0.0789295062422752
503,-0.0906803756952286,-0.108976185321808,-0.0616027899086475,-0.5,-0.0450514070689678,-0.0651087164878845
504,-0.0912429466843605,-0.0560406297445297,-0.0384803302586079,-0.5,-0.0449244193732738,-0.0019078844925388
505,-0.0776163041591644,0.007889661937952,0.0025528669357299,-0.5,-0.0208716094493866,0.0898268520832062
506,-0.0544524528086185,0.062910757958889,0.0479781962931156,-0.5,0.016709266230464,0.17360532283783
507,-0.0358593836426735,0.0902446880936623,0.0784842222929001,-0.5,0.0526439063251019,0.21569450199604
508,-0.0285890996456146,0.0821624472737312,0.0840905010700226,-0.5,0.0674261227250099,0.213844791054726
509,-0.0323754772543907,0.0445683635771275,0.06805070489645,-0.5,0.0543044470250607,0.184487640857697
510,-0.0446812659502029,-0.0013665455626323,0.0416728630661964,-0.5,0.0308808498084545,0.142921134829521
511,-0.0601638779044151,-0.0364862754940987,0.0183970555663109,-0.5,0.0182518716901541,0.10452900826931
512,-0.0703616365790367,-0.0504169911146164,0.0089132385328412,-0.5,0.0192652642726898,0.0825057402253151
513,-0.0718789473176003,-0.0381479486823082,0.0163732655346394,-0.5,0.0264163222163916,0.0853761211037636
514,-0.0721230357885361,-0.0176577400416136,0.0303124114871025,-0.5,0.0322189442813396,0.10525880753994
515,-0.0746470242738724,-0.0190860349684954,0.0353819169104099,-0.5,0.0319317802786827,0.108260206878185
516,-0.072293683886528,-0.0433712713420391,0.0276583172380924,-0.5,0.0290097892284393,0.0718141570687294
517,-0.0608203448355198,-0.0670047253370285,0.0139483874663711,-0.125998541712761,0.0325972959399223,0.0217179041355848
518,-0.0461930707097054,-0.0744906440377235,0.0013608819572255,0.0908924713730812,0.0464979074895382,-0.001619154587388
519,-0.0349494144320488,-0.0619264245033264,-0.0080225653946399,0.133227810263634,0.0625331699848175,0.0070595890283584
520,-0.0281269140541554,-0.0341368243098259,-0.0129229184240103,0.150932237505913,0.0680762529373169,0.0265321508049965
521,-0.0299675557762384,-0.0068627460859715,-0.0113482419401407,0.162226870656013,0.0608606673777103,0.0438212901353836
522,-0.038796178996563,0.0098831066861748,-0.002782047027722,0.142324507236481,0.0514869354665279,0.0569919981062412
523,-0.0421460531651974,0.0160825829952955,0.0069560944102704,0.100361123681068,0.0456954576075077,0.0611018463969231
524,-0.0368938073515892,0.0089003732427954,0.0071154912002384,0.0506999269127846,0.0394117161631584,0.0550320073962212
525,-0.033477284014225,-0.0091038672253489,-0.0064757489599287,-0.0563724935054779,0.0263860430568457,0.0506924577057362
526,-0.0409846641123295,-0.0256657674908638,-0.0237793922424316,-0.252607345581055,0.0054815392941236,0.0642241388559341
527,-0.0543514117598534,-0.0278126504272223,-0.0241333860903978,-0.462385594844818,-0.0106197828426957,0.0987429842352867
528,-0.0635138154029846,-0.0133578544482589,-0.0016275759553536,-0.5,-0.0107753546908498,0.133092507719994
529,-0.0689080283045769,-0.0019845759961754,0.0232614073902369,-0.5,-0.002445105696097,0.142257928848267
530,-0.0720876827836037,-0.0096154920756816,0.0332447849214077,-0.5,0.0018508963985368,0.125195860862732
531,-0.0664825290441513,-0.0224771592766047,0.0294567327946424,-0.5,0.0019088181434199,0.100071728229523
532,-0.0457854904234409,-0.0195817332714796,0.0186221823096275,-0.435685843229294,0.006079408340156,0.0837609693408012
533,-0.0160952247679234,0.0009386809542775,0.0072005982510745,-0.171223938465118,0.018278369680047,0.0759942755103111
534,0.0051288343966007,0.022081246599555,-0.0037285797297954,-0.154452160000801,0.0333684086799622,0.0634011626243591
535,0.009161633439362,0.0265750084072351,-0.0169066376984119,-0.337249010801315,0.0438306666910648,0.0431928150355816
536,0.0046537294983863,0.0136851016432047,-0.0309961084276438,-0.457441687583923,0.0496060624718666,0.0290248151868582
537,0.0052734604105353,-0.0091658504679799,-0.0456626787781715,-0.38466078042984,0.0572085939347744,0.027967581525445
538,0.0112142758443952,-0.0415455028414726,-0.0603078417479992,-0.211284607648849,0.0623224005103111,0.0295866020023823
539,0.0080571807920932,-0.0826297849416733,-0.0636278465390205,-0.0305024217814207,0.052159134298563,0.0248351953923702
540,-0.0035306334029883,-0.114086143672466,-0.0379628390073776,0.191399410367012,0.0361600741744041,0.0248736459761858
541,-0.0039319335483014,-0.110246330499649,0.0171857737004757,0.4819515645504,0.0363097414374352,0.0546782873570919
542,0.0081845885142684,-0.0724569261074066,0.0734680071473122,0.5,0.0516035109758377,0.116255842149258
543,0.0153623754158616,-0.0278991609811783,0.104555487632751,0.5,0.065217636525631,0.176435023546219
544,0.010415050201118,0.0053978413343429,0.1082384288311,0.5,0.0667169019579887,0.207002073526382
545,-0.0049123135395348,0.0281508825719357,0.0924232602119446,0.5,0.0562098287045956,0.201395869255066
546,-0.0247400980442762,0.0441984571516514,0.0693487077951431,0.5,0.0423848889768124,0.167289048433304
547,-0.038223709911108,0.0494198724627495,0.0494745783507824,0.5,0.0332316905260086,0.119673706591129
548,-0.042434249073267,0.034740436822176,0.0282167345285416,0.5,0.0255006775259972,0.0637073069810867
549,-0.0457057468593121,0.0016996567137539,0.0031678869854658,0.5,0.0174084547907114,0.0094107398763299
550,-0.0530188605189323,-0.0312605313956738,-0.0090526370331645,0.5,0.0161917433142662,-0.0172870550304651
551,-0.0587817542254925,-0.0475909747183323,0.0017645973712205,0.5,0.0189649630337954,-0.0007042268407531
552,-0.05855568125844,-0.0455417335033417,0.0194110292941332,0.5,0.0120611051097512,0.0439111776649952
553,-0.0544607900083065,-0.0337338075041771,0.0198149960488081,0.5,-0.0103299356997013,0.0723071619868279
554,-0.0432511605322361,-0.0227291751652956,-0.0012643996160477,0.5,-0.0341848991811275,0.0559871457517147
555,-0.0223061703145504,-0.0109931109473109,-0.0270684156566858,0.5,-0.0327090956270695,0.0147321848198771
556,-0.0032452249433845,0.0059630339965224,-0.0442879237234592,0.5,0.0047838552854955,-0.019037839025259
557,0.0133020225912333,0.0162923727184534,-0.0486588887870312,0.5,0.0622602999210358,-0.0267994664609432
558,0.0381922647356987,0.0076741534285247,-0.0355322510004044,0.5,0.112729482352734,-0.0008510699262842
559,0.0559078752994537,-0.0160049013793468,-0.012368499301374,0.5,0.129227548837662,0.0418251566588879
560,0.0454035922884941,-0.0367659814655781,0.0035847784020006,0.5,0.100653246045113,0.0753523930907249
561,0.0159579124301672,-0.0338855423033237,0.0079291993752121,0.5,0.0470069348812103,0.103639274835587
562,-0.0104923499748111,-0.0055084321647882,0.0084036858752369,0.5,0.0020861106459051,0.143224135041237
563,-0.0265123080462217,0.031458280980587,0.0095829870551824,0.5,-0.0193270388990641,0.183155447244644
564,-0.0385049320757389,0.0558583810925484,0.0079658152535557,0.5,-0.0259495917707682,0.191462501883507
565,-0.0447018221020699,0.0549706146121025,0.0044028833508491,0.5,-0.022262142971158,0.160306736826897
566,-0.0365005806088448,0.0359864421188831,0.0042630014941096,0.5,-0.0039602997712791,0.118477389216423
567,-0.0205668676644564,0.0156503207981586,0.0043330704793334,0.5,0.0227986723184586,0.0908153131604195
568,-0.0089215617626905,0.0027552044484764,-0.0036418195813894,0.5,0.0434448160231113,0.0766645669937134
569,-0.0090479040518403,-0.0099900308996439,-0.0332477353513241,0.5,0.0367643795907497,0.0600917004048824
570,-0.0316746272146702,-0.0337216556072235,-0.0917642042040825,0.5,-0.0097270468249917,0.0180980823934078
571,-0.0697612836956978,-0.0604930557310581,-0.151384562253952,0.5,-0.0698028579354286,-0.0458061508834362
572,-0.0888547450304031,-0.0704275146126747,-0.172701120376587,0.5,-0.0998557806015015,-0.0846328288316727
573,-0.0731073170900345,-0.0577677935361862,-0.153281584382057,0.5,-0.0877508893609047,-0.0735056325793266
574,-0.0434661097824574,-0.0329473540186882,-0.11487989127636,0.5,-0.0520430728793144,-0.0376081988215446
575,-0.013080321252346,-0.0037886276841163,-0.0691059827804565,0.5,-0.0088613051921129,0.0022138410713523
576,0.0244553480297327,0.0243136007338762,-0.0230439957231283,0.5,0.0358394496142864,0.0413478501141071
577,0.06800876557827,0.0392474047839642,0.0122425984591246,0.5,0.0804044753313065,0.0717328190803528
578,0.102443501353264,0.0293307211250067,0.0266786050051451,0.5,0.116472937166691,0.0883355811238289
579,0.107875682413578,-0.0005773924640379,0.0197450537234545,0.5,0.124135911464691,0.0934568122029305
580,0.0756974369287491,-0.0282665602862835,-0.0004642769927158,0.5,0.0931661874055862,0.0836017355322838
581,0.0199189074337482,-0.0418135784566402,-0.0298952274024487,0.5,0.0382187888026237,0.052814856171608
582,-0.0268976222723722,-0.038855504244566,-0.0562039017677307,0.5,-0.010926453396678,0.0195443276315928
583,-0.0391693860292435,-0.0077875955030322,-0.0600735545158386,0.5,-0.0354769937694073,0.0166956521570683
584,-0.025073179975152,0.0445475690066814,-0.0462829284369946,0.5,-0.0429509319365025,0.0503665916621685
585,-0.0093935104086995,0.0878409445285797,-0.0349608585238457,0.5,-0.0461814068257809,0.093174435198307
586,-0.0044732550159096,0.104578748345375,-0.0318199135363102,0.5,-0.0423663221299648,0.111379392445087
587,-0.0082893958315253,0.0942246615886688,-0.0291094128042459,0.5,-0.0261154137551785,0.0969389379024506
588,-0.0121791753917933,0.0651164501905441,-0.0223962031304836,0.5,-0.0029788936953991,0.0690469518303871
589,-0.0128198387101293,0.0297483764588833,-0.0230857618153095,0.5,0.0114485183730721,0.0414396710693836
590,-0.0177804175764322,-0.0037136184982955,-0.0473013445734978,0.5,0.0014820542419329,0.0140001261606812
591,-0.0274627692997456,-0.0298181939870119,-0.0873270034790039,0.5,-0.0258357338607311,-0.0140047669410706
592,-0.0268082283437252,-0.043679017573595,-0.117191024124622,0.5,-0.0450781621038914,-0.036875881254673
593,-0.008155801333487,-0.0456947609782219,-0.123950980603695,0.5,-0.0431351810693741,-0.0453498065471649
594,0.0201687943190336,-0.041052307933569,-0.108525641262531,0.5,-0.0230789501219988,-0.0379038006067276
595,0.0435691997408867,-0.0360521636903286,-0.0750828608870506,0.5,0.0057078879326582,-0.018008153885603
596,0.0448406413197517,-0.0368249900639057,-0.0361664555966854,0.5,0.0279437825083733,0.0145177319645882
597,0.0172953382134438,-0.038810919970274,-0.0105630196630955,0.5,0.0292471405118704,0.0528088063001633
598,-0.0262399278581142,-0.0345255360007286,-0.011606034822762,0.5,0.0048496262170374,0.0702948346734047
599,-0.0642295256257057,-0.0309362895786762,-0.0343052111566067,0.5,-0.0346369594335556,0.0513428971171379
600,-0.0803260430693626,-0.0302985478192568,-0.053533960133791,0.5,-0.062687985599041,0.022792199626565
601,-0.0750803127884865,-0.0276268683373928,-0.053767018020153,0.5,-0.0619388483464718,0.0083472169935703
602,-0.0643154978752136,-0.0258342940360308,-0.0526132509112358,0.5,-0.0453602820634842,-0.0092106768861413
603,-0.0574148669838905,-0.0223781783133745,-0.0667384639382362,0.5,-0.0294765885919333,-0.0396506488323212
604,-0.0465778484940529,-0.0159512013196945,-0.0821596160531044,0.5,-0.0112942485138774,-0.0658567100763321
605,-0.0250730365514755,-0.0159990396350622,-0.0797377526760101,0.5,0.012424067594111,-0.0758350640535355
606,-0.0032940953969955,-0.0246628951281309,-0.063814140856266,0.5,0.0290086213499308,-0.0749680548906326
607,0.0038069090805947,-0.0367469377815723,-0.0567262955009937,0.5,0.022116407752037,-0.0782849565148354
608,-0.0031754099763929,-0.0471449494361877,-0.0703084692358971,0.5,-0.0053350669331848,-0.0841641128063202
609,-0.0132088242098689,-0.0456292070448399,-0.0893300771713257,0.5,-0.0289794821292162,-0.0740292966365814
610,-0.0196131058037281,-0.0293648559600115,-0.0924950689077377,0.5,-0.0300540644675493,-0.0463495180010796
611,-0.0212566871196032,-0.0165785104036331,-0.0857724621891975,0.5,-0.0172787364572287,-0.027654780074954
612,-0.0143918665125966,-0.0256523657590151,-0.0852625221014023,0.5,-0.0014208612265065,-0.0385711640119553
613,0.007918631657958,-0.0533645898103714,-0.0850680470466614,0.5,0.0271011330187321,-0.0618799775838852
614,0.0387997254729271,-0.0814191028475761,-0.0775251835584641,0.5,0.0643002763390541,-0.0678420513868332
615,0.0608058571815491,-0.0936184376478195,-0.0696357190608978,0.5,0.0861306563019753,-0.054809994995594
616,0.0634275525808334,-0.0864100232720375,-0.0663837492465973,0.5,0.0835291892290115,-0.0457154624164104
617,0.0422940254211426,-0.0709559321403503,-0.0658321753144264,0.5,0.0618943832814693,-0.0514979660511017
618,0.0052170953713357,-0.060444537550211,-0.0662183314561844,0.5,0.0273802261799574,-0.0560832396149635
619,-0.027950631454587,-0.0515861995518208,-0.0609700866043568,0.5,-0.0069334683939814,-0.0416246801614761
620,-0.0455820709466934,-0.0327378250658512,-0.0416195318102837,0.5,-0.0243680458515882,-0.008608647622168
621,-0.0508339628577232,-0.0030193850398063,-0.0151789300143719,0.5,-0.0213800854980946,0.0276292525231838
622,-0.0481237880885601,0.0275582391768694,0.0010724400635808,0.5,-0.0090778591111302,0.0524096339941025
623,-0.0385287292301655,0.0480241291224957,0.0009735312778502,0.309019535779953,-0.0027074385434389,0.0557213723659515
624,-0.0298149045556784,0.0478961616754532,-0.0115366000682116,0.298860669136047,-0.0146431801840663,0.0257720313966274
625,-0.0294767022132874,0.0176972262561321,-0.034091304987669,0.5,-0.0405183620750904,-0.0338872484862804
626,-0.028331222012639,-0.0343249104917049,-0.0570540875196457,0.5,-0.0543794594705105,-0.097877524793148
627,-0.0136251226067543,-0.0792217403650284,-0.065734475851059,0.5,-0.0403564311563969,-0.143722534179688
628,0.0078925415873527,-0.0938006043434143,-0.0623785778880119,0.5,-0.0161108411848545,-0.16549077630043
629,0.0223918873816729,-0.0790370255708694,-0.0619514808058739,0.5,-0.0062393960542976,-0.165948644280434
630,0.0294857863336802,-0.0549348033964634,-0.0663833767175674,0.5,-0.007691646926105,-0.146664336323738
631,0.0332265719771385,-0.0402411185204983,-0.0587825775146484,0.5,0.0020699517335742,-0.107651866972446
632,0.0319961570203304,-0.0347254015505314,-0.0349740944802761,0.5,0.0261777155101299,-0.0591506995260715
633,0.0223148427903652,-0.0257715135812759,-0.0170529372990131,0.5,0.0405633039772511,-0.0178302843123674
634,0.0117361005395651,-0.0033827456645667,-0.0138973733410239,0.5,0.0360978431999683,0.0187146291136742
635,0.016544645652175,0.0349660292267799,-0.0076628793030977,0.5,0.0354116335511208,0.0599090121686459
636,0.034241683781147,0.0799583420157433,0.0114420205354691,0.5,0.0540284104645252,0.0933925732970238
637,0.0429849289357662,0.104712702333927,0.0296759884804487,0.5,0.0776849240064621,0.0977052971720696
638,0.0304554123431444,0.0888579562306404,0.0301227867603302,0.5,0.081369549036026,0.0664530098438263
639,0.0040885666385293,0.0474617853760719,0.0124599039554596,0.5,0.0543729960918427,0.0193514227867126
640,-0.0185885988175869,0.0109045570716262,-0.0085080666467547,0.5,0.0127394162118435,-0.0112861972302198
641,-0.020642688497901,-0.0082045886665582,-0.0148739088326693,0.5,-0.0124215614050627,-0.0169743075966835
642,0.0004055103345308,-0.020219337195158,-0.0005664388881996,0.5,-0.0068665915168821,-0.0125104766339064
643,0.0244965199381113,-0.0382514968514442,0.0182347353547812,0.5,0.0106459744274616,-0.0124368229880929
644,0.0293680019676685,-0.0576892904937267,0.0145956445485353,0.5,0.0118766175583005,-0.0291204694658518
645,0.0185651201754808,-0.0662721693515778,-0.0197157841175795,0.5,-0.0090209022164344,-0.0636848881840706
646,0.010628504678607,-0.0623147040605545,-0.0628472864627838,0.5,-0.0393447428941727,-0.0970774367451668
647,0.0093689700588583,-0.0460917726159096,-0.0882492363452911,0.5,-0.0675515830516815,-0.107150048017502
648,0.0006537158042192,-0.018408665433526,-0.0902921110391617,0.5,-0.0872070044279099,-0.0915297493338585
649,-0.0218983422964811,0.0109839681535959,-0.0751665309071541,0.5,-0.0896532610058784,-0.063806340098381
650,-0.0423008762300015,0.0300100836902857,-0.0489777475595474,0.5,-0.0656131133437157,-0.0363676585257053
651,-0.0419370643794537,0.0293015502393246,-0.0197439361363649,0.5,-0.0156972333788872,-0.0148306842893362
652,-0.0182245541363955,0.0114214969798923,0.0045653535053134,0.5,0.0471924319863319,0.0017235780833289
653,0.0107752755284309,-0.0104893557727337,0.0128235137090087,0.5,0.0959455817937851,0.0144962379708886
654,0.0193578060716391,-0.0186060909181833,-0.002535508479923,0.5,0.103884540498257,0.0274053663015366
655,0.0063961264677345,0.0015931406524032,-0.0300119798630476,0.5,0.0719931796193123,0.0481754168868065
656,-0.0012365647125989,0.0340740345418453,-0.0465425550937653,0.5,0.0291805434972048,0.0739426165819168
657,0.0117528382688761,0.0470234900712967,-0.0412004068493843,0.5,0.0042134630493819,0.0862096101045609
658,0.0254915449768305,0.027686208486557,-0.0325975120067596,0.5,-0.0026845885440707,0.0562959536910057
659,0.0167434457689524,-0.0151507025584579,-0.0399767570197582,0.5,-0.0064061130397021,-0.0158018097281456
660,-0.0060559595003724,-0.053879626095295,-0.0410646982491016,0.5,-0.0062929312698543,-0.0768131241202354
661,-0.0155251799151301,-0.0598767027258873,-0.002416020957753,0.5,0.0110905719920993,-0.0721985548734665
662,0.0003650263533927,-0.0284628961235285,0.0652597174048424,0.5,0.0469788648188114,-0.0003548724344
663,0.0251391306519508,0.0198095291852951,0.114963829517365,0.5,0.0751224979758263,0.0840571969747543
664,0.0397324375808239,0.0651107504963875,0.116633653640747,0.5,0.0686676055192947,0.124824933707714
665,0.0455117337405682,0.102835185825825,0.0851072147488594,0.5,0.035392839461565,0.119534380733967
666,0.0526004694402218,0.125051259994507,0.0534040182828903,0.5,0.0071607390418648,0.0986783057451248
667,0.0622812397778034,0.123974770307541,0.0345879197120667,0.5,0.0012847237521782,0.0786953568458557
668,0.0631217211484909,0.104587540030479,0.0226713623851538,0.5,0.0052291038446128,0.0567448511719704
669,0.0462501607835293,0.0717260092496872,0.0168478190898895,0.5,0.0083237942308187,0.0352263823151588
670,0.0167795028537512,0.0268814135342836,0.0177699830383062,0.5,0.0138402264565229,0.018340365961194
671,-0.0138273406773806,-0.0207665748894215,0.013287709094584,0.5,0.0128478622063994,-0.0030569399241358
672,-0.0366909094154835,-0.0468022339046001,-0.0036076798569411,0.5,-0.007062982302159,-0.0247003268450499
673,-0.0493486672639847,-0.0359623096883297,-0.024796150624752,0.5,-0.0386795550584793,-0.0276905875653028
674,-0.0506741032004356,-0.0070491060614585,-0.039675235748291,0.5,-0.0575326681137085,-0.0106911770999432
675,-0.0376770198345184,0.0164719186723232,-0.0386927425861359,0.5,-0.0424780324101448,0.0190239772200584
676,-0.0101224398240447,0.0314049907028675,-0.0190370101481676,0.5,-0.0026606395840644,0.0509928725659847
677,0.0257379226386547,0.0375388190150261,0.0047704228200018,0.5,0.0318100079894066,0.0602856539189816
678,0.0504764318466187,0.0214973334223032,0.0083695575594902,0.5,0.0388151034712791,0.0268355906009674
679,0.0430062338709831,-0.0210207886993885,-0.0111258672550321,0.5,0.0194087829440832,-0.0361988507211208
680,0.0118090454488993,-0.0619713664054871,-0.0245447382330894,0.5,-0.0030824816785752,-0.081036739051342
681,-0.0103748077526689,-0.0696070566773415,-0.0088311452418565,0.5,-0.0114826364442706,-0.0683821365237236
682,-0.003941997885704,-0.0358141697943211,0.0251154322177172,0.5,-0.0073227798566222,-0.0074518863111734
683,0.0194637570530176,0.022506270557642,0.0473670400679111,0.5,-0.0026535496581345,0.0610602274537086
684,0.0347786098718643,0.0740194916725159,0.0378056354820728,0.5,-0.0131381936371326,0.105307705700397
685,0.03630655631423,0.101294718682766,0.0053764865733683,0.5,-0.0358753688633442,0.120944619178772
686,0.0371566526591778,0.105450049042702,-0.027625534683466,0.5,-0.0499999262392521,0.115855515003204
687,0.037107802927494,0.0900154113769531,-0.0532531961798668,0.5,-0.0528420619666576,0.0862099900841713
688,0.0197692178189754,0.0554413795471191,-0.0721529945731163,0.5,-0.0617258735001087,0.0279648415744305
689,-0.013988085091114,0.0047729103825986,-0.0783989578485489,0.5,-0.0731528997421265,-0.0415406376123428
690,-0.0385219790041447,-0.0495819672942162,-0.0624225921928883,0.5,-0.0596921555697918,-0.0920368880033493
691,-0.0326784290373325,-0.0878291428089142,-0.0223087724298239,0.5,-0.0117436340078712,-0.0943759605288506
692,0.0017417364288121,-0.0934327393770218,0.0320101082324982,0.5,0.0496856905519962,-0.0360009483993053
693,0.0433625504374504,-0.0674331113696098,0.0815882533788681,0.5,0.0933030694723129,0.0463949143886566
694,0.0687423124909401,-0.0264954678714275,0.106895178556442,0.5,0.0942755565047264,0.0907974243164063
695,0.07344089448452,0.0039912667125463,0.100702166557312,0.5,0.0488312095403671,0.0804633870720863
696,0.0650856122374535,0.0052541564218699,0.0697096139192581,0.5,-0.0200245697051287,0.0438156835734844
697,0.0477798394858837,-0.0031222824472934,0.0296044666320086,0.5,-0.0786182433366776,0.0171098727732897
698,0.0250057429075241,0.0115734776481986,-0.0036031694617122,-0.5,-0.10452613979578,0.0182846058160067
699,0.0073538911528885,0.0424155034124851,-0.0191688891500235,-0.5,-0.089451752603054,0.0394646860659122
700,0.0080008683726191,0.0635595768690109,-0.0121411103755236,-0.5,-0.043765340000391,0.0676069706678391
701,0.0213262718170881,0.0681799873709679,0.005710398312658,-0.5,-0.0046651512384414,0.0907052904367447
702,0.0270083323121071,0.0637617483735085,0.0121671725064516,-0.5,-0.002291863085702,0.0975489914417267
703,0.0179008580744267,0.055376835167408,0.0015658203046768,-0.5,-0.0281805098056793,0.083268828690052
704,0.0057460218667984,0.0393200665712357,-0.010698588564992,-0.5,-0.0519287101924419,0.0504916310310364
705,0.0068200184032321,0.0148950144648552,-0.0071257180534303,-0.5,-0.0491567701101303,0.0142824919894338
706,0.0211919900029898,-0.0076526310294866,0.0131930410861969,-0.5,-0.0197821389883757,-0.0040629664435982
707,0.0344775170087814,-0.0175380147993565,0.0333163514733315,-0.5,0.016072440892458,-0.0009329731110483
708,0.0367284156382084,-0.0179031919687986,0.0362078323960304,-0.5,0.0410529039800167,0.003118660999462
709,0.027498347684741,-0.0143455043435097,0.0201546121388674,-0.5,0.0478006601333618,-0.0028518689796328
710,0.0137499766424298,0.0027896910905838,-0.0006733287591487,-0.5,0.029874661937356,-0.0061235595494508
711,0.0008466470171697,0.0301502700895071,-0.0126575287431479,-0.5,-0.0148731358349323,0.00223353295587
712,-0.0112044671550393,0.0424040630459785,-0.0167990941554308,-0.5,-0.0740789845585823,0.0184184610843658
713,-0.0217603165656328,0.0324408821761608,-0.0210796538740397,-0.5,-0.1249093785882,0.0365608669817448
714,-0.0293229538947344,0.0136655019596219,-0.0300033446401358,-0.5,-0.154029756784439,0.0497226677834988
715,-0.0314404778182507,-0.0050902254879474,-0.0409664176404476,-0.5,-0.166566833853722,0.0484280921518803
716,-0.0240898597985506,-0.016285240650177,-0.0507152266800404,-0.5,-0.170245379209518,0.0255002100020647
717,-0.0063819652423262,-0.0159320961683989,-0.0608587563037872,-0.5,-0.16298246383667,-0.0129379322752357
718,0.0185549668967724,-0.0116897663101554,-0.0655480325222015,-0.5,-0.134306699037552,-0.0403013937175274
719,0.0451983585953712,-0.013441301882267,-0.0557825826108456,-0.5,-0.081439346075058,-0.0332971401512623
720,0.0618270635604858,-0.0220577251166105,-0.0334331430494785,-0.5,-0.0209641642868519,0.0035017849877476
721,0.0585498139262199,-0.0241645388305187,-0.004129028879106,-0.5,0.0261911638081074,0.0472351871430874
722,0.040023822337389,-0.0138717107474804,0.0233531575649977,-0.5,0.0440955124795437,0.0716666877269745
723,0.0153333488851786,-0.0096854511648416,0.0372053496539593,-0.5,0.0256005246192217,0.0633959695696831
724,-0.0108770653605461,-0.021364726126194,0.0391294248402119,-0.5,-0.015040778554976,0.0369472168385983
725,-0.0350878313183784,-0.0323498249053955,0.0400142855942249,-0.5,-0.0550299137830734,0.0160551145672798
726,-0.0536052584648132,-0.0334200710058212,0.0396475680172443,-0.5,-0.0828854888677597,0.0105776125565171
727,-0.0603491328656673,-0.0346033796668053,0.0334367156028748,-0.5,-0.0913973599672318,0.0210249330848455
728,-0.0531891211867332,-0.045219711959362,0.0211938209831715,-0.5,-0.0785580798983574,0.0280545726418495
729,-0.0376696288585663,-0.0639648512005806,0.0055310279130935,-0.440510630607605,-0.056078877300024,0.0066055608913302
730,-0.0162186715751886,-0.0720255374908447,-0.0049220002256333,-0.356312930583954,-0.0399662740528584,-0.0265948157757521
731,0.0069470116868615,-0.0465577691793442,-0.0100430492311716,-0.5,-0.0441848412156105,-0.034260381013155
732,0.018818074837327,0.0035390695556998,-0.0201767366379499,-0.5,-0.0695784687995911,-0.0080370772629976
733,0.0168110523372889,0.047698974609375,-0.0317278280854225,-0.5,-0.0937674045562744,0.0286228749901056
734,0.0107816131785512,0.0702538788318634,-0.0287966206669807,-0.5,-0.0975455716252327,0.0444881357252598
735,0.0078736711293458,0.0680648982524872,-0.0059345918707549,-0.5,-0.0845476165413857,0.0327612422406673
736,0.0146196177229285,0.0481101125478745,0.0226446185261011,-0.5,-0.0671254098415375,0.0182505659759045
737,0.0328407622873783,0.0274574942886829,0.036926593631506,-0.5,-0.0529085136950016,0.0253593567758799
738,0.0518915131688118,0.0077090412378311,0.028972502797842,-0.5,-0.0412581376731396,0.0446541495621204
739,0.0584759190678597,-0.0240846071392298,0.0042634136043489,-0.5,-0.032088715583086,0.0479718707501888
740,0.0503632239997387,-0.0647270008921623,-0.0249720271676779,-0.5,-0.0321291424334049,0.0279722195118666
741,0.0344542674720287,-0.095529705286026,-0.0458478443324566,-0.5,-0.0424899868667126,-0.0039575193077325
742,0.0180610865354538,-0.104534327983856,-0.0447996519505978,-0.5,-0.0464817173779011,-0.0292609930038452
743,0.0079874340444803,-0.0911306887865067,-0.0207910798490047,-0.5,-0.0291249640285969,-0.0257520321756601
744,0.0035683885216713,-0.0605681277811527,0.0014880493981763,-0.5,-0.0099454531446099,0.0063866656273603
745,-0.0032517006620764,-0.0196911841630936,-0.000515840947628,-0.5,-0.0209923572838306,0.0365004315972328
746,-0.011020970530808,0.019788907840848,-0.0206144340336323,-0.5,-0.0576491691172123,0.0427137427031994
747,-0.0094796679913997,0.0435938313603401,-0.0359488017857075,-0.5,-0.0834897831082344,0.0380596145987511
748,-0.0035271984525024,0.0444036647677422,-0.0353593155741692,-0.5,-0.0818498507142067,0.0380134806036949
749,-0.0110402405261993,0.0249550919979811,-0.0250031445175409,-0.5,-0.0720707699656487,0.0352679267525673
750,-0.0330323465168476,-0.0020592878572642,-0.0154760405421257,-0.5,-0.0756128802895546,0.0199017208069563
751,-0.0526528581976891,-0.0249428134411573,-0.0190229453146458,-0.5,-0.100544847548008,-0.0136003457009792
752,-0.0546628311276436,-0.0431375615298748,-0.0317538790404797,-0.5,-0.132801651954651,-0.059158593416214
753,-0.0368866510689259,-0.0555748343467712,-0.0281968060880899,-0.5,-0.138335600495338,-0.0850347429513931
754,-0.0084841968491673,-0.0541964806616306,0.0016435796860605,-0.5,-0.104403525590897,-0.0630138739943504
755,0.0221479665488005,-0.0379011742770672,0.0384638793766499,-0.5,-0.0524605624377728,-0.003558243624866
756,0.047807615250349,-0.0190964676439762,0.0561364144086838,-0.5,-0.007216302677989,0.044021975249052
757,0.0591776184737682,-0.0156637001782656,0.0447289161384106,-0.5,0.0216152481734753,0.0412799566984177
758,0.0577715113759041,-0.0360054820775986,0.016225652769208,-0.5,0.0328188091516495,0.0050883279182016
759,0.0551890730857849,-0.0647688359022141,-0.0120282489806414,-0.5,0.0272463243454695,-0.0173865035176277
760,0.0492720492184162,-0.0749743729829788,-0.0295655447989702,-0.5,0.0064274808391928,-0.0030268989503383
761,0.0274513438344002,-0.0607967264950275,-0.0387408770620823,-0.5,-0.0288558900356293,0.0198434293270111
762,-0.0091582527384161,-0.037432998418808,-0.0527574196457863,-0.5,-0.0706759765744209,0.0217543821781874
763,-0.0428480394184589,-0.015118426643312,-0.0724790766835213,-0.5,-0.0982082188129425,0.0162981431931257
764,-0.055064532905817,0.0044648316688835,-0.0781359151005745,-0.5,-0.0921732038259506,0.0134345861151814
765,-0.0441846027970314,0.0117031689733267,-0.0573163852095604,-0.5,-0.0584831424057484,-0.0046244151890277
766,-0.0242128167301416,-0.0072713061235845,-0.0208918899297714,-0.5,-0.0249876752495766,-0.0378585010766983
767,-0.0070527615025639,-0.0413516350090504,0.01696702465415,-0.5,-0.0081642782315611,-0.0533856935799122
768,0.0046570627018809,-0.0570601709187031,0.0525115989148617,-0.5,-0.000848420895636,-0.0310142990201712
769,0.016245611011982,-0.0390970073640347,0.0850835740566254,-0.5,0.0084008518606424,0.0115043139085174
770,0.0364506207406521,-0.0108078364282846,0.106921397149563,-0.5,0.0195235218852758,0.048850305378437
771,0.0613805502653122,-0.0006880821892991,0.107223078608513,-0.5,0.0229301135987043,0.0736457705497742
772,0.0766500160098076,-0.003719808300957,0.0894104018807411,-0.5,0.0151735572144389,0.085744172334671
773,0.0781612396240234,-0.0010279983980581,0.0717563703656197,-0.5,0.0088197737932205,0.0837980136275291
774,0.0738487616181374,0.0142939975485206,0.0706451460719109,-0.5,0.0226787645369768,0.0794221311807632
775,0.0737879797816277,0.0391198694705963,0.0828336998820305,-0.5,0.0576537437736988,0.0915888026356697
776,0.0762468501925468,0.0585890263319016,0.083134301006794,-0.5,0.0857740268111229,0.112317435443401
777,0.0675765797495842,0.0539631880819798,0.0554798170924187,-0.5,0.0816079676151276,0.108503565192223
778,0.0476832427084446,0.0211342889815569,0.0131691331043839,-0.5,0.0530662313103676,0.0685108229517937
779,0.0324515700340271,-0.0216551534831524,-0.0204632915556431,-0.5,0.0215599741786718,0.0236026551574469
780,0.0278621651232243,-0.0370694547891617,-0.0296848472207785,-0.5,-0.004037563689053,0.0122801708057523
781,0.02071338519454,-0.0059185312129557,-0.0168494619429111,-0.5,-0.0237676594406366,0.0304631777107716
782,0.000513085280545,0.0338902398943901,-0.0025941238272935,-0.5,-0.0394935384392738,0.0353045277297497
783,-0.0257318168878555,0.0366025790572166,4.01235629396979e-05,-0.5,-0.0533671379089355,0.0049064480699598
784,-0.0482470095157623,0.0103965569287539,-0.002175600733608,-0.5,-0.0630923211574554,-0.0300183072686195
785,-0.0581863820552826,-0.0127020487561822,0.0008773237350396,-0.5,-0.0566885322332382,-0.0305425673723221
786,-0.0523915588855743,-0.0264239832758904,0.009549967944622,-0.5,-0.0267679914832115,-0.0058670784346759
787,-0.0444868206977844,-0.0436082109808922,0.0169019121676683,-0.5,0.0135256657376885,0.0084174536168575
788,-0.0447145365178585,-0.0628449320793152,0.0213901959359646,-0.5,0.0439127422869205,0.0065160789526999
789,-0.0435125529766083,-0.0691659450531006,0.0285207740962505,-0.5,0.0537993386387825,0.0032235339749604
790,-0.0304299797862768,-0.0626796409487724,0.0345925055444241,-0.130122661590576,0.043171226978302,-0.0025425318162888
791,-0.0079728309065103,-0.0575876869261265,0.0298891495913267,0.269522458314896,0.0186629947274923,-0.0171957463026047
792,0.0145410923287272,-0.0590591058135033,0.013728947378695,0.5,-0.0162193439900875,-0.035097923129797
793,0.0295067261904478,-0.0575826950371265,-0.0063270404934883,0.5,-0.0563723407685757,-0.0422728136181831
794,0.0364446118474007,-0.0464391000568867,-0.0179867763072252,0.364767968654633,-0.0810379683971405,-0.0240036081522703
795,0.0354470238089561,-0.033877681940794,-0.0178995151072741,0.0534022748470306,-0.0804915428161621,0.0044511863961815
796,0.025801008567214,-0.0230488460510969,-0.0144739886745811,-0.350473940372467,-0.0701049566268921,0.009931119158864
797,0.0145974857732654,-0.0123281506821513,-0.0134538235142827,-0.5,-0.0616440027952194,-0.0034748723264783
798,0.0085649490356445,-0.0131324380636215,-0.0188110247254372,-0.5,-0.0574429370462894,-0.0136233707889915
799,0.004285825882107,-0.0229508709162474,-0.0266926754266024,-0.5,-0.0504683256149292,-0.0154035100713372
800,-0.0008727330132387,-0.0167175848037004,-0.0195471588522196,-0.5,-0.022227531298995,-0.0015045315958559
801,-0.0041830884292721,0.0128625398501754,0.0108562046661973,-0.5,0.0303498469293118,0.0313084274530411
802,-0.0058121094480156,0.0481263920664787,0.0519033931195736,-0.5,0.0819016024470329,0.060166772454977
803,-0.0052531720139086,0.0673372149467468,0.085200123488903,-0.5,0.107546143233776,0.0651077553629875
804,0.0047312253154814,0.0605079978704453,0.0987533181905746,-0.5,0.105245366692543,0.0527013354003429
805,0.0280501376837492,0.0366101562976837,0.0921952351927757,-0.5,0.0854751318693161,0.0351112931966782
806,0.0510931722819805,0.0071376608684659,0.0750962719321251,-0.5,0.0595792420208454,0.0178588535636663
807,0.0548192597925663,-0.0157693792134523,0.0589769668877125,-0.5,0.0385578610002995,0.0071562994271516
808,0.0405958890914917,-0.0242544021457434,0.0460034310817719,-0.5,0.0276143047958612,0.009456118568778
809,0.0218755677342415,-0.0308310743421316,0.0296581387519836,-0.5,0.0207422692328691,0.0199841875582933
810,0.0002454473287798,-0.0426370538771153,0.0072720660828054,-0.5,0.0045080590061843,0.0191603135317564
811,-0.025926761329174,-0.0495292469859123,-0.0167942587286234,-0.5,-0.0240514315664768,0.0038474048487842
812,-0.04599579423666,-0.0462195575237274,-0.0330190397799015,-0.5,-0.046412892639637,-0.003009587759152
813,-0.0498026758432388,-0.0330728627741337,-0.0323702208697796,-0.5,-0.0435586199164391,0.0021162987686693
814,-0.0391902141273022,-0.0180373899638653,-0.0109448283910751,-0.5,-0.0149880964308977,-0.0002481523260939
815,-0.0212986152619123,-0.0191003140062094,0.0216168239712715,-0.5,0.0238214414566755,-0.0157748162746429
816,-0.0032923286780715,-0.0402089133858681,0.0375495888292789,-0.5,0.0478714741766453,-0.0394972302019596
817,0.0028998593334108,-0.0666809156537056,0.0164693463593721,-0.5,0.0329761542379856,-0.073175385594368
818,-0.0108787314966321,-0.0853138938546181,-0.0255599580705166,-0.5,-0.017698623239994,-0.108170934021473
819,-0.0330483168363571,-0.0875070542097092,-0.0521774999797344,-0.5,-0.0675071030855179,-0.12233678996563
820,-0.0494387522339821,-0.0730592459440231,-0.0535494983196259,-0.5,-0.0915784612298012,-0.116338528692722
821,-0.0553917959332466,-0.0536332651972771,-0.047443863004446,-0.5,-0.0928132385015488,-0.105826713144779
822,-0.0429518111050129,-0.0358116701245308,-0.0390729457139969,-0.5,-0.068489171564579,-0.0846633538603783
823,-0.0103629920631647,-0.0125283263623714,-0.0181897636502981,-0.5,-0.0122250374406576,-0.0437234789133072
824,0.0255682580173016,0.0247633419930935,0.01326016895473,-0.5,0.05743258446455,0.0022807326167821
825,0.0441193543374538,0.06941968947649,0.0382461845874786,-0.5,0.103121310472488,0.0326598025858402
826,0.0394623503088951,0.0981518253684044,0.0449688695371151,-0.5,0.10470137745142,0.0378560535609722
827,0.0251402612775564,0.0918645858764648,0.034438244998455,-0.5,0.0769638791680336,0.0227601863443851
828,0.0199435148388147,0.0505118556320667,0.0134300012141466,-0.5,0.0477785915136337,0.0032662011217325
829,0.030175443738699,-0.0075777419842779,-0.0051944875158369,-0.5,0.0376937165856361,-0.0080333547666668
830,0.0451905950903893,-0.0514732226729393,-0.0097417719662189,-0.5,0.0502126030623913,-0.0079419771209359
831,0.048249039798975,-0.0597833096981049,-0.0037950808182358,-0.5,0.0637344270944595,-0.0045540463179349
832,0.0345228873193264,-0.0399541668593884,0.0013162560062483,-0.5,0.0564139075577259,-0.010952040553093
833,0.0162366908043623,-0.0175347588956356,0.000932240509428,-0.5,0.0372397974133492,-0.030290400609374
834,0.0091300075873732,-0.0103436158969998,-0.0019089197739958,-0.5,0.028793828561902,-0.055134866386652
835,0.0171069111675024,-0.0161547027528286,0.0004436957242432,-0.5,0.0375628173351288,-0.0721411630511284
836,0.0296020023524761,-0.0202053468674421,0.0132847484201193,-0.5,0.0530674457550049,-0.0698725506663322
837,0.0325395278632641,-0.0153500009328127,0.0281869266182184,-0.5,0.0571461878716946,-0.0582343265414238
838,0.0212641265243292,-0.0148117858916521,0.0270277112722397,-0.5,0.0414874255657196,-0.0571346580982208
839,0.0013703682925552,-0.0304170846939087,0.0062560620717704,-0.5,0.0176811143755913,-0.0654501765966415
840,-0.0132128978148103,-0.0496531277894974,-0.013234619051218,-0.5,0.0032342562917619,-0.0670087859034538
841,-0.0106555270031095,-0.0505177304148674,-0.0130554428324103,-0.5,0.0067029716446995,-0.0469582341611385
842,0.0045075351372361,-0.0259539373219013,0.0002295542944921,-0.5,0.023074097931385,-0.0042358092032373
843,0.0186194758862257,0.0154230082407594,0.0048606414347887,-0.5,0.0400868132710457,0.0450557209551334
844,0.0236058533191681,0.0627462789416313,-0.0135994236916304,-0.5,0.0476166494190693,0.076900027692318
845,0.0212647933512926,0.0957625657320023,-0.0509313493967056,-0.5,0.0377152413129807,0.0662886947393417
846,0.0162398349493742,0.0841694176197052,-0.0888685137033463,-0.5,0.0098223369568586,0.0123745258897543
847,0.0127278091385961,0.0307405218482018,-0.101432397961617,-0.5,-0.0175424516201019,-0.0429126024246216
848,0.0154912993311882,-0.0209233518689871,-0.0738371759653091,-0.5,-0.0216866973787546,-0.052317064255476
849,0.0244142692536116,-0.0409448780119419,-0.0219324287027121,-0.5,0.0011259884340688,-0.0235053226351738
850,0.0344312787055969,-0.0437417514622211,0.022798128426075,-0.5,0.036179106682539,-0.0076926406472921
851,0.0437687188386917,-0.055842649191618,0.041474025696516,-0.5,0.0611738972365856,-0.0286776702851057
852,0.0520211569964886,-0.0751676559448242,0.0347057990729809,-0.5,0.0634202435612679,-0.0641720071434975
853,0.0520117282867432,-0.0841227620840073,0.0143416728824377,-0.5,0.0471493415534496,-0.0865398719906807
854,0.0373682007193565,-0.0777877867221832,-0.0030406862497329,-0.5,0.0231089685112238,-0.0888479873538017
855,0.0121232019737363,-0.0595222264528275,-0.0103611117228866,-0.5,-0.0017178871203213,-0.0775628760457039
856,-0.0088313091546297,-0.0287492349743843,-0.0165477022528648,-0.5,-0.019610645249486,-0.0527524501085281
857,-0.0111026605591178,0.0115186907351017,-0.0246257502585649,-0.5,-0.013057254254818,-0.0073880134150385
858,-0.0013838927261531,0.0467536859214306,-0.0270819365978241,-0.5,0.0213954336941242,0.0571463406085968
859,0.0002918606332968,0.066010482609272,-0.0250838026404381,-0.5,0.0510856620967388,0.125133320689201
860,-0.0155058102682233,0.0682051479816437,-0.0317500308156013,-0.5,0.0428925715386868,0.154785051941872
861,-0.0393845960497856,0.0527579262852669,-0.0549787469208241,-0.5,0.0073362211696803,0.108839474618435
862,-0.0404379852116108,0.0224570538848639,-0.0776354596018791,-0.5,-0.0118513097986579,0.0189980641007423
863,0.0059459516778588,-0.0090417014434933,-0.0740291997790337,-0.5,0.0135229853913188,-0.0427845343947411
864,0.0763110443949699,-0.0263578370213509,-0.0453689955174923,-0.5,0.0624789632856846,-0.0470820665359497
865,0.123944878578186,-0.0262319557368755,-0.0112391328439116,-0.5,0.0913847982883453,-0.0209605619311333
866,0.130754873156548,-0.0158516354858875,0.0159784946590662,-0.5,0.0853418856859207,-0.0039128442294895
867,0.105250783264637,-0.007150450721383,0.0279034245759249,-0.5,0.0552581436932087,-0.0119371814653277
868,0.0639367178082466,-0.0080466270446777,0.0172914937138557,-0.5,0.0115267597138882,-0.0356635302305222
869,0.0248888079077005,-0.0145506905391812,-0.0117146335542202,-0.5,-0.0326522551476955,-0.057233776897192
870,-0.0003813509538304,-0.0162062756717205,-0.0445887520909309,-0.280365169048309,-0.0578859783709049,-0.0663144141435623
871,-0.0070684188976883,-0.0066986647434532,-0.0677447989583015,0.5,-0.05452910810709,-0.0646993517875671
872,-0.0021241700742393,0.0087453033775091,-0.0748947709798813,0.5,-0.0333901196718216,-0.05440878495574
873,-0.0023803382646292,0.0164279453456402,-0.0734132751822472,0.5,-0.0177419595420361,-0.0363278947770596
874,-0.0149512281641364,0.0091005070134997,-0.081817515194416,0.5,-0.0278488509356976,-0.0196512434631586
875,-0.0333578400313854,-0.0010565533302724,-0.101747661828995,0.5,-0.0582170821726322,-0.0018803174607455
876,-0.0413412824273109,0.0061700493097305,-0.112173490226269,0.5,-0.0753929615020752,0.0340287424623966
877,-0.0241886116564274,0.0292998477816582,-0.103121653199196,0.5,-0.0573588646948338,0.0802421420812607
878,0.0123254377394915,0.0470562651753426,-0.0843012407422066,0.5,-0.0180445443838835,0.104171141982079
879,0.044719859957695,0.0472214557230473,-0.0668381005525589,0.5,0.0136399865150452,0.0895261317491531
880,0.05664037540555,0.0289454851299524,-0.0546940378844738,0.5,0.0245416238903999,0.0520738065242767
881,0.0512379817664623,-0.0041950847953558,-0.0465499870479107,0.5,0.0201980117708445,0.0154884597286582
882,0.0414059087634087,-0.0359070114791393,-0.0406701415777206,0.5,0.0136283375322819,-0.0110333701595664
883,0.0425122529268265,-0.0489209108054638,-0.0363107025623322,0.5,0.0183405261486769,-0.0271954815834761
884,0.0584732405841351,-0.0471136532723904,-0.0344890430569649,0.5,0.0322380885481834,-0.0371303260326386
885,0.0725721567869186,-0.0403895787894726,-0.0347262322902679,0.5,0.0375051200389862,-0.0448439307510853
886,0.0693233534693718,-0.0283759329468012,-0.032072652131319,0.5,0.0285024791955948,-0.044062428176403
887,0.0541137270629406,-0.0148368226364255,-0.0239627417176962,0.5,0.0200291965156794,-0.0285623073577881
888,0.0412964858114719,-0.0069024232216179,-0.018374715000391,0.5,0.0201849583536386,-0.010690163820982
889,0.0363851562142372,-0.0033934698440134,-0.026333786547184,0.5,0.020264184102416,-0.0097031276673078
890,0.0346736870706081,-0.0045047518797218,-0.0474508740007877,0.5,0.0107982326298952,-0.0248624980449677
891,0.0290497485548258,-0.0126807922497392,-0.0700676217675209,0.5,-0.0088789649307727,-0.0377664901316166
892,0.0175449904054403,-0.0141672501340508,-0.076941505074501,0.5,-0.0259557496756315,-0.0212557427585125
893,0.0009347609593532,0.0128648234531283,-0.061030562967062,0.5,-0.0285859368741512,0.0364980399608612
894,-0.016964990645647,0.0651641935110092,-0.0382330976426601,0.5,-0.0220554526895285,0.105041362345219
895,-0.0267612487077713,0.108232326805592,-0.0300307776778936,0.5,-0.0175135098397732,0.144810065627098
896,-0.0255880262702703,0.11165764182806,-0.0421186350286007,0.5,-0.0214629173278809,0.14243271946907
897,-0.016357721760869,0.0832534283399582,-0.0565668344497681,0.5,-0.0276449769735336,0.112655587494373
898,0.0019148809369653,0.0505654364824295,-0.0479850098490715,0.329693615436554,-0.0215683039277792,0.0790622159838676
899,0.0295965764671564,0.026768995448947,-0.012484272941947,0.29242816567421,0.0022140434011817,0.0554160885512829
900,0.0572335049510002,0.0139159550890327,0.0281463991850615,0.423447579145432,0.0339268669486046,0.0442584604024887
901,0.065666988492012,0.0063843848183751,0.0435295403003693,0.5,0.0508695133030415,0.0314060896635056
902,0.0521209090948105,-0.002702344674617,0.0253389086574316,0.5,0.0457452870905399,0.0057996781542897
903,0.0388839989900589,-0.0049356953240931,-0.0030331236775964,0.5,0.0376516357064247,-0.0207692105323076
904,0.039403673261404,0.0038434218149632,-0.0206012930721045,0.5,0.0370265170931816,-0.03453578799963
905,0.0436444878578186,0.0075522908009588,-0.028637146577239,0.5,0.0358126200735569,-0.0375971756875515
906,0.0374011881649494,-0.0075495708733797,-0.0390836149454117,0.5,0.0229225661605597,-0.0415600277483463
907,0.0188356284052134,-0.0399651564657688,-0.0604767650365829,0.5,-0.0057687708176672,-0.052093792706728
908,-0.0030327378772199,-0.0788923427462578,-0.0884990021586418,0.5,-0.0365966595709324,-0.0628042593598366
909,-0.0189728308469057,-0.105689913034439,-0.104868300259113,0.5,-0.0468821600079536,-0.053150687366724
910,-0.0262001380324364,-0.0979647636413574,-0.0941557958722115,0.5,-0.0318849124014378,-0.0043886373750865
911,-0.0321812219917774,-0.047583844512701,-0.069186694920063,0.5,-0.0142085636034608,0.0620577372610569
912,-0.0426856465637684,0.028452942147851,-0.0600065775215626,0.5,-0.0184166971594095,0.108309216797352
913,-0.0458669289946556,0.0976075977087021,-0.071759358048439,0.5,-0.0389751903712749,0.129945799708366
914,-0.0288784727454185,0.12975250184536,-0.0768979787826538,0.5,-0.0465698130428791,0.133672595024109
915,0.0006568903918378,0.117040812969208,-0.0558750033378601,0.5,-0.0306857917457819,0.116108603775501
916,0.0222948156297207,0.0767433047294617,-0.0257714316248894,0.5,-0.0119432285428047,0.0829299464821815
917,0.0249676182866097,0.0350401438772678,-0.0149654671549797,0.5,-0.0061960597522556,0.0424988828599453
918,0.0164174754172564,0.0051534078083932,-0.0248780064284801,0.5,-0.0093922903761267,-0.0052060349844396
919,0.0114150382578373,-0.017879493534565,-0.0354009158909321,0.5,-0.0091241374611854,-0.0508472435176373
920,0.0137988552451134,-0.0347147285938263,-0.0379901938140392,0.5,0.0028675436042249,-0.0779826641082764
921,0.0169547740370035,-0.0362102277576923,-0.0370303057134151,0.5,0.0249841157346964,-0.0771720334887505
922,0.020812327042222,-0.0220547188073397,-0.0328663699328899,0.5,0.0550043508410454,-0.0451463423669338
923,0.0278254151344299,-0.0043000495061278,-0.0273587536066771,0.5,0.08482626080513,0.0075324526987969
924,0.0311205945909023,0.0080420756712555,-0.027547474950552,0.5,0.0938965603709221,0.0548614114522934
925,0.022044975310564,0.0112422201782465,-0.0375028066337109,0.5,0.0686146914958954,0.0729530304670334
926,0.003835842711851,0.0023108092136681,-0.0530300550162792,0.5,0.0237054247409105,0.0621948540210724
927,-0.0103148352354765,-0.0088062426075339,-0.0619435831904411,0.5,-0.005034779664129,0.0486304983496666
928,-0.0173476692289114,-0.0054171658121049,-0.0583353340625763,0.5,0.0013333189999684,0.0502385534346104
929,-0.0245306026190519,0.0136815747246146,-0.0515405684709549,0.5,0.0270164962857962,0.065506748855114
930,-0.0324391759932041,0.0356189236044884,-0.054817259311676,0.5,0.043660294264555,0.0849342420697212
931,-0.0336833670735359,0.0470384806394577,-0.0727871730923653,0.5,0.0381298288702965,0.0860905647277832
932,-0.022207286208868,0.0441183112561703,-0.0939353704452515,0.5,0.024111857637763,0.0594663508236408
933,-0.0008932962082326,0.0352644845843315,-0.100915670394897,0.5,0.0233790297061205,0.0282325986772776
934,0.0156583618372679,0.0277317930012941,-0.0973224714398384,0.5,0.0315142758190632,0.0097389249131083
935,0.0118256825953722,0.0139739625155926,-0.0998253598809242,0.5,0.0259351301938295,-0.0125674996525049
936,-0.0073682749643921,-0.0176438167691231,-0.106269329786301,0.5,0.0111391665413976,-0.0559425950050354
937,-0.0171401631087065,-0.0590397603809834,-0.0993049368262291,0.5,0.0183297153562307,-0.0939476639032364
938,0.0012306494172662,-0.0859189480543137,-0.0708531513810158,0.5,0.059692308306694,-0.0852927640080452
939,0.0392985604703426,-0.0858516916632652,-0.034189410507679,0.5,0.112830385565758,-0.0340255126357079
940,0.0734270364046097,-0.0634403452277184,-0.0103603648021817,0.5,0.153356641530991,0.0261178351938725
941,0.093317374587059,-0.0267715342342854,-0.0068265367299318,0.5,0.176479563117027,0.0729266852140427
942,0.100780457258224,0.0119643090292811,-0.0179340541362762,0.5,0.17899614572525,0.0899490043520927
943,0.0985817685723305,0.0332410298287869,-0.0336823612451553,0.5,0.158432126045227,0.0689266994595528
944,0.0893446058034897,0.0249867364764214,-0.0447576195001602,0.5,0.128152206540108,0.026877336204052
945,0.0758206695318222,9.85198930720799e-05,-0.0447399280965328,0.5,0.104351565241814,-0.0037932028062641
946,0.0626892670989037,-0.0134985325857997,-0.0347470678389072,0.5,0.0909388661384583,-0.007626746315509
947,0.050318505614996,-0.0038619972765445,-0.027024557814002,0.5,0.0820216685533524,0.0028716258239001
948,0.0342962704598904,0.0140738263726234,-0.0321877971291542,0.5,0.0717743337154388,0.0131670869886875
949,0.01842225715518,0.025228675454855,-0.0433221682906151,0.5,0.0634576752781868,0.0222686640918255
950,0.0100802117958665,0.0306538976728916,-0.0476416386663914,0.246773988008499,0.0602507218718529,0.0337209589779377
951,0.0087462961673736,0.0367305502295494,-0.0475178696215153,-0.405335962772369,0.0559963472187519,0.0447328761219978
952,0.0144725255668163,0.0496341772377491,-0.050009474158287,-0.5,0.0511993356049061,0.0483041778206825
953,0.0265389494597912,0.0587778612971306,-0.0514053776860237,-0.5,0.0542401075363159,0.0414951927959919
954,0.0334493145346642,0.042969211935997,-0.0442041270434856,-0.5,0.0631726980209351,0.0277490019798279
955,0.0281318873167038,0.0075554377399385,-0.0262112114578485,-0.5,0.071838766336441,0.0120743410661817
956,0.0173989944159985,-0.0242048595100641,-0.0058784415014088,-0.5,0.0777458250522614,-0.0039942227303981
957,0.0093102538958191,-0.0391134768724442,-0.0005934786750003,-0.5,0.0765815302729607,-0.017808998003602
958,0.0081994831562042,-0.0356471985578537,-0.0203233007341623,-0.5,0.065843865275383,-0.0265413913875818
959,0.0165595449507236,-0.0205449666827917,-0.0507976114749908,-0.5,0.052459541708231,-0.024588268250227
960,0.0329779349267483,-0.0080892145633697,-0.0642661303281784,-0.5,0.0476178638637066,-0.0057870363816618
961,0.0459829457104206,-0.009957306087017,-0.0566853173077106,-0.5,0.0473005399107933,0.0115135898813605
962,0.0424677021801472,-0.0181749388575554,-0.0457434691488743,-0.5,0.0422343350946903,0.0089829787611961
963,0.0248809866607189,-0.0147332865744829,-0.0335172973573208,-0.5,0.0422135032713413,0.0071278903633356
964,0.0048152818344533,0.0038952133618295,-0.0149052068591118,-0.5,0.0528016462922096,0.0270496159791946
965,-0.0088068656623363,0.0296781659126282,-1.03169659269042e-05,-0.5,0.0562021508812904,0.0558854341506958
966,-0.0100988084450364,0.0537826716899872,0.001941560069099,-0.5,0.0410184003412724,0.0701557099819183
967,0.0035072863101959,0.065510593354702,-0.0038982077967375,-0.5,0.0243863295763731,0.0632659196853638
968,0.0303064845502377,0.0548710264265537,-0.0092623382806778,-0.5,0.0309533234685659,0.047157309949398
969,0.0643263906240463,0.0239147488027811,-0.0105859152972698,-0.5,0.0612779371440411,0.0388743206858635
970,0.0914698541164398,-0.0101620480418205,-0.0076949344947934,-0.5,0.0892897322773933,0.0432737991213799
971,0.0965127944946289,-0.0295313373208046,-0.0044983541592955,-0.5,0.0927955657243729,0.047394871711731
972,0.0774115696549416,-0.0310301128774881,-0.0083830524235963,-0.5,0.0715895295143127,0.0361661426723003
973,0.0417241342365742,-0.0257381703704596,-0.0218072440475225,-0.5,0.0357905402779579,0.0113438097760081
974,0.0056413309648633,-0.0181482713669539,-0.0314070098102093,-0.5,0.0015523610636591,-0.0020667442586273
975,-0.0086534600704908,0.0022530832793563,-0.023426715284586,-0.5,-0.0151607934385538,0.011028740555048
976,0.0039384118281304,0.0344213880598545,-0.0071069132536649,-0.5,-0.0123752513900399,0.0283893179148436
977,0.0249110236763954,0.0550755597651005,0.0014097485691309,-0.5,0.0004522321396507,0.0332068875432014
978,0.0310008879750967,0.049988366663456,-0.0012165228836238,-0.5,0.0149619420990348,0.04078159481287
979,0.0128500964492559,0.0281768683344126,-0.0133389020338655,-0.5,0.0307170934975147,0.0517123639583588
980,-0.0196940638124943,-0.0020075337961316,-0.032860841602087,-0.5,0.0448807142674923,0.038533192127943
981,-0.0471770167350769,-0.0378482677042484,-0.0508357211947441,-0.5,0.0481698252260685,-0.003217423800379
982,-0.0516327396035194,-0.0683813020586967,-0.0529509447515011,-0.5,0.0405430234968662,-0.0443710573017597
983,-0.0321033000946045,-0.0770202130079269,-0.038994625210762,-0.5,0.0277281645685434,-0.0592739880084991
984,-0.0094727147370576,-0.0583298280835152,-0.0255235340446234,-0.5,0.0099733546376228,-0.0455793477594852
985,-0.0034317844547331,-0.0308850277215242,-0.0200648847967386,-0.5,-0.0101167680695653,-0.0182552505284548
986,-0.0106607126072049,-0.0155534269288182,-0.0159704983234406,-0.371199101209641,-0.0252634380012751,0.011321023106575
987,-0.0148211186751723,-0.0112260160967708,-0.0075419060885906,-0.0979662165045738,-0.0327622033655643,0.0427396930754185
988,-0.0106079084798694,-0.0105565506964922,0.0049061053432524,0.135509848594666,-0.0336196050047874,0.071042463183403
989,-0.0021194594446569,-0.0130930729210377,0.0174788627773523,0.412912636995316,-0.0278709977865219,0.0880890041589737
990,0.0051314895972609,-0.0202561523765326,0.021463219076395,0.5,-0.0237179920077324,0.0875827297568321
991,0.0045569199137389,-0.0329494699835777,0.0087409382686018,0.5,-0.0319487899541855,0.0662370324134827
992,-0.003552735550329,-0.0448769181966782,-0.0127311516553164,0.5,-0.0453502312302589,0.0387540496885777
993,-0.0127417054027319,-0.0442769564688206,-0.0248227044939995,0.5,-0.0489257574081421,0.0269486308097839
994,-0.01676170155406,-0.0285936836153269,-0.0212559141218662,0.5,-0.0403081960976124,0.0312846191227436
995,-0.0145751535892487,0.0022008074447512,-0.0162516478449106,0.5,-0.0250736158341169,0.0368391089141369
996,-0.0204524695873261,0.0387349128723145,-0.0368409231305122,0.5,-0.0151934754103422,0.023520989343524
997,-0.0420155301690102,0.0407870300114155,-0.0900138318538666,0.5,-0.0216816402971745,-0.0213303174823523
998,-0.0537356063723564,-0.0122436946257949,-0.137919500470161,0.5,-0.0298388618975878,-0.0781620889902115
999,-0.0339507199823856,-0.0802504643797874,-0.133395954966545,0.5,-0.014564155600965,-0.115039855241776
1000,-0.0034709598403424,-0.0308722667396069,-0.020116725936532,-0.5,-0.0101412972435355,-0.0182870086282492
1001,-0.0107004558667541,-0.0155404768884182,-0.0160230975598097,-0.371405959129334,-0.0252883080393076,0.0112888161092997
1002,-0.0148619646206498,-0.0112126898020506,-0.0075959749519825,-0.0981791689991951,-0.03278773650527,0.0427066124975681
1003,-0.0106499837711453,-0.0105428025126457,0.0048504015430808,0.13529010117054,-0.0336458757519722,0.0710084065794945
1004,-0.0021624201908707,-0.013079016469419,0.0174219831824303,0.412688046693802,-0.0278978031128645,0.0880542322993279
1005,0.005088266916573,-0.0202419999986887,0.0214059930294752,0.5,-0.0237449519336224,0.0875477492809296
1006,0.0045140031725168,-0.0329354181885719,0.0086841192096471,0.5,-0.0319755598902702,0.0662022903561592
1007,-0.0035951256286352,-0.0448630452156067,-0.0127872722223401,0.5,-0.0453766770660877,0.0387197285890579
1008,-0.0127837937325239,-0.0442631915211678,-0.0248784273862839,0.5,-0.0489520169794559,0.0269145481288433
1009,-0.0168040171265602,-0.0285798478871584,-0.0213119443506002,0.5,-0.0403345935046673,0.0312503576278687
1010,-0.0146182328462601,0.0022148988209664,-0.0163086969405413,0.5,-0.0251004733145237,0.0368042401969433
1011,-0.0204965639859438,0.0387493520975113,-0.0368993207812309,0.5,-0.0152209447696805,0.0234853141009808
1012,-0.0420604795217514,0.0408017635345459,-0.0900733694434166,0.5,-0.0217096209526062,-0.0213666744530201
1013,-0.0537809319794178,-0.0122288232669234,-0.137979537248611,0.5,-0.0298670642077923,-0.0781987458467484
1014,-0.0339958816766739,-0.0802356451749802,-0.133455768227577,0.5,-0.0145922498777509,-0.115076385438442
1015,0.0033987830393016,-0.116986498236656,-0.0703224092721939,0.5,0.0259437672793865,-0.116605423390865
1016,0.0357971787452698,-0.115190073847771,0.0201383903622627,0.5,0.0765565261244774,-0.0832437723875046
1017,0.056302186101675,-0.0893710926175117,0.104998990893364,0.5,0.122741661965847,-0.0244827400892973
1018,0.0674008727073669,-0.0530257932841778,0.165753871202469,0.5,0.151609644293785,0.0438244603574276
1019,0.0704359263181686,-0.013934975489974,0.194995164871216,0.5,0.156762331724167,0.0993022993206978
1020,0.0649717971682549,0.0232834573835135,0.193332716822624,0.5,0.145426332950592,0.123957850039005
1021,0.0495115630328655,0.0497836656868458,0.163392141461372,0.5,0.123455248773098,0.116317622363567
1022,0.0214501265436411,0.0530403777956963,0.107399180531502,0.5,0.0838318839669228,0.0880263894796371
1023,-0.0169587191194296,0.0314511507749558,0.0385041683912277,0.5,0.0274965483695269,0.0526215918362141
1024,-0.051651805639267,0.0009581132326275,-0.0158486012369394,0.5,-0.0214427709579468,0.0185333006083965
1025,-0.0660768002271652,-0.0175801496952772,-0.0375472344458103,0.5,-0.0428590513765812,-0.0071459314785897
1026,-0.0594176575541496,-0.0214769244194031,-0.0381158590316772,0.5,-0.0486290976405144,-0.0174191910773516
1027,-0.0408816784620285,-0.0235812198370695,-0.0348800271749496,0.5,-0.0570586174726486,-0.010683124884963
1028,-0.0125995501875877,-0.0226561855524778,-0.0238497480750084,0.5,-0.0598333850502968,0.0149705680087209
1029,0.0222152974456549,-0.0114250676706433,-0.0018188570393249,0.5,-0.0448803640902042,0.0649706646800041
1030,0.0461503118276596,0.007332956418395,0.0164710022509098,0.33131530880928,-0.0207002125680447,0.122427701950073
1031,0.046516127884388,0.0303201749920845,0.0228617358952761,-0.235580191016197,0.0048651020042598,0.141563072800636
1032,0.038284495472908,0.0480002425611019,0.0262097138911486,-0.5,0.0342425443232059,0.101192496716976
1033,0.0378498286008835,0.0412341840565205,0.0306152757257223,-0.5,0.0574448108673096,0.0249948725104332
1034,0.0343070216476917,0.007275331299752,0.0327501073479652,-0.5,0.0578574165701866,-0.0464057363569736
1035,0.0128005994483829,-0.0279954075813293,0.0377864614129066,-0.5,0.0363024994730949,-0.0796070992946625
1036,-0.0203117430210114,-0.0457848459482193,0.0483516715466976,-0.5,0.004587220493704,-0.067621074616909
1037,-0.0455955900251865,-0.0445874072611332,0.0548784546554089,-0.454414755105972,-0.0255374126136303,-0.0223032999783754
1038,-0.0502195209264755,-0.0202260874211788,0.0524726286530495,-0.233146443963051,-0.0419214032590389,0.0327329523861408
1039,-0.0360587202012539,0.0146732842549682,0.0450246445834637,-0.102446332573891,-0.0370922312140465,0.0669063553214073
1040,-0.0145210232585669,0.0260675176978111,0.0357308313250542,-0.111058309674263,-0.0171209294348955,0.0662978515028954
1041,0.0058159194886684,0.003436435945332,0.0272159483283758,-0.272570669651031,0.0035935931373387,0.0406442992389202
1042,0.0272077079862356,-0.0284220315515995,0.0273890867829323,-0.471623569726944,0.0239362884312868,0.0149230845272541
1043,0.0501358024775982,-0.0439997836947441,0.0448005571961403,-0.499291598796844,0.0511832311749458,0.013938819989562
1044,0.0622973255813122,-0.0380191095173359,0.0715411528944969,-0.265213340520859,0.0736904367804527,0.041556604206562
1045,0.0511452108621597,-0.0207937266677618,0.0849099829792976,0.114957585930824,0.0683833360671997,0.0857455357909203
1046,0.0206184573471546,3.49695983459242e-06,0.0749043896794319,0.499570846557617,0.0311540905386209,0.127476409077644
1047,-0.005578510928899,0.0199197139590979,0.0554587505757809,0.5,-0.0127057498320937,0.140032291412354
1048,-0.0073334616608917,0.0336242914199829,0.0443083606660366,0.5,-0.0314996391534805,0.111290276050568
1049,0.0083351256325841,0.0488302446901798,0.0445086024701595,0.5,-0.02016581594944,0.0606168322265148
1050,0.0262163113802671,0.0647540166974068,0.0511361993849278,0.5,0.0027766500134021,0.0185315050184727
1051,0.0396879278123379,0.0601004250347614,0.0589180663228035,0.5,0.0197558533400297,-0.0035652685910463
1052,0.0411123409867287,0.0352716036140919,0.0573801547288895,0.5,0.0168754383921623,-0.0109372269362211
1053,0.0242784172296524,0.0110079925507307,0.0359753146767616,0.19486765563488,-0.0133162848651409,-0.0113708442077041
1054,-0.0060300123877823,-0.0061008678749203,-0.0026883985847234,-0.5,-0.0617981813848019,-0.0158699136227369
1055,-0.0343500860035419,-0.0200164429843426,-0.0397246889770031,-0.5,-0.108925350010395,-0.0262023098766804
1056,-0.048159908503294,-0.0277035571634769,-0.0521191097795963,-0.5,-0.131116822361946,-0.0260900743305683
1057,-0.050547506660223,-0.0237403474748135,-0.0342702344059944,-0.5,-0.115606620907784,-0.005581677891314
1058,-0.0501774288713932,-0.0200539119541645,-0.0050365314818918,-0.5,-0.0800898522138596,0.0172335878014565
1059,-0.0443747118115425,-0.0310411173850298,0.0200384166091681,-0.3627008497715,-0.0461238622665405,0.02354871109128
1060,-0.0264215432107449,-0.0488274730741978,0.0439660772681236,0.0282591599971056,-0.010189663618803,0.0170141775161028
1061,0.0053260894492268,-0.0574757494032383,0.0711732730269432,0.377984195947647,0.0352318324148655,0.007544647436589
1062,0.0441139042377472,-0.0528497323393822,0.0954817906022072,0.5,0.0787546038627625,0.0120108481496572
1063,0.068402536213398,-0.0393732525408268,0.101305566728115,0.5,0.0973133891820908,0.0399519540369511
1064,0.066206768155098,-0.0154075231403112,0.0860116556286812,0.5,0.0854312777519226,0.0712725296616554
1065,0.0469243228435516,0.0258938353508711,0.066258080303669,0.297604084014893,0.0590756684541702,0.0918115526437759
1066,0.0152659909799695,0.0757346898317337,0.0482585616409779,-0.0645280778408051,0.0259852427989244,0.106935806572437
1067,-0.0263275690376759,0.10475467890501,0.0279275383800268,-0.418797850608826,-0.0111420983448625,0.111112900078297
1068,-0.0614030994474888,0.0984997153282166,0.0140353702008724,-0.5,-0.0340524427592754,0.0903183296322823
1069,-0.075307123363018,0.0704001486301422,0.0204950347542763,-0.5,-0.0260589271783829,0.0430564843118191
1070,-0.0636642426252365,0.0325233601033688,0.0462275967001915,-0.5,0.009765388444066,-0.0165597684681416
1071,-0.0302878022193909,-0.0075484667904675,0.0715277045965195,-0.5,0.0524360127747059,-0.0635906159877777
1072,0.003398748114705,-0.0351137593388557,0.0747991129755974,-0.5,0.0707443431019783,-0.0726080760359764
1073,0.0117735583335161,-0.0457576029002666,0.0501274578273296,-0.5,0.043248537927866,-0.0438354350626469
1074,-0.010457799769938,-0.0546271502971649,0.0070431381464004,-0.5,-0.0238659661263227,-0.0065499069169163
1075,-0.0445066653192043,-0.0678148344159126,-0.0324204340577126,-0.5,-0.0940719693899155,0.0220818724483252
1076,-0.0619801692664623,-0.0747297257184982,-0.0448474511504173,-0.412132352590561,-0.126589134335518,0.0449843555688858
1077,-0.049040250480175,-0.0674788430333138,-0.0250386651605368,-0.0977916792035103,-0.113871954381466,0.0552845299243927
1078,-0.0159155260771513,-0.0407750755548477,0.0162386540323496,0.194660857319832,-0.0765778347849846,0.0536102838814259
1079,0.0154445143416524,0.001505262334831,0.0646586269140244,0.40107062458992,-0.0357578508555889,0.0548418015241623
1080,0.0287629701197147,0.0324870832264423,0.102485477924347,0.5,-0.0063809161074459,0.0503219813108444
1081,0.0257694721221924,0.0277721304446459,0.110017403960228,0.5,0.0027167170774191,0.0219710487872362
1082,0.0196691416203976,0.0014934205682948,0.0839888527989388,0.5,-0.0043516182340681,-0.0169609002768993
1083,0.0173933375626802,-0.0141194704920053,0.0449672043323517,0.5,-0.015957947820425,-0.0355331711471081
1084,0.0170327313244343,-0.0095266001299023,0.0140365548431873,0.5,-0.0253687296062708,-0.0217203628271818
1085,0.0142717380076647,0.0077648102305829,-0.0049592382274568,0.5,-0.0333358012139797,0.0074761579744517
1086,0.0047033503651619,0.0315201915800571,-0.0190743897110224,0.5,-0.0460324101150036,0.0264549925923347
1087,-0.0087006604298949,0.055259995162487,-0.0322350785136223,0.5,-0.0636890158057213,0.0247959475964308
1088,-0.0198734719306231,0.0692719519138336,-0.0422124154865742,0.5,-0.0793502777814865,0.0079489760100841
1089,-0.032154243439436,0.0624988377094269,-0.0470768325030804,0.5,-0.0915998220443726,-0.0163121223449707
1090,-0.0446089655160904,0.0253960844129324,-0.0476524345576763,0.5,-0.0973508283495903,-0.0425467230379581
1091,-0.0426255725324154,-0.0357884503901005,-0.0422967821359634,0.5,-0.0846088007092476,-0.0638966038823128
1092,-0.018539234995842,-0.0894903242588043,-0.0280388463288546,0.5,-0.0509862080216408,-0.0716241151094437
1093,0.0119992475956678,-0.106156654655933,-0.0176742747426033,0.5,-0.0198945570737123,-0.0694739669561386
1094,0.030389815568924,-0.077322781085968,-0.0277734324336052,0.5,-0.0149300126358867,-0.0712353140115738
1095,0.0367701277136803,-0.0111909490078688,-0.049549899995327,0.5,-0.0262935496866703,-0.0701209902763367
1096,0.0354721955955029,0.0584366396069527,-0.0650156885385513,0.5,-0.0315577238798141,-0.0573037452995777
1097,0.0256923791021109,0.0944288745522499,-0.068753607571125,0.5,-0.027146328240633,-0.0461890138685703
1098,0.0126270353794098,0.0878230631351471,-0.0669852569699287,0.0548010319471359,-0.0265785865485668,-0.053915586322546
1099,-0.000274743331829,0.0432414188981056,-0.078669510781765,-0.5,-0.0532013364136219,-0.0958134531974792
1100,-0.0193928405642509,-0.0233256909996271,-0.118063665926456,-0.5,-0.117009557783604,-0.168571025133133
1101,-0.0385625250637531,-0.0752479583024979,-0.167004197835922,-0.5,-0.189965218305588,-0.226156786084175
1102,-0.0416521914303303,-0.0791906416416168,-0.18879796564579,-0.5,-0.231025636196136,-0.221823573112488
1103,-0.0274961236864328,-0.0374062955379486,-0.17055144906044,-0.5,-0.223718255758286,-0.168996915221214
1104,-0.0070344381965696,0.01016038749367,-0.133475229144096,-0.5,-0.182383805513382,-0.117033533751965
1105,0.0068284529261291,0.0269463490694761,-0.109537728130817,-0.5,-0.140978813171387,-0.0927580073475838
1106,0.0020402385853231,0.0195582937449217,-0.122741065919399,0.0186626631766558,-0.131680876016617,-0.101066470146179
1107,-0.0188599098473787,0.0137356454506516,-0.162986099720001,0.5,-0.150773510336876,-0.140347823500633
1108,-0.026500292122364,0.0114598339423537,-0.180088803172112,0.5,-0.154264658689499,-0.18472446501255
1109,0.010644281283021,0.003959275316447,-0.139509856700897,0.5,-0.10642996430397,-0.191746041178703
1110,0.0844243839383125,0.0005801528459414,-0.065916396677494,0.5,-0.0216090641915798,-0.156258255243301
1111,0.146560341119766,0.0149549832567573,-0.008673838339746,0.5,0.0500346906483173,-0.116098240017891
1112,0.160396754741669,0.0403747968375683,0.0134026939049363,0.5,0.0752619057893753,-0.0991836413741112
1113,0.130192086100578,0.0621015839278698,0.0040668696165084,0.5,0.0561797060072422,-0.111263252794743
1114,0.0818969532847404,0.073855072259903,-0.0358591452240944,0.5,0.0067150047980248,-0.136152118444443
1115,0.0420283898711205,0.0631078854203224,-0.0977535173296928,0.5,-0.0562906190752983,-0.14748714864254
1116,0.0233780518174171,0.0209051892161369,-0.158287882804871,0.5,-0.108775593340397,-0.155357226729393
1117,0.0236419700086117,-0.0255374386906624,-0.189118355512619,0.5,-0.1277726739645,-0.181426301598549
1118,0.027713093906641,-0.0423462875187397,-0.185434952378273,0.5,-0.119543001055717,-0.216590657830238
1119,0.019391605630517,-0.0394005924463272,-0.172092124819756,0.5,-0.112798407673836,-0.245295464992523
1120,0.0069314870052039,-0.0491687580943108,-0.160404339432716,0.5,-0.11053416877985,-0.262092381715775
1121,0.0129833165556192,-0.0705057084560394,-0.138592183589935,0.5,-0.0933940857648849,-0.261845618486404
1122,0.0414123497903347,-0.0736214444041252,-0.10587365925312,0.5,-0.060284961014986,-0.241963475942612
1123,0.070731021463871,-0.0532245561480522,-0.0826021507382393,0.5,-0.0337962284684181,-0.216521024703979
1124,0.0807645171880722,-0.0306367501616478,-0.0838052406907082,0.5,-0.0297050438821316,-0.202684611082077
1125,0.0756805688142776,-0.0147260185331106,-0.0987098291516304,0.386502295732498,-0.0377001762390137,-0.1971265822649
1126,0.0710618495941162,-0.0015581274637952,-0.108639232814312,-0.149387255311012,-0.0406713411211967,-0.190003052353859
