,AF3,AF4,Fp1,Fp2,AF7,AF8
0,0.0014033709885552,0.0870313569903374,0.0832808837294579,0.5,0.0538282543420792,0.0439654178917408
1,0.0005535001982934,0.0598406419157982,0.0721300095319748,0.5,0.0526383779942989,0.0364393256604671
2,-0.0039514116942882,0.033320851624012,0.0527902953326702,0.5,0.0462528355419636,0.0360473468899727
3,-0.008848201483488,0.0248414929956198,0.0343230776488781,0.455098003149033,0.0456952452659607,0.0414281971752644
4,-0.0159119572490454,0.0182275306433439,0.0134305693209171,0.270866364240646,0.0479020066559315,0.0408357307314873
5,-0.0211662035435438,0.0031495976727455,-0.0075932913459837,0.282544672489166,0.0476555936038494,0.0347976870834827
6,-0.0159402936697006,-0.0060404734686017,-0.0138269355520606,0.5,0.0468260087072849,0.0373066365718842
7,-0.002178541617468,0.0034328557085245,0.0037271413020789,0.5,0.0474676415324211,0.0533311292529106
8,0.0096837971359491,0.0222407784312963,0.0312078446149826,0.5,0.0472689978778362,0.0765966027975082
9,0.0066385525278747,0.0269920881837606,0.0402824729681015,0.5,0.0382520109415054,0.0951089933514595
10,-0.0151702687144279,0.007235340308398,0.020463589578867,0.5,0.0207674689590931,0.0830612853169441
11,-0.0352580100297928,-0.0285427458584309,-0.0093658147379756,0.5,0.0120660252869129,0.0272525791078806
12,-0.0300497077405453,-0.0649160593748093,-0.023253982886672,0.5,0.018222589045763,-0.0390463210642338
13,-0.0060232351534068,-0.0841328799724579,-0.0137503873556852,0.5,0.0213415920734406,-0.0688638016581535
14,0.0105001656338573,-0.0763054713606834,0.0044769844971597,0.5,0.006092301569879,-0.0569711625576019
15,0.0137332696467638,-0.0446567013859749,0.0203734412789345,0.5,-0.0147931864485145,-0.0352534838020802
16,0.0203438606113195,-0.003641823073849,0.0415389463305473,0.5,-0.0108230570331216,-0.0259664915502071
17,0.0309469029307365,0.0295369122177362,0.0771182402968407,0.5,0.025597769767046,-0.0200957953929901
18,0.0357120744884014,0.0516680926084518,0.114983156323433,0.5,0.0673441514372826,-0.0014874123735353
19,0.0342858657240868,0.0613823980093002,0.123963415622711,0.5,0.0807293504476547,0.015555415302515
20,0.0192440301179886,0.0454887002706528,0.0904362052679062,0.5,0.0560396686196327,0.0032647727057337
21,-0.0115676317363977,0.0110066113993526,0.0377395339310169,0.5,0.0159841608256102,-0.0304116178303957
22,-0.0405015535652637,-0.0067735617049038,-0.0029502331744879,0.5,-0.009350337088108,-0.0501872487366199
23,-0.0529037788510323,0.0078155621886253,-0.0163066685199738,0.5,-0.006681268569082,-0.0310266129672527
24,-0.0481563434004784,0.0355800911784172,-0.0022874511778354,0.5,0.0178763177245855,0.019355483353138
25,-0.0354889035224915,0.0587716549634933,0.0252322442829609,0.5,0.0458251126110554,0.0657610595226288
26,-0.0242859870195389,0.0739144757390022,0.0499324202537537,0.5,0.0608215183019638,0.0893642082810402
27,-0.0161335244774818,0.0756082907319069,0.0643435195088387,0.5,0.0565027557313442,0.100943133234978
28,-0.0094760227948427,0.0608769841492176,0.0681449100375175,0.5,0.0372186042368412,0.107965245842934
29,-0.0057699624449014,0.0352976024150848,0.0658545717597008,0.5,0.0153464432805777,0.101659826934338
30,-0.0083694560453295,0.0004922220250591,0.0612691380083561,0.5,0.0010879597393795,0.072635255753994
31,-0.0165244378149509,-0.0436710007488728,0.0504579208791256,0.5,-0.0006605574162676,0.0279375016689301
32,-0.0221840869635344,-0.0859959274530411,0.0310735069215298,0.5,0.0134864896535873,-0.0061676278710365
33,-0.0190093051642179,-0.110259965062141,0.007404348347336,0.5,0.0345723070204258,-0.0148983141407371
34,-0.0147141618654132,-0.109952189028263,-0.0175586882978678,0.5,0.0417251661419868,-0.0225254017859697
35,-0.017491988837719,-0.0904687643051147,-0.0382587239146233,0.5,0.0288281925022602,-0.0534824877977371
36,-0.0259225983172655,-0.065219908952713,-0.0484255664050579,0.5,0.0026465691626071,-0.0962440893054008
37,-0.0382457189261913,-0.0439089201390743,-0.0442728288471699,0.5,-0.0283384118229151,-0.123532585799694
38,-0.0455088317394257,-0.0241802968084812,-0.0237738937139511,0.5,-0.0489322952926159,-0.113810531795025
39,-0.0369355753064156,-0.0016094165621325,0.0069364262744784,0.5,-0.0460662096738815,-0.0583731271326542
40,-0.0169358253479004,0.024798521772027,0.0386557765305042,0.5,-0.0171884838491678,0.0284886807203293
41,0.0002876004728022,0.0552951358258724,0.0619291067123413,0.5,0.0233748070895672,0.0988344922661781
42,0.0045488118194043,0.0905341729521751,0.0660374537110329,0.5,0.0490909703075886,0.108903989195824
43,-0.0038632783107459,0.123433828353882,0.0493673831224442,0.5,0.0476757474243641,0.0726381093263626
44,-0.0180256217718124,0.133321523666382,0.0241195671260357,0.5,0.0314198657870293,0.0336896851658821
45,-0.0309736449271441,0.107844471931458,0.0048884409479796,0.5,0.0150490514934063,0.011255381628871
46,-0.042181234806776,0.0551176816225052,-0.0050749247893691,0.5,-0.0028123511001467,0.0004132524190936
47,-0.0517978109419346,-0.009057548828423,-0.0053670909255743,0.5,-0.022477675229311,-0.0033081953879445
48,-0.0493285581469536,-0.0627895072102547,0.010522723197937,0.5,-0.0278436820954084,0.0013467484386637
49,-0.0288422014564276,-0.0860522910952568,0.036833144724369,0.5,-0.0095586534589529,0.0101358229294419
50,-0.0029849021229893,-0.0770013034343719,0.0532951578497887,0.5,0.0175532139837742,0.0150443343445659
51,0.0152748608961701,-0.048720944672823,0.0506110973656178,0.5,0.0336600542068481,0.0164427123963833
52,0.0255351234227419,-0.0172218065708876,0.0387617386877537,0.5,0.0336467586457729,0.0261674970388412
53,0.0296994782984257,0.0083085009828209,0.0332316793501377,0.5,0.0267322454601526,0.04854691401124
54,0.0291468799114227,0.0273524578660727,0.0399587377905846,0.5,0.0285976398736238,0.0661906749010086
55,0.0272212736308575,0.0395721085369587,0.0520984902977943,0.5,0.0452332608401775,0.0628580749034882
56,0.0232776626944542,0.0412008613348007,0.0587973222136498,0.5,0.0622450895607471,0.0390631631016731
57,0.0153907584026456,0.0310384295880795,0.0552772656083107,0.5,0.0647239238023758,0.0071535394527018
58,0.0081931874155998,0.0190091021358967,0.0440776348114014,0.5,0.0551646314561367,-0.0157029293477535
59,0.0063746059313416,0.0226004645228386,0.0289671830832958,0.5,0.0388291850686073,-0.0207102000713348
60,0.005536463111639,0.0440166927874088,0.0145044457167387,0.5,0.0155427874997258,-0.0092181218788027
61,-0.0031086227390915,0.0612587034702301,0.0027322268579155,0.5,-0.0103503614664078,0.0087548308074474
62,-0.0207673609256744,0.0497463122010231,-0.0113374926149845,0.5,-0.0306424889713526,0.0098194694146513
63,-0.034118540585041,0.0124726491048932,-0.0230330619961023,0.5,-0.033901896327734,-0.0153192477300763
64,-0.0317241810262203,-0.0196056496351957,-0.0175679419189692,0.5,-0.0127332573756576,-0.0409310758113861
65,-0.0189689826220274,-0.0304776523262262,-0.0005716470186598,0.5,0.0180290751159191,-0.0477700233459473
66,-0.0063046454451978,-0.0381660349667072,0.008112046867609,0.5,0.0306535456329584,-0.0436530746519566
67,-0.0015735717024654,-0.0579363591969013,0.0098182884976267,0.5,0.0149419773370028,-0.0358058474957943
68,-0.0041655525565147,-0.0764921456575394,0.0217471737414598,0.5,-0.0107095390558243,-0.0220200531184673
69,-0.0059394971467554,-0.0723619908094406,0.0467226281762123,0.5,-0.022874353453517,-0.0010579556692391
70,-0.0031942620407789,-0.0402990877628326,0.0717684924602509,0.5,-0.0167744569480419,0.0204635486006737
71,0.0031939193140715,0.0030508060008287,0.0863316580653191,0.5,-0.0009235755424015,0.0324060805141926
72,0.0088395867496728,0.0317905955016613,0.0879097133874893,0.204201191663742,0.0151562709361315,0.0304182935506105
73,0.0096104955300688,0.0410118103027344,0.0806865990161896,-0.110333912074566,0.0274153240025043,0.0199592597782612
74,0.0090436991304159,0.0436662398278713,0.0739473402500153,-0.319148689508438,0.0395186133682728,0.0152799626812339
75,0.0102782612666488,0.0423327386379242,0.0732161551713943,-0.482576429843903,0.0552349947392941,0.0323671735823154
76,0.0122509188950062,0.033238872885704,0.077331930398941,-0.5,0.0745375379920006,0.0643438994884491
77,0.0148239638656378,0.0151874599978328,0.0781007185578346,-0.5,0.0910604000091553,0.0741353631019592
78,0.0120598590001464,-0.0041287378408014,0.063597060739994,-0.5,0.0882437750697136,0.0436755567789078
79,-0.0006302166730165,-0.0087244175374507,0.0369012169539928,-0.5,0.0590755008161068,-0.0013031745329499
80,-0.0112962853163481,1.8416367311147e-05,0.0186743456870317,-0.5,0.0234762635082006,-0.027950456365943
81,-0.0063654254190623,0.005515209864825,0.0221937708556652,-0.5,0.0101641863584518,-0.0270887818187475
82,0.0113653792068362,5.06083561049309e-05,0.0369018353521824,-0.5,0.0267494730651379,-0.0123635679483414
83,0.0305508244782686,-0.015287896618247,0.0435083694756031,-0.5,0.0528554171323776,-0.0007394168060272
84,0.0413680784404278,-0.0345588214695454,0.0407485999166965,-0.237783893942833,0.0664902850985527,0.0025718573015183
85,0.0408973023295403,-0.0488370507955551,0.0393836237490177,0.0619332864880562,0.0668055936694145,-0.0006087609217502
86,0.0318988859653473,-0.0562085211277008,0.0356407910585403,0.201698705554008,0.0586641505360603,-0.0125925289466977
87,0.015239073894918,-0.060037899762392,0.0218685306608677,0.11031798273325,0.0400277934968472,-0.0347095355391502
88,-0.0035630993079394,-0.0527424551546574,0.0068715563975274,-0.235262900590897,0.0149496709927917,-0.0556834861636162
89,-0.0151235172525048,-0.0221712160855532,0.0019324768800288,-0.5,-0.0057279961183667,-0.0587878152728081
90,-0.0187849067151546,0.0204852912575006,0.0075824321247637,-0.5,-0.0165067482739687,-0.0437055565416813
91,-0.01840347237885,0.046591654419899,0.0197063405066729,-0.5,-0.0178435295820236,-0.0257946792989969
92,-0.0166507456451654,0.04291957244277,0.0325738526880741,-0.5,-0.0099759735167026,-0.0116686979308724
93,-0.0158666148781776,0.0231847278773785,0.0404811836779118,-0.5,0.0009610873530618,0.0031345866154879
94,-0.0154177052900195,0.0052775079384446,0.0442645102739334,-0.5,0.004557691514492,0.0195646453648806
95,-0.012939247302711,-0.0064981384202837,0.0469151772558689,-0.5,0.002423645928502,0.0311751551926136
96,-0.0054966318421065,-0.0026258123107254,0.0486237853765488,-0.5,0.0041679400019347,0.0388821661472321
97,0.0071884174831211,0.0284233018755913,0.0477545559406281,-0.5,0.0138674639165401,0.061471052467823
98,0.021047055721283,0.0685496181249619,0.0387869514524937,-0.5,0.0295907258987427,0.0982889980077744
99,0.033882349729538,0.0779922306537628,0.0193816833198071,-0.5,0.0440554395318031,0.105870641767979
100,0.0419836714863777,0.0433902144432068,0.0040548448450863,-0.5,0.0495051182806492,0.0600203536450863
101,0.038128100335598,-0.0064733168110251,0.0092148007825017,-0.5,0.0454321689903736,-0.004118587821722
102,0.0248744115233421,-0.0387262031435966,0.0256733521819115,-0.5,0.0353227593004704,-0.0445235036313534
103,0.0148272244259715,-0.0448271259665489,0.0367051139473915,-0.5,0.024650514125824,-0.0509305708110332
104,0.0109348632395267,-0.0340671576559544,0.0458308048546314,-0.5,0.0188440997153521,-0.0301026962697506
105,0.0071961530484259,-0.015315187163651,0.0602658875286579,-0.5,0.0198268853127956,0.0067064031027257
106,0.0044386191293597,0.0078121875412762,0.0714425966143608,-0.5,0.026397917419672,0.0457001477479935
107,0.0078023802489042,0.0284545570611954,0.0698813050985336,-0.5,0.0370646901428699,0.0716125518083572
108,0.0151142841205001,0.0381947308778763,0.0576311945915222,-0.5,0.0495441406965256,0.0706425234675407
109,0.0159881021827459,0.0360969677567482,0.0386130176484585,-0.5,0.0548705942928791,0.0420460551977158
110,0.0061536845751106,0.0268112774938345,0.0154601419344544,-0.5,0.0475524552166462,0.0040584919042885
111,-0.0052201207727193,0.0155051657930017,-0.0072671324014663,-0.5,0.0342612490057945,-0.0205426085740328
112,-0.0078049036674201,0.009369215928018,-0.0271892175078392,-0.5,0.0201498419046402,-0.0269261114299297
113,-0.006243837531656,0.0138146225363016,-0.0417118407785892,-0.5,0.0025870234239846,-0.0246100854128599
114,-0.0116090327501297,0.0212436448782682,-0.0437277853488922,0.252414166927338,-0.0166791100054979,-0.0164174754172564
115,-0.018265500664711,0.0210664048790932,-0.0297190975397825,0.5,-0.0252319667488337,-0.0017465975834056
116,-0.0136605314910412,0.0159364026039839,-0.0049254354089498,0.5,-0.0127721941098571,0.0102827409282327
117,0.0020741182379424,0.0123462611809373,0.0202391371130943,0.5,0.0144382594153285,0.011200200766325
118,0.0229301135987043,0.014435701072216,0.0367808602750301,0.5,0.0397402346134186,0.0085830697789788
119,0.0432417914271355,0.0212069395929575,0.0440328642725945,0.5,0.0566714219748974,0.0175324082374573
120,0.057097751647234,0.0240576788783073,0.0455689281225204,0.5,0.0697174444794655,0.0410947427153587
121,0.0614831149578094,0.0202171895653009,0.0379619561135769,0.5,0.0731574073433876,0.0599237345159054
122,0.0543300025165081,0.0149845974519849,0.0153168132528663,0.5,0.055902075022459,0.0538046173751354
123,0.0373486056923866,0.0078595029190182,-0.0153670012950897,0.5,0.0272066332399845,0.0308047104626894
124,0.0195347648113966,-0.0021095429547131,-0.042043998837471,0.5,0.0090568205341696,0.010813950560987
125,0.0048632295802235,-0.008097767829895,-0.06133171916008,0.5,0.0099853817373514,-0.0042269979603588
126,-0.0096389856189489,-0.0053727468475699,-0.0707254782319069,0.5,0.0198987666517496,-0.0232639368623495
127,-0.0172431208193302,0.0039884764701128,-0.0637743398547173,0.5,0.025706484913826,-0.0457540340721607
128,-0.006700602825731,0.0154115771874785,-0.0383259281516075,0.5,0.0281657353043556,-0.059782013297081
129,0.0169387329369783,0.0233054645359516,-0.0023280179593712,0.5,0.0348661355674267,-0.0546486377716064
130,0.0371753126382828,0.0201378352940083,0.03092997148633,0.5,0.0437846556305885,-0.0340135358273983
131,0.0438274145126343,0.005704847164452,0.0480535626411438,0.5,0.0460898652672768,-0.0137848509475589
132,0.0421312339603901,-0.0082243215292692,0.0439314246177673,0.5,0.0398848243057728,-0.0066985948942601
133,0.0440564714372158,-0.013844451867044,0.0272629577666521,0.5,0.029810456559062,-0.0091026034206152
134,0.0473537221550941,-0.0188784599304199,0.0067898007109761,-0.406026929616928,0.0157136097550392,-0.006368207745254
135,0.043440654873848,-0.0283319354057312,-0.0122755859047174,-0.5,-0.0031982117798179,0.0071118255145847
136,0.0357958748936653,-0.0285581592470407,-0.0183035954833031,-0.5,-0.0167893934994936,0.0249634776264429
137,0.0305211767554283,-0.0062387809157371,-0.0047654346562922,-0.5,-0.0139572769403458,0.0375962294638157
138,0.0283331871032715,0.0275263693183661,0.0176595468074083,-0.5,0.0009513071854598,0.0365520976483822
139,0.0288722831755877,0.0463197268545628,0.0354776866734028,-0.5,0.0162277482450008,0.0268234498798847
140,0.0313139520585537,0.0394643358886242,0.0474301390349865,-0.5,0.0264887716621161,0.0161269977688789
141,0.0323452688753605,0.0175377782434225,0.0574282258749008,-0.5,0.0282648671418428,-0.0044117243960499
142,0.0272709969431162,-0.0015121429460123,0.0617243871092796,-0.5,0.0179856475442648,-0.0341386683285236
143,0.0157935246825218,-0.003608800470829,0.0558083429932594,-0.5,9.65163271757774e-05,-0.0516543686389923
144,0.0035367074888199,0.0097353467717766,0.0456466898322105,-0.5,-0.0120388967916369,-0.0421749465167522
145,-0.0008183838217519,0.0250405631959438,0.0405497886240482,-0.5,-0.0050380369648337,-0.0094294734299182
146,0.0069384891539812,0.0321095511317253,0.0416624583303928,-0.5,0.0187942516058683,0.0253621116280556
147,0.0159286595880985,0.0263630654662848,0.0418836735188961,-0.5,0.0386459529399872,0.0335359089076519
148,0.0118407486006618,0.0080980891361832,0.0340990982949734,-0.5,0.0366637036204338,0.0082801515236496
149,-0.0011214993428438,-0.0095567433163523,0.0228235870599747,-0.5,0.0187933258712292,-0.0225573033094406
150,-0.0046106134541332,-0.0069166487082839,0.0255263261497021,-0.5,0.0079638231545686,-0.0254986230283976
151,0.0145107824355364,0.0171441212296486,0.0470903776586056,-0.5,0.0147307328879833,0.0052871401421725
152,0.0507103651762009,0.0417297407984734,0.0690933912992477,-0.5,0.0306189004331827,0.0478914603590965
153,0.0856309831142426,0.0500637851655483,0.076596736907959,-0.5,0.045647419989109,0.0739520862698555
154,0.106913268566132,0.0416404195129871,0.068371444940567,-0.5,0.0508465729653835,0.0684032440185547
155,0.106687821447849,0.026626955717802,0.0484611615538597,-0.5,0.0384269170463085,0.0397412851452827
156,0.0811936855316162,0.0158911515027285,0.02463055588305,-0.5,0.0144631117582321,0.0103555107489228
157,0.0471899472177029,0.0123327132314444,0.0043488880619406,-0.5,-0.0034070555120706,-0.0043517774902284
158,0.0281654801219702,0.0067091090604662,-0.0134462267160416,-0.5,-0.0136528508737683,-0.0122052365913987
159,0.020902082324028,-0.0143964476883411,-0.0367676950991154,-0.5,-0.0355844981968403,-0.0342983044683933
160,0.0101546235382557,-0.0423061549663544,-0.0605839118361473,-0.5,-0.0709142312407494,-0.0694719925522804
161,0.0016667688032612,-0.0535415634512901,-0.0622963346540928,-0.5,-0.0908627957105637,-0.0887082889676094
162,0.0078862607479095,-0.0397619940340519,-0.0294281467795372,-0.5,-0.0712146759033203,-0.0715086460113525
163,0.0235643610358238,-0.0095536140725016,0.0208049323409796,-0.5,-0.0235056299716234,-0.033979631960392
164,0.031767200678587,0.0216480437666178,0.0609575212001801,-0.5,0.0195869784802198,-0.0044110934250056
165,0.028602221980691,0.0467735081911087,0.0819141641259193,-0.119324930012226,0.0440976992249489,0.0171556249260902
166,0.0242528580129147,0.0656210109591484,0.0902437567710876,0.5,0.0573711097240448,0.0429572984576225
167,0.0208946764469147,0.071413978934288,0.0896260514855385,0.5,0.0646410062909126,0.0601217299699783
168,0.0172316059470177,0.0626694709062576,0.0782824158668518,0.5,0.0652852728962898,0.0525079444050789
169,0.017542252317071,0.0485578812658787,0.0613037161529064,0.5,0.0604379139840603,0.0342451892793179
170,0.0201136656105518,0.0341527052223682,0.0472905412316322,0.5,0.0519571118056774,0.0258091166615486
171,0.0215332731604576,0.0184508953243494,0.0393355973064899,0.5,0.0433801412582397,0.0285033043473959
172,0.0239080600440502,0.0071723302826285,0.0342981107532978,0.5,0.0340359136462212,0.0259917993098497
173,0.0237024091184139,0.0061998930759728,0.0233994703739882,0.5,0.0130938133224845,-0.0022438080050051
174,0.0179647952318192,0.0082954159006476,0.0078552803024649,0.5,-0.0151028390973806,-0.0512753576040268
175,0.0150161795318127,0.0076582306064665,0.0012943288311362,0.5,-0.0255270339548588,-0.0834716558456421
176,0.0259609874337912,0.0046023563481867,0.0063766208477318,0.5,-0.0063855545595288,-0.0665130466222763
177,0.0528703294694424,-0.0066910767927765,0.0083574661985039,0.5,0.0269250683486462,-0.0167686212807894
178,0.0807994976639748,-0.0304706953465939,-0.0051972540095448,0.5,0.0444819517433643,0.0111852968111634
179,0.0895572751760483,-0.0576768703758717,-0.0257765576243401,0.5,0.0293929688632488,-0.0072878669016063
180,0.0737009346485138,-0.0745410323143005,-0.0359525680541992,0.5,-0.0052896733395755,-0.0419419184327126
181,0.0440511219203472,-0.0720689743757248,-0.0292010884732008,0.5,-0.0334880836308002,-0.0541951917111874
182,0.0183137711137533,-0.0472059100866318,-0.005224319640547,0.5,-0.0375107750296593,-0.0304958280175924
183,0.0075385309755802,-0.0064939311705529,0.0312961488962173,0.5,-0.0189746078103781,0.0183758195489645
184,0.0076850154437124,0.0306531582027674,0.0622860975563526,0.5,0.0042366441339254,0.0584619902074337
185,0.0092721516266465,0.0427938438951969,0.0673336461186409,0.5,0.0172697566449642,0.0553446710109711
186,0.0113795194774866,0.0291496217250824,0.0486414022743702,0.5,0.0253490023314953,0.0174922216683626
187,0.0210994780063629,0.0154243856668472,0.0318694449961185,0.5,0.0429529137909412,-0.0155103793367743
188,0.039249524474144,0.0262496154755354,0.0352408699691296,0.5,0.0683168992400169,-0.0190175194293261
189,0.0522562563419342,0.0532975420355797,0.049113355576992,0.5,0.0844403430819511,-0.001757234451361
190,0.0498037599027157,0.0680518075823784,0.0560005716979504,0.5,0.0799375995993614,0.013161538168788
191,0.0395358763635159,0.0610790848731995,0.0547206103801727,0.5,0.058865413069725,0.0158540550619364
192,0.03150824457407,0.0467129647731781,0.0539097525179386,0.5,0.0372658148407936,0.008146021515131
193,0.0251398757100105,0.0392780378460884,0.0577504187822342,0.5,0.0303108170628548,-0.0030813247431069
194,0.0196582078933716,0.0371811650693417,0.0591842010617256,0.5,0.0367040745913982,-0.008986591361463
195,0.023276325315237,0.0221780724823475,0.0444010868668556,0.5,0.0408997163176537,-0.0102559728547931
196,0.0403246246278286,-0.0137727428227663,0.0152862714603543,0.5,0.0357085391879082,-0.0115919578820467
197,0.0583963058888912,-0.0498753488063812,-0.0088846739381551,0.5,0.0299178566783667,-0.0115463994443417
198,0.0612738989293575,-0.0659977644681931,-0.0219790078699589,0.5,0.0248873308300972,-0.018920661881566
199,0.0448222979903221,-0.0677283331751823,-0.0347220823168755,0.5,0.0074491933919489,-0.0469709597527981
200,0.0168178603053093,-0.0685083866119385,-0.0505492649972439,0.5,-0.0250940006226301,-0.0822102427482605
201,-0.0093902945518493,-0.0656488910317421,-0.0594967789947987,0.5,-0.0560931488871574,-0.0947106406092644
202,-0.0241372790187597,-0.0518695116043091,-0.0513980351388454,0.5,-0.0690645799040794,-0.0736436396837235
203,-0.0274455938488245,-0.030751483514905,-0.0262672323733568,0.5,-0.0601472444832325,-0.0306485500186682
204,-0.0222534034401178,-0.0051119257695972,0.0081433150917291,0.5,-0.0312624014914036,0.0245387628674507
205,-0.0061417468823492,0.0256487093865871,0.0426277220249176,0.5,0.0117545668035746,0.0872761532664299
206,0.0191638525575399,0.0538088716566563,0.0674776956439018,0.5,0.0503239184617996,0.13175305724144
207,0.0431983582675457,0.0654777884483337,0.0741023421287537,0.5,0.0635256692767143,0.123207740485668
208,0.0545359738171101,0.055065993219614,0.0599583275616169,0.5,0.0460410937666893,0.0693951696157455
209,0.0412491410970688,0.03547503054142,0.0283639598637819,0.5,0.0083689158782362,0.0041143605485558
210,0.0079609313979744,0.0264306012541056,-0.0066422643139958,0.5,-0.0230782087892294,-0.0546884723007679
211,-0.0167206879705191,0.0293426010757685,-0.0225066617131233,0.5,-0.0229352489113808,-0.089585579931736
212,-0.0167433470487595,0.0264408718794584,-0.0129541391506791,0.5,0.002369086490944,-0.0857124850153923
213,-0.0049416264519095,0.002648239955306,0.0057814996689558,0.5,0.0234912987798452,-0.0582252815365791
214,0.0017894719494506,-0.0361847206950188,0.018576143309474,0.5,0.0255330987274647,-0.0355745255947113
215,-0.0001249964407179,-0.0646223947405815,0.0275185164064169,0.5,0.0204596146941185,-0.0222116783261299
216,-0.0029525000136345,-0.066095769405365,0.0385306887328625,0.5,0.0223239809274673,-0.0113218259066343
217,0.0010515005560591,-0.0521037317812443,0.0459862127900124,0.5,0.0299291890114546,-0.0065799877047538
218,0.0119874943047762,-0.0379045605659485,0.046999204903841,0.5,0.0415639616549015,-0.0020818263292312
219,0.0239028092473745,-0.0254680626094341,0.0471753887832165,0.5,0.0600979253649712,0.0122692883014679
220,0.0320995859801769,-0.0160654429346323,0.0412236861884594,0.5,0.0751423984766006,0.0266788266599178
221,0.0379020273685455,-0.0064750895835459,0.0232336614280939,0.5,0.0709268227219582,0.032864011824131
222,0.0435935407876968,0.011479701846838,0.0070078517310321,0.311835765838623,0.0524504221975803,0.0451824963092804
223,0.0472325086593628,0.0361860319972038,0.0030810823664069,0.0093904957175254,0.0338503196835518,0.066427156329155
224,0.0442145094275475,0.0576817616820335,0.0034071165136992,-0.0559591725468636,0.0157015454024076,0.0672059059143066
225,0.0297408569604158,0.0628757774829865,-0.0012360218679532,-0.113934941589832,-0.0101491687819362,0.030612600967288
226,0.0027551520615816,0.0449487753212452,-0.0126823987811804,-0.166340112686157,-0.0440470911562443,-0.0224509797990322
227,-0.0252850148826838,0.0151339992880821,-0.0254882052540779,-0.0909433886408806,-0.0689416825771332,-0.0628984272480011
228,-0.0383851304650307,-0.0081415269523859,-0.0313664488494396,0.0742647498846054,-0.0701838582754135,-0.0749164968729019
229,-0.0322744995355606,-0.0156707409769297,-0.0258535426110029,0.177018195390701,-0.0547595769166946,-0.0535130463540554
230,-0.0125506222248077,-0.0110580427572131,-0.0087400386109948,0.172206103801727,-0.0349250994622707,-0.0119467228651047
231,0.0122866863384843,-0.0035395773593336,0.0155543489381671,0.131588727235794,-0.0137724038213491,0.020725866779685
232,0.0326616503298283,0.0045112152583897,0.0383857041597366,0.0978680402040482,0.0090976590290665,0.0312941782176495
233,0.0383457280695438,0.0136049333959818,0.0507377460598946,0.06081772595644,0.0296084098517895,0.031190000474453
234,0.0271156616508961,0.0152764888480306,0.0482161603868008,0.0422070547938347,0.04024513438344,0.0366850160062313
235,0.0097072077915072,0.0053706504404544,0.0341948382556438,0.0976579040288925,0.0381773412227631,0.0533627979457378
236,-0.002158852526918,-0.0067320861853659,0.0144560672342777,0.219580411911011,0.0265828315168619,0.0643205866217613
237,-0.002665929030627,-0.0132241146638989,-0.0076547153294086,0.341566145420074,0.0094475205987691,0.0466033071279526
238,0.009727032855153,-0.0146181741729379,-0.0252678729593754,0.435244888067245,-0.0071709943003952,0.0063113337382674
239,0.0275150258094072,-0.0173586141318083,-0.0308965258300304,0.5,-0.010687799192965,-0.0304617770016193
240,0.0363506712019444,-0.0260291900485754,-0.0239553451538086,0.5,0.0089033180847764,-0.0528324022889137
241,0.0315275378525257,-0.0366421267390251,-0.0093216253444552,0.498842984437943,0.0404059067368507,-0.0626162439584732
242,0.0243984144181013,-0.0399633832275867,0.0061265500262379,0.250547617673874,0.0586548335850239,-0.0526660829782486
243,0.0244740638881922,-0.0207629296928644,0.0186962932348251,-0.0846899524331093,0.0506456941366196,-0.0202353429049253
244,0.0243827477097511,0.0236725341528654,0.0273122265934944,-0.425770461559296,0.021666593849659,0.0152226183563471
245,0.0149529399350286,0.0596674717962742,0.0294243022799492,-0.5,-0.0131355104967952,0.0314870402216911
246,0.0004109041765332,0.055953361093998,0.0247428249567747,-0.5,-0.0365043394267559,0.0255416091531515
247,-0.0097626419737935,0.0240007564425468,0.0187517777085304,-0.5,-0.0387584082782269,0.0162532590329647
248,-0.0094713997095823,-0.0079657118767499,0.0148856556043029,-0.5,-0.0267587006092072,0.0201187375932932
249,0.0008127514156512,-0.0221711881458759,0.0101813543587923,-0.5,-0.0162904094904661,0.0288090854883194
250,0.0129025420174003,-0.0133173037320375,0.0041075153276324,-0.5,-0.0131940646097064,0.0298057030886412
251,0.0186676178127527,0.0101750688627362,-0.0005530299386009,-0.5,-0.0101030291989446,0.0219239685684443
252,0.0174135137349367,0.0337213762104511,-0.0031927993986755,-0.5,0.0012054342078045,0.0102142905816436
253,0.0125999506562948,0.0467409081757069,-0.0028339023701846,-0.5,0.0182207133620977,0.0032006457913667
254,0.0059301722794771,0.0402596183121204,-0.002015559701249,-0.5,0.0254338476806879,0.0015868003247305
255,-0.0026172734797,0.0118902130052447,-0.0103534832596779,-0.5,0.0121119469404221,-0.0035289479419589
256,-0.0113377189263701,-0.0256989002227783,-0.0332281589508057,-0.5,-0.0132576068863273,-0.0120607521384954
257,-0.0146504919975996,-0.0554048866033554,-0.0601427629590034,-0.5,-0.0329970717430115,-0.0145914033055305
258,-0.0067419642582535,-0.0673441886901855,-0.0699042528867722,-0.5,-0.0325709395110607,-0.0095770182088017
259,0.0114637883380055,-0.0594209954142571,-0.0541253574192524,-0.5,-0.0116587514057755,-0.0026643618475645
260,0.0344264507293701,-0.0338702686131001,-0.0250948220491409,-0.5,0.0166441947221756,0.0020543909631669
261,0.055338229984045,0.0009362746495753,0.001082997303456,-0.5,0.042958278208971,-0.0010288339108228
262,0.0615175738930702,0.0269155912101269,0.0141835985705256,-0.5,0.0632643103599548,-0.0197068061679602
263,0.0416175834834576,0.0292519312351942,0.0093662906438112,-0.5,0.0677855685353279,-0.0513482838869095
264,0.0040989560075104,0.0118321534246206,-0.010560404509306,-0.5,0.0455959439277649,-0.0801897048950195
265,-0.0252286307513714,-0.0068456386215984,-0.0343421064317226,-0.5,0.0038639169652015,-0.0916488617658615
266,-0.0289242453873158,-0.0140936877578497,-0.0479587353765965,-0.5,-0.0282429102808237,-0.0802187100052834
267,-0.0134286805987358,-0.0161977522075176,-0.0469642765820026,-0.5,-0.0333688482642174,-0.0520056448876858
268,0.0013015602016821,-0.0245501752942801,-0.0431590266525745,-0.5,-0.0291182491928339,-0.0242131166160107
269,0.0053906682878732,-0.036331370472908,-0.046629399061203,-0.5,-0.0370850004255772,-0.0045670922845602
270,0.0045812111347913,-0.0372382886707783,-0.0517185926437378,-0.5,-0.0522112511098385,0.008639027364552
271,0.0047322153113782,-0.0214935038238764,-0.0525169521570206,-0.5,-0.056938823312521,0.0058077345602214
272,0.0083303060382604,-0.0025481411721557,-0.050458986312151,-0.5,-0.0486289896070957,-0.013547413982451
273,0.0183708760887384,0.00962779764086,-0.0415446050465107,-0.5,-0.0333558358252048,-0.0265453793108463
274,0.0347579009830952,0.0280014127492905,-0.0184076577425003,-0.5,-0.0100572146475315,-0.0192072633653879
275,0.0530436895787716,0.062804214656353,0.0108805373311043,-0.5,0.0169851928949356,-0.0012151572154834
276,0.0650539100170136,0.0973609164357185,0.0223380606621504,-0.5,0.0318489074707031,0.016707407310605
277,0.0631518512964249,0.105707593262196,0.0016111370641738,-0.5,0.025568937882781,0.0328696109354496
278,0.0503719337284565,0.0836251676082611,-0.037724643945694,-0.5,0.0088795265182852,0.0470058023929596
279,0.038775347173214,0.0499114394187927,-0.0660651326179504,-0.5,0.0020464991685003,0.060555849224329
280,0.0340808480978012,0.0218767281621695,-0.0637961030006409,-0.5,0.0156080778688192,0.0668854638934135
281,0.0292049180716276,0.002271685982123,-0.0387901179492474,-0.5,0.0372092761099339,0.0435598194599152
282,0.0173646528273821,-0.0162646658718586,-0.0161937344819307,-0.5,0.0436870642006397,-0.0171076934784651
283,0.0044370074756443,-0.0395699255168438,-0.0070032221265137,-0.5,0.0321397520601749,-0.0862842127680779
284,0.0024258708581328,-0.0591456592082977,-0.0046285651624202,-0.5,0.0208600852638483,-0.127304375171661
285,0.0167129822075367,-0.0588370189070702,-0.0028269691392779,-0.5,0.0239275116473436,-0.128744229674339
286,0.037545058876276,-0.0372919775545597,0.0020178051199764,-0.5,0.0392792075872421,-0.103025682270527
287,0.0478009097278118,-0.0095639089122414,0.0118587976321578,-0.5,0.0542327612638474,-0.0699492841959
288,0.0454079359769821,0.0051074279472231,0.0224809627979994,-0.5,0.0610849633812904,-0.050712700933218
289,0.0388229638338089,-0.0036716579925268,0.0241790730506182,-0.5,0.0621880814433098,-0.0568391159176826
290,0.028455538675189,-0.0270460620522499,0.0128631182014942,-0.5,0.0558045618236065,-0.0716966241598129
291,0.014487786218524,-0.0475965216755867,-0.0022031015250831,-0.5,0.0366005040705204,-0.0719042867422104
292,0.0054417680948972,-0.0544815696775913,-0.0081012286245822,-0.5,0.0105232140049338,-0.0613156966865063
293,0.0050304974429309,-0.0465315394103527,-0.000902256113477,-0.5,-0.0118908602744341,-0.0485799014568329
294,0.0051303850486874,-0.0287493672221899,0.0123111410066485,-0.5,-0.0263046994805336,-0.0284808613359928
295,-0.0005713193677365,-0.0067680380307138,0.0178275667130947,-0.5,-0.0299431420862675,-0.0104348603636026
296,-0.0063101504929363,0.0123681873083115,0.0071946750395,-0.5,-0.0207121800631285,-0.0129600176587701
297,0.0005786238471046,0.01788379997015,-0.0185587406158447,-0.5,-0.0026449209544807,-0.0305698178708553
298,0.0202507395297289,0.0056923804804682,-0.0555344372987747,-0.5,0.0093146180734038,-0.0454724133014679
299,0.0333940163254738,-0.0177284516394138,-0.0942606925964355,-0.5,-0.0004749723884742,-0.0551797673106194
300,0.0291345436125994,-0.0440965332090855,-0.11554804444313,-0.5,-0.0261570680886507,-0.0634635984897614
301,0.019749041646719,-0.0578809939324856,-0.10111727565527,-0.5,-0.0436747558414936,-0.0582187585532665
302,0.0166378058493137,-0.0443026125431061,-0.0543183051049709,-0.5,-0.0383071340620518,-0.0276786461472511
303,0.016088642179966,-0.0111076440662146,0.0011172482045367,-0.5,-0.0187496803700924,0.012986421585083
304,0.0128573011606932,0.0230559781193733,0.0469960272312164,-0.5,-0.0021902956068515,0.0365243926644325
305,0.0081559354439377,0.0469644144177437,0.0838829055428505,-0.5,0.0093085505068302,0.0328571461141109
306,0.0032855812460184,0.0537748597562313,0.112536624073982,-0.5,0.0250640697777271,0.0114553878083825
307,-0.0003577326133381,0.0429778359830379,0.116331242024899,-0.5,0.0444415397942066,-0.013760220259428
308,0.0048250835388898,0.0249316059052944,0.0865955799818039,-0.5,0.0561318770051003,-0.0316999070346355
309,0.0244160499423742,0.0124537535011768,0.0441079959273338,-0.5,0.0550840869545937,-0.0341782346367836
310,0.0501692853868008,0.0098568806424737,0.0136486031115055,-0.5,0.0463160499930382,-0.0219406392425299
311,0.0656364932656288,0.0110670505091548,-0.0015887588961049,-0.5,0.0319907441735268,-0.0085659995675087
312,0.0600327290594578,0.0123862633481622,-0.0109960334375501,-0.5,0.0143694495782256,-0.0052399393171072
313,0.0414153672754765,0.0163610260933638,-0.0186472218483686,-0.5,0.0075089004822075,-0.0004543144605122
314,0.0274392478168011,0.0178936328738928,-0.0281882751733065,-0.5,0.0157309733331203,0.021425349637866
315,0.0183242559432983,0.0082086101174354,-0.0479146242141724,-0.5,0.0178426634520292,0.0404450111091137
316,0.0048485770821571,-0.0074670747853815,-0.0730767175555229,-0.5,0.0045552998781204,0.0274487603455782
317,-0.009196332655847,-0.0127605190500617,-0.0853535532951355,-0.5,-0.0018740034429356,-0.0068316170945763
318,-0.0128851840272546,-0.0028021656908094,-0.0796591490507126,-0.5,0.0106201665475965,-0.0392283946275711
319,-0.0026251610834151,0.0065908967517316,-0.0672769099473953,-0.5,0.0260789357125759,-0.0651177912950516
320,0.0157445054501295,0.000520515081007,-0.0499077327549458,-0.5,0.0358515158295631,-0.0795204266905785
321,0.035064022988081,-0.0184996519237757,-0.0210791639983654,-0.5,0.0405745655298233,-0.0783843249082565
322,0.0453165844082832,-0.0396714694797993,0.0124370772391558,-0.5,0.0292335283011198,-0.0722898468375206
323,0.0344690568745136,-0.0520685277879238,0.0384061634540558,-0.5,0.0009327002335339,-0.0672994554042816
324,0.0085478546097874,-0.0470388233661652,0.0535327978432179,-0.5,-0.0211256612092257,-0.0519466921687126
325,-0.0098808240145444,-0.0244870446622372,0.0616934858262539,-0.5,-0.0176233593374491,-0.0192138329148293
326,-0.0092518990859389,0.0102801071479917,0.0646410658955574,-0.5,0.0044050603173673,0.0201710648834705
327,0.0032438810449093,0.0537052042782307,0.0575377084314823,-0.5,0.0241631008684635,0.0518099963665009
328,0.0145638231188059,0.0925133004784584,0.0375800542533398,-0.5,0.030248848721385,0.0659985095262527
329,0.0178996883332729,0.104448586702347,0.0113309444859624,-0.5,0.0239141043275595,0.0618924610316753
330,0.0152971409261227,0.0877211689949036,-0.0099967028945684,-0.5,0.0095153218135237,0.048714954406023
331,0.0110168093815446,0.0598664209246635,-0.0208188816905022,-0.5,-0.0096408082172274,0.0321492701768875
332,0.0108310040086508,0.0298128966242075,-0.0218687877058983,-0.5,-0.0220962539315224,0.0131187085062265
333,0.0190172456204891,-0.0014822595985606,-0.0173943005502224,-0.5,-0.0130620235577226,-0.0042291372083127
334,0.0253731459379196,-0.0295520052313805,-0.0188118051737547,-0.5,0.0047105741687119,-0.0186163298785686
335,0.0159325692802668,-0.0518333055078983,-0.036817379295826,-0.5,-0.0003433597157709,-0.0348167009651661
336,-0.0058495323173701,-0.0714381337165833,-0.0622289516031742,-0.5,-0.0275729075074196,-0.0499015189707279
337,-0.0249475389719009,-0.0831976383924484,-0.0702120438218117,-0.5,-0.0414834544062614,-0.0443575568497181
338,-0.0287548843771219,-0.0713529884815216,-0.0524400472640991,-0.5,-0.0251213274896145,-0.0158995222300291
339,-0.0157997161149979,-0.0329560823738575,-0.025743518024683,-0.5,-0.0001179048340418,0.0025610574521124
340,0.0054553216323256,0.016420342028141,-0.0027270223945379,-0.5,0.0147657711058855,0.001472745439969
341,0.026236716657877,0.0593368075788021,0.0232437029480934,-0.5,0.0277669616043568,0.0096697285771369
342,0.0386381596326828,0.0805131122469902,0.0563249588012695,-0.5,0.0461403504014015,0.0310462713241577
343,0.0395322069525719,0.0711241513490677,0.0846164375543594,-0.5,0.0579308457672596,0.0403562150895596
344,0.0332213565707207,0.0431495346128941,0.0952370092272758,-0.5,0.053862202912569,0.0297338720411062
345,0.0223506428301334,0.0196113269776106,0.0840729400515556,-0.5,0.0417298153042793,0.0121576664969325
346,0.0085392175242304,0.0111598614603281,0.0561553426086903,-0.5,0.0276656690984964,0.0028176095802336
347,-0.0031883276533335,0.0161872357130051,0.0275026168674231,-0.5,0.0081246849149465,0.0075297723524272
348,-0.0094553539529442,0.0303809195756912,0.0138360317796469,-0.5,-0.0125787137076259,0.0201871749013662
349,-0.0086557455360889,0.0488955304026604,0.0185806229710579,-0.5,-0.021276893094182,0.0354341641068459
350,-0.0019398502772674,0.0686570629477501,0.0347441248595715,-0.5,-0.0145135978236794,0.0532064251601696
351,0.0038568314630538,0.0863159075379372,0.0469415411353111,-0.5,-0.0025807830970734,0.0700341984629631
352,0.0038657991681248,0.09074866771698,0.0432778410613537,-0.5,0.002477700356394,0.0721189379692078
353,-0.0015728494618088,0.066837452352047,0.0238272231072187,-0.5,-0.0083426265046,0.0409586541354656
354,-0.0112132169306278,0.0110060991719365,-0.0063153733499348,-0.5,-0.0379983596503735,-0.0235038585960865
355,-0.0206753462553024,-0.0547200255095959,-0.0321880504488945,-0.5,-0.0692964047193527,-0.0878822579979897
356,-0.0239673610776663,-0.0965817645192146,-0.0362692624330521,-0.5,-0.076771043241024,-0.113657303154469
357,-0.0202114284038544,-0.102614685893059,-0.0197698343545198,-0.5,-0.0594218298792839,-0.0939891189336777
358,-0.0102992691099644,-0.0824428722262383,0.006726786494255,-0.5,-0.0319027453660965,-0.04251604154706
359,0.0042155082337558,-0.0512805134057999,0.0348291210830212,-0.5,-0.003424170659855,0.0229717697948217
360,0.0172521863132715,-0.0232263784855604,0.0563564747571945,-0.5,0.0182937495410442,0.0830380693078041
361,0.0247729923576117,-0.0014461927348747,0.0678592771291733,-0.5,0.0277250520884991,0.127805709838867
362,0.0283309165388346,0.0226859152317047,0.0701800063252449,-0.5,0.0267890356481075,0.152489244937897
363,0.0290585346519947,0.0574002340435982,0.0659102872014046,-0.5,0.0218091998249292,0.148615270853043
364,0.0232887472957373,0.0976706743240356,0.0554178059101105,-0.5,0.0188948567956686,0.116307362914085
365,0.0074089295230805,0.124783858656883,0.0383617803454399,0.102933920919895,0.0184886399656534,0.0753741040825844
366,-0.0130227534100413,0.118676975369453,0.022069463506341,0.5,0.0161163154989481,0.0481935515999794
367,-0.0284100770950317,0.0765469893813133,0.0158335510641336,0.5,0.0140685373917222,0.0361107178032398
368,-0.0323480628430843,0.020994434133172,0.0228423103690147,0.5,0.0177462417632341,0.0272975414991379
369,-0.0244753416627645,-0.0197976659983397,0.0378000028431416,0.163501530885696,0.0217505097389221,0.0186840519309044
370,-0.0138019863516092,-0.035565722733736,0.044435877352953,-0.323773682117462,0.0103008486330509,0.0121271898970008
371,-0.0095431935042142,-0.0290988143533468,0.0285881776362658,-0.5,-0.0279711913317442,0.0059209195896983
372,-0.0130722634494305,-0.0078581059351563,-0.0020101743284612,-0.5,-0.079633355140686,0.0037321590352803
373,-0.0194188263267279,0.0138817578554153,-0.0240892674773932,-0.175959095358849,-0.111982926726341,0.0163794476538897
374,-0.0230360776185989,0.0272893086075783,-0.0221758838742971,0.120838202536106,-0.104954652488232,0.0501846484839916
375,-0.0228961873799562,0.0337973721325397,-0.0004073142481502,0.174375727772713,-0.0661578476428986,0.0909542292356491
376,-0.0231158249080181,0.0324670188128948,0.0213486943393946,-0.0163264367729425,-0.0219147484749556,0.107354067265987
377,-0.0313043482601643,0.0192142855376005,0.0248248036950827,-0.328583091497421,0.0004302824672777,0.0832395181059837
378,-0.049577534198761,-0.0039317570626735,0.0094942189753055,-0.5,-0.0083913253620266,0.0359240621328354
379,-0.0678416863083839,-0.0237930007278919,-0.005935734603554,-0.5,-0.0332003273069859,-0.0002281318884342
380,-0.0750640630722046,-0.028848497197032,-0.0049344063736498,-0.5,-0.051083255559206,-0.0093054780736565
381,-0.0739268511533737,-0.0249133668839931,0.0020835418254137,-0.5,-0.0580214634537697,-0.0089471545070409
382,-0.0678855404257774,-0.0200698468834162,-0.0009481434826739,-0.5,-0.0631700977683067,-0.0151808252558112
383,-0.0474370121955872,-0.0058188717812299,-0.0040235142223537,-0.5,-0.0603201910853386,-0.0146808093413711
384,-0.0097897192463278,0.0256618447601795,0.0103538054972887,-0.5,-0.0378200970590115,0.0082965390756726
385,0.0290413554757833,0.0591405816376209,0.0381427109241486,-0.5,-0.0032773197162896,0.0445099100470543
386,0.0539477653801441,0.0725931152701378,0.0612995065748692,-0.0790633782744408,0.0309113468974829,0.0759457871317863
387,0.0635621398687363,0.0674929916858673,0.0705481320619583,0.5,0.0603054724633694,0.099804013967514
388,0.0589136183261871,0.0610318891704082,0.0694731771945953,0.5,0.0775538980960846,0.124089911580086
389,0.0407714024186134,0.0574911236763,0.0612548589706421,0.5,0.0778523683547974,0.138492152094841
390,0.0201752129942179,0.0527999587357044,0.0444460697472095,0.5,0.0634412616491318,0.121608383953571
391,0.0025187984574586,0.0497672520577908,0.0217973999679089,0.5,0.0320079252123833,0.0871483311057091
392,-0.0224687848240137,0.047552652657032,0.0004440601915121,0.5,-0.0146066946908832,0.0596502162516117
393,-0.0532416999340057,0.0387472398579121,-0.0125108249485493,0.5,-0.0584176033735275,0.0320168994367123
394,-0.0727685391902924,0.0243422612547874,-0.0101844994351268,0.5,-0.0813387855887413,-0.0008263265481218
395,-0.0727130323648453,0.0134674785658717,0.0068742777220904,0.5,-0.0784127712249756,-0.0238140411674976
396,-0.0591016486287117,0.01164317317307,0.0280424393713474,0.5,-0.056633535772562,-0.0294434912502766
397,-0.0413844175636768,0.0129036074504256,0.0436904318630695,0.5,-0.03018544241786,-0.0223812218755484
398,-0.0240325648337603,0.006169244647026,0.0516605824232101,0.5,-0.0074978754855692,-0.0048637576401233
399,-0.0108164167031646,-0.0096184117719531,0.0533270947635174,0.5,0.0103298677131534,0.0204084645956755
400,-0.0078121004626154,-0.0262445453554392,0.0499461181461811,0.5,0.01881492882967,0.0403428561985493
401,-0.0096881100907921,-0.0334205143153667,0.0418285354971886,0.5,0.0165138337761164,0.0431534685194492
402,0.0001849766413215,-0.0222006477415562,0.0309795439243317,0.5,0.0147121148183942,0.0344668701291084
403,0.0169532038271427,0.0062572895549237,0.0190065838396549,0.5,0.0177142228931189,0.0284258797764778
404,0.0134426215663552,0.0331918895244598,0.0016989384312182,0.5,0.0097274556756019,0.0348150506615639
405,-0.0102770449593663,0.0407083258032799,-0.0153064411133528,0.5,-0.0118865249678493,0.0508626699447632
406,-0.0265763346105814,0.0342443883419037,-0.0176433492451906,0.0652663186192513,-0.0288456585258245,0.0574901439249516
407,-0.0253888033330441,0.019985219463706,-0.0138155249878764,-0.5,-0.0373328663408756,0.0425781458616257
408,-0.0172278303653002,-0.0099246511235833,-0.025256309658289,-0.5,-0.0465026684105396,0.0125257121399045
409,-0.0100934272632003,-0.0471945405006409,-0.0506932772696018,-0.5,-0.0593228898942471,-0.0214542578905821
410,-0.0045439107343554,-0.0665492117404938,-0.0643849745392799,-0.5,-0.0701713636517525,-0.0441920533776283
411,-0.0024646201636642,-0.0569013729691505,-0.0457547977566719,-0.5,-0.066961906850338,-0.0419199950993061
412,-0.0050453403964638,-0.0264289025217295,-0.0034333453513681,-0.5,-0.0445338003337383,-0.0134311709553003
413,-0.005173250567168,0.0118513405323029,0.0408774055540562,-0.5,-0.0101779010146856,0.0317400470376015
414,0.0024737354833632,0.046278603374958,0.0733654275536537,-0.5,0.0245609804987907,0.0751975923776627
415,0.0132536049932241,0.0700727701187134,0.0860296860337257,-0.5,0.0490055978298187,0.0953886285424232
416,0.0193451568484306,0.08327716588974,0.0778444483876228,-0.5,0.0569425597786903,0.0832458660006523
417,0.0163522567600012,0.0795543640851974,0.0559286661446095,-0.5,0.0478369742631912,0.0466358512639999
418,0.0072023868560791,0.0513007529079914,0.0309804566204548,-0.5,0.0281493477523327,0.006055811420083
419,-0.0015587732195854,0.0141977667808533,0.0122546488419175,-0.5,0.0075163785368204,-0.0137124937027693
420,-0.0070683974772691,-0.0062960465438664,0.0028697329107672,-0.5,-0.0102546224370599,-0.0043577486649155
421,-0.0112124476581812,-0.0021161283366382,0.0013285670429468,-0.5,-0.0214709211140871,0.0177776608616114
422,-0.0130861960351467,0.0223140884190798,0.0041854232549667,-0.5,-0.0166344437748194,0.0324007086455822
423,-0.0062190680764615,0.0544692389667034,0.0080882348120212,-0.5,0.003467814065516,0.0381229966878891
424,0.0073433760553598,0.0732632130384445,0.0130073372274637,-0.5,0.0214945022016764,0.0493156760931015
425,0.0143678681924939,0.0674181208014488,0.0209703110158443,-0.5,0.0247835200279951,0.0669822469353676
426,0.0097339963540434,0.0459118187427521,0.0287950318306684,-0.5,0.0148596195504069,0.0707608088850975
427,0.0012013032101094,0.0234993360936642,0.0275056045502424,-0.5,-0.0022917762398719,0.0523357056081295
428,-0.0047651710920035,0.0035198708064854,0.0135158700868487,-0.5,-0.0157695151865482,0.0291595943272114
429,-0.0044542090035975,-0.0180016122758389,-0.0056862095370888,-0.460924416780472,-0.0117295552045107,0.0196649990975857
430,0.0062637901864945,-0.0383755750954151,-0.0177167411893606,-0.5,0.0080683249980211,0.0169556345790625
431,0.0195290166884661,-0.0521029382944107,-0.0206902828067541,-0.5,0.0190876014530659,-0.0008144529419951
432,0.0178378205746412,-0.0597626566886902,-0.0258232019841671,-0.5,-0.0012117335572838,-0.0325917154550552
433,-0.0004400135076139,-0.0593386366963387,-0.0334336943924427,-0.5,-0.0408200398087502,-0.051683384925127
434,-0.0166553389281034,-0.0377161614596844,-0.0286980196833611,-0.5,-0.0645183548331261,-0.0371060483157635
435,-0.0140804871916771,0.0132466368377209,-0.0050835730507969,-0.5,-0.0536701418459415,0.0039610108360648
436,0.002237461740151,0.0714460238814354,0.0269119925796986,-0.5,-0.0179301649332047,0.0401244834065437
437,0.009982525371015,0.0961903482675552,0.0493253841996193,-0.5,0.0167703721672297,0.0432861335575581
438,-0.0019055332522839,0.0728962495923042,0.0474033206701279,-0.178190290927887,0.0276972986757755,0.016855638474226
439,-0.0243567023426294,0.0232280548661947,0.018273850902915,0.5,0.0125238196924329,-0.0141941178590059
440,-0.0420145317912102,-0.0247938558459282,-0.0188203901052475,0.5,-0.0107525931671262,-0.0372477173805237
441,-0.0416357405483723,-0.052788108587265,-0.0341458022594452,0.5,-0.0218365099281073,-0.0430688597261906
442,-0.0226038303226233,-0.054581057280302,-0.0226578898727894,0.5,-0.0180495604872704,-0.0211544893682003
443,0.0005044320714659,-0.0413943491876125,-0.002279442269355,0.5,-0.0105596175417304,0.0089654577895999
444,0.0156592354178429,-0.0304204244166613,0.0166424736380577,0.5,-0.0039077475666999,0.0188015438616276
445,0.0244953949004412,-0.0250511411577463,0.0333663411438465,0.5,0.0058613619767129,0.0107144210487604
446,0.0321148969233036,-0.0166328139603138,0.0479571372270584,0.5,0.0158912409096956,0.0089757358655333
447,0.0408395305275917,-6.71382003929466e-05,0.0601928569376469,0.5,0.0199604071676731,0.0353707000613213
448,0.0490306653082371,0.0231715310364962,0.0685834810137749,0.5,0.0214965436607599,0.0906221717596054
449,0.0502659305930138,0.057041522115469,0.0688437670469284,0.5,0.0261343792080879,0.144066900014877
450,0.045850720256567,0.0920984521508217,0.0562843233346939,0.5,0.0354012288153172,0.150128573179245
451,0.045316819101572,0.0906667932868004,0.0347350761294365,0.5,0.048754446208477,0.0953477323055267
452,0.0465627647936344,0.0392780750989914,0.0132609196007252,0.5,0.0574141480028629,0.0168552603572607
453,0.0401219502091408,-0.0274100042879581,-0.0022430154494941,0.5,0.0516812354326248,-0.0395085923373699
454,0.0283570811152458,-0.0677692443132401,-0.0058827870525419,0.5,0.0336913615465164,-0.0585456974804401
455,0.0155675383284688,-0.0700482055544853,0.003411354497075,0.5,0.0087165888398885,-0.0546514093875885
456,-0.0013153105974197,-0.0513861291110516,0.0161583237349987,0.5,-0.0185415968298912,-0.0458412803709507
457,-0.0191237218677998,-0.0287162400782108,0.0239735208451748,0.5,-0.0370209626853466,-0.0316834300756454
458,-0.0273976605385542,-0.0094453049823641,0.0271977372467518,0.5,-0.0372496321797371,-0.0025013696867972
459,-0.0247845854610205,0.0030985826160758,0.0291971769183874,0.5,-0.0232941377907991,0.0464425459504128
460,-0.0196193344891071,0.0125240618363023,0.032037403434515,0.5,-0.0050905258394777,0.1064537987113
461,-0.0141448713839054,0.0226646717637777,0.0343000404536724,0.5,0.0139435650780797,0.148517936468124
462,-0.0012728307629004,0.0308371484279633,0.0297059752047062,0.5,0.0351236499845982,0.148169845342636
463,0.020343478769064,0.0410648733377457,0.0141951637342572,0.5,0.0551666766405106,0.111984699964523
464,0.0334329828619957,0.0623663626611233,-0.0098190819844603,0.5,0.0575512982904911,0.0605784505605698
465,0.0202905256301165,0.0801510065793991,-0.0341579653322697,0.5,0.029520345851779,0.0045555420219898
466,-0.0112262312322855,0.0622098967432976,-0.0492423698306084,0.5,-0.0149701051414013,-0.0506934337317944
467,-0.0371233634650707,0.0067495703697204,-0.049503818154335,0.5,-0.0485840253531933,-0.0917179733514786
468,-0.0414400175213814,-0.0481585264205933,-0.0293958187103271,0.5,-0.0540561750531197,-0.0946900919079781
469,-0.0260745622217655,-0.0714739114046097,0.007666531484574,0.5,-0.0321213491261005,-0.0484474264085293
470,-0.0037492732517421,-0.0682646185159683,0.0390697233378887,0.5,0.0011614233953878,0.0149931283667684
471,0.0114813959226012,-0.0604940801858902,0.040229968726635,0.5,0.0218707639724016,0.0444605238735676
472,0.0113950222730637,-0.0559836477041245,0.0131914429366589,0.5,0.0226994808763266,0.0296174455434084
473,0.0045330370776355,-0.0487216673791409,-0.011975109577179,0.5,0.0237790253013372,0.0036338146310299
474,0.0092354537919163,-0.0383677929639816,-0.013066403567791,0.5,0.0370922759175301,-0.0062102456577122
475,0.0244960468262434,-0.0272377748042345,0.003796410979703,0.5,0.0486898608505726,0.0001791918039089
476,0.0270988419651985,-0.0123195825144649,0.0186982695013285,0.5,0.041370302438736,0.0137978978455067
477,0.0107448231428862,0.0072803790681064,0.0176223069429398,0.5,0.0150227509438992,0.0288177970796824
478,-0.0072768749669194,0.028458708897233,0.0009676566114649,0.5,-0.0183694139122963,0.0334448404610157
479,-0.0208382494747639,0.0486983358860016,-0.0219969898462296,0.5,-0.0499986819922924,0.017254551872611
480,-0.0342652350664139,0.0597198083996773,-0.0384074822068214,0.5,-0.0705190673470497,-0.0083987079560756
481,-0.042257446795702,0.0525262095034122,-0.0370642803609371,0.5,-0.0674579367041588,-0.025560662150383
482,-0.0358942672610283,0.0375383384525776,-0.017846854403615,0.5,-0.0359264723956585,-0.0257163550704718
483,-0.0156481508165598,0.0289534814655781,0.009184293448925,0.5,0.0125293955206871,-0.0053440257906913
484,0.0085164885967969,0.0228851325809956,0.0324832089245319,0.5,0.0559610165655613,0.024151224642992
485,0.0264120139181614,0.0140077639371157,0.0446551814675331,0.5,0.0811922997236252,0.0408399291336536
486,0.0338304117321968,0.0039639580063521,0.0480472184717655,0.5,0.0914920568466187,0.0373724512755871
487,0.0340215489268303,-0.0061027160845696,0.0526675283908844,0.5,0.0984326750040054,0.0256125312298536
488,0.0323372408747673,-0.01618442684412,0.0584193393588066,0.278448849916458,0.103574633598328,0.0186417680233717
489,0.0253660958260298,-0.0302009526640177,0.0516054853796959,-0.443960219621658,0.091063380241394,0.017879681661725
490,0.008929836563766,-0.0486953929066658,0.0266059581190348,-0.5,0.0501284562051296,0.0250565819442272
491,-0.0102308457717299,-0.0604503862559795,-0.0063324095681309,-0.5,-0.0069098672829568,0.0385912656784058
492,-0.0280521810054779,-0.0531693808734417,-0.0341543070971966,-0.5,-0.0568043775856495,0.0423645116388798
493,-0.0463665276765823,-0.0258783213794231,-0.0515060611069202,-0.5,-0.0856929272413254,0.0381804332137108
494,-0.0611147694289684,0.0039922031573951,-0.0659283548593521,-0.5,-0.0988027080893517,0.0350943803787231
495,-0.0669632852077484,0.0202837474644184,-0.0814302489161491,-0.5,-0.105548456311226,0.0142524736002088
496,-0.0608354061841965,0.0288512017577887,-0.0819871723651886,-0.5,-0.094354435801506,-0.0319827720522881
497,-0.0401611588895321,0.0336068049073219,-0.0551353432238102,-0.458540380001068,-0.0501518286764622,-0.0767651721835136
498,-0.0081657199189066,0.0238844119012356,-0.0136679606512189,-0.0225676745176315,0.0112555371597409,-0.0922925919294357
499,0.0244844295084476,0.0009005084284581,0.0209342688322067,0.139601826667786,0.0567113347351551,-0.0797632411122322
500,0.0453594550490379,-0.0160798914730549,0.0412145368754864,0.0014328528195619,0.0695749595761299,-0.0622148737311363
501,0.0468306802213192,-0.0172645039856434,0.0496123842895031,-0.323893934488297,0.054566003382206,-0.0524068251252174
502,0.0315008275210857,-0.0097635490819811,0.0485709123313427,-0.5,0.0239231269806623,-0.0478238016366959
503,0.0106772519648075,-0.001285902922973,0.0447026938199997,-0.5,-0.0085777845233678,-0.0429415367543697
504,-0.0071011208929121,0.0056093921884894,0.0429379194974899,-0.5,-0.0328971371054649,-0.031566895544529
505,-0.0216651912778616,0.0094259390607476,0.0372870117425919,-0.5,-0.0481507368385792,-0.0128651801496744
506,-0.0336222648620605,0.0101667884737253,0.0225588865578175,-0.5,-0.0533101297914982,0.0113125806674361
507,-0.0379792302846909,0.0133873708546162,0.0035340876784175,-0.5,-0.0428303815424442,0.0472401976585388
508,-0.0321312099695206,0.0250208005309105,-0.0160555765032768,-0.5,-0.021073117852211,0.0861484184861183
509,-0.0215622615069151,0.0424190871417522,-0.0385788604617119,-0.5,-0.0066066463477909,0.0952641665935516
510,-0.009897950105369,0.0527785681188107,-0.0664036422967911,-0.5,-0.0157435704022646,0.057800505310297
511,-0.0008720336481928,0.0394191108644009,-0.0973000526428223,-0.5,-0.0492532029747963,-0.0167268868535757
512,-0.0040974207222461,-0.0003693928883876,-0.11803176254034,-0.5,-0.090219758450985,-0.0998345017433167
513,-0.0198711324483156,-0.047859150916338,-0.113541193306446,-0.5,-0.114314049482346,-0.155123949050903
514,-0.0346022807061672,-0.0822845622897148,-0.0853253155946732,-0.5,-0.108585745096207,-0.172122076153755
515,-0.0346400365233421,-0.0952541753649712,-0.0520217642188072,-0.5,-0.0811068490147591,-0.167474254965782
516,-0.0174313131719828,-0.0943263843655586,-0.0412024781107903,-0.5,-0.0554814673960209,-0.164023578166962
517,0.0012882089940831,-0.09471445530653,-0.0712866708636284,-0.5,-0.0564726702868938,-0.175921678543091
518,0.0056227492168545,-0.0963742733001709,-0.125765323638916,-0.5,-0.0853703394532204,-0.1955586373806
519,0.0028456838335841,-0.086264967918396,-0.165498301386833,-0.5,-0.115371569991112,-0.205012947320938
520,0.0078014135360717,-0.0601289384067059,-0.169729456305504,-0.5,-0.127476558089256,-0.195739030838013
521,0.0202354770153761,-0.0277556292712688,-0.145016774535179,-0.5,-0.12788550555706,-0.171830832958221
522,0.030750060454011,0.0006763336714357,-0.108744472265244,-0.5,-0.128111809492111,-0.142641082406044
523,0.0345533862709999,0.0236360635608435,-0.0765383094549179,-0.5,-0.130949109792709,-0.115522436797619
524,0.0297293215990067,0.042958814650774,-0.0592714175581932,-0.5,-0.136662498116493,-0.0948320999741554
525,0.0129017680883408,0.0612365901470184,-0.0607882030308247,-0.5,-0.14662578701973,-0.0849362537264824
526,-0.0136208906769753,0.0802243053913116,-0.0769125372171402,-0.5,-0.158324226737022,-0.0859450250864029
527,-0.0371847748756409,0.103499658405781,-0.104472272098064,-0.5,-0.172561854124069,-0.0855138748884201
528,-0.04853455722332,0.130368396639824,-0.142523303627968,-0.5,-0.19477304816246,-0.0692232996225357
529,-0.0480664782226086,0.142422661185265,-0.186674430966377,-0.5,-0.220537543296814,-0.0436792485415936
530,-0.0330313146114349,0.123695738613606,-0.227835610508919,-0.5,-0.238381192088127,-0.0409779846668243
531,-0.0086564030498266,0.0858821421861649,-0.252572000026703,-0.5,-0.24528007209301,-0.0831560865044594
532,0.0038660664577037,0.0487426444888115,-0.251015871763229,-0.5,-0.242350473999977,-0.154249042272568
533,-0.0005881331744603,0.013960424810648,-0.224660620093346,-0.5,-0.219173222780228,-0.223278388381004
534,-0.0042789289727807,-0.0277798306196928,-0.186892569065094,-0.5,-0.173284709453583,-0.275733351707459
535,0.0005555776297114,-0.0832717195153236,-0.159277349710464,-0.5,-0.138430327177048,-0.313817232847214
536,-0.0001415534788975,-0.143118113279343,-0.157141134142876,-0.5,-0.151025429368019,-0.333248049020767
537,-0.0193815510720015,-0.178984642028809,-0.174516946077347,-0.5,-0.204851850867271,-0.320917844772339
538,-0.0505214557051659,-0.16447314620018,-0.192400991916656,-0.5,-0.26622349023819,-0.281754046678543
539,-0.0732455998659134,-0.0958485677838326,-0.200424239039421,-0.5,-0.30730801820755,-0.240217819809914
540,-0.0729154646396637,-0.0082412930205464,-0.198225632309914,-0.5,-0.314622044563293,-0.211362779140472
541,-0.0550134964287281,0.0442711785435677,-0.186029121279716,-0.5,-0.290802389383316,-0.191630199551582
542,-0.0349158607423306,0.0499111488461494,-0.164295583963394,-0.5,-0.250433623790741,-0.174245372414589
543,-0.0156766716390848,0.0431600175797939,-0.133037537336349,-0.5,-0.204662337899208,-0.157549276947975
544,0.0081371497362852,0.0433817058801651,-0.0996273458003998,-0.5,-0.159292116761208,-0.143900349736214
545,0.0326167680323124,0.0397658050060272,-0.0803363770246506,-0.5,-0.122394390404224,-0.136253416538239
546,0.0513534285128117,0.0278333965688944,-0.0810351967811584,-0.5,-0.0985990315675735,-0.125074595212936
547,0.064641647040844,0.017125491052866,-0.0947899743914604,-0.5,-0.0880934968590736,-0.0964361354708672
548,0.0714787542819977,0.011344451457262,-0.116617940366268,-0.5,-0.0948323309421539,-0.0687363892793655
549,0.0620734505355358,0.0107902074232697,-0.146437168121338,-0.5,-0.122823029756546,-0.0741216763854027
550,0.0266751255840063,0.0212556160986423,-0.178730189800262,-0.5,-0.15805321931839,-0.10968167334795
551,-0.0250006634742022,0.0397698692977428,-0.197085469961166,-0.5,-0.167256936430931,-0.150917634367943
552,-0.0631484910845757,0.0484499409794807,-0.184132128953934,-0.5,-0.132309883832932,-0.178048685193062
553,-0.0658828616142273,0.0349551737308502,-0.137127220630646,-0.5,-0.0717845782637596,-0.180625736713409
554,-0.0404239781200886,0.0030909969937056,-0.0792605727910995,-0.5,-0.0274826232343912,-0.165059119462967
555,-0.0075612440705299,-0.0333853289484978,-0.0437890961766243,-0.5,-0.0316282473504543,-0.148780137300491
556,0.0154616804793477,-0.0567006058990955,-0.0393900200724602,-0.5,-0.077736996114254,-0.141903817653656
557,0.0201014541089535,-0.0592170022428036,-0.0478698685765266,-0.39555037021637,-0.130571559071541,-0.13922843337059
558,0.0132443765178323,-0.0443080700933933,-0.0518828518688679,0.232149079442024,-0.15857495367527,-0.126462027430534
559,0.0065669161267578,-0.012739596888423,-0.0495052672922611,0.5,-0.154440119862556,-0.0989072173833847
560,0.0020930338650941,0.0333609022200108,-0.0448098182678223,0.5,-0.131086513400078,-0.0644145831465721
561,-0.0078807352110743,0.0800670757889748,-0.0423649027943611,0.5,-0.106243394315243,-0.0270187854766846
562,-0.0269777253270149,0.103005722165108,-0.047396969050169,0.5,-0.0922029167413712,0.0102159371599555
563,-0.039484940469265,0.090824656188488,-0.051216583698988,0.5,-0.0798774883151054,0.0387983545660973
564,-0.0282532460987568,0.0569687411189079,-0.0409227907657623,0.5,-0.0457882061600685,0.0391083806753159
565,0.0009122435003519,0.011330209672451,-0.0307945311069489,0.5,0.0036132980603724,-0.0089854653924703
566,0.0229004248976707,-0.0441135242581367,-0.0386310331523418,0.5,0.0311958696693182,-0.0785302594304085
567,0.0171128157526255,-0.090029202401638,-0.0514872334897518,0.5,0.0209883078932762,-0.103634648025036
568,-0.0105567201972008,-0.100784316658974,-0.0509285591542721,0.5,-0.0083982599899172,-0.0619705095887184
569,-0.0397649854421616,-0.0753457620739937,-0.0362998805940151,0.5,-0.0324618220329285,-0.0017374225426465
570,-0.0542206652462482,-0.0316893570125103,-0.0109092211350799,0.5,-0.0355100519955158,0.0311487950384617
571,-0.043965220451355,0.0147259626537561,0.0235605277121067,0.5,-0.0129037750884891,0.0404205247759819
572,-0.0132018281146884,0.0473167262971401,0.0570795983076096,0.5,0.0227938778698444,0.0455990992486477
573,0.0156054887920618,0.0506556704640388,0.0769446045160294,0.5,0.0531585365533829,0.0525439232587814
574,0.0220062024891377,0.0284362863749266,0.0787874609231949,0.5,0.0699854418635368,0.0575409568846226
575,0.0098063237965107,0.0054724914953112,0.0700715705752373,0.5,0.0733196288347244,0.0604820400476456
576,-0.0056049101985991,0.0003002687299158,0.0635160282254219,0.5,0.0707373395562172,0.0676639005541801
577,-0.0162554085254669,0.0033162727486342,0.0617042109370232,0.5,0.0735427662730217,0.0845201313495636
578,-0.0215116031467915,-0.0004874049918726,0.0578071996569633,0.5,0.081754207611084,0.109480626881123
579,-0.0241596922278404,-0.0113558741286397,0.0517655164003372,0.5,0.085525818169117,0.127531379461288
580,-0.0231587905436754,-0.0200112946331501,0.0550885237753391,0.5,0.0873255208134651,0.128108590841293
581,-0.0158855654299259,-0.0182549543678761,0.0709175243973732,0.5,0.0997905135154724,0.122960664331913
582,-0.0036317543126642,-0.0069959703832864,0.0898856222629547,0.5,0.123228155076504,0.129157334566116
583,0.0107547072693706,0.0055246436968445,0.11182939261198,0.5,0.148171290755272,0.151840329170227
584,0.0220266599208117,0.0079543041065335,0.13953173160553,0.5,0.172468483448029,0.173095464706421
585,0.0246504656970501,-0.00117365620099,0.161554351449013,0.5,0.198340758681297,0.169645264744759
586,0.0171176642179489,-0.0076503753662109,0.16186036169529,0.5,0.211788192391396,0.142599865794182
587,0.0013011208502575,0.002825157251209,0.136722654104233,0.5,0.189740255475044,0.106564424932003
588,-0.0163257643580437,0.0332485660910606,0.100594162940979,0.5,0.136184558272362,0.0831897556781769
589,-0.0280793290585279,0.0686092525720596,0.0732086598873138,0.5,0.0812633484601974,0.0874648466706276
590,-0.0301743224263191,0.0810470134019852,0.0641814768314362,0.5,0.0491690710186958,0.104467950761318
591,-0.0215914566069841,0.0623788759112358,0.0748138502240181,0.5,0.0466856025159359,0.118373528122902
592,-0.007164713460952,0.0296507887542248,0.0987550765275955,0.5,0.0659099742770195,0.133256241679192
593,0.0085451193153858,-0.0010815626010298,0.120890036225319,0.5,0.0943345800042152,0.149962157011032
594,0.0275356750935316,-0.0149551834911108,0.12668465077877,0.5,0.12221023440361,0.161634892225266
595,0.0433350130915642,-0.0080260941758751,0.116788111627102,0.5,0.139898717403412,0.16687485575676
596,0.0379454977810383,-0.0007541626691818,0.103938095271587,0.5,0.141435980796814,0.164384856820107
597,0.0069479546509683,-0.0099533796310424,0.0969708412885666,0.5,0.132727161049843,0.149714767932892
598,-0.0268117412924767,-0.029841385781765,0.103933341801167,0.5,0.133727312088013,0.129747360944748
599,-0.0376404374837875,-0.0491588711738586,0.131145969033241,0.388565391302109,0.161675602197647,0.115357056260109
600,-0.0262579042464495,-0.0634553804993629,0.167080849409103,-0.5,0.209306910634041,0.104747131466866
601,-0.0095816701650619,-0.0666632652282715,0.193212941288948,-0.5,0.252107620239258,0.0990256071090698
602,0.0011798638151958,-0.0534493364393711,0.208777755498886,-0.5,0.273648381233215,0.113671585917473
603,-0.001409325748682,-0.0273811127990484,0.218987599015236,-0.5,0.271476477384567,0.152105584740639
604,-0.0197971202433109,0.0076052825897932,0.214172810316086,-0.5,0.244453400373459,0.190254524350166
605,-0.0438425503671169,0.0504724308848381,0.182005167007446,-0.5,0.191807731986046,0.20970743894577
606,-0.0593962073326111,0.0896167308092117,0.132662206888199,-0.0004861685738433,0.12603834271431,0.218541130423546
607,-0.0593061298131943,0.103634908795357,0.0937760099768639,0.5,0.070466123521328,0.228693634271622
608,-0.0430091880261898,0.083525262773037,0.079931952059269,0.5,0.0414466932415962,0.233142837882042
609,-0.0156715605407953,0.040178295224905,0.0850759521126747,0.5,0.0400927625596523,0.212758615612984
610,0.0148764830082655,-0.0079279253259301,0.101891584694386,0.5,0.0610367320477962,0.168607249855995
611,0.0459993407130241,-0.0486362650990486,0.127556309103966,0.5,0.102088510990143,0.125382021069527
612,0.0744547322392464,-0.0770353525876999,0.152596920728683,0.281058877706528,0.155496194958687,0.0951171219348907
613,0.0884024426341057,-0.0835884436964989,0.16914127767086,-0.291358977556229,0.204106524586678,0.0766937360167503
614,0.0799080580472946,-0.0649232491850853,0.175578325986862,-0.5,0.231930583715439,0.0762042030692101
615,0.0545558854937553,-0.0367609933018684,0.164834171533585,-0.5,0.22703529894352,0.0913989245891571
616,0.0219222865998745,-0.013811657205224,0.137435749173164,-0.5,0.188787847757339,0.10446298122406
617,-0.0098083959892392,0.0017555335070937,0.112729594111443,-0.5,0.137729004025459,0.107644513249397
618,-0.0306362453848124,0.0105493422597647,0.106808826327324,-0.5,0.101879149675369,0.111474059522152
619,-0.0385346487164497,0.0126670636236668,0.113595530390739,-0.5,0.0921547710895538,0.123796127736568
620,-0.044141661375761,0.0112643009051681,0.119597710669041,-0.5,0.108169168233871,0.139222010970116
621,-0.0527486130595207,0.0087705152109265,0.122456915676594,-0.5,0.147364437580109,0.141384974122047
622,-0.0641041323542595,0.0029860441572964,0.120846785604954,-0.5,0.182224854826927,0.119421273469925
623,-0.0818784385919571,-0.0106271421536803,0.104942798614502,-0.5,0.170120105147362,0.0834943726658821
624,-0.0978475213050842,-0.0267442092299461,0.079094760119915,-0.5,0.110947728157043,0.0582267083227634
625,-0.0914410576224327,-0.0264645013958216,0.0706786438822746,-0.5,0.0562417954206467,0.0666290745139122
626,-0.0593566671013832,-0.0074877785518765,0.0913969576358795,-0.5,0.0448409281671047,0.102409236133099
627,-0.0208089780062437,0.0095505844801664,0.12261713296175,-0.5,0.067860946059227,0.13835209608078
628,0.0064115044660866,0.0140890199691057,0.145744100213051,-0.5,0.101421408355236,0.165365442633629
629,0.0194021593779325,0.0105429124087095,0.158807307481766,-0.5,0.133080422878265,0.181093469262123
630,0.0234268568456173,0.0010410533286631,0.166987285017967,-0.5,0.156804829835892,0.172854483127594
631,0.0185964815318584,-0.0160391107201576,0.168211072683334,-0.5,0.167956158518791,0.138762250542641
632,0.0073312725871801,-0.0393027663230896,0.156149312853813,-0.5,0.166489690542221,0.0962151661515236
633,0.0015274785691872,-0.0590684488415718,0.133526802062988,-0.5,0.156068086624146,0.0669471845030785
634,0.0043955487199127,-0.0627254173159599,0.106297127902508,-0.5,0.138692289590836,0.0549332275986671
635,0.0056726275943219,-0.0479866825044155,0.0775381848216057,-0.5,0.114748500287533,0.0476724952459335
636,-0.0041276738047599,-0.0244622901082039,0.0535111874341965,-0.5,0.0858670845627785,0.0398938618600369
637,-0.0210655517876148,-0.002289715455845,0.0457179211080074,-0.5,0.0634270459413528,0.0396983772516251
638,-0.0291747339069843,0.0141144832596183,0.0629522576928139,-0.5,0.0656716376543045,0.0579320043325424
639,-0.0214896835386753,0.0225331038236618,0.0937379896640778,-0.5,0.0928210616111755,0.0919594317674637
640,-0.0067213331349194,0.0281966309994459,0.11151660233736,-0.5,0.12479754537344,0.128732681274414
641,0.0095712020993232,0.0439782068133354,0.102010957896709,-0.5,0.147590190172195,0.157893940806389
642,0.0273518748581409,0.0678245350718498,0.071936622262001,-0.5,0.157273918390274,0.174153074622154
643,0.0362759307026863,0.0715972632169724,0.0342854745686054,-0.5,0.141963541507721,0.170142352581024
644,0.0178292486816645,0.0260345228016377,-0.0048210532404482,-0.5,0.0914149880409241,0.127067998051643
645,-0.025044534355402,-0.0570700988173485,-0.0350525043904781,-0.5,0.0248158536851406,0.0506221391260624
646,-0.061041098088026,-0.12302465736866,-0.0353895053267479,-0.5,-0.0173489283770323,-0.0165476500988007
647,-0.0684428736567497,-0.132821589708328,0.0048586810007691,0.0651959404349327,-0.0103786373510957,-0.0434046238660812
648,-0.0491904206573963,-0.0950599610805511,0.0734306573867798,0.5,0.0372278355062008,-0.0217355899512768
649,-0.0173068922013044,-0.0381270051002502,0.14324626326561,0.5,0.0961560979485512,0.0354732275009155
650,0.0076899058185517,0.0138996466994286,0.188679024577141,0.5,0.140250161290169,0.090108186006546
651,0.0178559776395559,0.04501086845994,0.200297430157661,0.5,0.163543865084648,0.113056339323521
652,0.0195215437561274,0.0477229952812195,0.183257922530174,0.5,0.169771984219551,0.103532485663891
653,0.0160137359052897,0.0251622684299946,0.145021796226501,0.5,0.151478499174118,0.0714097544550896
654,0.0050816852599382,-0.0058888071216642,0.0980988815426826,0.5,0.105513326823711,0.0358817428350449
655,-0.0110750263556838,-0.0230112560093403,0.063022293150425,0.5,0.0562947951257229,0.0221607275307179
656,-0.0251922234892845,-0.0123126404359937,0.0513051375746727,0.5,0.0333591960370541,0.0357839576900005
657,-0.0321427471935749,0.0252204574644566,0.0547477379441261,0.5,0.0393291339278221,0.0659790188074112
658,-0.0287467055022717,0.0684323459863663,0.0563161782920361,0.5,0.0559247024357319,0.101505853235722
659,-0.0168368984013796,0.0862797722220421,0.049222681671381,0.5,0.0686587244272232,0.128206968307495
660,-0.0052380794659256,0.0667915642261505,0.0430445000529289,0.5,0.0759473219513893,0.133947372436523
661,0.0003919430309906,0.0231800116598606,0.049209076911211,0.5,0.0815639644861221,0.114524215459824
662,0.0007399328169412,-0.0237617082893848,0.0659915506839752,0.5,0.0901632905006409,0.0819309204816818
663,0.0019677360542118,-0.05898467451334,0.0839605629444122,0.5,0.107017241418362,0.0678935125470161
664,0.0095376363024115,-0.0820308923721313,0.0934354737401009,0.5,0.129449531435966,0.0798195749521255
665,0.0147574692964554,-0.098278783261776,0.0808224529027939,0.5,0.139697134494781,0.0769653990864754
666,0.0045172455720603,-0.100785695016384,0.0427768416702747,0.5,0.119195803999901,0.033821415156126
667,-0.0162861999124289,-0.0793746337294579,0.0001410443219356,0.5,0.0701570510864258,-0.0258245281875134
668,-0.0329671949148178,-0.0405923388898373,-0.0232005286961794,0.5,0.0141188753768802,-0.0695904418826103
669,-0.0408264957368374,-0.0021882567089051,-0.0192256048321724,0.5,-0.0233205612748861,-0.076215997338295
670,-0.0398350320756435,0.0300052259117365,0.0098449597135186,0.5,-0.0234159249812365,-0.0378641858696938
671,-0.0275824964046478,0.0597710013389587,0.0547199249267578,0.5,0.015102612785995,0.0251814946532249
672,-0.0115541135892272,0.078032523393631,0.0930535867810249,0.5,0.0656178370118141,0.0747138559818268
673,-0.0053967032581567,0.067673422396183,0.102905303239822,0.5,0.0913200005888939,0.0895290374755859
674,-0.0076039968989789,0.0268250722438097,0.0875176042318344,0.5,0.0841153115034103,0.0795331820845604
675,-0.0063637690618634,-0.0239288527518511,0.0702240169048309,0.5,0.0673552602529526,0.0630875751376152
676,0.0037804250605404,-0.0545340813696384,0.06735710054636,0.5,0.0617898777127266,0.0534300543367863
677,0.0185770876705647,-0.0492618344724178,0.0764655843377113,0.5,0.067764513194561,0.059620339423418
678,0.0292227156460285,-0.0199348740279675,0.0880258679389954,0.5,0.0753837525844574,0.0746523588895798
679,0.0316721089184284,0.0112328585237265,0.0944245755672455,0.5,0.0752018466591835,0.0832238867878914
680,0.0277755055576563,0.0293347425758839,0.088540717959404,0.5,0.0630126744508743,0.0817891582846642
681,0.0171759538352489,0.02689278870821,0.0653777047991753,0.5,0.0430572032928467,0.0782719030976295
682,0.0004166434518992,0.0137615334242582,0.0327286720275879,0.5,0.0296665225178003,0.0835716277360916
683,-0.0154564687982202,0.0097313988953828,0.0093830395489931,0.5,0.0366515517234802,0.0904520153999329
684,-0.0271761808544397,0.0152026973664761,0.0035777213051915,0.5,0.0536206848919392,0.0745626538991928
685,-0.0362983234226704,0.0165898408740759,0.0069614672102034,0.5,0.054997656494379,0.0332713387906551
686,-0.0413038097321987,0.0077954325824976,0.0047637964598834,0.5,0.0350703932344913,-0.0138792619109154
687,-0.0399672947824001,-0.0107154976576567,-0.0078889662399888,0.5,0.0121851926669478,-0.0524448789656162
688,-0.0294838733971119,-0.0342114269733429,-0.014435370452702,0.5,0.0064077950082719,-0.071634367108345
689,-0.0098627684637904,-0.0510559193789959,0.0011339948978275,0.5,0.0205255132168531,-0.0631429627537727
690,0.0092996098101139,-0.0504632815718651,0.0321127846837044,0.5,0.044426791369915,-0.0338409245014191
691,0.0172024630010128,-0.0317187048494816,0.0623685903847218,0.5,0.06938536465168,-0.0017831150908023
692,0.009690630249679,-0.0078470278531312,0.0773581191897392,0.5,0.0821433067321777,0.0171037241816521
693,-0.0106540601700544,0.0104267811402678,0.06499083340168,0.5,0.0655501112341881,0.0183554645627737
694,-0.0326188057661057,0.0283524747937918,0.0297239422798157,0.5,0.0245021991431713,0.011451268568635
695,-0.044106237590313,0.0398633740842342,-0.0062776734121143,0.5,-0.0092169269919395,0.0093116285279393
696,-0.038308709859848,0.0304596144706011,-0.0219456423074007,0.5,-0.0104685202240944,0.0199929364025593
697,-0.0113483583554626,0.009729984216392,-0.01584342867136,0.5,0.0093233305960893,0.0394403710961342
698,0.0243745222687721,-0.0089323902502656,-0.0060000699013471,0.5,0.0189525410532951,0.0525796078145504
699,0.0418702438473701,-0.0283122807741165,-0.0003741183318197,0.5,0.0093143256381154,0.0479862801730633
700,0.0314521230757236,-0.0484881587326527,0.0102373193949461,0.5,-0.00286326254718,0.0243638921529055
701,0.0080116102471947,-0.0609395690262318,0.0263269189745188,0.5,-0.0007363148615695,-0.0092242835089564
702,-0.0094011994078755,-0.0599479824304581,0.0406482890248299,0.5,0.0150870885699987,-0.0344678796827793
703,-0.0142024094238877,-0.0449204593896866,0.0511342436075211,0.5,0.0284574124962091,-0.034650519490242
704,-0.0128488577902317,-0.0216860082000494,0.054727591574192,0.5,0.0293267369270325,-0.0078138066455721
705,-0.0120080886408687,0.0005041771219111,0.0518898628652096,0.5,0.0268911011517048,0.0389167182147503
706,-0.0121271219104528,0.019694060087204,0.0534676015377045,0.5,0.0364109314978123,0.0864833295345306
707,-0.0107236625626683,0.036604218184948,0.0623272210359573,0.5,0.0538495592772961,0.104374572634697
708,-0.006699803750962,0.047523494809866,0.0645165517926216,0.5,0.058714859187603,0.0876251831650734
709,-0.0005210305098444,0.0504808351397514,0.0524800829589367,0.5,0.0453540161252022,0.0606384091079235
710,0.0102789932861924,0.0489756725728512,0.0343061946332455,0.5,0.0269775129854679,0.041916087269783
711,0.0245237983763218,0.0489964708685875,0.0160687044262886,0.5,0.0139958951622248,0.0281384941190481
712,0.0309203322976828,0.050812341272831,-0.0042253797873854,0.5,0.0049831033684313,0.0057555111125111
713,0.0220115501433611,0.0476886853575706,-0.0253636371344328,0.5,-0.0033892423380166,-0.0268511511385441
714,0.0046231406740844,0.0421184413135052,-0.0414384454488754,0.5,-0.0058264839462935,-0.0534345842897892
715,-0.0122363837435842,0.0394180975854397,-0.0504843294620514,0.5,-0.0003913023392669,-0.058262649923563
716,-0.0279328115284443,0.0283174719661474,-0.053258128464222,0.5,-0.0010404919739812,-0.0457155406475067
717,-0.0397037677466869,-0.0015200913185253,-0.0502376891672611,0.5,-0.0165401641279459,-0.030665835365653
718,-0.0388812087476254,-0.038809172809124,-0.0396776273846626,0.5,-0.0312924981117249,-0.0156333800405264
719,-0.0244596283882856,-0.0628366023302078,-0.0157721787691116,0.5,-0.0234887730330229,0.0066527854651212
720,-0.0068629612214863,-0.068430133163929,0.0187286287546158,0.5,0.0059672552160918,0.0301073603332043
721,0.0029635168612003,-0.0684676915407181,0.0430510602891445,0.5,0.0276260487735271,0.0321261994540691
722,0.0044733202084898,-0.0692677646875381,0.0431459322571754,0.5,0.0199313405901194,0.0070356409996748
723,0.0078538171947002,-0.0613834634423256,0.0328621380031109,0.5,-6.94294340064516e-06,-0.0218641106039286
724,0.0174619853496552,-0.038531206548214,0.0299624428153038,0.5,-0.0099397869780659,-0.0356751680374146
725,0.020834781229496,-0.0078418813645839,0.034933976829052,0.5,-0.0123187340795994,-0.0306905284523964
726,0.0115385726094246,0.0208299141377211,0.0402606278657913,0.5,-0.0099832341074943,-0.0046073724515736
727,0.0008294602157548,0.0456644371151924,0.0392241328954697,0.5,0.0027849026955664,0.02755531296134
728,-0.0047328430227935,0.0632196664810181,0.0286254808306694,0.5,0.0164183303713799,0.0356273092329502
729,-0.0082729728892445,0.0613217540085316,0.011545424349606,0.5,0.0131623400375247,0.0162921063601971
730,-0.0117338802665472,0.0380812734365463,-0.0026108752936124,0.5,-0.0036279531195759,-0.0072860992513597
731,-0.0152206737548113,0.0095581533387303,-0.0055429716594517,0.5,-0.0156757514923811,-0.0173043068498373
732,-0.016647269949317,0.0003890171064995,0.0029371050186455,0.5,-0.0122919054701924,-0.0071866195648908
733,-0.0124969761818647,0.0228675603866577,0.0161092318594456,0.5,0.0057016583159565,0.0166739597916603
734,-0.0035989540629088,0.0522235371172428,0.0238177198916674,0.5,0.0287346057593822,0.0308383647352457
735,0.0061702732928097,0.0562160983681679,0.0223288629204035,0.5,0.043480359017849,0.0199144370853901
736,0.0148871233686805,0.035384900867939,0.0154912816360593,0.5,0.0381740033626556,-0.0065313265658915
737,0.0238198395818472,0.0066611538641154,0.0051090284250676,0.5,0.0134376781061292,-0.0325147546827793
738,0.035273477435112,-0.0187065508216619,-0.0046921661123633,0.5,-0.0092936865985393,-0.0449363365769386
739,0.0478597953915596,-0.0327597111463547,-0.0060416841879487,0.5,-0.0114585366100073,-0.0377685651183128
740,0.0543801970779896,-0.0307543482631445,0.0010734387906268,0.5,0.0048182909376919,-0.0195840671658516
741,0.0442369803786278,-0.0203165411949158,0.0090253232046961,0.5,0.0270148161798716,0.0018156465375796
742,0.0162106771022081,-0.0179675649851561,0.007457002531737,0.5,0.0346078164875507,0.0244516134262085
743,-0.0136771574616432,-0.0318124257028103,-0.0117768403142691,0.5,0.0122251240536571,0.0328689590096474
744,-0.0326974838972092,-0.053771011531353,-0.0429947972297668,0.5,-0.0318221300840378,0.0079494500532746
745,-0.0430628918111324,-0.0671146139502525,-0.0680219978094101,0.5,-0.075017049908638,-0.0402611419558525
746,-0.0447864681482315,-0.0574005804955959,-0.0705394148826599,0.5,-0.0963027104735374,-0.0766913145780563
747,-0.038106881082058,-0.0201086420565844,-0.0505421608686447,0.5,-0.0885949581861496,-0.0810451954603195
748,-0.0327990688383579,0.0322235822677612,-0.0223765093833208,0.5,-0.0623264275491238,-0.0594893023371696
749,-0.0322541669011116,0.0774665176868439,-0.000601589155849,0.5,-0.0335922613739967,-0.027661245316267
750,-0.0274711884558201,0.0964358225464821,0.0025375857949256,0.5,-0.0162921734154224,-0.0019985304679721
751,-0.0134304761886597,0.0795336440205574,-0.0133399739861488,0.5,-0.0121134640648961,0.0074812183156609
752,0.0009982767514884,0.0368521586060524,-0.0297632608562708,0.5,-0.0081867016851902,0.0004675993695855
753,0.0066125183366239,-0.0064629553817212,-0.0274373553693295,0.5,0.0042592077516019,-0.0045073283836245
754,0.0097327884286642,-0.0254261679947376,-0.0027414616197347,0.5,0.0235425420105457,0.015492127276957
755,0.0228719431906939,-0.0142551381140947,0.0299645159393549,0.5,0.0415430665016174,0.0435670576989651
756,0.0431529730558395,0.0096325939521193,0.0539405457675457,0.5,0.0496401600539684,0.0510349720716476
757,0.0569966025650501,0.032806571573019,0.0673418045043945,0.5,0.0480935573577881,0.0467212200164795
758,0.0600090809166431,0.0556353107094765,0.0757296904921532,0.5,0.0414140522480011,0.0507526881992817
759,0.0528147928416729,0.0746373012661934,0.0774910524487495,0.5,0.03031768463552,0.0643284097313881
760,0.037516787648201,0.0802101120352745,0.0646859332919121,0.5,0.0135397771373391,0.0775791928172112
761,0.0225339382886887,0.0678865611553192,0.0385590381920338,0.5,-0.0038553888443857,0.0819275006651878
762,0.0128695890307426,0.0410586334764957,0.0147307086735964,0.5,-0.0120758693665266,0.0705747976899147
763,0.0086272731423378,0.0112924380227923,0.0034147892147302,0.5,-0.0086527578532695,0.0393206067383289
764,0.0110292145982385,-0.0094329807907342,-0.0006767372833564,0.5,0.0009016597177833,-0.0024277460761368
765,0.0190589502453804,-0.020986083894968,-0.0048137991689145,0.5,0.0088288336992263,-0.0354097262024879
766,0.0260295476764441,-0.0285449624061584,-0.0145158832892776,0.5,0.0055445870384573,-0.0596413128077984
767,0.0169274937361479,-0.0348892249166965,-0.0372150540351868,0.5,-0.0188097730278969,-0.0922534316778183
768,-0.0129836220294237,-0.0401144921779633,-0.0693065673112869,-0.090805396437645,-0.0604432262480259,-0.129705220460892
769,-0.0416458323597908,-0.0357884354889393,-0.0908686220645905,-0.5,-0.0931525528430939,-0.145735308527946
770,-0.0530782416462898,-0.0151911228895187,-0.0883538648486137,-0.5,-0.0930842682719231,-0.128705456852913
771,-0.0570902824401855,0.0120345372706652,-0.0711588636040688,-0.5,-0.0665332600474358,-0.0961243361234665
772,-0.062146432697773,0.0326050966978073,-0.0568448230624199,-0.5,-0.037743054330349,-0.0656096935272217
773,-0.063099704682827,0.0423346236348152,-0.0521451756358147,-0.5,-0.0238290932029486,-0.0373366810381413
774,-0.0544717200100422,0.0429474711418152,-0.0526440069079399,-0.5,-0.0287372525781393,-0.0065678907558322
775,-0.0374670177698135,0.0382878892123699,-0.0486505292356014,-0.5,-0.0428409017622471,0.0224567409604788
776,-0.0151606071740389,0.0335052385926247,-0.0302935671061277,-0.5,-0.048084918409586,0.0403669849038124
777,0.0119742956012487,0.0352106168866158,0.005464200861752,-0.5,-0.0333823561668396,0.0550383403897285
778,0.0389832407236099,0.0438481420278549,0.0469247363507748,-0.5,-0.0089698825031518,0.0747121796011925
779,0.0554836913943291,0.0479137971997261,0.0668914988636971,-0.5,0.0027827271260321,0.0804181769490242
780,0.0585660487413406,0.0339819751679897,0.0445011928677559,-0.5,-0.005260108038783,0.0541260689496994
781,0.0495396368205547,-0.0009974399581551,-0.0065866010263562,-0.5,-0.0195474475622177,0.0021554322447627
782,0.0301096923649311,-0.0451325178146362,-0.0476578027009964,-0.5,-0.023208599537611,-0.0519445799291134
783,0.0106491623446345,-0.075063481926918,-0.0550162680447102,-0.5,-0.0108310058712959,-0.0845593959093094
784,0.0011524308938533,-0.0722911730408669,-0.0369718037545681,-0.5,0.0072805620729923,-0.0926705077290535
785,-0.0009228572016581,-0.0450036153197289,-0.0167208444327116,-0.5,0.0123422360047698,-0.087352879345417
786,-0.0050283623859286,-0.0217732265591621,-0.0079169068485498,-0.5,-0.0038768376689404,-0.0740987583994865
787,-0.0141580766066909,-0.011477823369205,-0.0092046819627285,-0.5,-0.0321585685014725,-0.0565923750400543
788,-0.0257643200457096,0.0014311610721051,-0.017894834280014,-0.5,-0.0603448525071144,-0.0407457947731018
789,-0.0400260984897614,0.0179881639778614,-0.0295602269470692,-0.5,-0.0792113840579987,-0.0275451615452766
790,-0.0536770485341549,0.0267667025327683,-0.034333374351263,-0.5,-0.081755168735981,-0.0195703823119402
791,-0.0578729659318924,0.0317986384034157,-0.0292855575680733,-0.5,-0.0694532617926598,-0.020964190363884
792,-0.0485616661608219,0.0442605018615723,-0.018524469807744,-0.5,-0.0483839139342308,-0.0232315268367529
793,-0.0288172140717506,0.0600799657404423,-0.0041777077130973,-0.5,-0.0210646968334913,-0.0157298929989338
794,-0.0090944953262805,0.0622652769088745,0.0107389008626342,-0.1184007152915,0.0078223794698715,-0.005518966820091
795,-0.0065991305746138,0.0389278754591942,0.0151911051943898,0.174415752291679,0.0197337288409472,-0.0115729970857501
796,-0.0219209454953671,-0.0052355378866195,-0.0007300113211385,0.136501953005791,-0.0032679515425115,-0.0367919914424419
797,-0.0312950313091278,-0.0462970994412899,-0.0259738843888044,-0.241416439414024,-0.046450812369585,-0.0559281259775162
798,-0.0198971554636955,-0.0600810684263706,-0.0362758599221706,-0.5,-0.0755774825811386,-0.0433759987354279
799,0.0005469594616442,-0.0471492409706116,-0.0255412794649601,-0.5,-0.077733151614666,-0.0081759812310338
800,0.0144385974854231,-0.02193209156394,-0.0104019092395902,-0.5,-0.0641188770532608,0.0153068760409951
801,0.0208562724292278,0.0056457524187862,-0.0022325364407151,-0.5,-0.0455585084855556,0.0138286929577589
802,0.0255209039896727,0.0278992112725973,0.0020719449967145,-0.5,-0.0226617027074099,0.0021913473028689
803,0.0298051126301289,0.0438575707376003,0.0058438526466488,-0.5,0.0043231775052845,-0.0036417699884623
804,0.0284978374838829,0.0478516556322575,0.0052839112468063,-0.5,0.0240901168435812,-0.0041560484096407
805,0.0170413199812174,0.0241688378155231,-0.0059118764474988,-0.0468440726399422,0.0248773749917746,-0.0145243695005775
806,-0.002528314711526,-0.0174680147320032,-0.0269551929086447,0.256212264299393,0.0085067087784409,-0.0400649271905422
807,-0.0235144197940826,-0.0439183264970779,-0.0455144867300987,0.363590329885483,-0.0166643150150776,-0.0608587078750134
808,-0.0382088758051395,-0.0349831357598305,-0.0483526103198528,0.323745667934418,-0.0412428751587868,-0.0548659302294254
809,-0.0429943799972534,0.0003068076912313,-0.0385930202901363,0.196958422660828,-0.0563045106828213,-0.0318626910448074
810,-0.0384916812181473,0.0288890525698662,-0.0301796421408653,0.0648817047476768,-0.0557703077793121,-0.02141616307199
811,-0.0292744040489197,0.0276668258011341,-0.0297394208610058,0.0558670945465565,-0.0420033968985081,-0.0374833904206753
812,-0.0223538130521774,0.0057719410397112,-0.0323464535176754,0.167989909648895,-0.0272277016192675,-0.0656459555029869
813,-0.02270682528615,-0.0146087938919663,-0.0297269504517317,0.0801817327737808,-0.0217548534274101,-0.0782932862639427
814,-0.0320224948227406,-0.0212710555642843,-0.0181328952312469,-0.5,-0.0266416482627392,-0.0654231235384941
815,-0.0416270829737186,-0.0128520671278238,0.0021121115423739,-0.5,-0.0325116589665413,-0.0406635925173759
816,-0.0360637493431568,0.0059446198865771,0.0255982559174299,-0.5,-0.0277857091277838,-0.0200042128562927
817,-0.0171801969408989,0.0215667765587568,0.0387298315763474,-0.5,-0.0155416633933783,-0.0118797216564417
818,-0.0003297977673355,0.0240823943167925,0.032125998288393,-0.5,-0.006242643110454,-0.0141707416623831
819,0.0086129512637853,0.0192749947309494,0.0154974292963743,-0.5,0.0006338557577691,-0.0130258295685053
820,0.0101712131872773,0.0187477339059114,0.0030018524266779,-0.5,0.0067394692450761,0.0062352125532925
821,0.0064956578426063,0.0288956090807915,-0.0061822640709579,-0.5,0.0053533990867435,0.0405260734260082
822,0.0028181558009237,0.0416263490915298,-0.0188299473375082,-0.5,-0.0060838847421109,0.0597141981124878
823,0.0035253106616437,0.0395790301263332,-0.0349829792976379,-0.5,-0.0210376791656017,0.0425915494561195
824,0.008673183619976,0.0203409437090158,-0.0482954382896423,-0.5,-0.0315657705068588,0.0115508595481515
825,0.0138002559542656,-0.0017616329714655,-0.0527682043612003,-0.5,-0.0339533984661102,-0.0061997808516025
826,0.0149621423333883,-0.019225412979722,-0.0508946105837822,-0.5,-0.0295281317085028,-0.0206216145306826
827,0.0080325426533818,-0.0339144021272659,-0.0456490740180016,-0.5,-0.0207737013697624,-0.0482153967022896
828,-0.0086074275895953,-0.0434776283800602,-0.0337066352367401,-0.5,-0.0095049599185586,-0.0794316232204437
829,-0.0220824647694826,-0.0414523780345917,-0.015838697552681,-0.5,0.0036440175026655,-0.0934439599514008
830,-0.0189101155847311,-0.0268603172153234,-0.0003617496695369,-0.5,0.0170404352247715,-0.0831484943628311
831,-0.0089839966967701,-0.0121222157031298,0.0027491911314427,-0.5,0.0210299603641033,-0.065051794052124
832,-0.0070573231205344,-0.0105655444785953,-0.0075880638323724,-0.5,0.0087170219048857,-0.0546301789581776
833,-0.0110274255275726,-0.0174700226634741,-0.020911481231451,-0.5,-0.0107688680291176,-0.041870191693306
834,-0.0169013626873493,-0.0198932588100433,-0.0279869232326746,-0.5,-0.0271370448172092,-0.013789183460176
835,-0.0244373045861721,-0.0139927454292774,-0.0270412806421518,-0.5,-0.0401584953069687,0.0193777028471231
836,-0.029027845710516,-0.0031839024741202,-0.0175784416496754,-0.5,-0.0467840433120728,0.0396728180348873
837,-0.0260484851896763,0.0116601986810565,0.0001969121803995,-0.5,-0.0375342406332493,0.0449735969305038
838,-0.0139811653643847,0.0310341939330101,0.0190811939537525,-0.5,-0.0128762610256672,0.0412085428833961
839,-0.0007521613151766,0.0442917831242085,0.0275433156639338,-0.5,0.0114208878949285,0.0281963422894478
840,-0.0044015478342771,0.0417090505361557,0.0195948909968138,-0.5,0.0188120529055595,0.0071391207166016
841,-0.029555281624198,0.0382401756942272,-0.0044789873063564,-0.5,0.0042613199912011,-0.0130734536796808
842,-0.0594868361949921,0.0479536615312099,-0.0434400215744972,-0.5,-0.0271086487919092,-0.0255094207823277
843,-0.0761764049530029,0.0546088479459286,-0.0858398675918579,-0.5,-0.0612662807106972,-0.0261279921978712
844,-0.0693214759230614,0.0417142137885094,-0.105184338986874,-0.5,-0.0708328410983086,-0.0133761027827859
845,-0.037857674062252,0.0217321030795574,-0.0836622044444084,-0.5,-0.0335460677742958,0.0025363070890307
846,0.0010526567930355,0.0125813530758023,-0.0365366898477077,-0.5,0.0293218623846769,0.0080942874774336
847,0.0241020657122135,0.0090939439833164,-0.0002382748498348,-0.5,0.0649670884013176,-0.00196830695495
848,0.0269560348242521,-0.0041756364516913,0.0078775156289339,-0.5,0.051283098757267,-0.0241100676357746
849,0.0208651442080736,-0.0263335537165403,-0.0012049111537635,-0.5,0.0075063561089336,-0.0455008186399937
850,0.0101301362738013,-0.0435180850327015,-0.0143823400139809,-0.5,-0.0451510921120644,-0.0549031309783459
851,-0.007115404587239,-0.0505504459142685,-0.0207548085600138,-0.5,-0.0856957510113716,-0.0501365102827549
852,-0.0250179581344128,-0.049652349203825,-0.0099958861246705,-0.5,-0.0875145718455315,-0.0326486900448799
853,-0.0335031524300575,-0.0395747944712639,0.0099240271374583,-0.5,-0.0501377619802952,-0.0146682290360332
854,-0.0246314853429794,-0.0253317840397358,0.019387885928154,-0.440686464309692,-0.0054351496510207,-0.0156127838417888
855,-0.0043367873877286,-0.0192428957670927,0.0145244561135769,-0.470283508300781,0.0202913135290146,-0.0356967002153397
856,0.0065136919729411,-0.0274695549160242,0.0052289199084043,-0.5,0.0249548759311438,-0.0592371933162212
857,-0.0016660382971167,-0.0449104718863964,-0.0018787828739732,-0.5,0.0185948628932238,-0.0759849473834038
858,-0.0181056689471006,-0.0585155189037323,-0.0049258191138505,-0.5,0.0107744140550494,-0.0822414681315422
859,-0.0296588558703661,-0.0598881617188454,-0.0045478576794266,-0.5,0.004454419016838,-0.0781150236725807
860,-0.0334657207131386,-0.0481774657964706,-0.0010713502997532,-0.5,-0.0006098612793721,-0.0626178309321404
861,-0.0336301624774933,-0.0241640154272318,0.006981851067394,-0.5,-0.0003487523063085,-0.0300777610391378
862,-0.031119380146265,0.0111021408811212,0.0174236092716455,-0.5,0.0088623883202672,0.0169833339750767
863,-0.0224920697510242,0.0548794120550156,0.0230558905750513,-0.494822114706039,0.02112140879035,0.0578374415636063
864,-0.0106923300772905,0.0901656225323677,0.0155962556600571,-0.5,0.0263216029852629,0.0721383988857269
865,-0.0030097737908363,0.0945965126156807,-0.0053408839739859,-0.5,0.0217314846813679,0.0667120292782784
866,0.0010560799855738,0.0710203796625137,-0.0301409419625998,-0.5,0.0117203881964087,0.05305265635252
867,0.0032619305420666,0.0388669669628143,-0.0508835390210152,-0.5,-0.0016130858566612,0.025375884026289
868,0.0012498417636379,0.0134638641029596,-0.0611441098153591,-0.5,-0.0166759137064219,-0.0065131094306707
869,-0.0049305828288197,0.0059726135805249,-0.0568642243742943,-0.5,-0.0278647486120462,-0.0247826389968395
870,-0.0124520929530263,0.0122029194608331,-0.0453230403363705,-0.5,-0.0352768339216709,-0.0318160839378834
871,-0.0178492348641157,0.0142232915386558,-0.0345251299440861,-0.5,-0.0425069890916348,-0.0321604460477829
872,-0.0212970152497292,0.004992532543838,-0.0230156145989895,-0.5,-0.0469532683491707,-0.0277926232665777
873,-0.0255329869687557,-0.009332307614386,-0.0104658342897892,-0.5,-0.0493083782494068,-0.0251202769577503
874,-0.0288481842726469,-0.0218001659959555,-0.0036425809375941,-0.5,-0.0550726801156998,-0.023647602647543
875,-0.0275825969874859,-0.0323279723525047,-0.006489498540759,-0.5,-0.060274925082922,-0.0206736940890551
876,-0.0192204657942057,-0.0488112159073353,-0.0161565914750099,-0.5,-0.0570878274738789,-0.0269197635352612
877,-0.0054620299488306,-0.0698752477765083,-0.0270753465592861,-0.5,-0.0494684018194675,-0.0505048707127571
878,0.0008036940125748,-0.0817870050668716,-0.0339333675801754,-0.5,-0.0472244992852211,-0.0762349888682365
879,-0.0128425369039178,-0.0781921222805977,-0.0354373268783093,-0.5,-0.0488231778144836,-0.0852082073688507
880,-0.0378553494811058,-0.0587856695055962,-0.0288120172917843,-0.5,-0.0412828922271729,-0.0762813091278076
881,-0.053017295897007,-0.0225845240056515,-0.0114496126770973,-0.5,-0.0207836013287306,-0.055919386446476
882,-0.0482599101960659,0.0191222708672285,0.0084347696974873,-0.5,0.0020602454897016,-0.0286773070693016
883,-0.0300072394311428,0.0466652512550354,0.0229974165558815,-0.5,0.0221306867897511,-0.0033968437928706
884,-0.0111324554309249,0.0540367998182774,0.0344293788075447,-0.5,0.0423822663724422,0.0054325964301824
885,-0.0006945087225176,0.042903833091259,0.0392077937722206,-0.5,0.0556184910237789,-0.0077504371292889
886,-0.0020438740029931,0.0133853303268552,0.0255495831370354,-0.5,0.0484255775809288,-0.0291136354207993
887,-0.0124070663005114,-0.0184498485177755,0.0002163636381737,-0.5,0.0234463289380074,-0.0309826973825693
888,-0.0200302880257368,-0.025496743619442,-0.014727883040905,-0.5,-0.0060717519372701,0.0109320068731904
889,-0.0162180438637733,-0.0014545652084052,-0.0125932209193707,-0.5,-0.031889770179987,0.0783266797661781
890,-0.0054239681921899,0.0329483449459076,0.0009192051948048,-0.5,-0.0448585487902164,0.116135098040104
891,0.0046672779135406,0.0581552907824516,0.0209843441843987,-0.5,-0.0356714650988579,0.10405807942152
892,0.0108673349022865,0.0695360824465752,0.0381448119878769,-0.5,-0.0094597963616251,0.0623745955526829
893,0.0154503928497434,0.0587484315037727,0.0350217074155808,-0.5,0.0120719391852617,0.005537751596421
894,0.0197589918971062,0.0155102461576462,0.0029449227731674,-0.5,0.0123757133260369,-0.0585667043924332
895,0.0178786832839251,-0.046687513589859,-0.0431476682424545,-0.5,-0.0076062246225774,-0.110911689698696
896,0.0055241594091057,-0.0962699204683304,-0.0823997110128403,-0.5,-0.0402871929109097,-0.129843056201935
897,-0.0154296196997166,-0.110098287463188,-0.102000422775745,-0.5,-0.0727896094322205,-0.108666144311428
898,-0.0374142080545425,-0.0877753123641014,-0.0957841277122498,-0.5,-0.0888193622231483,-0.0665624290704727
899,-0.0470889955759048,-0.0505915842950344,-0.0693084746599197,-0.5,-0.0776688233017921,-0.035225797444582
900,-0.0426231287419796,-0.0201154742389917,-0.0338641107082367,-0.5,-0.040548712015152,-0.0222817752510309
901,-0.0373657085001469,-0.0023799426853656,0.0005314105073921,-0.5,0.0036724295932799,-0.0140570597723126
902,-0.0329666212201118,0.0077233873307704,0.0273192264139652,-0.5,0.0353997722268105,0.0020036140922457
903,-0.0229394752532244,0.0199065040796995,0.0460725836455822,-0.34487783908844,0.0500831864774227,0.0307705104351044
904,-0.0147101106122136,0.0379073359072208,0.0538008734583855,0.158485352993011,0.0472735539078712,0.0613251812756062
905,-0.0145293204113841,0.0583049468696117,0.0451288931071758,0.468794196844101,0.0293483454734087,0.0818672925233841
906,-0.0178385451436043,0.0768982395529747,0.0220360495150089,0.5,0.0026695104315877,0.0901463627815247
907,-0.0243595223873854,0.0776944905519485,-0.0123944459483027,0.5,-0.0330903008580208,0.0705068483948708
908,-0.0374936498701572,0.04065877571702,-0.0558336675167084,0.5,-0.0766130611300468,0.0116503434255719
909,-0.0505004189908504,-0.0226252470165491,-0.0892596840858459,0.5,-0.104666441679001,-0.0536498948931694
910,-0.0491056554019451,-0.0692343637347221,-0.0821779891848564,0.5,-0.0905870050191879,-0.078599326312542
911,-0.0317088514566422,-0.069849856197834,-0.0337352864444256,0.5,-0.0459222681820393,-0.0557760931551456
912,-0.011000812985003,-0.0362987257540226,0.0198367703706026,0.5,-0.0059990254230797,-0.0139349075034261
913,0.0049057374708354,-0.0018999890889972,0.050964780151844,0.5,0.0168367922306061,0.0166635550558567
914,0.0163651872426271,0.010610880330205,0.061577096581459,0.5,0.0337783508002758,0.0239897426217794
915,0.0277623180299997,-0.0025901510380208,0.0613333024084568,0.5,0.0554569438099861,0.0126724308356643
916,0.042352169752121,-0.0311919264495373,0.0560589805245399,0.5,0.0804272145032883,-0.0072006401605904
917,0.0534895211458206,-0.0561610162258148,0.0488745123147964,0.5,0.0956848114728928,-0.0251158028841019
918,0.0516573376953602,-0.0612178444862366,0.0348748490214348,0.5,0.0878536626696587,-0.0344618856906891
919,0.034969124943018,-0.0428373254835606,0.0093754604458808,0.5,0.0522560477256775,-0.0358194448053837
920,0.0059360261075198,-0.0096507370471954,-0.0196377448737621,0.5,-0.0021208077669143,-0.0289135407656431
921,-0.0307107344269753,0.0253754444420338,-0.0401964634656906,0.5,-0.053608663380146,-0.015302412211895
922,-0.0644986629486084,0.0509931482374668,-0.0413719788193703,0.5,-0.0770338475704193,-0.0028814177494496
923,-0.0809485763311386,0.0577203743159771,-0.017546609044075,0.5,-0.0596816912293434,0.0059793167747557
924,-0.0729680210351944,0.0426151119172573,0.0152828665450215,0.5,-0.0206810161471367,0.012663908302784
925,-0.048321221023798,0.0139033803716302,0.0283432118594646,0.5,0.000689101871103,0.011203377507627
926,-0.0218117833137512,-0.0168185997754335,0.0156946312636137,0.5,-0.0110704405233264,-0.0007163351983763
927,-0.0049832914955914,-0.0377457998692989,-0.0039119995199143,0.5,-0.0390870869159698,-0.0105296615511179
928,-0.0026754273567348,-0.0410354025661945,-0.0240707136690617,0.5,-0.0672614499926567,-0.0114475758746266
929,-0.0091908844187855,-0.033189557492733,-0.0484450720250607,0.5,-0.0862614288926125,-0.0156824458390474
930,-0.0114909159019589,-0.0212983805686235,-0.0623631365597248,0.5,-0.0832173079252243,-0.0236126258969307
931,-0.0048345676623284,-0.0018762992694973,-0.0499768890440464,0.5,-0.0542924217879772,-0.009452418424189
932,0.0044768992811441,0.0212210174649954,-0.0206541195511818,0.5,-0.0113806594163179,0.0286545380949974
933,0.0106583777815104,0.0381758362054825,0.0019826106727123,0.5,0.0264663305133581,0.0539996214210987
934,0.0078601418063044,0.0438386276364326,0.0054439562372863,0.5,0.0431087613105774,0.0474268011748791
935,-0.0065329251810908,0.0368108339607716,-0.0012794504873454,0.5,0.0375933609902859,0.022967666387558
936,-0.0224662348628044,0.0228673350065947,-0.0025916937738657,0.5,0.0231994464993477,-0.0004797990550287
937,-0.0258527584373951,0.0064746988937258,0.0060884836129844,0.5,0.0159393269568682,-0.0150539316236973
938,-0.0140071688219905,-0.0157598704099655,0.0219187997281551,0.5,0.0244306623935699,-0.0240749921649694
939,-2.92060740321176e-05,-0.0435079671442509,0.0414391160011292,0.5,0.0390534251928329,-0.0311580020934343
940,0.0067161372862756,-0.0623322390019894,0.0598298572003841,0.5,0.0434243343770504,-0.0287173222750425
941,0.0116808852180839,-0.0540803596377373,0.0733749344944954,0.5,0.0377005934715271,-0.0100153097882867
942,0.0174488928169012,-0.0207476913928986,0.0754757821559906,0.5,0.030280563980341,0.0137636959552765
943,0.0213019493967295,0.012053731828928,0.056561965495348,0.5,0.0181896016001701,0.0242442358285189
944,0.0229799207299948,0.0218559913337231,0.0236427076160908,0.5,-0.0034744248259812,0.0162200480699539
945,0.0217681005597115,0.0127618620172143,-0.0054509351029992,0.5,-0.0272682067006826,0.002452096203342
946,0.0177171677350998,-0.0008679355960339,-0.0261966548860073,0.5,-0.0427432768046856,-0.0087944632396102
947,0.0096481731161475,-0.0196035169064999,-0.0419940985739231,0.5,-0.0477799437940121,-0.0252560656517744
948,-0.0041208565235137,-0.0469335839152336,-0.0530860349535942,0.5,-0.0433285050094128,-0.0411542728543282
949,-0.0162913110107183,-0.0714669153094292,-0.0548658072948456,0.5,-0.0287692341953516,-0.0357449688017368
950,-0.0206582508981228,-0.0700345635414124,-0.0423453971743584,0.5,-0.0118510751053691,-0.0061428034678101
951,-0.0241754744201899,-0.0276500545442104,-0.0203612241894007,0.5,-0.0059322784654796,0.0355957485735416
952,-0.0299524068832397,0.0357998758554459,-0.0011585953179746,0.5,-0.0070992005057632,0.0691655874252319
953,-0.0275664459913969,0.0799125507473946,0.0068579725921154,0.5,0.0030046929605305,0.0729020982980728
954,-0.0117661273106933,0.085982121527195,0.0037481389008462,0.5,0.0269377715885639,0.0527618899941444
955,0.0084444796666503,0.0609734170138836,-0.0072682513855397,0.5,0.0434618666768074,0.0258929263800383
956,0.0186889488250017,0.0157677382230759,-0.0262046791613102,0.5,0.0298356804996729,-0.0079867718741297
957,0.0128015400841832,-0.0367478393018246,-0.0496345572173595,0.5,-0.0123854195699096,-0.0444521978497505
958,-0.0008276246953755,-0.0799955874681473,-0.0654543936252594,0.5,-0.054850060492754,-0.0640271678566933
959,-0.0102578680962324,-0.10221666097641,-0.0632632970809937,0.5,-0.06765266507864,-0.0566906593739986
960,-0.008351226337254,-0.0952207371592522,-0.0439644567668438,0.5,-0.0447904579341412,-0.0326359122991562
961,0.0033629941754043,-0.0616432130336761,-0.0178789738565683,0.5,-0.0068387053906917,-0.0104882381856442
962,0.0127666909247637,-0.018505347892642,0.0044488054700195,0.5,0.0191161260008812,-0.0035599477123469
963,0.0105146244168282,0.0160483606159687,0.0144822457805276,0.5,0.0172153320163488,-0.0129837244749069
964,0.0008394964388571,0.0281349066644907,0.0075620142742991,0.5,-0.0112259797751904,-0.0293706599622965
965,-0.0034528851974755,0.0206155739724636,-0.0020773434080183,0.5,-0.042157981544733,-0.0355635024607182
966,0.0077079501934349,0.0133130289614201,0.0096205277368426,0.5,-0.0418198071420193,-0.0176020264625549
967,0.0311139915138483,0.0168167240917683,0.0442772395908833,0.5,0.0012053118553012,0.021255312487483
968,0.0525034666061401,0.0277500357478857,0.0813375860452652,0.5,0.0619178041815758,0.0686028674244881
969,0.0611197128891945,0.0414003692567348,0.101161934435368,0.5,0.099563904106617,0.110895961523056
970,0.0567081794142723,0.0538691692054272,0.0951847955584526,0.5,0.0944035351276398,0.130249917507172
971,0.0431730858981609,0.0614132322371006,0.0648999959230423,0.5,0.0601792335510254,0.117571286857128
972,0.0220209639519453,0.0575551986694336,0.0187721997499466,0.5,0.0196684133261442,0.0903962701559067
973,-0.0097897034138441,0.0374622419476509,-0.030298413708806,0.386762112379074,-0.0187487155199051,0.0648511722683907
974,-0.050678476691246,0.0083248745650053,-0.0653687939047813,-0.5,-0.0524453334510326,0.0292994901537895
975,-0.0840547531843185,-0.0186012089252472,-0.0738222748041153,-0.5,-0.0697328150272369,-0.0175359863787889
976,-0.0927570164203644,-0.037933524698019,-0.0628450736403465,-0.5,-0.06268011033535,-0.0505627579987049
977,-0.0759115368127823,-0.0433914102613926,-0.0547059774398804,-0.5,-0.0477315224707127,-0.0559245832264423
978,-0.0462663248181343,-0.0332109034061432,-0.0644050911068916,-0.5,-0.0499111078679562,-0.0501554906368256
979,-0.0213916581124067,-0.0266391336917877,-0.0839531123638153,-0.5,-0.0668213739991188,-0.0527882538735867
980,-0.0086300801485776,-0.0412381254136562,-0.0833485722541809,-0.5,-0.0682162716984749,-0.0575428791344166
981,-0.0025882159825414,-0.0650189891457558,-0.0428663641214371,-0.5,-0.0339988209307194,-0.0530377104878426
982,0.0025070651900023,-0.0791642442345619,0.013787591829896,-0.5,0.0144706703722477,-0.0452428162097931
983,0.0129138948395848,-0.072893850505352,0.0472276322543621,-0.5,0.0380797237157822,-0.037413876503706
984,0.0289051625877619,-0.0311275441199541,0.0490909963846207,-0.5,0.0283434018492699,-0.017186164855957
985,0.0414048470556736,0.043224073946476,0.0396520905196667,-0.0456226766109467,0.0078952116891741,0.0236440673470497
986,0.0433895252645016,0.109921187162399,0.0341724194586277,0.5,-0.0066933631896972,0.065931923687458
987,0.0328042954206467,0.12744003534317,0.0272100977599621,0.5,-0.0185862053185701,0.0765256956219673
988,0.0180088710039854,0.0901605263352394,0.0135240647941828,0.5,-0.0299446545541286,0.0513812527060509
989,0.0181299913674593,0.0285227727144957,0.0025424975901842,0.5,-0.031192485243082,0.0204700846225023
990,0.03929677978158,-0.0207285024225712,0.0013447663513943,0.5,-0.0170609205961227,0.0138631202280521
991,0.0630236119031906,-0.043258935213089,0.0075745531357824,0.5,0.0049224686808884,0.033348198980093
992,0.0699225589632988,-0.0469397231936455,0.0170512180775404,0.5,0.0247327294200659,0.0527282953262329
993,0.0557413175702095,-0.0412185415625572,0.0187417268753052,0.5,0.0346406511962414,0.0481082089245319
994,0.0260069090873003,-0.0311106350272894,0.0016613807529211,0.5,0.0287302806973457,0.0158474519848824
995,-0.0058813886716961,-0.0298130083829165,-0.0259072855114937,-0.320789963006973,0.0094158863648772,-0.0252577234059572
996,-0.0278978105634451,-0.0432731285691261,-0.0476591549813747,-0.5,-0.0126928715035319,-0.0456337407231331
997,-0.041264433413744,-0.0527838096022606,-0.0589018352329731,-0.5,-0.0269349589943886,-0.0384005084633827
998,-0.0516562983393669,-0.0446569323539734,-0.0600336864590645,-0.5,-0.0292243976145983,-0.024467721581459
999,-0.0572027042508125,-0.033689770847559,-0.0493804439902306,-0.5,-0.028526434674859,-0.0204985160380602
1000,0.018080810084939,0.0284924786537886,0.0024538983125239,0.5,-0.0312433764338493,0.0204091556370258
1001,0.0392468757927418,-0.0207592379301786,0.0012548775412142,0.5,-0.0171125531196594,0.0138013185933232
1002,0.0629723146557808,-0.0432905219495296,0.0074821626767516,0.5,0.0048694140277802,0.0332846939563751
1003,0.0698697194457054,-0.0469722487032413,0.0169560462236404,0.5,0.0246781036257744,0.0526628941297531
1004,0.0556873716413975,-0.0412517376244068,0.0186445564031601,0.5,0.0345849059522152,0.0480414405465126
1005,0.0259526446461678,-0.0311440210789442,0.0015636252937838,0.5,0.0286742150783539,0.0157802850008011
1006,-0.0059352586977183,-0.0298461485654116,-0.0260043404996395,-0.321167796850204,0.0093602230772376,-0.02532440982759
1007,-0.0279510132968426,-0.0433058552443981,-0.0477550104260445,-0.5,-0.0127478567883372,-0.0456996038556099
1008,-0.0413172543048859,-0.0528162978589535,-0.0589970014989376,-0.5,-0.0269895605742931,-0.0384658947587013
1009,-0.0517094060778618,-0.0446895994246006,-0.0601293630897999,-0.5,-0.0292792990803719,-0.02453344874084
1010,-0.0572567731142044,-0.0337230190634727,-0.0494778454303741,-0.5,-0.0285823196172714,-0.02056541480124
1011,-0.050646897405386,-0.0382583625614643,-0.0264495871961117,-0.5,-0.0324607416987419,-0.0215392671525478
1012,-0.032832533121109,-0.0517108030617237,0.0044608125463128,-0.5,-0.032452430576086,-0.0131999151781201
1013,-0.0150284040719271,-0.0540371648967266,0.0336959026753902,-0.5,-0.0206240378320217,0.0083658378571271
1014,-0.0031420588493347,-0.0384361706674099,0.051146425306797,-0.5,-0.0047078495845198,0.02850641310215
1015,0.0052835554815828,-0.0107091283425689,0.0480396337807179,-0.5,6.85260602040216e-05,0.0287504550069571
1016,0.0123344799503684,0.021116940304637,0.0274099577218294,-0.5,-0.0078965704888105,0.0167352557182312
1017,0.0172695685178041,0.0454573296010494,0.0088170198723673,-0.5,-0.0116373412311077,0.0203151181340218
1018,0.0197134520858526,0.0530599020421505,0.0070339986123144,-0.5,0.0008181250886991,0.0425051748752594
1019,0.0204737521708012,0.0477286279201508,0.0177458021789789,-0.5,0.0206602644175291,0.0600610971450806
1020,0.0191504899412394,0.0397072695195675,0.0252784639596939,-0.5,0.0307594779878855,0.0627176761627197
1021,0.016223331913352,0.0325011536478996,0.0175413899123669,-0.5,0.0237845238298178,0.0611926317214966
1022,0.0173815153539181,0.0215154439210892,-0.0045232698321342,-0.5,0.0073023783043026,0.0643357187509537
1023,0.0283806715160608,0.0017327549867332,-0.0279928892850876,-0.5,0.0026665185578167,0.0600669421255589
1024,0.0464497581124306,-0.0246100127696991,-0.0380576774477959,-0.5,0.0269399154931307,0.0355770997703075
1025,0.0611425712704659,-0.0540910325944424,-0.0377887338399887,-0.5,0.060606587678194,-0.0006611488061025
1026,0.0597737953066826,-0.084699422121048,-0.0431142039597034,-0.5,0.0632335990667343,-0.0422001220285892
1027,0.0313161201775074,-0.106198288500309,-0.0550741627812386,-0.5,0.0203024949878454,-0.0872542709112167
1028,-0.018091294914484,-0.10407118499279,-0.0556345656514168,-0.5,-0.0439167097210884,-0.110644675791264
1029,-0.0603822320699692,-0.0700326710939407,-0.0297876466065645,-0.5,-0.0873505845665932,-0.0825002491474152
1030,-0.0736120939254761,-0.0158318988978863,0.0131815541535616,-0.5,-0.0850854516029358,-0.0150579046458006
1031,-0.0579203404486179,0.0307799428701401,0.0489160306751728,-0.5,-0.0473874844610691,0.0495815239846706
1032,-0.0306776016950607,0.059374064207077,0.0556655712425709,-0.5,-0.0126649457961321,0.0845606103539467
1033,-0.0156299490481615,0.0765547081828117,0.0246453117579222,-0.5,-0.0129826553165913,0.0809237957000732
1034,-0.0200284365564585,0.0782448872923851,-0.0248984973877668,-0.5,-0.0373291186988354,0.0443319864571095
1035,-0.0237822663038969,0.0584339797496796,-0.0551125667989254,-0.5,-0.0498803518712521,0.0065430840477347
1036,-0.0052146431989967,0.027811449021101,-0.0466995798051357,-0.5,-0.0330105423927307,-0.0023921327665448
1037,0.0299341175705194,-0.0019625355489552,-0.0159043855965137,-0.5,0.0039807274006307,0.0133451065048575
1038,0.0586625412106514,-0.0319715961813927,0.0111710513010621,-0.5,0.0421606823801994,0.0287959575653076
1039,0.0633730068802834,-0.064152829349041,0.0237626098096371,-0.5,0.0630012452602386,0.0249254927039146
1040,0.04265196621418,-0.0875625610351563,0.0262662284076214,-0.5,0.058448601514101,0.0133302360773087
1041,0.0131913591176271,-0.0825752019882202,0.0312920436263084,-0.5,0.0445042923092842,0.0213059950619936
1042,-0.0073772417381405,-0.0506452508270741,0.0446436181664467,-0.5,0.0426453612744808,0.039793573319912
1043,-0.0141968308016658,-0.017300471663475,0.0560017228126526,-0.5,0.0484966523945332,0.039779182523489
1044,-0.0110234916210175,0.0056648976169526,0.0533973425626755,-0.5,0.0411640703678131,0.0207243952900171
1045,-0.0043702377006411,0.0257576778531075,0.0397765077650547,-0.5,0.0158942155539989,0.0069671850651502
1046,0.0042906529270112,0.044223565608263,0.0283082388341427,-0.5,-0.0133591387420893,0.0175558272749186
1047,0.0159783717244864,0.050189059227705,0.0285313352942467,-0.5,-0.0311821717768908,0.0412775352597237
1048,0.0269416496157646,0.0402543805539608,0.0389417931437492,-0.5,-0.0266246143728495,0.0531454905867577
1049,0.033774483948946,0.0285875573754311,0.0454929731786251,-0.5,-0.0033442387357354,0.0435048565268517
1050,0.0378259718418121,0.0252502970397472,0.0292015448212624,-0.5,0.0128663489595056,0.0155221549794078
1051,0.04313949868083,0.025724871084094,-0.0129658803343773,-0.5,0.0004179678217042,-0.0173560306429863
1052,0.0458173081278801,0.0214190967381001,-0.0600471049547195,-0.5,-0.0314165204763412,-0.0347043722867966
1053,0.0347813293337822,7.17611546861008e-05,-0.0901392549276352,-0.5,-0.0549976006150246,-0.0335036143660545
1054,0.0125271286815405,-0.0418510437011719,-0.0959323570132256,-0.5,-0.0556573681533337,-0.0322975926101208
1055,-0.0050850468687713,-0.078536368906498,-0.0764174088835716,-0.5,-0.0382999442517757,-0.0366558246314526
1056,-0.0107677830383182,-0.0806009322404861,-0.0334368869662285,-0.5,-0.0070494841784238,-0.0267927348613739
1057,-0.009615708142519,-0.0552528128027916,0.0218784399330616,-0.5,0.0354285389184952,0.004884832073003
1058,-0.007340676151216,-0.029243029654026,0.071517251431942,-0.5,0.0764161124825478,0.0366388931870461
1059,-0.0101057598367333,-0.0152666317299008,0.0942836552858353,-0.5,0.0948466807603836,0.0507035553455353
1060,-0.0204297620803118,-0.0074149169959127,0.0830725729465485,-0.5,0.0804193690419197,0.052425928413868
1061,-0.031494252383709,0.0029491160530597,0.060240738093853,-0.5,0.046445619314909,0.0505618900060654
1062,-0.0354113355278969,0.010385412722826,0.0449286177754402,-0.5,0.010186392813921,0.0424709059298038
1063,-0.0266238786280155,0.0073032439686358,0.0323261357843876,-0.5,-0.0207605566829443,0.0281167197972536
1064,-0.0052519561722874,0.0010686469031497,0.0194585174322128,-0.5,-0.0399036779999733,0.0196856204420328
1065,0.0216142572462559,0.0058788862079381,0.0160370785742998,-0.5,-0.0399879440665245,0.0264463536441326
1066,0.0460358634591103,0.0256812870502472,0.0275760516524315,-0.5,-0.023691238835454,0.0466662906110287
1067,0.062047503888607,0.0498544573783875,0.0457825548946857,-0.5,-0.0022615338675677,0.0765865445137024
1068,0.0696648806333542,0.0648075491189957,0.0533298030495644,-0.5,0.018354395404458,0.104676142334938
1069,0.0697996839880943,0.0631466135382652,0.035851176828146,-0.5,0.0334953963756561,0.106618754565716
1070,0.055920597165823,0.048346534371376,-0.0029106140136718,-0.5,0.0346754789352417,0.0747138634324074
1071,0.028941547498107,0.0341050960123539,-0.0402412824332714,-0.5,0.0213234480470419,0.0311352424323559
1072,0.0060883909463882,0.0231772530823946,-0.0563206486403942,-0.5,0.0012995281722396,-0.0002769189304672
1073,0.0031091133132576,0.0078897532075643,-0.0505725629627705,-0.5,-0.0181316155940294,-0.0161793567240238
1074,0.0152560733258724,-0.0026662643067538,-0.0341662280261517,-0.5,-0.0333887450397015,-0.0245159920305014
1075,0.0207041818648577,0.0014060925459489,-0.014506065286696,-0.5,-0.0383372381329536,-0.0235494375228882
1076,0.0081486981362104,0.0048964386805892,0.0101790921762586,-0.5,-0.024043083190918,-0.007155280560255
1077,-0.0138584692031145,-0.0126439230516553,0.0357481725513935,-0.5,-0.0001266303734155,0.0085165631026029
1078,-0.0346994958817959,-0.0505248196423054,0.0443488992750645,-0.5,0.0084903100505471,-0.0034900116734206
1079,-0.0470368005335331,-0.0873440131545067,0.0312397982925177,-0.5,-0.0007027933024801,-0.0364006832242012
1080,-0.045122716575861,-0.0996256396174431,0.0106725934892893,-0.5,-0.0122899832203984,-0.0622101426124573
1081,-0.0316445231437683,-0.0806232541799545,-0.0095062870532274,-0.5,-0.0240641087293625,-0.0711847990751266
1082,-0.0139674041420221,-0.0445865876972675,-0.0220573544502258,-0.5,-0.0357068814337254,-0.0611964836716652
1083,0.0048933420330286,-0.0109860431402922,-0.0147153688594699,-0.5,-0.035954125225544,-0.0240681115537882
1084,0.0211219601333141,0.0123948007822037,0.0087410109117627,-0.5,-0.0221533346921206,0.030616594478488
1085,0.0304348841309547,0.0295248348265886,0.0313382372260094,-0.5,-0.007320774719119,0.0748158991336823
1086,0.0372853167355061,0.0442984253168106,0.0440843403339386,-0.5,0.0023763477802276,0.101331882178783
1087,0.047193992882967,0.0516810268163681,0.0491446740925312,-0.5,0.0179881453514099,0.118505030870438
1088,0.0556791909039021,0.0477884523570538,0.0520771667361259,-0.5,0.0434715114533901,0.119988292455673
1089,0.0522496290504932,0.0382051132619381,0.0519304275512695,-0.5,0.0591305010020733,0.0944698303937912
1090,0.032367505133152,0.024803914129734,0.0398491658270359,-0.5,0.0467362999916077,0.0427587367594242
1091,0.0082727400586009,0.0076049235649406,0.0132809644564986,-0.5,0.0140718594193459,-0.0189088545739651
1092,-0.0030976922716945,-0.0028762235306203,-0.0183424688875675,-0.5,-0.0191477555781603,-0.0675361976027489
1093,-0.0020847795531153,-0.0011474521597847,-0.0409479290246964,-0.5,-0.0399429611861706,-0.091293603181839
1094,-0.0001766077330103,0.0041481191292405,-0.0461939871311188,-0.5,-0.0431509241461754,-0.0892004817724228
1095,-0.0044397166930139,0.0007127411081455,-0.0410869643092155,-0.5,-0.0332427993416786,-0.0713520124554634
1096,-0.013078854419291,-0.0206630397588015,-0.0357500202953815,-0.5,-0.0201348084956408,-0.0637569949030876
1097,-0.0165120325982571,-0.0535102859139442,-0.0289978124201298,-0.5,-0.0047181523405015,-0.0758369490504265
1098,-0.0093835992738604,-0.0771752521395683,-0.019355421885848,-0.5,0.0167757850140333,-0.0895865336060524
1099,0.000359596509952,-0.0772175863385201,-0.0105327256023884,-0.5,0.0363329276442528,-0.0979745984077454
1100,0.0018194706644862,-0.0552648268640041,-0.0054633505642414,-0.5,0.0418969951570034,-0.104703113436699
1101,-0.0021661745849996,-0.0223071854561567,-0.0007041557109914,-0.5,0.0381059870123863,-0.0925607979297638
1102,0.0021843111608177,0.0128077929839492,0.0094788912683725,-0.5,0.0410051010549068,-0.0504702106118202
1103,0.0169961154460907,0.0393470861017704,0.020182291045785,-0.5,0.0543532595038414,-0.0049696466885507
1104,0.0292249266058207,0.0471271798014641,0.0219489894807339,-0.5,0.0667141154408455,0.0198800656944513
1105,0.0321554727852345,0.0408099815249443,0.0129919005557895,-0.5,0.0660920441150665,0.0277846120297909
1106,0.0293833017349243,0.0267219357192516,-0.0015425803139805,-0.5,0.0490698181092739,0.0268778894096613
1107,0.0271538943052292,0.0041019339114427,-0.0121609205380082,-0.5,0.0279027540236712,0.0181944575160742
1108,0.0303494948893785,-0.0192899648100138,-0.0111514972522855,-0.5,0.0219157543033361,0.0013301444705575
1109,0.0332279875874519,-0.0314005501568317,-0.0023609374184161,-0.5,0.0323465913534164,-0.0190742444247007
1110,0.0308578629046679,-0.0263655669987202,0.0045142080634832,-0.322739899158478,0.0447699055075645,-0.031293835490942
1111,0.0313903093338013,-0.0018819250399246,0.0059865610674023,0.5,0.0505039319396019,-0.028632128611207
1112,0.0395559892058373,0.0298761017620564,0.0005659596645273,0.5,0.0481291338801384,-0.0228622611612082
1113,0.0479468293488026,0.0451465174555779,-0.0116088129580021,0.5,0.0384926348924637,-0.0267430078238249
1114,0.0481321066617966,0.0396260693669319,-0.0209114477038383,0.5,0.028449472039938,-0.0365075431764126
1115,0.0396884605288506,0.0232955608516932,-0.0227781496942043,0.5,0.0241494085639715,-0.0543626546859741
1116,0.0317627377808094,0.0052278926596045,-0.0261251479387283,0.5,0.0249629579484463,-0.08208317309618
1117,0.0325496569275856,-0.0042212917469441,-0.0311509910970926,0.5,0.033486969769001,-0.102495841681957
1118,0.0380316786468029,-0.0095580536872148,-0.0297143571078777,0.5,0.0536474362015724,-0.117202334105968
1119,0.0383250825107098,-0.0265502408146858,-0.02518555149436,0.5,0.0775677189230919,-0.144849926233292
1120,0.0289275534451008,-0.0593670234084129,-0.0269952677190304,0.5,0.0865595638751984,-0.177283599972725
1121,0.015555483289063,-0.0958011150360107,-0.0365363918244839,0.5,0.0704585611820221,-0.190435633063316
1122,0.0078263077884912,-0.118310019373894,-0.0457764342427254,0.5,0.0433090515434742,-0.177750021219254
1123,0.0069062816910445,-0.117636449635029,-0.0429699420928955,0.5,0.027476642280817,-0.148380786180496
1124,0.0062028090469539,-0.0965021625161171,-0.0259548015892506,0.171294137835503,0.0255735609680414,-0.111978769302368
1125,0.0046902876347303,-0.0650541260838509,-0.0072951996698975,-0.5,0.0246588476002216,-0.0748014152050018
1126,0.0100611615926027,-0.0272542331367731,0.0058370251208543,-0.5,0.0215872321277857,-0.0395907275378704
1127,0.0230617299675941,0.0169068742543459,0.0156710799783468,-0.5,0.0218980200588703,-0.0170234236866236
1128,0.0304557997733355,0.055697288364172,0.0189273040741682,-0.5,0.0250547025352716,-0.018318397924304
1129,0.0244789775460958,0.0756158456206322,0.0144583955407143,-0.5,0.0320709198713303,-0.034002248197794
1130,0.0198472328484058,0.0713238641619682,0.0117644257843494,-0.5,0.056271530687809,-0.0482157841324806
