,AF3,AF4,Fp1,Fp2,AF7,AF8
0,0.00954398792237043,0.0181512646377087,0.0139692258089781,-0.00047677694237791,-0.00447080424055457,0.0258895475417376
1,0.0131667423993349,0.0242154747247696,0.0152390189468861,-0.000483715441077948,0.000494453764986247,0.0373444519937038
2,0.0149321621283889,0.0270637534558773,0.014268422499299,-0.00049720355309546,0.00276131508871913,0.0423697233200073
3,0.0151091665029526,0.0272137876600027,0.012437560595572,-0.000512218335643411,0.00337871140800416,0.0437085255980492
4,0.0139482105150819,0.0255711060017347,0.0105696180835366,-0.000523012829944491,0.00286756991408765,0.0430078655481339
5,0.0130429398268461,0.0243329033255577,0.00942708738148212,-0.000526189862284809,0.00191252818331122,0.0410389676690102
6,0.013474996201694,0.0249253176152706,0.00960351340472698,-0.000522423768416047,0.00145662238355726,0.0382411703467369
7,0.01496044639498,0.0264351014047861,0.0112872188910842,-0.000515962776262313,0.00247653853148222,0.0347076579928398
8,0.0164513159543276,0.0265047382563353,0.0138120409101248,-0.000512254016939551,0.00497382879257202,0.0295092388987541
9,0.0169434621930122,0.0237360708415508,0.0155520364642143,-0.000515016261488199,0.00751262158155441,0.0219055525958538
10,0.0170117374509573,0.0197596792131662,0.0161119028925896,-0.000524332281202078,0.0097297290340066,0.0140233738347888
11,0.0169021189212799,0.0165470521897078,0.0161179155111313,-0.000536736741196364,0.0119844395667315,0.00861740298569202
12,0.0154613135382533,0.0143612734973431,0.0151199074462056,-0.000547180126886815,0.0130902351811528,0.00615533022210002
13,0.0129236998036504,0.0136775644496083,0.0129934195429087,-0.000551760196685791,0.0123939262703061,0.00587522331625223
14,0.0109471837058663,0.0148634230718017,0.01106649171561,-0.00054974592057988,0.0112450029700994,0.00658438540995121
15,0.0104343853890896,0.0173900164663792,0.010437005199492,-0.000543847214430571,0.0107008535414934,0.00900329928845167
16,0.0105307418853045,0.0199249722063541,0.0105534447357059,-0.000538654217962176,0.0100339045748115,0.0145178325474262
17,0.0102051617577672,0.0211179573088884,0.0108433542773128,-0.000538140127900988,0.00912426877766848,0.0207639001309872
18,0.0100914221256971,0.0213206112384796,0.0122034782543778,-0.000543585803825408,0.00977046135812998,0.0250808726996183
19,0.010660482570529,0.0214304737746716,0.014406705275178,-0.000553008052520454,0.0121814794838429,0.0278658084571362
20,0.011328561231494,0.0214371215552092,0.0155392065644264,-0.000562334782443941,0.0144131472334266,0.0299308579415083
21,0.0118522346019745,0.0212859436869621,0.0147677892819047,-0.000567638489883393,0.0153400180861354,0.0312047563493252
22,0.0120608042925596,0.0215992722660303,0.0128276068717241,-0.000567204435355961,0.0149979926645756,0.0314856395125389
23,0.011360895819962,0.0227440241724253,0.0107038486748934,-0.000562348053790629,0.0133263748139143,0.0301105994731188
24,0.00953718274831772,0.0236008707433939,0.00895501486957073,-0.000556599348783493,0.0102217141538858,0.0264800172299147
25,0.00766889518126845,0.0230023600161076,0.00822600722312927,-0.000553752295672894,0.00700111640617251,0.0225696712732315
26,0.00745219551026821,0.0213517863303423,0.0095188207924366,-0.000555855047423393,0.00587922846898437,0.0220060292631388
27,0.0091147655621171,0.019307604059577,0.0127556212246418,-0.000562204804737121,0.00738066527992487,0.0255158897489309
28,0.0108822584152222,0.0167138036340475,0.0157072115689516,-0.000569834548514336,0.00939367152750492,0.030005780979991
29,0.010632261633873,0.0133934104815125,0.0153634957969189,-0.000575172365643084,0.00863563176244497,0.0321205593645573
30,0.00803617760539055,0.00982915051281452,0.0111034521833062,-0.000575947866309434,0.00397435296326876,0.0306693334132433
31,0.00511681055650115,0.0071526262909174,0.00573348812758923,-0.00057233078405261,-0.00187693710904568,0.0262413267046213
32,0.00339165865443647,0.00563065428286791,0.00171532295644283,-0.000566735165193677,-0.00604033982381225,0.0194841343909502
33,0.00208205729722977,0.00387610588222742,-0.00114165898412466,-0.000562452478334308,-0.00855095311999321,0.0104308407753706
34,-6.90228043822572E-05,0.0011405220720917,-0.00363454269245267,-0.000561884080525488,-0.0106208194047213,0.000472404819447547
35,-0.00367498700506985,-0.00183861027471721,-0.00667669158428907,-0.000565322232432663,-0.013536867685616,-0.00720988400280476
36,-0.00788790173828602,-0.00416114181280136,-0.0111426068469882,-0.000570894568227232,-0.017794432118535,-0.010657767765224
37,-0.0106598204001784,-0.00552992802113295,-0.016200665384531,-0.000575647398363799,-0.0218566581606865,-0.0113345282152295
38,-0.0112614585086703,-0.00620474852621555,-0.0205002818256617,-0.000577145372517407,-0.0242877136915922,-0.0123072741553187
39,-0.010372375138104,-0.00626342464238405,-0.0233247298747301,-0.000574723002500832,-0.0249717812985182,-0.0146634401753545
40,-0.00849906262010336,-0.00552952289581299,-0.023369025439024,-0.000569748634006828,-0.0233054123818874,-0.0166618023067713
41,-0.00705784978345037,-0.00469955336302519,-0.0206591691821814,-0.000564810296054929,-0.0196176134049892,-0.0166652351617813
42,-0.00839964486658573,-0.00494723208248615,-0.0181559193879366,-0.000562303466722369,-0.0167463608086109,-0.0153753366321325
43,-0.0116530228406191,-0.00521422689780593,-0.0173507444560528,-0.00056319049326703,-0.0157509427517653,-0.0128981061279774
44,-0.0134654473513365,-0.00359929399564862,-0.017546471208334,-0.00056657160166651,-0.0152892479673028,-0.00788547098636627
45,-0.0130186164751649,-0.000525698356796056,-0.0188393834978342,-0.000570250849705189,-0.0151877570897341,-0.00135458691511303
46,-0.0115368459373713,0.00252651958726346,-0.0205483734607697,-0.000571948534343392,-0.0153131177648902,0.00324737560003996
47,-0.0105171827599406,0.00372472126036882,-0.021428931504488,-0.000570493342820555,-0.0152412792667747,0.00259870989248157
48,-0.0107194427400827,0.00254899729043245,-0.0208175200968981,-0.0005663734045811,-0.0150528242811561,-0.00325633375905454
49,-0.0109582431614399,0.00168737058993429,-0.0181304290890694,-0.000561393157113343,-0.0144757218658924,-0.00992512609809637
50,-0.0107147945091128,0.00242230203002691,-0.0146535532549024,-0.000557664956431836,-0.0141454339027405,-0.0150789301842451
51,-0.0104788532480598,0.00336680328473449,-0.0122865457087755,-0.000556497136130929,-0.0147793274372816,-0.0199476424604654
52,-0.00974223390221596,0.00401812419295311,-0.0110909873619676,-0.000557762163225561,-0.0157697666436434,-0.0243433341383934
53,-0.00878495816141367,0.00391843495890498,-0.0106667215004563,-0.000560046231839806,-0.0170003566890955,-0.0274994727224112
54,-0.00851996056735516,0.00279476190917194,-0.0108974706381559,-0.000561455613933504,-0.0184451323002577,-0.0286099649965763
55,-0.00919518992304802,0.00161118782125413,-0.0118533577769995,-0.000560623768251389,-0.0196596011519432,-0.0260103419423103
56,-0.0110861845314503,0.000562092056497931,-0.0139284525066614,-0.000557384511921555,-0.0208075121045113,-0.0203348863869905
57,-0.014046530239284,-0.00131499918643385,-0.0171114876866341,-0.000552785350009799,-0.0219217650592327,-0.0150288054719567
58,-0.0159336887300015,-0.00348839303478599,-0.0194774325937033,-0.000548473850358278,-0.0213652811944485,-0.0115561224520206
59,-0.0149408420547843,-0.00451925955712795,-0.0189918763935566,-0.000545815157238394,-0.0181280542165041,-0.00872938521206379
60,-0.0122001273557544,-0.00432199612259865,-0.0157785955816507,-0.000545211078133434,-0.0137430280447006,-0.00576631352305412
61,-0.00995958223938942,-0.00380816450342536,-0.0113817425444722,-0.000545958231668919,-0.0103468261659145,-0.00288196746259928
62,-0.00969536416232586,-0.00394292874261737,-0.00763815920799971,-0.000546681345440447,-0.00908507686108351,-0.00122326577547938
63,-0.011290299706161,-0.00474848691374063,-0.00525128655135632,-0.000546079885680228,-0.00918691977858543,-0.00168005644809455
64,-0.0135983750224113,-0.00559429964050651,-0.00421635061502457,-0.000543584930710495,-0.00921861920505762,-0.00393908564001322
65,-0.0148373208940029,-0.00521690584719181,-0.00380360125564039,-0.000539597182068974,-0.0080459238961339,-0.00640201615169644
66,-0.0148959551006556,-0.00390736665576696,-0.00390548957511783,-0.000535215658601373,-0.00596877746284008,-0.00894148461520672
67,-0.0157102905213833,-0.0041968016885221,-0.00530963158234954,-0.00053163303527981,-0.00443148193880916,-0.0134880309924483
68,-0.0168433990329504,-0.006172776222229,-0.0061202310025692,-0.000529529177583754,-0.00270164501853287,-0.0185979437083006
69,-0.0165812987834215,-0.0077395886182785,-0.00428626406937838,-0.000528769101947546,0.00024446623865515,-0.0207894332706928
70,-0.0151046020910144,-0.00785892177373171,-0.000826884526759386,-0.00052853359375149,0.00309300818480551,-0.0193827841430902
71,-0.0136036751791835,-0.0069417878985405,0.00229908665642142,-0.000527781608980149,0.00386197515763342,-0.0164829511195421
72,-0.0125748114660382,-0.00611572246998549,0.00422170665115118,-0.000525785144418478,0.00250804028473794,-0.0149048445746303
73,-0.0112741561606526,-0.00605497788637877,0.00566636957228184,-0.00052246474660933,0.00154077261686325,-0.0151602914556861
74,-0.00909420475363731,-0.00656757224351168,0.00760144321247935,-0.00051837571663782,0.00277283950708807,-0.0148132294416428
75,-0.00646481942385435,-0.00713272579014301,0.00962703768163919,-0.000514383718837053,0.00552821019664407,-0.0111042587086558
76,-0.00459740543738008,-0.00797873362898827,0.0101268356665969,-0.000511216698214412,0.00771270971745253,-0.00447244988754392
77,-0.00389774679206312,-0.00900440663099289,0.00866612698882818,-0.000509124365635216,0.00787544157356024,0.00243706023320556
78,-0.00310177332721651,-0.00876655988395214,0.00662301434203982,-0.000507800257764757,0.00627752905711532,0.00809809658676386
79,-0.00118283566553146,-0.00646717241033912,0.00463967537507415,-0.000506577838677913,0.00346255302429199,0.0113791991025209
80,0.00102499942295253,-0.00320777762681246,0.00195922935381532,-0.000504780327901244,-0.00101474637631327,0.0105319619178772
81,0.00212125247344375,-0.00100899569224566,-0.00180014478974044,-0.000502041599247605,-0.00742035498842597,0.00538471387699246
82,0.00201243301853538,-0.00119559571612626,-0.00607181387022138,-0.000498450535815209,-0.0141157796606421,-0.00141649984288961
83,0.00101639563217759,-0.00385300628840923,-0.00991197675466537,-0.000494469655677676,-0.018674997612834,-0.00700285658240318
84,-0.000972387904766947,-0.00819067936390638,-0.0123017728328705,-0.000490689184516668,-0.0201560482382774,-0.0101064294576645
85,-0.00265977648086846,-0.0121423881500959,-0.0122166881337762,-0.000487547105876729,-0.0184631366282701,-0.010266937315464
86,-0.00131916371174157,-0.0129487058147788,-0.0089715663343668,-0.00048514420632273,-0.0128843374550343,-0.00743881706148386
87,0.00233913282863796,-0.0109228352084756,-0.00477763637900352,-0.000483226642245427,-0.0053742197342217,-0.00469639804214239
88,0.00437089893966913,-0.00916335638612509,-0.00350930658169091,-0.000481326715089381,-0.000622065039351583,-0.00710186082869768
89,0.0033744249958545,-0.00896686967462301,-0.00568258808925748,-0.000478984817164019,-0.000106534062069841,-0.0144716342911124
90,0.000447743659606203,-0.0100052710622549,-0.00946557242423296,-0.000475950946565717,-0.00198156503029168,-0.0220667868852615
91,-0.00323814409784973,-0.01157405693084,-0.0136406002566218,-0.00047228203038685,-0.00480564311146736,-0.026206661015749
92,-0.00650892872363329,-0.0122704776003957,-0.0170483961701393,-0.00046830321662128,-0.00796296168118715,-0.0253553669899702
93,-0.00824624393135309,-0.0112943686544895,-0.018574733287096,-0.000464456825284287,-0.0104324733838439,-0.0205360036343336
94,-0.0074827210046351,-0.00853927433490753,-0.0177330840379,-0.0004611071490217,-0.0105587178841233,-0.0133403418585658
95,-0.00535494927316904,-0.00531216990202665,-0.0158793851733208,-0.000458382710348815,-0.0089495712891221,-0.00544370478019118
96,-0.0043964758515358,-0.0036584201734513,-0.0154635012149811,-0.000456120644230396,-0.00803208537399769,0.000428267056122422
97,-0.004633535631001,-0.00349127617664635,-0.0164501257240772,-0.000453937478596345,-0.00795829575508833,0.00311965402215719
98,-0.00435350136831403,-0.00321419863030314,-0.0164868161082268,-0.000451398082077503,-0.00744021497666836,0.00370436604134738
99,-0.00243081082589924,-0.00127648655325174,-0.0137050915509462,-0.000448213395429775,-0.00563804106786847,0.00401479518041015
100,0.000419519405113533,0.00185600924305618,-0.00894999504089355,-0.000444379460532218,-0.00256257457658648,0.00357203395105898
101,0.00223004352301359,0.00337643339298666,-0.00491836899891496,-0.000440192059613764,0.000645920110400766,-0.000830187520477921
102,0.00218870840035379,0.00184695818461478,-0.00324022490531206,-0.000436120782978833,0.0022325727622956,-0.0094549311324954
103,0.000549651216715574,-0.00135180319193751,-0.00428418256342411,-0.000432592554716393,0.000757231086026877,-0.018391564488411
104,-0.0020637852139771,-0.00430469959974289,-0.00750065082684159,-0.000429781735874712,-0.00327123515307903,-0.0239306334406137
105,-0.00463751330971718,-0.00597162637859583,-0.0114372745156288,-0.00042750989086926,-0.00743348198011518,-0.02335543371737
106,-0.00731201888993382,-0.00698910932987928,-0.0154075333848596,-0.000425314152380452,-0.0109085217118263,-0.0163097139447927
107,-0.0104666771367192,-0.00850884616374969,-0.0187948197126389,-0.000422662851633504,-0.0142226163297892,-0.00726748397573829
108,-0.0133696123957634,-0.0104848435148597,-0.0203431360423565,-0.000419220916228369,-0.0166836101561785,-0.00220295204780996
109,-0.0159267615526915,-0.012819523923099,-0.0205886662006378,-0.000415032816817984,-0.0185774359852076,-0.00362125178799033
110,-0.0180786196142435,-0.0151101071387529,-0.020908297970891,-0.000410522421589121,-0.0205295085906982,-0.0095558287575841
111,-0.0194865092635155,-0.016650777310133,-0.0215345285832882,-0.000406296661822125,-0.021887069568038,-0.0169148333370686
112,-0.0201538018882275,-0.017364926636219,-0.0221719834953547,-0.000402841513277963,-0.0222100131213665,-0.0237019341439009
113,-0.0198649968951941,-0.0171172693371773,-0.022670591250062,-0.000400262419134378,-0.0214877091348171,-0.0281847510486841
114,-0.0195550043135881,-0.0164738073945045,-0.0235507693141699,-0.000398208998376504,-0.0207764077931643,-0.0301806554198265
115,-0.0196724273264408,-0.0158964265137911,-0.0242823120206594,-0.000396035466110334,-0.0198711901903152,-0.0311853606253862
116,-0.0191309675574303,-0.0151518238708377,-0.0235725305974483,-0.000393125897971913,-0.0171669069677591,-0.0323322825133801
117,-0.0176876988261938,-0.0145328063517809,-0.0219828132539988,-0.000389221357181668,-0.0136313373222947,-0.0336318723857403
118,-0.0155039625242352,-0.01351622864604,-0.0207626335322857,-0.000384574173949659,-0.0111511163413525,-0.0336175337433815
119,-0.0140728792175651,-0.0121695967391133,-0.0213461257517338,-0.000379838049411774,-0.0110200718045235,-0.031528927385807
120,-0.0148555478081107,-0.0118175586685538,-0.0240139029920101,-0.000375738716684282,-0.0130083989351988,-0.0289512816816568
121,-0.0156596768647432,-0.0121619086712599,-0.0261049494147301,-0.000372691138181835,-0.0139628648757935,-0.0276040472090244
122,-0.0141562167555094,-0.0121918385848403,-0.025491775944829,-0.000370565743651241,-0.0120454486459494,-0.0275325756520033
123,-0.0114080663770437,-0.0118674607947469,-0.0230674725025892,-0.000368736044038087,-0.00924645271152258,-0.027228232473135
124,-0.00898024532943964,-0.0113676516339183,-0.0204175431281328,-0.000366394815500826,-0.00757709098979831,-0.0244662687182426
125,-0.00693736458197236,-0.0105611486360431,-0.0180953871458769,-0.000362979510100558,-0.00693343952298164,-0.0184355732053518
126,-0.00639373436570168,-0.0102864764630795,-0.0175300743430853,-0.000358482677256688,-0.00768453208729625,-0.0124639729037881
127,-0.00842738710343838,-0.0111484080553055,-0.0194382946938276,-0.000353475334122777,-0.0102143306285143,-0.00983199290931225
128,-0.0110392617061734,-0.0110879670828581,-0.0212573111057281,-0.000348820147337392,-0.0123763848096132,-0.00917829945683479
129,-0.0124488305300474,-0.00861598085612059,-0.0212550926953554,-0.000345217908034101,-0.0125724272802472,-0.00922457780689001
130,-0.0127831036224961,-0.00521403411403298,-0.0203177109360695,-0.00034282638807781,-0.0115520311519504,-0.0106626758351922
131,-0.0128954462707043,-0.00364876864477992,-0.0200416129082441,-0.000341159728122875,-0.010966788046062,-0.0138761457055807
132,-0.0142188100144267,-0.00586636457592249,-0.0216215364634991,-0.000339331629220396,-0.0127231497317553,-0.0188085250556469
133,-0.0166916809976101,-0.0111193042248487,-0.0246486328542233,-0.000336521392455325,-0.0167731903493404,-0.0245242044329643
134,-0.0183173455297947,-0.0163552258163691,-0.0274131689220667,-0.000332417577737942,-0.0206314120441675,-0.0285223666578531
135,-0.0182487983256578,-0.0193829424679279,-0.0288293585181236,-0.000327398942317814,-0.0227398388087749,-0.0289391912519932
136,-0.0171756483614445,-0.0202653277665377,-0.0288168545812368,-0.00032234750688076,-0.0232579931616783,-0.0268181152641773
137,-0.015556588768959,-0.0201237965375185,-0.0272934176027775,-0.000318185600917786,-0.0224369801580906,-0.0244784317910671
138,-0.0136098880320787,-0.0199531577527523,-0.024460444226861,-0.000315379904350266,-0.0206046160310507,-0.0236659962683916
139,-0.0109612084925175,-0.0192266069352627,-0.0204831231385469,-0.000313680386170745,-0.0172918327152729,-0.0248041022568941
140,-0.00798536278307438,-0.0173539761453867,-0.0161622371524572,-0.000312240299535915,-0.0125243179500103,-0.027213191613555
141,-0.00661473209038377,-0.0152520770207047,-0.0135945687070489,-0.000310060975607485,-0.00889822840690613,-0.0291954483836889
142,-0.00740965967997909,-0.0133928153663874,-0.0135727813467383,-0.000306527566863224,-0.00828973110765219,-0.0279294047504663
143,-0.00921167060732841,-0.0114966165274382,-0.0152249969542027,-0.000301748048514128,-0.00985426176339388,-0.0224539581686258
144,-0.0109626045450568,-0.0094775315374136,-0.0173784904181957,-0.000296507903840393,-0.0119304982945323,-0.0153949819505215
145,-0.0116400457918644,-0.00675303628668189,-0.0177091378718615,-0.000291858275886625,-0.0124641852453351,-0.00909561477601528
146,-0.0109629640355706,-0.00334495073184371,-0.0146077796816826,-0.00028855333221145,-0.0105852298438549,-0.00424329470843077
147,-0.00995949190109968,-0.000745188677683473,-0.00961784645915031,-0.000286639056866989,-0.00756600918248296,-0.00202405359596014
148,-0.00963031779974699,-4.47332822659519E-05,-0.00532108964398503,-0.000285417947452515,-0.00453363824635744,-0.00326983397826552
149,-0.00987331010401249,-0.000984841026365757,-0.00307314237579703,-0.00028381499578245,-0.00221064290963113,-0.00711809191852808
150,-0.00962492730468512,-0.00243882089853287,-0.00279936217702925,-0.000280952692264691,-0.00093714683316648,-0.011314925737679
151,-0.00774014834314585,-0.00329480296932161,-0.00340889394283295,-0.000276627339189872,0.000579051440581679,-0.0131242265924811
152,-0.00440705008804798,-0.00338976387865841,-0.00390090560540557,-0.000271427561528981,0.00364354765042663,-0.011602477170527
153,-0.00199224939569831,-0.00366561766713858,-0.00486436998471618,-0.000266426242887974,0.0066423830576241,-0.00878648739308119
154,-0.00229900795966387,-0.00487041007727385,-0.00745669333264232,-0.000262607296463102,0.00712446216493845,-0.00686167553067207
155,-0.0039604315534234,-0.00648173131048679,-0.0110764568671584,-0.000260333792539313,0.00545606249943376,-0.00577049888670444
156,-0.00498474389314651,-0.00761748291552067,-0.0139857176691294,-0.000259145977906883,0.0035426844842732,-0.00487508485093713
157,-0.0054152300581336,-0.00822568871080875,-0.0153815420344472,-0.00025800138246268,0.002270741853863,-0.00482517248019576
158,-0.00582719640806317,-0.00859597511589527,-0.0150213548913598,-0.00025583224487491,0.00163529743440449,-0.00680042617022991
159,-0.00618989998474717,-0.0087034422904253,-0.0125774135813117,-0.000252121477387846,0.00173471460584551,-0.0105112316086888
160,-0.00683502526953816,-0.0087759904563427,-0.00930094812065363,-0.000247186573687941,0.00237341620959342,-0.0139844696968794
161,-0.00818970426917076,-0.00944293383508921,-0.00776185002177954,-0.000242014750256203,0.00285880221053958,-0.0161106027662754
162,-0.00924868695437908,-0.0106217684224248,-0.00870942324399948,-0.000237735395785421,0.0031251865439117,-0.0172373373061419
163,-0.00820914935320616,-0.0114584332332015,-0.0102567300200462,-0.00023501183022745,0.00415395991876721,-0.0172255579382181
164,-0.00522570312023163,-0.0120047107338905,-0.0107512809336185,-0.000233680533710867,0.00625960947945714,-0.015754347667098
165,-0.00246315309777856,-0.0132034467533231,-0.010727709159255,-0.00023283448535949,0.00808147341012955,-0.0138426423072815
166,-0.00127016182523221,-0.0149727240204811,-0.0111747849732637,-0.000231308556976728,0.00869996752589941,-0.0127704264596105
167,-0.00157779187429696,-0.0166126806288958,-0.0116886934265494,-0.000228306787903421,0.00836269836872816,-0.0128796827048063
168,-0.00309776118956506,-0.0182238575071096,-0.0116396704688668,-0.000223833674681373,0.0069740149192512,-0.0141872512176633
169,-0.00478752097114921,-0.0196365099400282,-0.0108359782025218,-0.000218695335206576,0.00499881338328123,-0.0162048581987619
170,-0.00548118073493242,-0.0201871115714312,-0.00915239471942186,-0.000214068029890768,0.00412193220108747,-0.0178680159151554
171,-0.00606055045500398,-0.020174153149128,-0.00784142687916756,-0.000210865138797089,0.00430308328941464,-0.0184319783002138
172,-0.00756195979192853,-0.0199915841221809,-0.00828524120151997,-0.000209243808058091,0.00390282412990928,-0.0168406758457422
173,-0.00874126981943846,-0.0193091928958893,-0.00932449661195278,-0.000208518104045652,0.00332457083277404,-0.0128170205280185
174,-0.00923603214323521,-0.0190447494387627,-0.00991017650812864,-0.000207526914891787,0.00329635501839221,-0.0100216846913099
175,-0.0099179120734334,-0.0196604523807764,-0.0103754512965679,-0.000205259144422598,0.0034710681065917,-0.0111660864204168
176,-0.010005921125412,-0.0194928776472807,-0.0102569498121738,-0.00020139929256402,0.00433109700679779,-0.0138869620859623
177,-0.00881752092391253,-0.0178699530661106,-0.00904689729213715,-0.000196498658624478,0.0061401454731822,-0.0157745461910963
178,-0.00738324411213398,-0.015472399070859,-0.0070453523658216,-0.000191679253475741,0.00823491625487804,-0.0165041983127594
179,-0.00703252339735627,-0.0136936996132135,-0.00486891064792871,-0.000188029414857738,0.00999217573553324,-0.0175860654562712
180,-0.00790870189666748,-0.0140936467796564,-0.00344555941410363,-0.000186017146916129,0.0110582625493407,-0.0207392126321793
181,-0.00907877646386623,-0.0159877762198448,-0.00390591262839735,-0.000185237789992243,0.0110429702326655,-0.0242130812257528
182,-0.0101403966546059,-0.0170784126967192,-0.00709914648905396,-0.000184632299351506,0.00954579468816519,-0.0244873333722353
183,-0.0112761072814465,-0.0164738036692142,-0.0124324280768633,-0.000183058422408067,0.00729264970868826,-0.0205155685544014
184,-0.0116218235343695,-0.0148394610732794,-0.0172325111925602,-0.000179906433913857,0.00677742110565305,-0.014276803471148
185,-0.0106592793017626,-0.0134692145511508,-0.0199785865843296,-0.00017542731075082,0.00894021149724722,-0.00901631452143192
186,-0.00969346519559622,-0.0138958906754851,-0.0220989678055048,-0.000170596351381391,0.0113740880042315,-0.00739215081557631
187,-0.0100921457633376,-0.0164119172841311,-0.0245221517980099,-0.000166586687555537,0.0118559449911118,-0.00944291334599257
188,-0.0113634467124939,-0.0190841425210238,-0.0255599338561296,-0.000164136712555774,0.0112447552382946,-0.0120041659101844
189,-0.011872174218297,-0.0198710896074772,-0.0237653888761997,-0.000163153323228471,0.0115902423858643,-0.0123575301840901
190,-0.0108295390382409,-0.0184207949787378,-0.0204134397208691,-0.000162764074048027,0.0132544515654445,-0.0104797063395381
191,-0.00770004605874419,-0.0145834553986788,-0.0169864967465401,-0.000161789314006455,0.0161901973187923,-0.0066805575042963
192,-0.00338038196787238,-0.0096355127170682,-0.0142584927380085,-0.000159378556418233,0.019541772082448,-0.00269643124192953
193,-0.000728183193132281,-0.00636058580130339,-0.0130021842196584,-0.000155467656441033,0.0211076848208904,-0.00174333387985826
194,-0.000494423031341285,-0.00533153908327222,-0.0126289883628488,-0.000150810650666244,0.0207932963967323,-0.00368416076526046
195,-0.000360107835149392,-0.00491476897150278,-0.0116172973066568,-0.000146570702781901,0.0209775939583778,-0.00565769849345088
196,0.000849563570227474,-0.00456438586115837,-0.0105151394382119,-0.00014369205746334,0.021947218105197,-0.00747067341580987
197,0.00140639219898731,-0.00556637672707438,-0.0118025634437799,-0.000142392600537278,0.0211138520389795,-0.0106551572680473
198,6.92396642989479E-05,-0.00823493581265211,-0.0156847052276134,-0.000142049699206837,0.0180428214371204,-0.0137038975954056
199,-0.00231775129213929,-0.0108821708709002,-0.0198914650827646,-0.000141539407195523,0.014828366227448,-0.0141081446781754
200,-0.00414537033066154,-0.011618253774941,-0.0226025357842445,-0.000139844123623334,0.0126691516488791,-0.0126605052500963
201,-0.0044409828260541,-0.0102815814316273,-0.0237276889383793,-0.000136599861434661,0.0112789329141378,-0.0112401219084859
202,-0.00406143022701144,-0.00864566583186388,-0.0244966465979815,-0.000132288740132935,0.00971677526831627,-0.00959355477243662
203,-0.00394716812297702,-0.00784598384052515,-0.0250479746609926,-0.000127974737551995,0.00801108591258526,-0.00712762726470828
204,-0.0029886185657233,-0.00679945945739746,-0.0238513648509979,-0.000124727666843683,0.00793849024921656,-0.00425025168806314
205,-0.000764511059969664,-0.00492479931563139,-0.020796537399292,-0.000123047342640348,0.0101065551862121,-0.00151481677312404
206,0.000807799107860774,-0.00335355242714286,-0.0175499524921179,-0.000122598168672994,0.0121733481064439,0.000431230553658679
207,0.000535290746483952,-0.00268496829085052,-0.0149510931223631,-0.000122395184007473,0.0120153576135635,0.000228219461860135
208,-0.000121743505587801,-0.00200854591093957,-0.0129775255918503,-0.000121338358439971,0.010291675105691,-0.00231317616999149
209,0.000419096351834014,-0.000631896138656884,-0.0119345001876354,-0.000118805372039787,0.00866760034114122,-0.00546987960115075
210,0.00113347382284701,0.000291073723929003,-0.0123501578345895,-0.000114983013190795,0.0073020956479013,-0.00871443748474121
211,0.000286157533992082,-0.000280856009339914,-0.0139879193156958,-0.000110760767711326,0.00541470991447568,-0.0116523364558816
212,-0.00178614701144397,-0.00178232719190419,-0.0154063757508993,-0.000107247062260285,0.00349634420126677,-0.0125417821109295
213,-0.00325489486567676,-0.00306076765991747,-0.0150249283760786,-0.000105171304312535,0.0030581986065954,-0.0105937477201223
214,-0.00348035641945899,-0.00368539616465569,-0.0130767356604338,-0.000104494538391009,0.00368147226981819,-0.00702462997287512
215,-0.00310139404609799,-0.00415239250287414,-0.0114965913817286,-0.000104436658148188,0.00343720568343997,-0.00353742321021855
216,-0.00193782348651439,-0.00425132596865296,-0.0109834941104054,-0.000103902100818232,0.00220572622492909,-0.0010353330289945
217,0.000107652034785133,-0.00347157754004002,-0.0104057164862752,-0.000102071717265062,0.00119046948384494,-0.00114923482760787
218,0.0023450804874301,-0.00204683048650622,-0.00863017234951258,-9.88408210105263E-05,0.00134631991386414,-0.00443489896133542
219,0.00447106221690774,-0.000340762664563954,-0.0056242193095386,-9.48691522353329E-05,0.00308983353897929,-0.00817715842276812
220,0.00589202903211117,0.00102527183480561,-0.0028512307908386,-9.12191389943473E-05,0.00511937728151679,-0.00929018296301365
221,0.00551810534670949,0.00126813282258809,-0.00175087444949895,-8.87810019776225E-05,0.00545015977695584,-0.00640465784817934
222,0.00281076063401997,-0.000194657986867242,-0.00233968859538436,-8.77957718330435E-05,0.00373473856598139,-0.00130032422021031
223,-0.000933299714233726,-0.00234156893566251,-0.00309939379803836,-8.77319762366824E-05,0.00173545069992542,0.00321388593874872
224,-0.00346931884996593,-0.00275389826856554,-0.00232228846289217,-8.75789119163528E-05,0.00163626251742244,0.00651479186490178
225,-0.00453262403607368,-0.00112870417069644,-0.00044205243466422,-8.63946552271955E-05,0.00305952434428036,0.00868747849017382
226,-0.00480716908350587,0.000654395786114037,0.00107621913775802,-8.38115665828809E-05,0.00426658987998962,0.0104002580046654
227,-0.004456149879843,0.00118951709009707,0.00162870052736253,-8.02279100753367E-05,0.00486819678917527,0.0124226324260235
228,-0.00410052295774221,-1.98439443011011E-06,0.00119101186282933,-7.65856893849559E-05,0.00481029925867915,0.0134886633604765
229,-0.00375055521726608,-0.00261745229363441,0.000637038436252624,-7.38586386432871E-05,0.00457109836861491,0.0116508593782783
230,-0.00342427520081401,-0.00632077176123858,0.000688445987179875,-7.25286372471601E-05,0.00465463800355792,0.00609348434954882
231,-0.00422010477632284,-0.0105020571500063,0.000549189979210496,-7.23322882549837E-05,0.00371191999875009,-0.0019129243446514
232,-0.00564658502116799,-0.0133963525295258,-0.000207382123335265,-7.24107521818951E-05,0.00124830461572856,-0.00918801128864288
233,-0.00602630386129022,-0.0142220975831151,-0.000671401619911194,-7.1777896664571E-05,-0.000994968111626804,-0.0137487668544054
234,-0.00485919322818518,-0.0135693615302444,6.13850352237932E-05,-6.98514704708941E-05,-0.00204123952426016,-0.0155957946553826
235,-0.00319679896347225,-0.0124464211985469,0.00138911069370806,-6.67610074742697E-05,-0.00290551874786615,-0.0155330095440149
236,-0.00214002188295126,-0.0114367054775357,0.00211168010719121,-6.32697556284256E-05,-0.00445207254961133,-0.0136866578832269
237,-0.00135598191991448,-0.0100557943806052,0.00218521850183606,-6.03570297244005E-05,-0.00606117444112897,-0.00968748051673174
238,-0.000176791727426462,-0.00859725195914507,0.00169516343157738,-5.86896676395554E-05,-0.0067312978208065,-0.0054152375087142
239,0.00151765858754516,-0.00789123028516769,0.000427370687248185,-5.82678076170851E-05,-0.0064639151096344,-0.00298239476978779
240,0.00286956876516342,-0.00801829528063536,-0.00187063519842923,-5.84331901336554E-05,-0.00689024943858385,-0.00183612830005586
241,0.00344571680761874,-0.00835269968956709,-0.0045471303164959,-5.8230958529748E-05,-0.00862954556941986,-0.000333171308739111
242,0.00406503304839134,-0.00833473354578018,-0.00611035292968154,-5.69260664633475E-05,-0.0100977923721075,0.00144041085150093
243,0.00429214024916291,-0.00881932489573956,-0.00727282557636499,-5.43949499842711E-05,-0.0110403522849083,0.00116243970114738
244,0.00328499940223992,-0.0104006547480822,-0.00966149382293224,-5.1183673349442E-05,-0.0121606215834618,-0.00240169162862003
245,0.00189461174886674,-0.0121646318584681,-0.0127520961686969,-4.82058130728547E-05,-0.0129049103707075,-0.00846331752836704
246,0.00129759882111102,-0.0135020548477769,-0.0152413686737418,-4.62470889033284E-05,-0.0126726282760501,-0.0159920398145914
247,0.00158829218707979,-0.0143591826781631,-0.0167629197239876,-4.55454355687834E-05,-0.0115357004106045,-0.023422334343195
248,0.00174154422711581,-0.0145466113463044,-0.0178253185003996,-4.5670891267946E-05,-0.0103914029896259,-0.0276281740516424
249,0.00165449478663504,-0.013666776008904,-0.0177732333540916,-4.57656860817224E-05,-0.00925822369754314,-0.0253355111926794
250,0.00243275286629796,-0.011852134950459,-0.0152222700417042,-4.50105035270099E-05,-0.00705210492014885,-0.0177699495106936
251,0.00336311873979867,-0.0103009101003408,-0.0118490988388658,-4.30634572694544E-05,-0.00538701564073563,-0.0104311695322394
252,0.00244631734676659,-0.01032271143049,-0.0109922774136066,-4.02364967158064E-05,-0.0071181720122695,-0.00790479686111212
253,-0.00042442194535397,-0.0123168099671602,-0.013432277366519,-3.7318401155062E-05,-0.0116445384919643,-0.0113614527508616
254,-0.00299569917842746,-0.0149063495919108,-0.0169163513928652,-3.51445451087784E-05,-0.0156143037602305,-0.0178007110953331
255,-0.00370838772505522,-0.0160650610923767,-0.0192122310400009,-3.41481063514948E-05,-0.0175918992608786,-0.0223160982131958
256,-0.00347448140382767,-0.0153939267620444,-0.0204309932887554,-3.41337981808465E-05,-0.019068006426096,-0.0227099470794201
257,-0.00335342879407108,-0.013680019415915,-0.0212998855859041,-3.43922038155142E-05,-0.0201195478439331,-0.0209667310118675
258,-0.00364975165575743,-0.0117950011044741,-0.0220065955072641,-3.40880869771354E-05,-0.0194506254047155,-0.0206167902797461
259,-0.00423901714384556,-0.0100662391632795,-0.0225185714662075,-3.27101624861825E-05,-0.0175716113299131,-0.0224844515323639
260,-0.00456929299980402,-0.00836125854402781,-0.0224512927234173,-3.03400411212351E-05,-0.0158087778836489,-0.0239180959761143
261,-0.0046460242010653,-0.00689422059804201,-0.0215288642793894,-2.75989732472226E-05,-0.0147355925291777,-0.0224479380995035
262,-0.00416128942742944,-0.00512126507237554,-0.0195464491844177,-2.53060479735723E-05,-0.013786569237709,-0.0182449780404568
263,-0.00302116968668997,-0.00286349421367049,-0.0172144155949354,-2.40358785958961E-05,-0.0128389103338122,-0.0134294657036662
264,-0.00212778523564339,-0.00149047677405179,-0.0157293416559696,-2.38145767070819E-05,-0.0126518392935395,-0.00943179149180651
265,-0.00116063270252198,-0.00105551374144852,-0.014480666257441,-2.41147954511689E-05,-0.0121316555887461,-0.00560059444978833
266,0.000219082547118887,-0.000855752557981759,-0.0126678887754679,-2.41475390794221E-05,-0.0099392794072628,-0.0019653020426631
267,0.00101900938898325,-0.00141200865618885,-0.0109296664595604,-2.3289325326914E-05,-0.00693093845620751,-0.000567121955100447
268,0.00120926857925951,-0.00266773207113147,-0.00957707036286592,-2.14133779081749E-05,-0.00392016116529703,-0.00213620509020984
269,0.00142816617153585,-0.00287892646156251,-0.00814505759626627,-1.89489637705265E-05,-0.000988588319160044,-0.00445709796622396
270,0.00136592157650739,-0.000920601945836097,-0.00672247866168618,-1.6641708498355E-05,0.000929697533138096,-0.00432447018101811
271,7.06891951267608E-05,0.00099499651696533,-0.00618161261081696,-1.51485819515074E-05,0.00062504067318514,-0.000659347453620285
272,-0.00184896809514612,0.000531410158146173,-0.00575376162305474,-1.46874926940654E-05,-0.00058231019647792,0.00419172644615173
273,-0.00294376839883626,-0.00163556227926165,-0.00398068083450198,-1.49283323480631E-05,-0.000750245410017669,0.00589693989604712
274,-0.00434170197695494,-0.00477762240916491,-0.00246192305348814,-1.51795502461027E-05,-0.00124963489361107,0.00199582055211067
275,-0.0060247746296227,-0.00748932221904397,-0.00188359117601067,-1.47649816426565E-05,-0.0020754833240062,-0.00355007871985435
276,-0.00545844528824091,-0.00737232388928533,2.12135309993755E-05,-1.33855874082656E-05,4.57185051345732E-05,-0.00452124048024416
277,-0.00304630515165627,-0.00508140260353684,0.00334561336785555,-1.12725647340994E-05,0.00510171754285693,-0.000278111139778048
278,-0.00119368953164667,-0.0027899167034775,0.00620577251538634,-9.0536623247317E-06,0.00956500135362148,0.00557292252779007
279,-0.000218823784962296,-0.000175207562278956,0.00812705140560865,-7.40963378120796E-06,0.0118198292329907,0.0108456313610077
280,0.00027472831425257,0.00330068287439644,0.00935224816203117,-6.70876261210651E-06,0.0126578267663717,0.0149009926244617
281,-0.000359497120371088,0.00617918511852622,0.00970358215272427,-6.81561505189165E-06,0.0128565896302462,0.0170720759779215
282,-0.00199653557501733,0.00749639607965946,0.00941317528486252,-7.17312786946422E-06,0.0126798022538424,0.0176553782075644
283,-0.00388154108077288,0.00697826128453016,0.00856136996299028,-7.10881977283861E-06,0.0113115627318621,0.0165406502783298
284,-0.00558749074116349,0.0050733657553792,0.00727973412722349,-6.19684715275071E-06,0.00828132592141628,0.0140422377735376
285,-0.00677451631054282,0.00360799743793905,0.00656327838078141,-4.48095715910313E-06,0.00493386620655656,0.0125956386327744
286,-0.00800376664847136,0.00307142245583236,0.00654882658272982,-2.44172883867577E-06,0.00201804121024907,0.0130090890452266
287,-0.00990386120975018,0.00242550554685295,0.00643893657252193,-7.30692192973947E-07,-0.000679212564136833,0.0129054142162204
288,-0.0115116089582443,0.0015073079848662,0.00604473566636443,1.81702915824644E-07,-0.0030808171723038,0.00980984605848789
289,-0.0115849319845438,0.00100194185506552,0.00534389447420835,2.54122369369725E-07,-0.005366250872612,0.00422918284311891
290,-0.010843101888895,0.00086121802451089,0.00375113682821393,-1.12241380634259E-07,-0.00795436184853315,-0.000805784133262932
291,-0.011521709151566,-0.000322129752021283,0.000374713621567935,-2.97267177984395E-07,-0.0114507153630257,-0.00361267221160233
292,-0.0138122066855431,-0.00266268104314804,-0.00410898216068745,2.02008109795315E-07,-0.0154681308194995,-0.00439055031165481
293,-0.0152246607467532,-0.00422801729291677,-0.0069460291415453,1.50496146034129E-06,-0.0175009276717901,-0.00364809343591332
294,-0.0141500867903233,-0.00410952977836132,-0.00637015979737043,3.29169051838107E-06,-0.0155128892511129,-0.00211525172926486
295,-0.0111474832519889,-0.00315368780866265,-0.00303057162091136,4.98340978083434E-06,-0.0103313941508532,-0.000517692475114018
296,-0.00829396210610867,-0.00275128940120339,0.0010195504873991,6.05743434789474E-06,-0.00501691689714789,0.000593867793213576
297,-0.00761501071974635,-0.00373861147090793,0.00369948102161288,6.32541514278273E-06,-0.0025774494279176,0.00145450921263546
298,-0.00966623239219189,-0.00607377337291837,0.00353647349402308,6.02681984673836E-06,-0.00433380017057061,0.00253143603913486
299,-0.0133663481101394,-0.00899545475840569,0.000146228427183814,5.69168196307146E-06,-0.00903657637536526,0.00359876360744238
300,-0.0166715625673532,-0.0116063458845019,-0.00485885702073574,5.85104817218962E-06,-0.0135256825014949,0.00372514454647899
301,-0.0173558071255684,-0.0126166716217995,-0.00822820514440537,6.75327919452684E-06,-0.0150105021893978,0.00298579945228994
302,-0.01435143686831,-0.0108992056921124,-0.00770024117082357,8.23773643787717E-06,-0.0129972649738193,0.00276991887949407
303,-0.0100814811885357,-0.00823481753468513,-0.00499694049358368,9.82985056907637E-06,-0.0103649441152811,0.00282135349698365
304,-0.0080303717404604,-0.00721516320481896,-0.00329936761409044,1.10017790575512E-05,-0.0104068070650101,0.00288710626773536
305,-0.00939479377120733,-0.00832285266369581,-0.00341425254009664,1.14556005428312E-05,-0.0137339737266302,0.00398101890459657
306,-0.0132813975214958,-0.0109703354537487,-0.0046747257001698,1.12771913336474E-05,-0.0188942439854145,0.00527371885254979
307,-0.0161825884133577,-0.0131578575819731,-0.00550286704674363,1.08815547719132E-05,-0.0224674921482801,0.0056454292498529
308,-0.015836127102375,-0.0135684786364436,-0.00478277215734124,1.07836312963627E-05,-0.022266574203968,0.00434669572860003
309,-0.0143213896080852,-0.0133827459067106,-0.00318013876676559,1.13211099233013E-05,-0.0201761610805988,-0.000468090322101489
310,-0.0128542082384229,-0.0130332410335541,-0.000655677344184369,1.2478415555961E-05,-0.0177880190312862,-0.00722500775009394
311,-0.00981461815536022,-0.0115034356713295,0.00408186856657267,1.39035018946743E-05,-0.0140176191926003,-0.00992629118263721
312,-0.00510718999430537,-0.00928712449967861,0.010519178584218,1.51038611875265E-05,-0.00892744865268469,-0.00624160934239626
313,-0.00161674874834716,-0.00921411626040936,0.0153892785310745,1.5712799722678E-05,-0.0050804284401238,-0.00187425210606307
314,-0.00169819802977145,-0.0130132865160704,0.0159997045993805,1.5682098819525E-05,-0.00382708664983511,-0.00327455485239625
315,-0.00428257696330547,-0.0186323337256908,0.0134861236438155,1.52999928104691E-05,-0.0035175799857825,-0.009510169737041
316,-0.00577827263623476,-0.0217066444456577,0.0116100236773491,1.50291753016063E-05,-0.00164993992075324,-0.0140514727681875
317,-0.00476302672177553,-0.0203542746603489,0.0114410184323788,1.52557277033338E-05,0.00117547705303878,-0.0125325610861182
318,-0.00370200560428202,-0.017373276874423,0.010471235960722,1.6085192328319E-05,0.00136252667289227,-0.00666071195155382
319,-0.0039428505115211,-0.0152174504473805,0.00793618150055408,1.72934214788256E-05,-0.00189537403639406,-0.000531267316546291
320,-0.00403752084821463,-0.0131671400740743,0.00580023974180222,1.84545242518652E-05,-0.00581852858886123,0.00362024107016623
321,-0.00370399770326912,-0.0109752956777811,0.00470473011955619,1.91731433005771E-05,-0.00875996984541416,0.00482313707470894
322,-0.00330426008440554,-0.00925867632031441,0.00408924650400877,1.92944771697512E-05,-0.0101370802149177,0.00309248338453472
323,-0.00196905876509845,-0.00779257854446769,0.00447811791673303,1.89806123671588E-05,-0.00893043261021376,-0.000330062553985044
324,-9.63583297561854E-05,-0.00692122476175427,0.00601725373417139,1.86159268196207E-05,-0.00609848648309708,-0.00457930890843272
325,0.000664833060000092,-0.00723241083323956,0.00755866570398211,1.85964818228967E-05,-0.00419915979728103,-0.00829485151916742
326,-0.000429104431532323,-0.00871426332741976,0.00769733963534236,1.91187500604428E-05,-0.00424839369952679,-0.00872399099171162
327,-0.00160722818691283,-0.0100164338946342,0.00667542917653918,2.00803424377227E-05,-0.00462700752541423,-0.00366325560025871
328,-0.000665508501697332,-0.00938569474965334,0.00601581390947104,2.11426322493935E-05,-0.00351617834530771,0.00531944818794727
329,0.00110322854015976,-0.00778665579855442,0.00568697601556778,2.19175562961027E-05,-0.00185856118332595,0.0125375846400857
330,0.00218794238753617,-0.00659960228949785,0.0057557076215744,2.21756654354976E-05,-0.000677869655191898,0.0140989776700735
331,0.00309974304400384,-0.00595279177650809,0.00730139669030905,2.19639914575964E-05,0.00073709333082661,0.0109257809817791
332,0.00361542729660869,-0.00610172748565674,0.00967212859541178,2.15734253288247E-05,0.00163494911976159,0.00637083640322089
333,0.00356068229302764,-0.00638502184301615,0.0114253051578999,2.13771400012774E-05,0.000744565855711699,0.0040074079297483
334,0.00348936882801354,-0.00648229848593473,0.0121287237852812,2.16297448787373E-05,-0.000982514349743724,0.00374266365543008
335,0.00344005995430052,-0.00732260476797819,0.0117859374731779,2.23352108150721E-05,-0.00192990689538419,0.00252253329381347
336,0.00355537747964263,-0.00866949465125799,0.0106418440118432,2.32519487326499E-05,-0.00127571925986558,0.000198831025045365
337,0.00420592166483402,-0.00865698046982288,0.00948116928339005,2.40284334722674E-05,0.00104147125966847,-0.000507742515765131
338,0.0055278348736465,-0.00606515491381288,0.00937012210488319,2.43933900492266E-05,0.00441848626360297,0.00216959277167916
339,0.00722242798656225,-0.00237592123448849,0.0102664660662413,2.42977821471868E-05,0.00721330707892776,0.00708378246054053
340,0.00901549402624369,7.19703748472966E-05,0.0112903192639351,2.39344190049451E-05,0.0079762889072299,0.0115440879017115
341,0.0120735857635736,0.0012774346396327,0.0130796656012535,2.36283703998197E-05,0.00802632514387369,0.0146119333803654
342,0.0168158728629351,0.00234112329781055,0.0162606239318848,2.36603082157671E-05,0.008927914313972,0.0166621841490269
343,0.0207068473100662,0.0029885231051594,0.0190422143787146,2.41187335632276E-05,0.00958474073559046,0.0172481872141361
344,0.0215139985084534,0.00208279094658792,0.0196346342563629,2.48588148679119E-05,0.00883696880191565,0.0149788809940219
345,0.0195432621985674,-0.00041481654625386,0.0182698760181665,2.55864852078957E-05,0.00665385369211435,0.00905670877546072
346,0.0168049950152636,-0.00214834255166352,0.0169412828981876,2.60192628047662E-05,0.00411893613636494,0.00204810523428023
347,0.0156637579202652,-0.000726775324437767,0.0178514737635851,2.60359611274907E-05,0.00388546613976359,-0.00150559737812728
348,0.01635667309165,0.00266952998936176,0.0207165461033583,2.57360552495811E-05,0.00657185819000006,0.000431171036325395
349,0.0170641746371984,0.00465625151991844,0.0233606714755297,2.53800135396887E-05,0.00941273849457502,0.00490706553682685
350,0.0163496099412441,0.00349547364749014,0.0237818043678999,2.52460195042659E-05,0.00979207362979651,0.00656537106260657
351,0.0145669057965279,0.000535574101377279,0.0213747583329678,2.5481844204478E-05,0.00725308386608958,0.00448727887123823
352,0.0134616587311029,-0.0016746538458392,0.0176328029483557,2.60306987911463E-05,0.00311354710720479,0.00222168862819672
353,0.0138015821576118,-0.00193646468687803,0.0142273241654038,2.6668019927456E-05,-0.00123284652363509,0.00242115813307464
354,0.0149658406153321,-0.000477084482554346,0.0120069859549403,2.71260905719828E-05,-0.00449981773272157,0.00498110009357333
355,0.0158718675374985,0.00157630210742354,0.011322034522891,2.7237436370342E-05,-0.00550383841618896,0.00784165412187576
356,0.0159180741757154,0.00356465205550194,0.0117632821202278,2.70203381660394E-05,-0.00434547336772084,0.00984624773263931
357,0.0156563464552164,0.00589924585074186,0.0128164906054735,2.666297586984E-05,-0.0019883110653609,0.0118405101820827
358,0.0151482848450542,0.00783939845860004,0.0138472747057676,2.64180671365466E-05,0.000216153261135332,0.0134670725092292
359,0.0140722943469882,0.00808125082403421,0.0144040063023567,2.64668578893179E-05,0.00159345800057054,0.012767774052918
360,0.0128448298200965,0.00661712791770697,0.0147960092872381,2.68256371782627E-05,0.00299171567894518,0.00937332306057215
361,0.0117524452507496,0.00420388812199235,0.0149921905249357,2.73428631771822E-05,0.00460719130933285,0.00513634691014886
362,0.0102767273783684,0.00148646649904549,0.0141946207731962,2.77852559520397E-05,0.00489969272166491,0.0014710909454152
363,0.0077886451035738,-0.00116466893814504,0.0120186163112521,2.79641681117937E-05,0.0025714619550854,-0.0017673826077953
364,0.00427153101190925,-0.00334637053310871,0.00896686874330044,2.78338357020402E-05,-0.00208586314693093,-0.00460850959643722
365,0.000647678622044623,-0.00404187012463808,0.00623025372624397,2.75105412583798E-05,-0.00693066231906414,-0.00542964041233063
366,-0.00143968209158629,-0.00218957290053368,0.00482975644990802,2.72053348453483E-05,-0.00936657655984163,-0.00232904613949358
367,-0.00178960990160704,0.00118850951548666,0.00438391277566552,2.71090975729749E-05,-0.00930309575051069,0.00276681315153837
368,-0.00169052998535335,0.00383975612930954,0.00423697289079428,2.72924517048523E-05,-0.00835804827511311,0.00543440924957395
369,-0.0015439399285242,0.00457083340734243,0.00470984121784568,2.76729588222224E-05,-0.00679323030635715,0.00369520904496312
370,-0.000861082982737571,0.00328956358134747,0.00628818292170763,2.80643998848973E-05,-0.00417786417528987,-0.00137934519443661
371,0.000720368348993361,0.00146951829083264,0.00883547216653824,2.82790333585581E-05,-0.00119679525960237,-0.00616938387975097
372,0.00208383426070213,0.000393701193388551,0.010729132220149,2.82267810689518E-05,0.000131453925860114,-0.00759356282651424
373,0.00258015235885978,0.000215322928852402,0.0106673128902912,2.79590440186439E-05,-0.000813956430647522,-0.00557611882686615
374,0.00450910115614533,0.00217878678813577,0.0101009160280228,2.76361806754721E-05,-0.00101184064988047,-0.00116055097896606
375,0.00805927161127329,0.005592982750386,0.00978890154510736,2.74387512035901E-05,0.0011021028039977,0.00255582318641245
376,0.010635350830853,0.00803900696337223,0.00903935451060534,2.74716185231227E-05,0.00349936913698912,0.0036138838622719
377,0.0109038939699531,0.00952259544283152,0.00769072026014328,2.77117615041789E-05,0.00382735347375274,0.00463216751813889
378,0.00874463561922312,0.00999077968299389,0.00557423615828156,2.80255717370892E-05,0.00112617260310799,0.00713418191298842
379,0.00545759592205286,0.00825183093547821,0.00350484647788107,2.824371222232E-05,-0.00254600774496794,0.00895968452095985
380,0.00275734346359968,0.00455041788518429,0.00264495797455311,2.8251708499738E-05,-0.00425813673064113,0.00815840158611536
381,0.000564848072826862,-0.000188741862075403,0.00234260247088969,2.80479362118058E-05,-0.00436923885717988,0.00480637233704329
382,-0.00181062868796289,-0.00495742633938789,0.00137672480195761,2.77397975878557E-05,-0.00504163606092334,0.000407228479161859
383,-0.00270023429766297,-0.00672270124778152,0.00123797589913011,2.74827361863572E-05,-0.00555098056793213,-0.000483983400044963
384,-0.00129151076544076,-0.0041102166287601,0.00348450453020632,2.73965888482053E-05,-0.00472467765212059,0.00550748175010085
385,-0.000380292505724356,-0.000644228421151638,0.00624066218733788,2.75042602879694E-05,-0.00424068514257669,0.0145911183208227
386,-0.00155551615171134,8.43140587676317E-05,0.00747140171006322,2.77239541901508E-05,-0.00514071946963668,0.0201296713203192
387,-0.00373014155775309,-0.00235640280880034,0.00685720378533006,2.79167161352234E-05,-0.00652775168418884,0.01916110701859
388,-0.00499272905290127,-0.00557250063866377,0.00541209941729903,2.79618288914207E-05,-0.00667393952608109,0.0147283747792244
389,-0.00447418401017785,-0.00752190360799432,0.00430402904748917,2.78192746918648E-05,-0.00487956264987588,0.0108269238844514
390,-0.00344176637008786,-0.00886115338653326,0.00325906393118203,2.75470501946984E-05,-0.00233464688062668,0.00763821881264448
391,-0.00251904246397316,-0.00998071115463972,0.00214120070450008,2.72663673968054E-05,0.0003218472993467,0.00497189164161682
392,-0.000765138946007937,-0.0099258441478014,0.00212735775858164,2.70953805738827E-05,0.003354282816872,0.00413568271324039
393,0.00172753923106939,-0.0086175911128521,0.00373133178800344,2.70876316790236E-05,0.00601680437102914,0.005268479231745
394,0.00389613374136388,-0.00705236941576004,0.00595169141888618,2.72072029474657E-05,0.0072688851505518,0.00701846927404404
395,0.00580625468865037,-0.00565601792186499,0.00818269047886133,2.73517871391959E-05,0.00771538401022553,0.00910123437643051
396,0.00831599719822407,-0.00376917188987136,0.0106823444366455,2.74092981271679E-05,0.00886251777410507,0.0128096295520663
397,0.0111490692943335,-0.00103664258494973,0.0129611166194081,2.73167752311565E-05,0.011029452085495,0.0184795912355185
398,0.0134760672226548,0.0020196451805532,0.014286638237536,2.70907530648401E-05,0.0133971031755209,0.0242972690612078
399,0.0156175093725324,0.00499318679794669,0.0152574265375733,2.68146868620534E-05,0.0157586969435215,0.0288444329053164
400,0.0169653594493866,0.00686981668695807,0.0157464705407619,2.65922044491163E-05,0.0169917587190866,0.0318221151828766
401,0.0158451143652201,0.00648655975237489,0.0142494896426797,2.64923000941053E-05,0.0148420538753271,0.0327803380787373
402,0.0126111833378673,0.00444446876645088,0.0106618162244558,2.65153921645833E-05,0.00950948148965836,0.0313132144510746
403,0.00918824039399624,0.00202382309362292,0.00672134384512901,2.65967719315086E-05,0.00361023773439229,0.0269755832850933
404,0.00730676017701626,0.000442599673988298,0.00457359477877617,2.66436272795545E-05,-0.000451103900559247,0.0208468679338694
405,0.00685956235975027,0.000498929584864527,0.0043484871275723,2.65845974354306E-05,-0.00256975810043514,0.0159165076911449
406,0.00627076253294945,0.001674699713476,0.00450454792007804,2.64054688159376E-05,-0.00427648099139333,0.0140901617705822
407,0.00544155947864056,0.00325059285387397,0.00511719239875674,2.61533550656168E-05,-0.00549098663032055,0.0148192225024104
408,0.00469699455425143,0.00432617403566837,0.00652432814240456,2.5908981115208E-05,-0.00528731383383274,0.0156271401792765
409,0.00307062780484557,0.00342855625785887,0.00712967291474342,2.57432602666086E-05,-0.00464315060526133,0.0142407072708011
410,0.000667680811602622,0.000603225198574364,0.005649593193084,2.56814564636443E-05,-0.00497144134715199,0.0110031925141811
411,-0.00109681102912873,-0.00218546204268932,0.00283912918530405,2.56929542956641E-05,-0.00607210351154208,0.00830529630184174
412,-0.00170182238798589,-0.00346289598383009,0.000521065201610327,2.57103074545739E-05,-0.00645997561514378,0.00829704105854034
413,-0.000355719326762483,-0.00209222733974457,0.000963826547376812,2.56659932347247E-05,-0.00433100340887904,0.0124268606305122
414,0.00300183147192001,0.00186716741882265,0.00454034702852368,2.55269096669508E-05,-0.00056635937653482,0.0198774449527264
415,0.00599333131685853,0.00576913263648748,0.00864691380411386,2.53091257036431E-05,0.00173714035190642,0.0266222711652517
416,0.00794333219528198,0.0085559943690896,0.0117078917101026,2.50666234933306E-05,0.00246307044290006,0.0297016352415085
417,0.0100265899673104,0.0113207343965769,0.0136926164850593,2.48615033342503E-05,0.00314620905555785,0.0291076544672251
418,0.0126211540773511,0.0149066690355539,0.0147396204993129,2.47320367634529E-05,0.00415504910051823,0.0264453012496233
419,0.0154420798644423,0.0195681378245354,0.0152234705165029,2.4674931410118E-05,0.00529567804187536,0.0238921791315079
420,0.0174381788820028,0.0237102881073952,0.0149436742067337,2.46498002525186E-05,0.00551707949489355,0.0221195500344038
421,0.0182693675160408,0.0256234854459763,0.0144160632044077,2.46020026679616E-05,0.00438071461394429,0.0199890155345201
422,0.0177007541060448,0.0245362818241119,0.0135752521455288,2.44910424953559E-05,0.00182455324102193,0.0155790932476521
423,0.0151469446718693,0.0205132719129324,0.0109478840604424,2.43098420469323E-05,-0.00204371032305062,0.00878997333347797
424,0.0116664515808225,0.0155755104497075,0.00716239446774125,2.40859426412499E-05,-0.00533330207690597,0.00313023664057255
425,0.00853953883051872,0.0116404099389911,0.0041965520940721,2.38653774431441E-05,-0.00627199420705438,0.00118947366718203
426,0.00577726634219289,0.00875426083803177,0.00258019543252885,2.36885862250347E-05,-0.00496646808460355,0.000941444013733417
427,0.00322959525510669,0.00623413361608982,0.00187438982538879,2.35709103435511E-05,-0.00250881281681359,-0.000636279117316008
428,0.00137266528327018,0.00415038410574198,0.00192997499834746,2.34969284065301E-05,0.000405011232942343,-0.00305950455367565
429,0.000151921558426693,0.00300873443484306,0.00229128403589129,2.34303006436676E-05,0.00340374605730176,-0.0037327955942601
430,-0.00075666094198823,0.00312714627943933,0.00268290378153324,2.3333048375207E-05,0.0064625502564013,-0.00105730455834419
431,-0.000686436251271516,0.00470837065950036,0.00403202697634697,2.31841022468871E-05,0.00997063890099525,0.00500259501859546
432,0.000456033827504143,0.00735225155949593,0.00664064288139343,2.29882134590298E-05,0.0131172398105264,0.0130003644153476
433,0.00157280347775668,0.00979863852262497,0.00930152367800474,2.27717664529337E-05,0.0141589641571045,0.0200393758714199
434,0.00175339041743428,0.0102714877575636,0.010617789812386,2.25685907935258E-05,0.0125525239855051,0.0231738667935133
435,0.0018210121197626,0.00893037021160126,0.0112395379692316,2.24033719860017E-05,0.0103119472041726,0.0230482611805201
436,0.00306504359468818,0.00762476865202188,0.013207565061748,2.22806884266902E-05,0.0100301587954164,0.0225412528961897
437,0.00429446576163173,0.00618356512859464,0.0161971393972635,2.21843183680903E-05,0.0115485219284892,0.0217433050274849
438,0.00467595038935542,0.00442725280299783,0.0190580803900957,2.2086278477218E-05,0.0140739465132356,0.0201351623982191
439,0.00510917790234089,0.00344351003877819,0.0216218885034323,2.19606299651787E-05,0.0174163486808538,0.0180281233042479
440,0.00488367443904281,0.00231737433932722,0.0227082949131727,2.17953420360573E-05,0.0198093242943287,0.0135067412629724
441,0.00326185533776879,-0.000554855505470186,0.0214717742055655,2.15970048884628E-05,0.0199823919683695,0.00497479876503348
442,0.00182959821540862,-0.00406326958909631,0.0191140323877335,2.13867733691586E-05,0.0190717894583941,-0.0047522122040391
443,0.0014656747225672,-0.00600707018747926,0.0165859926491976,2.11899841815466E-05,0.0177579782903194,-0.0112683968618512
444,0.000980241573415697,-0.00611894810572267,0.0133800422772765,2.10244525078451E-05,0.0151908220723271,-0.0128475232049823
445,-0.000315300916554406,-0.00510050868615508,0.00937250535935164,2.08926885534311E-05,0.0114755183458328,-0.00948694348335266
446,-0.00194719445426017,-0.00326778856106102,0.00530615914613009,2.07812936423579E-05,0.00770814716815948,-0.00128152687102556
447,-0.00233625783585012,-0.000482327915960923,0.00267252256162465,2.06674903893145E-05,0.00543741881847382,0.00987645424902439
448,0.000108474996523,0.00341003597714007,0.002857900923118,2.05297128559323E-05,0.00615637982264161,0.0196853280067444
449,0.00371437636204064,0.00680009368807077,0.0047895242460072,2.03574818442576E-05,0.00815082155168056,0.0244045797735453
450,0.0051689688116312,0.00795776024460793,0.0062010046094656,2.01561942958506E-05,0.00808952003717422,0.0241904985159636
451,0.0041802478954196,0.00819614250212908,0.00664354162290692,1.99446621991228E-05,0.00567865232005715,0.0228525400161743
452,0.00184977857861668,0.00869858730584383,0.00617308681830764,1.97464833036065E-05,0.00197178381495178,0.0226355586200953
453,-0.00137734075542539,0.00890257768332958,0.00451527396216989,1.95790289581055E-05,-0.0023241073358804,0.0227237362414598
454,-0.00311827240511775,0.0100547531619668,0.00334188272245228,1.94450985873118E-05,-0.00469385646283627,0.0233292225748301
455,-0.00201687379740179,0.0127475401386619,0.00398589204996824,1.9331235307618E-05,-0.00391186214983463,0.024147467687726
456,0.000184290038305335,0.0155791761353612,0.00581703567877412,1.9213746782043E-05,-0.0017875152407214,0.0237775705754757
457,0.00212664087302983,0.018559580668807,0.00785584095865488,1.90698974620318E-05,0.000139199808472767,0.022725997492671
458,0.00262058805674315,0.0213539283722639,0.00830406881868839,1.8889097191277E-05,0.000530219869688153,0.0217898357659578
459,0.00118581857532263,0.0223921537399292,0.00648815371096134,1.86786164704245E-05,-0.000353863055352122,0.0212357044219971
460,-0.00149655947461724,0.0207325424998999,0.0035413010045886,1.84607033588691E-05,-0.00093252252554521,0.0205716136842966
461,-0.00468998774886131,0.0170044004917145,0.0004328663344495,1.82620751729701E-05,-0.00132462289184332,0.0184687133878469
462,-0.00736699905246496,0.013023192062974,-0.00205634767189622,1.81006616912782E-05,-0.00161247130017728,0.0150404283776879
463,-0.00869773142039776,0.010131636634469,-0.0030943751335144,1.79761445906479E-05,-0.00102675158996135,0.0121085634455085
464,-0.00796858966350555,0.00939214508980513,-0.00195719418115914,1.78693480847869E-05,0.000855811464134604,0.0108881443738937
465,-0.00496105896309018,0.010745975188911,0.000826987437903881,1.77512538357405E-05,0.00404589669778943,0.0103786941617727
466,-0.000897156132850796,0.0124718612059951,0.00338253169320524,1.75975346792256E-05,0.00742055801674724,0.00956821627914906
467,0.00178916496224701,0.0125693799927831,0.00427257409319282,1.74013293872122E-05,0.00872697960585356,0.00863449275493622
468,0.00162095844279975,0.00984471943229437,0.0037088196258992,1.71775591297774E-05,0.00733061274513602,0.00730381300672889
469,0.000146333492011763,0.00584175484254956,0.00339446915313601,1.6956071704044E-05,0.00551241496577859,0.00619127741083503
470,-0.00137084152083844,0.00251870276406407,0.00354749080725014,1.67666785273468E-05,0.00435848068445921,0.00585778616368771
471,-0.00407185358926654,-0.000766499550081789,0.00197714241221547,1.66235549841076E-05,0.00205564475618303,0.00409809919074178
472,-0.00792337208986282,-0.0042723179794848,-0.00204766890965402,1.65172077686293E-05,-0.00210612826049328,-0.000701163429766893
473,-0.010823423974216,-0.00647443160414696,-0.00589134264737368,1.64185894391267E-05,-0.00593192130327225,-0.00622607162222266
474,-0.0116889625787735,-0.00660065561532974,-0.0068909814581275,1.62936976266792E-05,-0.00748379295691848,-0.00902059581130743
475,-0.0113591831177473,-0.00529678864404559,-0.00542449485510588,1.61213774845237E-05,-0.00742893433198333,-0.00839138217270374
476,-0.0108284521847963,-0.00337878824211657,-0.00334765715524554,1.59049741341732E-05,-0.00722919637337327,-0.00601669680327177
477,-0.0102640278637409,-0.00114606937859207,-0.00181422522291541,1.56714049808215E-05,-0.00703488569706678,-0.00275253178551793
478,-0.00892815925180912,0.00162086193449795,-0.000859703402966261,1.54576464410638E-05,-0.00597664434462786,0.00079539802391082
479,-0.00597079144790769,0.00467123929411173,3.59512268914841E-05,1.52914271893678E-05,-0.00358279258944094,0.00127173017244786
480,-0.00245152390561998,0.00653534196317196,0.000524116447195411,1.5176188753685E-05,-0.000773032195866108,-0.00419212831184268
481,-0.000932808150537312,0.00620469404384494,-0.000549672986380756,1.50885416587698E-05,0.000601475418079644,-0.0126314889639616
482,-0.00150913023389876,0.00521991075947881,-0.00229902262799442,1.49899797179387E-05,0.000595605350099504,-0.0169082842767239
483,-0.00207911618053913,0.00571537809446454,-0.00232940260320902,1.48470098793041E-05,0.00112896063365042,-0.0131391501054168
484,-0.00256735808216035,0.00703955162316561,-0.000881499552633613,1.46491947816685E-05,0.00219633313827217,-0.0051318584010005
485,-0.00410886527970433,0.00702536338940263,0.000403033947804943,1.4415338227991E-05,0.00268509145826101,0.000454327702755108
486,-0.00600571744143963,0.00535343308001757,0.00195386121049523,1.41841774166096E-05,0.00339891877956688,0.00113898317795247
487,-0.00659569865092635,0.00332562928088009,0.00451982161030173,1.39941366796847E-05,0.00560291204601526,-0.00112282356712967
488,-0.00568586448207498,0.00156863790471107,0.00692832982167602,1.38627592605189E-05,0.00861193146556616,-0.00376773020252585
489,-0.00461072428151965,7.19929012120701E-05,0.00740274833515286,1.37768383865478E-05,0.0104484530165792,-0.00572114158421755
490,-0.00483601912856102,-0.00136483903042972,0.00523968739435077,1.36988401209237E-05,0.00980319455265999,-0.00744165247306228
491,-0.00602504657581449,-0.002323281718418,0.00186764821410179,1.35865293486859E-05,0.00753468554466963,-0.00817215442657471
492,-0.00581572810187936,-0.000856660713907331,7.56140289013274E-05,1.34155434352579E-05,0.00606009317561984,-0.00603612046688795
493,-0.00353535683825612,0.00309119815938175,0.00103074475191534,1.31928245536983E-05,0.00641237618401647,-0.00355384615249932
494,-0.000660633784718812,0.00685111898928881,0.00390782253816724,1.29534882944427E-05,0.00807506497949362,-0.00476420391350985
495,0.0017520907567814,0.00876994896680117,0.00707259681075811,1.27424809761578E-05,0.0100809773430228,-0.00869318284094334
496,0.00221587670966983,0.00850462075322866,0.00790465623140335,1.25906117318664E-05,0.0100348517298698,-0.0121833337470889
497,-6.02442923991475E-05,0.00669728638604283,0.00553294271230698,1.24977696032147E-05,0.0070425639860332,-0.0138653488829732
498,-0.00231998623348773,0.0052211950533092,0.00294365012086928,1.24324969874579E-05,0.00430749217048287,-0.013831808231771
499,-0.00197536777704954,0.00424073915928602,0.00213932362385094,1.23484269352048E-05,0.00409102020785213,-0.0143679706379771
500,-0.000600847241003066,0.00160146411508322,0.00155882001854479,1.22089977594442E-05,0.00453659426420927,-0.0190707482397556
501,-0.000298119033686817,-0.00277853128500283,-0.000158003356773406,1.20072645586333E-05,0.00372888171114028,-0.0265694744884968
502,-0.000629726680926979,-0.006019645370543,-0.00273949163965881,1.17700392365805E-05,0.00225403183139861,-0.0311020649969578
503,-0.000499856483656913,-0.00608704518526793,-0.005442064255476,1.15439115688787E-05,0.000819179404061288,-0.0302871242165565
504,0.000157719157868996,-0.00365328486077487,-0.00765514234080911,1.13704363684519E-05,-0.00105428916867822,-0.0261865090578794
505,0.00100008049048483,-0.000659723591525108,-0.00921931676566601,1.12637198981247E-05,-0.00303176138550043,-0.0216461438685656
506,0.00237790541723371,0.0022148503921926,-0.00966088194400072,1.12025245471159E-05,-0.00364182936027646,-0.0177745129913092
507,0.00405415846034884,0.00498412922024727,-0.00829203240573406,1.11413255581283E-05,-0.00290516577661037,-0.0149250319227576
508,0.00506857270374894,0.00715415645390749,-0.00523969857022166,1.10345699795289E-05,-0.00177273491863161,-0.0139792747795582
509,0.00475411769002676,0.00827600341290236,-0.00185688561759889,1.08611993709928E-05,-0.000754438689909875,-0.0151673583313823
510,0.00191997166257352,0.00751347560435534,-0.000631622795481235,1.06362194856047E-05,-0.00123590265866369,-0.0180138498544693
511,-0.00312765454873443,0.00489492435008287,-0.00246536452323198,1.04029422800522E-05,-0.00340303825214505,-0.0214748028665781
512,-0.00801385287195444,0.00174522760789841,-0.00555319804698229,1.02099093055585E-05,-0.00586674967780709,-0.0249543525278568
513,-0.0104104895144701,-0.000304669403703883,-0.00712596625089645,1.00848055808456E-05,-0.00738789886236191,-0.0278631895780563
514,-0.00905334297567606,0.000523086229804903,-0.00562279252335429,1.00194047263358E-05,-0.00665849400684237,-0.0280426982790232
515,-0.00542577914893627,0.00432127760723233,-0.00252322922460735,9.97375082079088E-06,-0.00464030960574746,-0.0242950618267059
516,-0.00250308960676193,0.00884188339114189,-0.000360886624548584,9.89747331914259E-06,-0.00396238919347525,-0.0186706129461527
517,-0.00142959516961128,0.0117145786061883,-0.000100563818705268,9.75684270088095E-06,-0.00478783901780844,-0.0145283192396164
518,-0.00132708705496043,0.0123489052057266,-0.000973788904957473,9.55303585215006E-06,-0.00514356652274728,-0.0134493745863438
519,-0.00154550350271165,0.0114078707993031,-0.00175434269476682,9.32168677536538E-06,-0.00413189921528101,-0.0144338477402925
520,-0.00237576360814273,0.00969581119716167,-0.00202467874623835,9.11387451196788E-06,-0.00292772543616593,-0.0149041544646025
521,-0.00348761514760554,0.00831135362386703,-0.00166002509649843,8.96869278221857E-06,-0.00278682401403785,-0.0124583952128887
522,-0.00422175088897347,0.00756152020767331,-0.000684483908116817,8.89215516508557E-06,-0.00351382466033101,-0.00762608600780368
523,-0.00504251196980476,0.00624175788834691,-0.000357378594344482,8.85383542481577E-06,-0.00493269134312868,-0.00414854614064097
524,-0.00550943706184626,0.00451453821733594,-0.000940146041102707,8.80313200468663E-06,-0.00601361272856593,-0.00350956036709249
525,-0.00409764237701893,0.00425026286393404,-0.000626664492301643,8.69645100465277E-06,-0.00452573457732797,-0.00246148137375712
526,-0.00139207718893886,0.0056389719247818,0.000625293876510113,8.52070388646098E-06,-0.00104275019839406,0.000919951358810067
527,0.0010206641163677,0.00766249792650342,0.0014733774587512,8.30042699817568E-06,0.00208966736681759,0.00456791371107101
528,0.00227385479956865,0.00960979145020247,0.00158759928308427,8.08464756119065E-06,0.00396620016545057,0.00587864220142365
529,0.0012546848738566,0.0101775107905269,0.000848517927806824,7.92053288023453E-06,0.00422668131068349,0.00327436695806682
530,-0.00143134128302336,0.0092043736949563,0.000359127297997475,7.82799725129735E-06,0.00377736589871347,-0.00256533874198794
531,-0.00347226019948721,0.00834857393056154,0.00144800054840744,7.78895719122374E-06,0.0039024711586535,-0.00888503435999155
532,-0.00537808844819665,0.00752891087904572,0.00209659175015986,7.75703756517032E-06,0.00267562200315297,-0.0146094523370266
533,-0.00815596338361502,0.0061309146694839,0.000309353898046538,7.68253448768519E-06,-0.00106958241667598,-0.0190770551562309
534,-0.00951300095766783,0.00575234554708004,-0.00192956952378154,7.53916583562386E-06,-0.00393628561869264,-0.0197387970983982
535,-0.00819827895611525,0.00729371840134263,-0.00239831814542413,7.3382188929827E-06,-0.00378119945526123,-0.0166120287030935
536,-0.00588378543034196,0.00971309468150139,-0.00137760466895998,7.12245810063905E-06,-0.00252150045707822,-0.0129569228738546
537,-0.00351817067712545,0.0120280664414167,0.000537136802449822,6.94308073434513E-06,-0.00120803830213845,-0.0113263167440891
538,0.000193414729437791,0.0142901437357068,0.00428931275382638,6.8321560320328E-06,0.00271345162764192,-0.0124346446245909
539,0.00521885231137276,0.0161311253905296,0.00993876717984676,6.78539208820439E-06,0.0104728136211634,-0.0161646567285061
540,0.0086017120629549,0.0166898127645254,0.0148137761279941,6.76450736136758E-06,0.0183151829987764,-0.0209992248564959
541,0.00855258293449879,0.0163851976394653,0.0165508966892958,6.71789985062787E-06,0.0216558184474707,-0.0226111710071564
542,0.00591936660930514,0.0158639140427113,0.0149653479456902,6.60844352751155E-06,0.0195394661277533,-0.0168854538351297
543,0.00221130065619946,0.0150490719825029,0.0111489957198501,6.43343446427025E-06,0.0149088138714433,-0.00523890741169453
544,-0.000929379370063543,0.0147069301456213,0.00681213708594441,6.22595189270214E-06,0.0115024391561747,0.00637411186471581
545,-0.00201233243569732,0.0159244928508997,0.00371818570420146,6.03695298195817E-06,0.0107369385659695,0.0138374697417021
546,-0.00104086159262806,0.0177534744143486,0.00259282882325351,5.90779973208555E-06,0.0113615971058607,0.0171128455549479
547,0.000746048579458147,0.0183446295559406,0.00267079751938581,5.84804092795821E-06,0.0117060039192438,0.0173833072185516
548,0.00152832060121,0.0164314620196819,0.00230856472626328,5.83039263801766E-06,0.0108990212902427,0.0146885570138693
549,-3.22724881698377E-05,0.0120630394667387,0.000611334864515811,5.80556388740661E-06,0.00875071156769991,0.00930625479668379
550,-0.00281752389855683,0.00751687167212367,-0.00134669383987784,5.72886438021669E-06,0.00655431766062975,0.00303259468637407
551,-0.00444492464885116,0.00515015097334981,-0.00210021925158799,5.58422379981494E-06,0.00583779066801071,-0.00250746472738683
552,-0.00405171839520335,0.00498778373003006,-0.00192425935529172,5.39270013177884E-06,0.00629748590290546,-0.00716262683272362
553,-0.00201886729337275,0.00605589337646961,-0.0015930162044242,5.20097182743484E-06,0.00694064283743501,-0.0111319189891219
554,-0.000283118453808129,0.00685077486559749,-0.00237615336664021,5.05610159962089E-06,0.00552864745259285,-0.0153640508651733
555,-0.00151674542576075,0.0052386955358088,-0.00640963343903422,4.98022382089403E-06,-0.000864083704072982,-0.0213198214769363
556,-0.00490444013848901,0.00166381162125617,-0.0126903699710965,4.95878157380503E-06,-0.0105022192001343,-0.0267412066459656
557,-0.00744052231311798,-0.00121705676428974,-0.0174457468092442,4.94856840305147E-06,-0.0179820656776428,-0.0275667570531368
558,-0.00800597667694092,-0.00246024946682155,-0.0189303308725357,4.9011318878911E-06,-0.0207632668316364,-0.0248119868338108
559,-0.00752315344288945,-0.00310010043904185,-0.0180958397686481,4.78885976917809E-06,-0.0207002516835928,-0.0230362731963396
560,-0.0066073602065444,-0.00289908121339977,-0.0156966671347618,4.61968647869071E-06,-0.0196437574923038,-0.0222160611301661
561,-0.00487780570983887,-0.000478570902487263,-0.0121499011293054,4.43259204985225E-06,-0.0177482925355434,-0.0183066353201866
562,-0.00282103102654219,0.00322453887201846,-0.00920654367655516,4.27643135481048E-06,-0.0157378036528826,-0.0114317294210196
563,-0.00153365405276418,0.00552932219579816,-0.00814495328813791,4.18360150433728E-06,-0.0143377864733338,-0.00622766045853496
564,-0.000474692002171651,0.00612772721797228,-0.00759683921933174,4.15274689657963E-06,-0.0122604025527835,-0.00428543938323855
565,0.00183017912786454,0.00710037304088473,-0.00514264917001128,4.14974238083232E-06,-0.00780893536284566,-0.00303352577611804
566,0.00448604114353657,0.00820773746818304,-0.00144596898462623,4.12628378398949E-06,-0.0027711580041796,-0.00250120181590319
567,0.00512461643666029,0.00745684606954455,0.000405642291298136,4.04596039516036E-06,-0.000735159614123404,-0.00485009793192148
568,0.00374239450320601,0.00507864449173212,-9.7590615041554E-05,3.90372269976069E-06,-0.00174874544609338,-0.00912787392735481
569,0.00214035506360233,0.00214191386476159,-0.00120036734733731,3.72833596884448E-06,-0.0029879326466471,-0.0137041723355651
570,0.00158677122090012,-0.000933588948100805,-0.00183814996853471,3.56663304046378E-06,-0.00246056797914207,-0.0185677353292704
571,0.0021749974694103,-0.00303842988796532,-0.00192183000035584,3.4581948966661E-06,-0.000316382094752043,-0.0216749422252178
572,0.00252003921195865,-0.00326113565824926,-0.00220696744509041,3.41414738613821E-06,0.000988878658972681,-0.0190057028084993
573,0.0017810573335737,-0.0019333278760314,-0.00255878106690943,3.41144141202676E-06,-0.00011742724746,-0.00972928758710623
574,0.000851261720526963,-0.00013966929691378,-0.001731998170726,3.40554925060133E-06,-0.0022147751878947,0.0014063521521166
575,-1.75038767338265E-05,0.000231890255236067,-0.000822370930109173,3.35458571498748E-06,-0.00406385073438287,0.00663068518042564
576,-0.00101506861392409,-0.00180553249083459,-0.00142089661676437,3.24177790389513E-06,-0.0051296460442245,0.0016657569212839
577,-0.00092722347471863,-0.00418820884078741,-0.00175294745713472,3.08422636408068E-06,-0.00437798490747809,-0.00893206987529993
578,0.000894743774551898,-0.0044456091709435,-0.000204182098968886,2.92338108920376E-06,-0.00204408750869334,-0.0171709340065718
579,0.00346449739299715,-0.00278225122019649,0.0022126252297312,2.80253107121098E-06,0.000672399415634573,-0.0204225871711969
580,0.00507597904652357,-0.00122712296433747,0.00397976348176599,2.74353828899621E-06,0.00266634370200336,-0.0207727067172527
581,0.00496884621679783,-0.000211946331546642,0.00491865305230021,2.73532168648671E-06,0.00386400264687836,-0.0179968606680632
582,0.00454445648938417,0.00172739231493324,0.00611954927444458,2.74015883405809E-06,0.00575931230559945,-0.0100719816982746
583,0.00427619693800807,0.00397936441004276,0.00726425554603338,2.71422595687909E-06,0.0080192144960165,-0.00046704345731996
584,0.00439606746658683,0.00561014981940389,0.00809099990874529,2.63119136434398E-06,0.00991417001932859,0.00569416815415025
585,0.00634197378531098,0.00727940443903208,0.0101239951327443,2.49615322900354E-06,0.0126782869920135,0.00860926602035761
586,0.00903798546642065,0.00836029462516308,0.0131387263536453,2.3425413928635E-06,0.0155119355767965,0.0109266731888056
587,0.00992724020034075,0.00776830036193132,0.0149854104965925,2.21384493670485E-06,0.0161178465932608,0.0134969167411327
588,0.00934955943375826,0.00648112548515201,0.0152853615581989,2.14014880839386E-06,0.015217405743897,0.0154188862070441
589,0.00894759595394135,0.0057162931188941,0.0148741882294416,2.12214604289329E-06,0.0146331619471312,0.0154552720487118
590,0.00842430721968412,0.00464347377419472,0.0133893741294742,2.13111820812628E-06,0.0136215817183256,0.012867396697402
591,0.0063739325851202,0.00162027298938483,0.00992351304739714,2.1247042241157E-06,0.0101897539570928,0.00725454464554787
592,0.00294064078480005,-0.00254167569801211,0.00520861940458417,2.06979757422232E-06,0.00423254678025842,-0.00096310256049037
593,0.000626230787020177,-0.00389157026074827,0.00203472771681845,1.96019095710653E-06,-0.0017457416979596,-0.00899001583456993
594,7.82405331847258E-05,-0.00172699510585517,0.00141141808126122,1.81956158940011E-06,-0.00615119934082031,-0.0144231161102653
595,-0.00025091486168094,-7.12295586708933E-05,0.0023915427736938,1.68838118952408E-06,-0.00869649276137352,-0.0172477010637522
596,-0.000528319389559329,-0.00131963519379497,0.00444823782891035,1.60198339926865E-06,-0.00909111090004444,-0.0176361817866564
597,-0.000415034388424829,-0.00441129319369793,0.00676282355561852,1.57167596626095E-06,-0.00840813759714365,-0.0157192349433899
598,-7.75852749939077E-05,-0.00741534307599068,0.00824482273310423,1.57899455643928E-06,-0.00804146099835634,-0.0129927629604936
599,0.000451234896900132,-0.00973537471145391,0.00811141822487116,1.58600676058995E-06,-0.0081487875431776,-0.0119835259392858
600,0.00180451851338148,-0.011210810393095,0.00706612365320325,1.55591953898693E-06,-0.007654735352844,-0.0138935446739197
601,0.00407742010429502,-0.0113398572430015,0.00642123073339462,1.47279115481069E-06,-0.00620621349662542,-0.0177645273506641
602,0.00606790417805314,-0.0100348554551601,0.00619710329920053,1.34978495225369E-06,-0.00520664965733886,-0.0202984847128391
603,0.00669468659907579,-0.00783685501664877,0.00580183742567897,1.22169592486898E-06,-0.00571028562262654,-0.0180381685495377
604,0.00515248626470566,-0.00658984249457717,0.00404314417392015,1.12598240775696E-06,-0.00801526196300983,-0.0130251767113805
605,0.0021701930090785,-0.00715529592707753,0.00106417154893279,1.08264316622808E-06,-0.0110733387991786,-0.00965807214379311
606,0.000471554667456076,-0.00764324935153127,-0.000277633604127914,1.08374911178544E-06,-0.0123519720509648,-0.00804086308926344
607,0.000444006465841085,-0.00756103591993451,0.000759404734708369,1.09810491721873E-06,-0.0115828476846218,-0.00766003085300326
608,0.000616420002188534,-0.0081337271258235,0.00241412757895887,1.08831477518834E-06,-0.00994122866541147,-0.00934742484241724
609,0.000702426943462342,-0.00945950858294964,0.00395063264295459,1.03091633718577E-06,-0.00785415153950453,-0.012422232888639
610,0.000630244030617177,-0.010965758934617,0.00509205181151628,9.28738700167742E-07,-0.00650043878704309,-0.014922141097486
611,0.000862927292473614,-0.011175999417901,0.00542341964319348,8.08978313671105E-07,-0.00666306400671601,-0.0145492246374488
612,0.00129176722839475,-0.00985224731266499,0.00390725629404187,7.08243419467181E-07,-0.00826931558549404,-0.0125392153859138
613,0.000252906756941229,-0.00939720682799816,-0.000236964158830233,6.52788060051535E-07,-0.0114340744912624,-0.0137308211997151
614,-0.00288965576328337,-0.0113071789965034,-0.00584943825379014,6.44607951016951E-07,-0.0155771132558584,-0.0195969827473164
615,-0.00666912691667676,-0.0147705692797899,-0.0104842027649283,6.60757223158726E-07,-0.0184437371790409,-0.0265959575772285
616,-0.00847494136542082,-0.0174654088914394,-0.0113127809017897,6.66041330532607E-07,-0.0168508309870958,-0.0299170352518559
617,-0.00729749398306012,-0.018096037209034,-0.00773691246286035,6.32066019079502E-07,-0.0101325334981084,-0.0278620589524508
618,-0.00479388795793056,-0.0178708285093308,-0.00218001403845847,5.52330732261908E-07,-0.00135068572126329,-0.0223819930106401
619,-0.0023172430228442,-0.0177494026720524,0.00336926290765405,4.45342635657653E-07,0.00606882711872458,-0.0156330093741417
620,-0.000272903911536559,-0.017968999221921,0.00816777721047401,3.4428231288075E-07,0.0105088967829943,-0.0100808516144753
621,0.000848045689053833,-0.0186836607754231,0.0115098180249333,2.78984458645937E-07,0.0118601666763425,-0.00826322939246893
622,0.000869305629748851,-0.018933454528451,0.0126453638076782,2.600170603273E-07,0.0101770414039493,-0.00909833982586861
623,0.000252398865995929,-0.0175126641988754,0.0115987928584218,2.73352611657174E-07,0.00594789907336235,-0.0081450566649437
624,-0.000647648819722235,-0.0150247486308217,0.00935586914420128,2.88302999251755E-07,0.000879552564583719,-0.0032314988784492
625,-0.00175466749351472,-0.0129948705434799,0.00705657247453928,2.74237095254648E-07,-0.00322445761412382,0.00355614349246025
626,-0.003103586146608,-0.0123732080683112,0.00501501467078924,2.16973219835381E-07,-0.00562450801953673,0.00854341872036457
627,-0.00480413157492876,-0.013208681717515,0.00286945444531739,1.26072919215403E-07,-0.00674901017919183,0.00971491169184446
628,-0.00620933249592781,-0.0140171563252807,0.00111891736742109,2.92930781853329E-08,-0.00692492956295609,0.00867263227701187
629,-0.0064914021641016,-0.0133825317025185,0.000796660548076034,-4.26018509358528E-08,-0.00562746357172728,0.00808302592486143
630,-0.00569811509922147,-0.011591280810535,0.00185946340207011,-7.23604003383116E-08,-0.00294685014523566,0.00909548997879028
631,-0.00420593889430165,-0.00952150672674179,0.00358404312282801,-6.52284128932479E-08,-0.00019437306036707,0.0110687622800469
632,-0.0023208549246192,-0.00810455251485109,0.00553081464022398,-4.57267113063153E-08,0.00178216397762299,0.011775347404182
633,-0.000380655197659507,-0.00811833050101995,0.00722768716514111,-4.41742535883805E-08,0.00296053080819547,0.00982642266899347
634,0.00219336175359786,-0.00828875508159399,0.00930471532046795,-8.03627173695531E-08,0.0043239057995379,0.00755765102803707
635,0.00574854994192719,-0.00708941370248795,0.0130646415054798,-1.53173886019431E-07,0.00720336847007275,0.00762745318934321
636,0.00794767495244741,-0.00629545096307993,0.0166933089494705,-2.41582711169031E-07,0.0100918216630816,0.00802975613623858
637,0.00663254223763943,-0.00754271680489182,0.0169114377349615,-3.16290254431806E-07,0.0104261841624975,0.00593812391161919
638,0.0035038311034441,-0.00871273502707481,0.0143187139183283,-3.55556181830252E-07,0.0091687198728323,0.00262875435873866
639,0.00101396872196347,-0.00780331296846271,0.0114346835762262,-3.56677901436342E-07,0.00822595506906509,0.00139872299041599
640,-0.000460899580502883,-0.00547562586143613,0.00890239886939526,-3.37060896526964E-07,0.00733815040439367,0.0037587929982692
641,-0.0018899398855865,-0.00391973648220301,0.0061971009708941,-3.24514928706776E-07,0.0056730373762548,0.00739209074527025
642,-0.00339140649884939,-0.0042189727537334,0.00386826391331851,-3.4218112432427E-07,0.00414823507890105,0.0101515697315335
643,-0.00363344023935497,-0.00514874048531055,0.00306910206563771,-3.96260418256134E-07,0.00427240785211325,0.0128100533038378
644,-0.00305821979418397,-0.00647064996883273,0.00264495890587568,-4.73048743288018E-07,0.00507570384070277,0.0148659748956561
645,-0.00337243499234319,-0.00891413539648056,0.000517187057994306,-5.46674016277393E-07,0.00464935041964054,0.0148653639480472
646,-0.00497678900137544,-0.0119819678366184,-0.00357435853220522,-5.9317710565665E-07,0.00246697990223765,0.0125424414873123
647,-0.00617546355351806,-0.013766361400485,-0.00731455069035292,-6.03277044319839E-07,0.000118372736324091,0.00919738225638866
648,-0.00540537619963288,-0.0130769647657871,-0.00816727615892887,-5.87023237130779E-07,-0.000723738688975573,0.00699851708486676
649,-0.00378752173855901,-0.0111163193359971,-0.00643111253157258,-5.68019629554328E-07,-0.000877776823472232,0.00654671527445316
650,-0.00293880025856197,-0.00962453335523605,-0.00411823950707912,-5.7052892543652E-07,-0.00177657150197774,0.00700033130124211
651,-0.00375660066492856,-0.0101977782323956,-0.00330200954340398,-6.06502624123095E-07,-0.0040016109123826,0.00644264044240117
652,-0.00593117438256741,-0.0131015852093697,-0.00401672208681703,-6.69468079195212E-07,-0.00642214762046933,0.0036903559230268
653,-0.00714205810800195,-0.0157351233065128,-0.00389452278614044,-7.38390951937618E-07,-0.00668965326622128,0.00111303746234626
654,-0.00525080505758524,-0.0152895599603653,-0.00162113481201231,-7.89230512054928E-07,-0.0042633693665266,0.00224785576574504
655,-0.00105516356416047,-0.0118484674021602,0.00142405170481652,-8.0784485589902E-07,-0.000568062474485487,0.00783819332718849
656,0.00217483006417751,-0.00778628187254071,0.00281347706913948,-7.97322456946858E-07,0.00214179046452045,0.0158934742212296
657,0.00226822006516159,-0.00514673674479127,0.00132457911968231,-7.759490472381E-07,0.00215585227124393,0.0231353342533112
658,0.00017240532906726,-0.00397551897913218,-0.00208608363755047,-7.67106200783019E-07,0.000522237329278141,0.0266618710011244
659,-0.00178933888673782,-0.00300403847359121,-0.00546774594113231,-7.86679379416455E-07,-0.000491464277729392,0.0256459079682827
660,-0.00199790508486331,-0.00108150998130441,-0.0075899176299572,-8.34756463063968E-07,-9.37218792387284E-05,0.0213019549846649
661,-0.000333822157699615,0.00183296040631831,-0.00851565878838301,-8.95949256118911E-07,0.00107113330159336,0.0156972836703062
662,0.00182461680378765,0.00429745996370912,-0.00898065138608217,-9.47967180309206E-07,0.00210866611450911,0.0105197569355369
663,0.00372367701493204,0.00549635523930192,-0.00891604088246822,-9.7367342277721E-07,0.00303940405137837,0.00749538326635957
664,0.00575592741370201,0.00599448755383492,-0.00800215546041727,-9.70106839304208E-07,0.00399274146184325,0.00700750714167953
665,0.00794902537018061,0.00614064559340477,-0.00662426929920912,-9.49726711496623E-07,0.00491539062932134,0.00738096097484231
666,0.00955977570265532,0.00582507578656077,-0.00553083559498191,-9.33401793190569E-07,0.00585693353787065,0.00736475503072143
667,0.00919525697827339,0.00467738416045904,-0.00578681007027626,-9.39082326567586E-07,0.0059830080717802,0.00618108361959457
668,0.00661349669098854,0.00279382662847638,-0.0072698462754488,-9.7230372375634E-07,0.00468461355194449,0.00388547731563449
669,0.00355983315967023,0.00118233263492584,-0.00832608435302973,-1.02354226783064E-06,0.00272770901210606,0.00243595871143043
670,0.00193955900613219,0.0010090289870277,-0.00741051370278001,-1.07366622614791E-06,0.00155971373897046,0.00359550165012479
671,0.00222520134411752,0.00275255576707423,-0.00403325445950031,-1.1043736094507E-06,0.00216504675336182,0.00657424703240395
672,0.00368842273019254,0.00573456240817904,0.000681252160575241,-1.10792768737156E-06,0.0043777646496892,0.00961365457624197
673,0.00568037666380405,0.00857534352689981,0.00501506356522441,-1.0910159744526E-06,0.00769671611487865,0.0128323631361127
674,0.00767008448019624,0.0103364167734981,0.00757427606731653,-1.07082462363906E-06,0.0111626042053103,0.0170745942741632
675,0.0083888852968812,0.0103832185268402,0.0071748998016119,-1.06561776647141E-06,0.0128402411937714,0.0207351464778185
676,0.00777067616581917,0.00906990934163332,0.00483670551329851,-1.08498454665096E-06,0.0127687538042665,0.0219116676598787
677,0.00756784901022911,0.00825929921120405,0.00328181311488152,-1.12495979465166E-06,0.0133330570533872,0.0221662968397141
678,0.00764468358829618,0.00817083194851875,0.00287881144322455,-1.17049194159335E-06,0.0147224543616176,0.0226950366050005
679,0.00735640013590455,0.00801228825002909,0.00289607467129827,-1.20375034384779E-06,0.0161874927580357,0.0225446056574583
680,0.00725416792556643,0.00800081342458725,0.00319889560341835,-1.21369430416962E-06,0.0177967343479395,0.0217800568789244
681,0.00676565384492278,0.00788484793156385,0.00288207828998566,-1.20177116968989E-06,0.0180326662957668,0.0210659522563219
682,0.0059359367005527,0.00750152999535203,0.00220112269744277,-1.18081391065061E-06,0.0163458473980427,0.0207792371511459
683,0.00571635458618402,0.00698851142078638,0.00258036330342293,-1.16790749871143E-06,0.0144203007221222,0.0204372480511665
684,0.0060522798448801,0.0064746611751616,0.00427692197263241,-1.17518595743604E-06,0.0133083257824183,0.0199252031743526
685,0.00719215860590339,0.00657591968774796,0.00682969763875008,-1.20351558052789E-06,0.0134110143408179,0.0214148387312889
686,0.00873656943440437,0.00676840543746948,0.00906295794993639,-1.24234782106214E-06,0.0144533226266503,0.0258689038455486
687,0.0094806682318449,0.00605047680437565,0.0101902773603797,-1.27564931062807E-06,0.0155665129423141,0.0309036858379841
688,0.0103737721219659,0.00589009094983339,0.0112916976213455,-1.29058275888383E-06,0.0170914269983768,0.033656433224678
689,0.0117327710613608,0.00766394892707467,0.0121697699651122,-1.28424505874136E-06,0.0188157539814711,0.0320075526833534
690,0.0117874797433615,0.0098813334479928,0.0114236027002335,-1.26493057450716E-06,0.0191463716328144,0.0262924339622259
691,0.0104902908205986,0.011130946688354,0.00986341293901205,-1.24740540741186E-06,0.0179662741720676,0.0206689778715372
692,0.00804453808814287,0.010642820969224,0.00806408189237118,-1.24487701214093E-06,0.0155348153784871,0.0177129283547401
693,0.00439774198457599,0.00806370470672846,0.00571337714791298,-1.26202530736919E-06,0.0121401464566588,0.0167360343039036
694,0.00205016555264592,0.00558274518698454,0.00488435430452228,-1.29276804727851E-06,0.0104845650494099,0.0186210665851831
695,0.00264491862617433,0.00468811672180891,0.00713470671325922,-1.32381069306575E-06,0.0122518269345164,0.0235312730073929
696,0.00479523791000247,0.00376843218691647,0.0107178073376417,-1.34192225687002E-06,0.0156030179932714,0.0275429878383875
697,0.00760812498629093,0.00221674982458353,0.0143615277484059,-1.34096057990973E-06,0.0196531526744366,0.0274067092686892
698,0.0102446638047695,0.000705092446878552,0.0175544321537018,-1.32492175453081E-06,0.0241783820092678,0.0233778469264507
699,0.0110588613897562,-0.000594077282585204,0.0188997779041529,-1.30551438815019E-06,0.027296120300889,0.0180636588484049
700,0.0103195030242205,-0.000912206014618278,0.0186174251139164,-1.29571401430439E-06,0.0285210814327002,0.0152087919414043
701,0.00963362958282232,0.000201452217879705,0.0181696135550737,-1.30284263377689E-06,0.0289978384971619,0.0165752228349447
702,0.00990471802651882,0.00237749191001058,0.0180316567420959,-1.32486275106203E-06,0.0292182508856058,0.0210967790335417
703,0.0107985399663448,0.00507222022861242,0.0178614966571331,-1.35175253035413E-06,0.0284705888479948,0.026751471683383
704,0.0106950551271439,0.00690283207222819,0.0164386630058289,-1.37107303999073E-06,0.0255475807934999,0.0307855550199747
705,0.00927845016121864,0.00717288907617331,0.0132660930976272,-1.37464064664528E-06,0.0209900699555874,0.0312288980931044
706,0.00824822671711445,0.00673852814361453,0.0100339101627469,-1.36273069983872E-06,0.0170909315347672,0.0280193667858839
707,0.00804650504142046,0.00641045160591602,0.00810440164059401,-1.34366121073981E-06,0.014948058873415,0.0223853066563606
708,0.00781200686469674,0.00679845036938787,0.00716668087989092,-1.32912816752651E-06,0.0135617442429066,0.0169244762510061
709,0.00649393955245614,0.00725740054622293,0.0062012649141252,-1.32790319185006E-06,0.0112664671614766,0.0121583677828312
710,0.00386288622394204,0.0069968281313777,0.00475432118400931,-1.34128754325502E-06,0.00792017485946417,0.00674424879252911
711,0.00156924861948937,0.00726916780695319,0.00369130307808518,-1.36267419748037E-06,0.00514006335288286,0.0022648093290627
712,0.00125200080219656,0.00898499507457018,0.00420056795701385,-1.38131144922227E-06,0.00455042067915201,0.00122932798694819
713,0.00308968569152057,0.0114940032362938,0.00599767314270139,-1.38813300054608E-06,0.00622774194926023,0.00387534196488559
714,0.00528884492814541,0.0134917963296175,0.00668021943420172,-1.38049881570623E-06,0.00745529914274812,0.00883944518864155
715,0.00592567445710301,0.014364049769938,0.00466495985165238,-1.3633725757245E-06,0.00577836623415351,0.0146068818867207
716,0.00488838041201234,0.0140371099114418,0.000889051996637136,-1.34643687488278E-06,0.00200470467098057,0.0188416447490454
717,0.0028735832311213,0.0120719280093908,-0.00313274096697569,-1.33881337660569E-06,-0.00182505848351866,0.0187173653393984
718,0.000939388701226562,0.00931776128709316,-0.00608760118484497,-1.34426534259546E-06,-0.00413002166897058,0.0154470028355718
719,-0.000644527957774699,0.00671969354152679,-0.00752590177580714,-1.35940183554339E-06,-0.00458740163594484,0.0124332644045353
720,-0.00266829063184559,0.00381730101071298,-0.007871781475842,-1.37572646963235E-06,-0.00392156606540084,0.0104931350797415
721,-0.00497081922367215,0.00105339614674449,-0.00713895913213491,-1.38430823426461E-06,-0.00259679136797786,0.00998424924910069
722,-0.00639024656265974,0.000145373051054776,-0.00531379831954837,-1.38051279918727E-06,-0.00107188278343529,0.0121906567364931
723,-0.00670654140412807,0.00152677111327648,-0.00312541448511183,-1.36629125790932E-06,-3.54494986822829E-05,0.0168753769248724
724,-0.00681391730904579,0.00329536572098732,-0.00143664132338017,-1.34890967729007E-06,0.000455847475677729,0.0211558919399977
725,-0.00681887706741691,0.00368454004637897,-0.000195939283003099,-1.33692242343386E-06,0.00105545157566667,0.0223307218402624
726,-0.00602214131504297,0.00323375477455556,0.00122449616901577,-1.33561741222366E-06,0.00191322935279459,0.0210431944578886
727,-0.00441815843805671,0.00336846429854631,0.00278419046662748,-1.34435663312615E-06,0.00258203665725887,0.0199986714869738
728,-0.00263160816393793,0.00433486746624112,0.00372843048535287,-1.35714083171479E-06,0.00308778020553291,0.0203168112784624
729,-0.000978881493210793,0.00552930682897568,0.00387224555015564,-1.36597702748986E-06,0.00417095748707652,0.0213767029345036
730,0.000602247193455696,0.00632286397740245,0.00404471158981323,-1.36516337079229E-06,0.00690806889906526,0.0227342825382948
731,0.00133818353060633,0.00593576394021511,0.00411247368901968,-1.35420032165712E-06,0.0105850240215659,0.0233958140015602
732,8.8394241174683E-05,0.0038137377705425,0.00273301056586206,-1.33784874378762E-06,0.0124637801200151,0.0212304014712572
733,-0.00276321545243263,0.000587276706937701,-0.000153022061567754,-1.32341870084929E-06,0.0114171458408237,0.0164313018321991
734,-0.00557088851928711,-0.00150214158929884,-0.00315481284633279,-1.31682827486657E-06,0.00879592634737492,0.0139086581766605
735,-0.0070566525682807,-0.000849026429932565,-0.00552759971469641,-1.31955482629564E-06,0.00603872118517756,0.0166890602558851
736,-0.00696041015908122,0.00159676268231124,-0.00736592430621386,-1.32804439090251E-06,0.00375999114476144,0.0219513736665249
737,-0.00581983290612698,0.00475126318633556,-0.00837686751037836,-1.33578703298554E-06,0.00230499776080251,0.0267965532839298
738,-0.00406590336933732,0.0086984122171998,-0.00799900945276022,-1.33685648506798E-06,0.00223984150215983,0.0306924320757389
739,-0.00112487503793091,0.012736183591187,-0.00572476629167795,-1.3289916296344E-06,0.00472112558782101,0.0334336459636688
740,0.00295696035027504,0.0149078657850623,-0.00160310266073793,-1.31462593344622E-06,0.0101749496534467,0.0340610332787037
741,0.0059239212423563,0.0128368595615029,0.00266061443835497,-1.29941224713548E-06,0.0165005289018154,0.0305263195186853
742,0.0068962755613029,0.00700972741469741,0.00560244265943766,-1.28912631680578E-06,0.021753678098321,0.023386949673295
743,0.00824987329542637,0.00201507122255862,0.00805798638612032,-1.28664362364361E-06,0.0262370221316814,0.0178446024656296
744,0.0101933358237147,-4.55618428532034E-05,0.00979610998183489,-1.29056797959493E-06,0.0285855177789927,0.016757195815444
745,0.0100211864337325,-0.00150631438009441,0.00872789602726698,-1.29615477817424E-06,0.026294494047761,0.0173676572740078
746,0.00755329849198461,-0.00388277531601489,0.00532561400905252,-1.2979403436475E-06,0.0206378679722548,0.0165424607694149
747,0.00480718305334449,-0.00684227654710412,0.001799899735488,-1.29262616610504E-06,0.0145189603790641,0.0131352944299579
748,0.0025541118811816,-0.00970520544797182,-0.00132793525699526,-1.28069791571761E-06,0.00887284986674786,0.0075548873282969
749,0.00175605854019523,-0.0103761926293373,-0.00336363073438406,-1.26599672967131E-06,0.00489618722349405,0.00281742936931551
750,0.00360347866080701,-0.00699242344126105,-0.00320410635322332,-1.25356245916919E-06,0.00407401425763965,0.00163881864864379
751,0.00643438939005136,-0.00132068421225995,-0.00219471869058907,-1.24695816339226E-06,0.00492454646155238,0.00322457239963114
752,0.00702236453071237,0.00304030789993703,-0.00282971328124404,-1.24649181998393E-06,0.0043721254914999,0.0050076306797564
753,0.00453855562955141,0.00459948880597949,-0.0056541683152318,-1.24921859878668E-06,0.00151342642493546,0.00525598740205169
754,0.00115784246008843,0.00428868178278208,-0.00926950667053461,-1.25063058931119E-06,-0.00211735861375928,0.00417420547455549
755,-0.00176340935286134,0.00261416309513152,-0.0130134308710694,-1.24707150916947E-06,-0.00593461375683546,0.0025702218990773
756,-0.00416982034221292,9.67474697972648E-05,-0.0167000964283943,-1.23758741210622E-06,-0.0104524418711662,0.00153588515240699
757,-0.00540402205660939,-0.00146670173853636,-0.0191979333758354,-1.22428207305347E-06,-0.0150489816442132,0.00213441369123757
758,-0.00572709692642093,-0.000939646735787392,-0.0199282839894295,-1.21107257200492E-06,-0.0190753415226936,0.00421056151390076
759,-0.00574407540261745,0.00153543252963573,-0.0191692803055048,-1.20157551464217E-06,-0.021772064268589,0.00682378374040127
760,-0.00527799967676401,0.00477049080654979,-0.0173783656209707,-1.19726075809012E-06,-0.0218420028686523,0.00815681647509336
761,-0.00388652714900672,0.00773287005722523,-0.0144769493490458,-1.19681226351531E-06,-0.0184183605015278,0.00750141497701406
762,-0.00168797583319247,0.0101163787767291,-0.0106556648388505,-1.19695755529392E-06,-0.0126998648047447,0.00643304130062461
763,-0.000418818264734,0.0108355516567826,-0.00768573675304651,-1.19425612865598E-06,-0.00822977721691132,0.00528750894591212
764,-0.000902996805962175,0.00973662734031677,-0.00664938427507877,-1.1868731917275E-06,-0.00647960975766182,0.00315959146246314
765,-0.00180454237852246,0.00847700517624617,-0.00724821072071791,-1.17542879252142E-06,-0.00589465256780386,0.000207815523026511
766,-0.00238173268735409,0.007571532856673,-0.00927702058106661,-1.16254227577883E-06,-0.00567128928378224,-0.0032969533931464
767,-0.00280231330543756,0.00650861626490951,-0.0119737759232521,-1.1513825484144E-06,-0.00598904117941856,-0.00731952814385295
768,-0.00297935679554939,0.0057831765152514,-0.0143761085346341,-1.14402303097449E-06,-0.0068327565677464,-0.0110149793326855
769,-0.00230438029393554,0.00649533281102777,-0.0162302758544683,-1.14045474219893E-06,-0.00777874886989594,-0.0125702973455191
770,-0.000846739741973579,0.00834824051707983,-0.0178536586463451,-1.13871556095546E-06,-0.0082414485514164,-0.0112921157851815
771,-0.000587443821132183,0.00917057134211063,-0.0202094651758671,-1.13600299300742E-06,-0.00904814805835485,-0.00951465964317322
772,-0.0022745372261852,0.00804913323372602,-0.0228879805654287,-1.13014209546236E-06,-0.0103956488892436,-0.00962383858859539
773,-0.00421634642407298,0.00600054021924734,-0.0243098940700293,-1.12064412860491E-06,-0.01060092728585,-0.0116276806220412
774,-0.00506160920485854,0.00362398521974683,-0.0245097745209932,-1.10884877813078E-06,-0.00912419613450766,-0.0147985285148025
775,-0.00386055279523134,0.00167464814148843,-0.0234170891344547,-1.09713835172442E-06,-0.00586018012836576,-0.0182960014790297
776,-0.00122881075367332,0.000307715410599485,-0.0209894981235266,-1.0876808573812E-06,-0.00132150226272643,-0.0218057688325644
777,0.000163341741426848,-0.00148829910904169,-0.0189149715006351,-1.08136259768798E-06,0.00214227219112217,-0.0242782011628151
778,-0.000628442328888923,-0.00328487576916814,-0.0176439750939608,-1.07743085209222E-06,0.00320195103995502,-0.0222302544862032
779,-0.00187547563109547,-0.00374102802015841,-0.0158157516270876,-1.07397397641762E-06,0.00262226676568389,-0.0145322810858488
780,-0.0026634989771992,-0.0035359903704375,-0.0139242354780436,-1.06894344753528E-06,0.001028569531627,-0.00650151399895549
781,-0.00387960346415639,-0.00441196328029037,-0.0139910904690623,-1.0611738616717E-06,-0.00140330602880567,-0.00464176898822188
782,-0.00489881169050932,-0.00549819367006421,-0.0146833686158061,-1.05089839053107E-06,-0.00286497035995126,-0.00818744394928217
783,-0.00456902571022511,-0.00513600697740912,-0.0133761707693338,-1.03954471342149E-06,-0.00227845273911953,-0.0114287948235869
784,-0.00331494840793312,-0.00357155664823949,-0.0105351535603404,-1.02896115095064E-06,-0.00092650024453178,-0.0114788990467787
785,-0.00186818605288863,-0.00180301838554442,-0.00748311728239059,-1.02049193628773E-06,0.000476026994874701,-0.0095850545912981
786,-0.00100905704312027,-0.000726905534975231,-0.00494259502738714,-1.01435932720051E-06,0.00187078444287181,-0.00844546314328909
787,-0.00119565078057349,-0.000201595670660026,-0.00369559787213802,-1.0096293863171E-06,0.00288358400575817,-0.00946431886404753
788,-0.00165285612456501,0.000783534022048116,-0.003334284061566,-1.00473346265062E-06,0.00411828560754657,-0.0118319960311055
789,-0.00098931067623198,0.00243209418840706,-0.00219696597196162,-9.982596793634E-07,0.00682060513645411,-0.0131276976317167
790,1.81465782134183E-06,0.00321888457983732,-0.000659304263535887,-9.89617205959803E-07,0.00969295296818018,-0.0121505837887526
791,0.000302766857203096,0.00259724073112011,0.000410207372624427,-9.79270225798246E-07,0.0113739455118775,-0.00976856704801321
792,0.000738934497348964,0.00155823130626231,0.00113401899579912,-9.68459630712459E-07,0.0127510614693165,-0.00750633189454675
793,0.000983986305072904,0.000112212110252585,0.000254267943091691,-9.58576492848806E-07,0.0133897243067622,-0.00675489054992795
794,0.000828045303933322,-0.00116213224828243,-0.00209707324393094,-9.50500975704927E-07,0.0129309361800551,-0.00665089627727866
795,0.00115892325993627,-0.00134533154778183,-0.00378564628772438,-9.44213411457895E-07,0.0128713147714734,-0.00570160616189241
796,0.00181511696428061,-0.000928407069295645,-0.00428897421807051,-9.38844380016235E-07,0.0136888055130839,-0.00436755968257785
797,0.00205099815502763,-0.000400888209696859,-0.00445705419406295,-9.33115700263443E-07,0.0142253646627069,-0.00251351250335574
798,0.00155530706979334,3.47926434187684E-05,-0.00463215168565512,-9.25953315800143E-07,0.0135364849120378,0.000810489756986499
799,0.000915616459678859,0.000386965926736593,-0.00440411828458309,-9.16983935894677E-07,0.0120205748826265,0.00469342013821006
800,0.000928427267353982,0.00101548922248185,-0.00357877905480564,-9.06691923319158E-07,0.0105872508138418,0.00694000581279397
801,0.0014015706256032,0.00149949092883617,-0.00260484335012734,-8.96174981335207E-07,0.00944381020963192,0.00608541537076235
802,0.00208709202706814,0.00130842137150466,-0.00181507784873247,-8.86619432094449E-07,0.00862605310976505,0.00254624104127288
803,0.0028014921117574,0.000399265991291031,-0.00160899583715945,-8.7874099108376E-07,0.00788722559809685,-0.00242102448828518
804,0.0027456246316433,-0.00159177195746452,-0.0025282115675509,-8.72449618327664E-07,0.00639109686017036,-0.00853858701884747
805,0.0020270764362067,-0.00360280647873878,-0.00399887980893254,-8.66893742568209E-07,0.00454533006995916,-0.0151599543169141
806,0.00168801308609545,-0.00372932315804064,-0.00486157601699233,-8.60865156937507E-07,0.00371565436944366,-0.0206115785986185
807,0.00302179646678269,-0.00174649071414024,-0.00390539760701358,-8.53376263876271E-07,0.00504091521725059,-0.0232349280267954
808,0.00602025212720037,0.000997576164081693,-0.00120766123291105,-8.44140117806091E-07,0.00825317390263081,-0.0226015336811543
809,0.0078797210007906,0.00259721605107188,0.000624682870693505,-8.33721060189418E-07,0.0108917811885476,-0.0204673819243908
810,0.00651656650006771,0.00223463377915323,-0.000137374590849504,-8.23275684069813E-07,0.0112573048099875,-0.0180718842893839
811,0.0031011993996799,0.000574584992136806,-0.0019999232608825,-8.13998155990703E-07,0.0100633017718792,-0.014767580665648
812,0.00015015788085293,-0.00151999003719538,-0.00258391071110964,-8.06532000297011E-07,0.00888329744338989,-0.011165046133101
813,-0.0013646794250235,-0.0041934777982533,-0.00154356472194195,-8.00636826170376E-07,0.00844006799161434,-0.00995698105543852
814,-0.00186615495476872,-0.00783300772309303,0.000114045637019444,-7.95284165633348E-07,0.00865456834435463,-0.0127278715372086
815,-0.00201271777041256,-0.0124191213399172,0.00110393378417939,-7.89151442859293E-07,0.0085469176992774,-0.0187671836465597
816,-0.00256263744086027,-0.0172269865870476,0.000412833149312064,-7.81280334649637E-07,0.00698833493515849,-0.0257323477417231
817,-0.00283534871414304,-0.0201381258666515,-0.00096869730623439,-7.71574264035735E-07,0.00512012094259262,-0.0303820334374905
818,-0.00160631211474538,-0.0197566132992506,-0.00135652255266905,-7.60875650485104E-07,0.00505007710307837,-0.0316929593682289
819,-9.4607676146552E-06,-0.0178390741348267,-0.00132811139337718,-7.50566528040508E-07,0.00635539786890149,-0.0325069092214108
820,-0.000120132732263301,-0.0170115251094103,-0.00215203105472028,-7.41877840937377E-07,0.0068600894883275,-0.0351466909050941
821,-0.00140693341381848,-0.016879003494978,-0.00278300535865128,-7.35251205696841E-07,0.00646719662472606,-0.0375923328101635
822,-0.00186087156180292,-0.0158362798392773,-0.00181612477172166,-7.30085560007865E-07,0.00648588594049215,-0.0372247211635113
823,-0.00121658679563552,-0.01433833129704,-4.51423911727034E-05,-7.25015297575737E-07,0.00649527180939913,-0.0346810109913349
824,-0.000119318901852239,-0.0127697298303247,0.00144229491706938,-7.18595742910111E-07,0.00601875782012939,-0.0310168210417032
825,0.000502632930874825,-0.0110853193327785,0.00208540633320808,-7.10053484453965E-07,0.00516017945483327,-0.0270438399165869
826,-6.07231922913343E-05,-0.00965941231697798,0.0016616074135527,-6.99712188634294E-07,0.00347033701837063,-0.0242931842803955
827,-0.000664903374854475,-0.00787847675383091,0.00122880889102817,-6.88857198838377E-07,0.00136491341982037,-0.0229267384856939
828,-0.000626174849458039,-0.00587342213839293,0.00111238134559244,-6.79090874200483E-07,-0.000734816188924015,-0.0228594578802586
829,-0.000186695251613855,-0.00426694098860025,0.000932463502977043,-6.71500174576067E-07,-0.00278497091494501,-0.0236507914960384
830,0.000613962241914123,-0.00265882210806012,0.000926194654311985,-6.66070036459132E-07,-0.00445407070219517,-0.024211373180151
831,0.00191753020044416,-0.000237591928453185,0.00118627771735191,-6.61660692458099E-07,-0.00513702165335417,-0.0236841086298227
832,0.00352729298174381,0.00305099575780332,0.00124723825138062,-6.56578890811943E-07,-0.00460883229970932,-0.0217916537076235
833,0.00375081645324826,0.00536548951640725,0.000421553064370528,-6.49459195756208E-07,-0.00408341782167554,-0.0205263681709766
834,0.00178025069180876,0.00510484678670764,-0.00126055954024196,-6.39995846540842E-07,-0.00464532570913434,-0.0219031907618046
835,-0.00195528939366341,0.00220919726416469,-0.00398707995191216,-6.2913215970184E-07,-0.00717054679989815,-0.0253070686012506
836,-0.00681046862155199,-0.0020138998515904,-0.00754672707989812,-6.1859117295171E-07,-0.0118945585563779,-0.028312848880887
837,-0.0103735700249672,-0.0050858473405242,-0.00985151529312134,-6.09979224464041E-07,-0.0159160122275352,-0.0289906207472086
838,-0.0104215247556567,-0.00565861910581589,-0.00970832817256451,-6.03929379394685E-07,-0.0160063654184341,-0.0274158362299204
839,-0.00817564036697149,-0.00444750022143126,-0.0084050465375185,-5.99742918439006E-07,-0.0132031012326479,-0.0246369633823633
840,-0.00607944931834936,-0.00206476775929332,-0.00699922908097506,-5.95732728925213E-07,-0.0101614985615015,-0.0204681362956762
841,-0.00434761680662632,0.00160110869910568,-0.00485532218590379,-5.90102331443632E-07,-0.00706899305805564,-0.0142445480450988
842,-0.00271975970827043,0.00488067977130413,-0.00202599400654435,-5.81902042995353E-07,-0.003636873094365,-0.00837135408073664
843,-0.00206368789076805,0.00497209979221225,-0.00044634286314249,-5.71552959627297E-07,-0.00116065563634038,-0.00644756108522415
844,-0.00243457849137485,0.00137314130552113,-0.00124723732005805,-5.60648345526715E-07,-0.00038041197694838,-0.00882706511765718
845,-0.00309374672360718,-0.00468498142436147,-0.00339941494166851,-5.51124287540006E-07,-2.19886660488555E-05,-0.0141396317631006
846,-0.0035068120341748,-0.0115776900202036,-0.00482455594465137,-5.44231113508431E-07,0.00160261068958789,-0.0209494270384312
847,-0.00292204320430756,-0.017166443169117,-0.00375498132780194,-5.39853431291704E-07,0.00504084583371878,-0.0270993355661631
848,-0.00133742962498218,-0.0201117433607578,-0.000942313345149159,-5.36549634944095E-07,0.00905773229897022,-0.0309183541685343
849,0.000284909270703793,-0.0201725866645575,0.00110786815639585,-5.32302635747328E-07,0.011766473762691,-0.0316080749034882
850,0.00177521933801472,-0.0173880290240049,0.00183004583232105,-5.2559124696927E-07,0.0131038026884198,-0.0290776826441288
851,0.0037689465098083,-0.0123628647997975,0.00255431933328509,-5.16212367074331E-07,0.0143266879022121,-0.0245782509446144
852,0.00550746591761708,-0.00739936716854572,0.00336256856098771,-5.05408650042227E-07,0.0151589950546622,-0.0209872052073479
853,0.00427083997055888,-0.00597185594961047,0.00243404461070895,-4.9522230938237E-07,0.0133442338556051,-0.0214634854346514
854,-0.000832630321383476,-0.00844936352223158,-0.000739591778255999,-4.87411227823031E-07,0.00795031432062387,-0.0251904986798763
855,-0.00652322825044394,-0.0108656696975231,-0.0039269388653338,-4.8250331019517E-07,0.00165984779596329,-0.0279076751321554
856,-0.00990977976471186,-0.0110703622922301,-0.00581548549234867,-4.79498623917607E-07,-0.00267116934992373,-0.0287204571068287
857,-0.0119684878736734,-0.0110786389559507,-0.00740360608324409,-4.76388891001989E-07,-0.00526331271976233,-0.0296140071004629
858,-0.0142443468794227,-0.0123332552611828,-0.00908809993416071,-4.71223671638654E-07,-0.00720502668991685,-0.0293087400496006
859,-0.016679473221302,-0.0144866472110152,-0.0105079635977745,-4.63157959984528E-07,-0.00874655973166227,-0.0250797849148512
860,-0.0183717086911201,-0.0166931487619877,-0.0111794099211693,-4.5291682226889E-07,-0.00942000932991505,-0.0183743182569742
861,-0.0179939866065979,-0.017559302970767,-0.0102073065936565,-4.42421224988721E-07,-0.00813308171927929,-0.0133721549063921
862,-0.0152516616508365,-0.0163875687867403,-0.00767315598204732,-4.33767866070411E-07,-0.00438652001321316,-0.0116574121639133
863,-0.0117498571053147,-0.0141996359452605,-0.00498562958091497,-4.28105153105207E-07,0.00072623643791303,-0.0120429126545787
864,-0.00905358139425516,-0.0124299041926861,-0.00294316746294498,-4.25008948923278E-07,0.0051834131591022,-0.0132433036342263
865,-0.00717147393152118,-0.011103942990303,-0.000987731851637363,-4.22698377633424E-07,0.00727810384705663,-0.0137944119051099
866,-0.00605382630601525,-0.00978631433099508,0.000717041722964495,-4.18982551764202E-07,0.00642504403367639,-0.0133540984243155
867,-0.00561234168708324,-0.008530393242836,0.00154096202459186,-4.12434673080497E-07,0.00424709683284163,-0.0130801796913147
868,-0.00465333973988891,-0.00690694898366928,0.0019677069503814,-4.031635114643E-07,0.0034578968770802,-0.0128998337313533
869,-0.00179261970333755,-0.00395089015364647,0.00292045134119689,-3.92764547996194E-07,0.00568619975820184,-0.0118139954283834
870,0.00271840579807758,0.000439488096162677,0.00441965879872441,-3.83471075338093E-07,0.00996790081262589,-0.00984936486929655
871,0.00563646387308836,0.00359383341856301,0.00419660191982985,-3.76957927983312E-07,0.011976208537817,-0.00936235766857862
872,0.00498260650783777,0.00322785694152117,0.00119078473653644,-3.73438865608478E-07,0.00957103632390499,-0.0126638384535909
873,0.00304116867482662,0.000967644562479109,-0.00217979634180665,-3.71545468169643E-07,0.00564483180642128,-0.0186666864901781
874,0.00212549883872271,-0.000939042482059449,-0.00431132409721613,-3.69055896953796E-07,0.0026265406049788,-0.0242839250713587
875,0.00282029435038567,-0.00158069340977818,-0.00516680488362908,-3.6408584946912E-07,0.00114749802742153,-0.0266508422791958
876,0.00477251969277859,-0.000572171062231064,-0.00492839189246297,-3.5610219129012E-07,0.00129032402765006,-0.0244447272270918
877,0.0073345941491425,0.00201954692602158,-0.00385029939934611,-3.46213710145094E-07,0.00257636094465852,-0.0183198861777782
878,0.0106905195862055,0.0060829701833427,-0.00150313670746982,-3.36579830673145E-07,0.00488943560048938,-0.0103314807638526
879,0.0144004123285413,0.0109468959271908,0.00194035738240927,-3.2925257187344E-07,0.00754756759852171,-0.00265652663074434
880,0.0157585889101028,0.0141351483762264,0.00383680569939315,-3.2507361424905E-07,0.00776410615071654,0.0027438378892839
881,0.013384822756052,0.013845850713551,0.00222052377648652,-3.23220120890255E-07,0.00394078157842159,0.00500672729685903
882,0.00957321096211672,0.0111726922914386,-0.00127727445214987,-3.21644563427981E-07,-0.00131947454065084,0.00489251688122749
883,0.00660055875778198,0.00791602209210396,-0.00407759752124548,-3.18174102176272E-07,-0.00467268470674753,0.00321050570346415
884,0.00516483187675476,0.0057090469636023,-0.00457281293347478,-3.11678007847149E-07,-0.00472507299855351,0.00144888204522431
885,0.0057852384634316,0.00600842386484146,-0.00239626946859062,-3.02675999819257E-07,-0.00179393263533711,0.0016705293674022
886,0.00855580624192953,0.00866724830120802,0.00168410851620138,-2.9305900284271E-07,0.00219748937524855,0.00417989958077669
887,0.0116197671741247,0.0108881434425712,0.00551622966304421,-2.8507284355328E-07,0.00430366909131408,0.00652154628187418
888,0.0122544476762414,0.0095491511747241,0.00629247538745403,-2.80111180472886E-07,0.0026833787560463,0.00582669209688902
889,0.00993609055876732,0.00502311578020453,0.00364865316078067,-2.7796735935226E-07,-0.00142720493022352,0.00285155093297362
890,0.00688189407810569,0.000985735910944641,0.000278542458545417,-2.76946991561999E-07,-0.00449263816699386,0.00164922722615302
891,0.00575044564902782,0.000442998891230673,-0.00100667332299054,-2.74780347808701E-07,-0.00407345406711102,0.00411537336185575
892,0.00602692319080234,0.00207864888943732,-0.000864152680151165,-2.69843098976708E-07,-0.00223419908434153,0.00713812233880162
893,0.00542244082316756,0.00268799345940351,-0.00165773555636406,-2.62027924691211E-07,-0.00214682216756046,0.0074532306753099
894,0.00412529287859797,0.00178375549148768,-0.00311059691011906,-2.52799083000355E-07,-0.00316553190350533,0.005940658506006
895,0.00296776951290667,0.000553488673176616,-0.00406467262655497,-2.44402059479398E-07,-0.00426035607233644,0.00573220755904913
896,0.00225615035742521,0.000311215990222991,-0.00379023421555758,-2.38654763506929E-07,-0.00528646446764469,0.00941058807075024
897,0.00223622424528003,0.00119538535363972,-0.00200005224905908,-2.35971896245246E-07,-0.00556063419207931,0.0148539682850242
898,0.00167992082424462,0.00116357207298279,-0.000399902259232476,-2.35146288218857E-07,-0.00633739214390516,0.0157185755670071
899,0.000924031599424779,0.00087494938634336,0.000571537762880325,-2.34002868637617E-07,-0.00770631991326809,0.0117287850007415
900,0.0018056274857372,0.0032688113860786,0.00187664350960404,-2.30570904591332E-07,-0.00746494624763727,0.00951435789465904
901,0.0034885392524302,0.00710910093039274,0.00231059733778238,-2.2414214129185E-07,-0.00621323380619287,0.0118899028748274
902,0.00468599097803235,0.00908379908651114,0.00109910860192031,-2.15646380752332E-07,-0.0058054574765265,0.0158361736685038
903,0.00592067930847406,0.00840156339108944,-0.000413185975048691,-2.071448506058E-07,-0.00604219594970346,0.0181871559470892
904,0.00726916594430804,0.00590026518329978,-0.00177290907595307,-2.00717551024354E-07,-0.00648021884262562,0.018110740929842
905,0.0069736884906888,0.0018300871597603,-0.00457720970734954,-1.97345499941548E-07,-0.00801519863307476,0.0152961071580648
906,0.00388139835558832,-0.0035172994248569,-0.00947807915508747,-1.96389066786651E-07,-0.0111068291589618,0.0101898740977049
907,1.90174541785382E-05,-0.00805536098778248,-0.0142704555764794,-1.95939932723377E-07,-0.0142470020800829,0.00572978006675839
908,-0.00166535400785506,-0.00973999593406916,-0.0164744537323713,-1.93853111341014E-07,-0.0154041238129139,0.0043533593416214
909,-0.000857187318615615,-0.00865577533841133,-0.016386142000556,-1.8890067110533E-07,-0.0145503412932158,0.0055685299448669
910,0.000799142871983349,-0.00592074310407043,-0.0161636061966419,-1.81425917844535E-07,-0.0131563376635313,0.00777080748230219
911,0.00155563373118639,-0.00363630708307028,-0.0173146612942219,-1.73149572901821E-07,-0.0123479543253779,0.00871951505541801
912,0.00107272423338145,-0.00340046873316169,-0.0194188077002764,-1.66236631571337E-07,-0.0119377607479692,0.00658302567899227
913,0.00138378678821027,-0.00324302376247942,-0.0199049916118383,-1.62130433523089E-07,-0.0100039150565863,0.00312872580252588
914,0.00297803804278374,-0.001547756139189,-0.0175606776028872,-1.60782036573437E-07,-0.00640854798257351,0.000847527233418077
915,0.00375379342585802,0.000145409256219864,-0.0142831895500422,-1.60686695949153E-07,-0.00368304899893701,-0.000501613423693925
916,0.00384405953809619,0.00129328900948167,-0.011076201684773,-1.59702437940723E-07,-0.00215457007288933,-0.0011476130457595
917,0.00491602066904306,0.00236709020100534,-0.00753420032560825,-1.56205146595312E-07,-0.000193607455003075,-0.00106622511520982
918,0.0066910283640027,0.00253743631765246,-0.00418326258659363,-1.49956917994132E-07,0.00224950304254889,-0.00109351461287588
919,0.00770580023527145,0.00132067699451,-0.00197077565826476,-1.42222944532477E-07,0.00371174281463027,-0.00154288625344634
920,0.00698436098173261,-0.000764094176702201,-0.00157699373085052,-1.35080099994411E-07,0.00261498219333589,-0.00242365011945367
921,0.00507695833221078,-0.00314684910699725,-0.00275518791750073,-1.30294878886161E-07,-0.00100373360328376,-0.00339486799202859
922,0.00347514892928302,-0.0050004362128675,-0.00406999513506889,-1.28377337205166E-07,-0.00541980843991041,-0.00325049855746329
923,0.00275989691726863,-0.00579752726480365,-0.0041947839781642,-1.28317793723909E-07,-0.00922982674092054,-0.00198780302889645
924,0.0033110894728452,-0.00544923776760697,-0.00231596734374762,-1.28142247035612E-07,-0.0112384958192706,-0.00100520753767341
925,0.00567916734144092,-0.00410064123570919,0.00106915598735213,-1.25980690768301E-07,-0.0109302839264274,-0.00157746498007327
926,0.00840483978390694,-0.00316114933229983,0.00303042586892843,-1.21070002023771E-07,-0.010547767393291,-0.00459831859916449
927,0.00881371833384037,-0.00414453167468309,0.00110750994645059,-1.14153280605933E-07,-0.0128557002171874,-0.00918625760823488
928,0.00638295104727149,-0.00601375661790371,-0.00347153283655643,-1.07066519206001E-07,-0.0174401551485062,-0.0122757740318775
929,0.00346611416898668,-0.00607479037716985,-0.00682799518108368,-1.01742372748959E-07,-0.0208115987479687,-0.0112690171226859
930,0.00186840002425015,-0.00421453174203634,-0.00672213034704328,-9.91716362364059E-08,-0.0205676276236773,-0.00671663740649819
931,0.000878631486557424,-0.00324161653406918,-0.00452849548310041,-9.88807471458131E-08,-0.0176882296800613,-0.00191994302440435
932,0.000541321642231196,-0.00378204300068319,-0.00132462021429092,-9.92008182265636E-08,-0.0128869479522109,0.00140018574893475
933,0.00213289074599743,-0.00343664479441941,0.00332186440937221,-9.81756542728363E-08,-0.00600679451599717,0.00496630137786269
934,0.00498528685420752,-0.00134076247923076,0.00826843082904816,-9.46145490843264E-08,0.000868595845531672,0.00954630319029093
935,0.00694574415683746,0.000671423971652985,0.0106870969757438,-8.87229703039338E-08,0.00420057401061058,0.0127618731930852
936,0.00657391268759966,0.000755740038584918,0.00888759084045887,-8.19769567783624E-08,0.00206933519802988,0.0121477842330933
937,0.00495470687747002,-2.67352879745886E-05,0.00524437613785267,-7.63168372941436E-08,-0.00268207606859505,0.008894975297153
938,0.00420185457915068,0.000810708675999194,0.00320214475505054,-7.31007858689736E-08,-0.00540643138810992,0.00704566296190023
939,0.00347032793797553,0.00293599395081401,0.00218093302100897,-7.23826545367956E-08,-0.00616018380969763,0.00882807839661837
940,0.0017747615929693,0.00489934580400586,0.00098360690753907,-7.28980680264613E-08,-0.00646274350583553,0.0133753390982747
941,0.00100589403882623,0.00670161191374063,0.000860794621985406,-7.27581266346533E-08,-0.0053682797588408,0.0184364579617977
942,0.00137794052716345,0.00778935430571437,0.00188136450015008,-7.04699729681124E-08,-0.00364199629984796,0.0222703162580729
943,0.000496258842758834,0.0070462110452354,0.00242421473376453,-6.57326424402527E-08,-0.00419655023142695,0.0245851539075375
944,-0.00140581699088216,0.00529390294104815,0.00283595826476812,-5.9583669553831E-08,-0.00665890518575907,0.0250824559479952
945,-0.00214055832475424,0.00435096584260464,0.00441998010501266,-5.38258397853042E-08,-0.00789047498255968,0.0228575393557549
946,-0.00137153291143477,0.00503627862781286,0.0069355359300971,-5.00506054379457E-08,-0.00655278144404292,0.0189831703901291
947,0.00124291703104973,0.00838861055672169,0.0107950754463673,-4.87872924281874E-08,-0.00226015760563314,0.0181383620947599
948,0.0049263876862824,0.0137577634304762,0.0150558892637491,-4.92329519374834E-08,0.00330970739014447,0.0227641090750694
949,0.00652345037087798,0.0175606794655323,0.0161232054233551,-4.97002439203698E-08,0.00585501221939921,0.0289691891521215
