,AF3,AF4,Fp1,Fp2,AF7,AF8
0,0.0138068702071905,-0.00691711669787765,0.0286068767309189,-0.00047677694237791,0.0466103330254555,0.0156517494469881
1,0.0134665304794908,-0.00754029955714941,0.027796832844615,-0.000483715441077948,0.0445697382092476,0.0132560925558209
2,0.0125696714967489,-0.00761728454381227,0.0269338376820087,-0.00049720355309546,0.0427260473370552,0.01256940420717
3,0.0110756624490023,-0.00726472772657871,0.0273105502128601,-0.000512218335643411,0.0420320257544518,0.014331391081214
4,0.00987622141838074,-0.00679740868508816,0.0291580762714148,-0.000523012829944491,0.0427001640200615,0.0173743683844805
5,0.00942001864314079,-0.00635285908356309,0.0310669988393784,-0.000526189862284809,0.0436418317258358,0.019780345261097
6,0.0087225791066885,-0.00673090713098645,0.0313954576849937,-0.000522423768416047,0.0436866506934166,0.0194930750876665
7,0.00810568314045668,-0.00812810007482767,0.0310122985392809,-0.000515962776262313,0.0441052168607712,0.0168194230645895
8,0.00820690579712391,-0.00965002458542585,0.0312618650496006,-0.000512254016939551,0.0459753088653088,0.0141807403415442
9,0.00763963116332889,-0.0115999858826399,0.0311712715774775,-0.000515016261488199,0.0475832372903824,0.0117093520238996
10,0.00637334398925304,-0.0142412576824427,0.0308155119419098,-0.000524332281202078,0.0485062971711159,0.0083491699770093
11,0.0063983304426074,-0.0163929183036089,0.0322111696004868,-0.000536736741196364,0.050808846950531,0.00542239146307111
12,0.0081834439188242,-0.0174242295324802,0.0353704914450645,-0.000547180126886815,0.055087398737669,0.00452380254864693
13,0.0101553676649928,-0.0177490655332804,0.0383941829204559,-0.000551760196685791,0.0593899376690388,0.00646293628960848
14,0.0110920146107674,-0.0174730531871319,0.0407201871275902,-0.00054974592057988,0.0621495433151722,0.0119349015876651
15,0.0110700055956841,-0.0164217632263899,0.0428803376853466,-0.000543847214430571,0.0635152608156204,0.0194649752229452
16,0.0111658936366439,-0.0144712813198566,0.0452523045241833,-0.000538654217962176,0.0640930756926537,0.0271986313164234
17,0.0125692784786224,-0.0118201849982142,0.0480496436357498,-0.000538140127900988,0.0645943507552147,0.0345529243350029
18,0.0146865295246243,-0.00957949925214052,0.0503243841230869,-0.000543585803825408,0.0650191083550453,0.0395493730902672
19,0.0163657739758492,-0.00838379003107548,0.0511659160256386,-0.000553008052520454,0.0647972747683525,0.0405323170125484
20,0.0168976727873087,-0.00821106042712927,0.0507938079535961,-0.000562334782443941,0.0637753903865814,0.0384523347020149
21,0.0152039201930165,-0.00921858288347721,0.0488592050969601,-0.000567638489883393,0.0615503080189228,0.0352526009082794
22,0.0117910820990801,-0.0106504010036588,0.0454302132129669,-0.000567204435355961,0.0579657219350338,0.0325262919068336
23,0.00921325106173754,-0.0112942168489099,0.0428406707942486,-0.000562348053790629,0.0546032078564167,0.0307296980172396
24,0.00900558847934008,-0.0112286228686571,0.0430097579956055,-0.000556599348783493,0.0535265803337097,0.0292524974793196
25,0.0104135787114501,-0.0112738395109773,0.0449324101209641,-0.000553752295672894,0.0544888526201248,0.0277529768645763
26,0.0120855765417218,-0.0115688210353255,0.0464759841561317,-0.000555855047423393,0.0554705187678337,0.0266221445053816
27,0.012761015444994,-0.0119257755577564,0.0456625707447529,-0.000562204804737121,0.0544431209564209,0.0259521510452032
28,0.0119606284424663,-0.0120089733973145,0.0416792891919613,-0.000569834548514336,0.0510660298168659,0.0253428369760513
29,0.0109763350337744,-0.0113559737801552,0.0364403650164604,-0.000575172365643084,0.0480129458010197,0.0242447443306446
30,0.0105297397822142,-0.0108940610662103,0.0322475619614124,-0.000575947866309434,0.0474444106221199,0.020847637206316
31,0.0102978674694896,-0.0115072606131434,0.030220739543438,-0.00057233078405261,0.0492295362055302,0.0144357476383448
32,0.00992925837635994,-0.0120470458641648,0.030848428606987,-0.000566735165193677,0.0521766729652882,0.00899128336459398
33,0.00853432156145573,-0.0112541001290083,0.0332755818963051,-0.000562452478334308,0.0542548038065434,0.00939678959548473
34,0.00644795037806034,-0.00876542367041111,0.0360342711210251,-0.000561884080525488,0.0549914576113224,0.0162353441119194
35,0.00477693835273385,-0.00551309669390321,0.0377095714211464,-0.000565322232432663,0.0553668662905693,0.0250404085963964
36,0.00413600821048021,-0.00301769003272057,0.0381819829344749,-0.000570894568227232,0.0562633462250233,0.0310111586004496
37,0.00491751823574305,-0.00202830228954554,0.0388653315603733,-0.000575647398363799,0.0580208227038383,0.0335797071456909
38,0.0063265161588788,-0.00281696859747171,0.0400769859552383,-0.000577145372517407,0.0595728754997253,0.0338370092213154
39,0.00767620746046305,-0.00421077525243163,0.0414370819926262,-0.000574723002500832,0.0604350902140141,0.0333554744720459
40,0.00882130023092031,-0.00496040098369122,0.0427583605051041,-0.000569748634006828,0.0608774237334728,0.0338118113577366
41,0.00929842237383127,-0.00541080208495259,0.0433597154915333,-0.000564810296054929,0.0601923353970051,0.0353034734725952
42,0.00959981419146061,-0.00543356453999877,0.0430463813245296,-0.000562303466722369,0.0584998726844788,0.0381519943475723
43,0.00999519042670727,-0.00510322954505682,0.0421595312654972,-0.00056319049326703,0.057022962719202,0.0416413769125938
44,0.0097390515729785,-0.00576279684901237,0.0409567281603813,-0.00056657160166651,0.0563362240791321,0.0431367233395576
45,0.00938746798783541,-0.0075522125698626,0.0402733869850636,-0.000570250849705189,0.0569669529795647,0.0420156978070736
46,0.010100033134222,-0.009144501760602,0.0410408489406109,-0.000571948534343392,0.0592707209289074,0.0404082164168358
47,0.0111144613474607,-0.00997255090624094,0.0424179285764694,-0.000570493342820555,0.0616123676300049,0.0402041934430599
48,0.0108119649812579,-0.0101343654096127,0.0425574667751789,-0.0005663734045811,0.0619076415896416,0.0414705276489258
49,0.00871971808373928,-0.0099511630833149,0.0409778170287609,-0.000561393157113343,0.0602005459368229,0.0423975586891174
50,0.00591519149020314,-0.0102039687335491,0.0390990823507309,-0.000557664956431836,0.0582974441349506,0.0407290607690811
51,0.00446580490097404,-0.010758732445538,0.0393993742763996,-0.000556497136130929,0.058206919580698,0.0368190854787827
52,0.00411358056589961,-0.01140371337533,0.042079035192728,-0.000557762163225561,0.0591436997056007,0.0324661545455456
53,0.00280196475796402,-0.0122308349236846,0.0448912531137466,-0.000560046231839806,0.0587526336312294,0.0295517314225435
54,0.000942466198466718,-0.0119654070585966,0.0467222854495049,-0.000561455613933504,0.0572450570762157,0.0306454617530108
55,-2.83857425529277E-05,-0.00978466961532831,0.0473655462265015,-0.000560623768251389,0.0558995231986046,0.0361717715859413
56,0.000223973635002039,-0.00648680189624429,0.0468121878802776,-0.000557384511921555,0.0554085075855255,0.0448527745902538
57,0.00180769071448594,-0.00317185814492404,0.0458332560956478,-0.000552785350009799,0.0565438084304333,0.0546972379088402
58,0.00400989130139351,-0.00102566904388368,0.0454555191099644,-0.000548473850358278,0.0588177852332592,0.0612549893558025
59,0.00535489479079843,-0.000658946461044252,0.0461524799466133,-0.000545815157238394,0.0602529980242252,0.0619637221097946
60,0.0049639088101685,-0.00162024155724794,0.0469211079180241,-0.000545211078133434,0.0592465698719025,0.0592282339930534
61,0.00383722106926143,-0.00257613835856318,0.0470759384334087,-0.000545958231668919,0.0565531700849533,0.0566626340150833
62,0.00386851187795401,-0.00231496361084282,0.0475600473582745,-0.000546681345440447,0.0544256083667278,0.0559680387377739
63,0.00541423168033361,-0.000979727949015796,0.0488542094826698,-0.000546079885680228,0.0537959039211273,0.0567772798240185
64,0.00733824213966727,0.000128927931655198,0.0500431545078754,-0.000543584930710495,0.0538092404603958,0.0576136372983456
65,0.00825404841452837,-0.00013952657172922,0.0499145537614822,-0.000539597182068974,0.0528799556195736,0.0573588646948338
66,0.00790149159729481,-0.00120275828521699,0.048540998250246,-0.000535215658601373,0.0505394041538239,0.0561198182404041
67,0.00710375420749187,-0.0018968372605741,0.0469600632786751,-0.00053163303527981,0.047831654548645,0.0541706122457981
68,0.00698174443095922,-0.00182907213456929,0.046540129929781,-0.000529529177583754,0.0463013648986816,0.0525071360170841
69,0.00733894808217883,-0.00164603046141565,0.0478194430470467,-0.000528769101947546,0.0461934171617031,0.052090372890234
70,0.00649889605119824,-0.00258392747491598,0.049470279365778,-0.00052853359375149,0.0460510477423668,0.0514165125787258
71,0.00465904409065843,-0.00376690761186183,0.0506565570831299,-0.000527781608980149,0.0454927608370781,0.0492321476340294
72,0.00324599351733923,-0.00346733722835779,0.0511391907930374,-0.000525785144418478,0.0445723161101341,0.0460115224123001
73,0.00210036081261933,-0.00230573979206383,0.0504196509718895,-0.00052246474660933,0.0424725525081158,0.0422529354691505
74,0.000863018969539553,-0.00111485552042723,0.0491696633398533,-0.00051837571663782,0.0394833423197269,0.0392556339502335
75,-0.000364570441888645,5.58133215236012E-05,0.0477491244673729,-0.000514383718837053,0.0363688059151173,0.0376509502530098
76,-0.00173517654184252,0.000534797727596015,0.0457012839615345,-0.000511216698214412,0.0337515398859978,0.0358983315527439
77,-0.00309327570721507,0.000354084157152101,0.0436088256537914,-0.000509124365635216,0.032706405967474,0.033930703997612
78,-0.00440297508612275,0.000188185280421749,0.0421616621315479,-0.000507800257764757,0.0331462658941746,0.0334520190954208
79,-0.00589426700025797,0.000220013724174351,0.0412180125713348,-0.000506577838677913,0.0338432230055332,0.0354121401906013
80,-0.00716185523197055,0.00122753391042352,0.0408338159322739,-0.000504780327901244,0.0340337231755257,0.0405307300388813
81,-0.00821000523865223,0.00348078901879489,0.0405709370970726,-0.000502041599247605,0.0329957343637943,0.0474237576127052
82,-0.00986632704734802,0.00555050186812878,0.0391241200268269,-0.000498450535815209,0.0303444620221853,0.0527272261679173
83,-0.0114752100780606,0.00690323440358043,0.0372590497136116,-0.000494469655677676,0.0278010405600071,0.0557866021990776
84,-0.0115918638184667,0.00815789401531219,0.0371681340038776,-0.000490689184516668,0.0274407416582108,0.058038666844368
85,-0.0106732416898012,0.00879694521427155,0.0388228259980679,-0.000487547105876729,0.0288269370794296,0.0594462007284164
86,-0.0100356005132198,0.00803101528435946,0.0408465713262558,-0.00048514420632273,0.030323576182127,0.0592358708381653
87,-0.0100305518135428,0.0061710849404335,0.0424624904990196,-0.000483226642245427,0.0309605374932289,0.0575619041919708
88,-0.00985559169203043,0.00410934537649155,0.0437710657715797,-0.000481326715089381,0.0309307631105185,0.055373165756464
89,-0.00869826786220074,0.0026884013786912,0.0453501082956791,-0.000478984817164019,0.0312743298709393,0.0534761361777782
90,-0.00679943850263953,0.00244708964601159,0.0470907054841518,-0.000475950946565717,0.0322165787220001,0.0520048663020134
91,-0.00520383100956678,0.0030509780626744,0.0479484125971794,-0.00047228203038685,0.0327627249062061,0.0504972189664841
92,-0.00496175931766629,0.00338368164375424,0.0471999496221542,-0.00046830321662128,0.0322169698774815,0.0485780239105225
93,-0.00540977902710438,0.00395521055907011,0.0461175218224525,-0.000464456825284287,0.0316740646958351,0.0481933690607548
94,-0.0052515477873385,0.00619027949869633,0.0461146086454391,-0.0004611071490217,0.0322506166994572,0.051777970045805
95,-0.00461186049506068,0.00929761864244938,0.0462160743772984,-0.000458382710348815,0.0331847295165062,0.0579796247184277
96,-0.00363184208981693,0.0113448230549693,0.0457655489444733,-0.000456120644230396,0.0339073464274406,0.0625665113329887
97,-0.00223794323392212,0.0114452829584479,0.0459472425282002,-0.000453937478596345,0.0345020331442356,0.0622390396893024
98,-0.00131735915783793,0.0100420648232102,0.0469378754496574,-0.000451398082077503,0.0345471389591694,0.057430274784565
99,-0.00135874340776354,0.00886147189885378,0.0475981198251247,-0.000448213395429775,0.033774308860302,0.0528704263269901
100,-0.00168830237817019,0.0094442181289196,0.0476905591785908,-0.000444379460532218,0.0323513001203537,0.0537978634238243
101,-0.00170372833963484,0.0113700088113546,0.0483461692929268,-0.000440192059613764,0.0311600584536791,0.060290090739727
102,-0.00108743435703218,0.0132862608879805,0.0506063029170036,-0.000436120782978833,0.0316253378987312,0.0680184736847878
103,0.000101696823548991,0.0142486458644271,0.0537114851176739,-0.000432592554716393,0.0335746183991432,0.0733962059020996
104,0.00116514787077904,0.0142003539949656,0.0559661239385605,-0.000429781735874712,0.0353613011538982,0.0756244137883186
105,0.00140824820846319,0.0137565201148391,0.0566795952618122,-0.00042750989086926,0.0362836122512817,0.0753859728574753
106,0.00105126423295587,0.0135114025324583,0.0563284121453762,-0.000425314152380452,0.036854974925518,0.0736025348305702
107,0.0009000034769997,0.0137348007410765,0.0557017214596272,-0.000422662851633504,0.0376596599817276,0.0711280182003975
108,0.000514912884682417,0.0135293183848262,0.0542833209037781,-0.000419220916228369,0.0379562675952911,0.0672365054488182
109,-0.00141578051261604,0.0118136815726757,0.0507505089044571,-0.000415032816817984,0.0358516722917557,0.0608329437673092
110,-0.00429538078606129,0.00926052778959274,0.045915525406599,-0.000410522421589121,0.0314952880144119,0.0534698292613029
111,-0.00610630260780454,0.007368721999228,0.0423477999866009,-0.000406296661822125,0.0277742668986321,0.0477649793028831
112,-0.00619983114302158,0.00688202679157257,0.0410313680768013,-0.000402841513277963,0.0262816827744246,0.0450859740376472
113,-0.00544202886521816,0.00741761596873403,0.040772944688797,-0.000400262419134378,0.025642016902566,0.0453600101172924
114,-0.00435114791616797,0.00842097122222185,0.0409419685602188,-0.000398208998376504,0.0246058274060488,0.0477856546640396
115,-0.00260249711573124,0.0097555834800005,0.041934859007597,-0.000396035466110334,0.0236432906240225,0.0508142746984959
116,-0.000252013065619394,0.0111012924462557,0.0430887900292873,-0.000393125897971913,0.0231575854122639,0.0524089448153973
117,0.00232643005438149,0.0125262141227722,0.0434591211378574,-0.000389221357181668,0.0229206699877977,0.0525377094745636
118,0.00448876526206732,0.0137030417099595,0.0427713878452778,-0.000384574173949659,0.0226506125181913,0.0513128191232681
119,0.00598560646176338,0.013911466114223,0.0415324866771698,-0.000379838049411774,0.0228903777897358,0.0472107902169228
120,0.00760947400704026,0.0136628448963165,0.0409576073288918,-0.000375738716684282,0.0244023222476244,0.0400671772658825
121,0.00892534572631121,0.0133289843797684,0.0408306829631329,-0.000372691138181835,0.0257808268070221,0.031385850161314
122,0.00812207721173763,0.0124966725707054,0.0395034179091454,-0.000370565743651241,0.0247085746377707,0.0232423562556505
123,0.00467298040166497,0.0110553726553917,0.0361954756081104,-0.000368736044038087,0.0206042751669884,0.0182509236037731
124,0.000361523154424503,0.00956031586974859,0.0319307185709476,-0.000366394815500826,0.0150550296530128,0.0188967399299145
125,-0.00270211300812662,0.00898975692689419,0.0284112598747015,-0.000362979510100558,0.0103972433134913,0.0250750295817852
126,-0.00425644405186176,0.00935595203191042,0.0261551402509212,-0.000358482677256688,0.00748539064079523,0.0327274054288864
127,-0.00495284469798207,0.00974957272410393,0.024820689111948,-0.000353475334122777,0.00610034540295601,0.0378281027078629
128,-0.0047355298884213,0.0102003775537014,0.0246586017310619,-0.000348820147337392,0.00640139309689403,0.0403035879135132
129,-0.00326812639832497,0.0112487562000752,0.0256520826369524,-0.000345217908034101,0.00804989784955978,0.0414359979331493
130,-0.000574006233364344,0.0129567077383399,0.026999369263649,-0.00034282638807781,0.0101420534774661,0.041869830340147
131,0.00224197329953313,0.0147557975724339,0.0276112779974937,-0.000341159728122875,0.0114149460569024,0.0419334731996059
132,0.00413326499983668,0.0164439827203751,0.0269711390137672,-0.000339331629220396,0.011068157851696,0.0414813049137592
133,0.00474645290523767,0.0177209042012692,0.0251647625118494,-0.000336521392455325,0.00921205710619688,0.0395780242979527
134,0.00312968506477773,0.0167735870927572,0.0221078153699636,-0.000332417577737942,0.00571090960875154,0.0344698987901211
135,-0.000323784508509561,0.0133895426988602,0.0190531201660633,-0.000327398942317814,0.0017193288076669,0.0272252634167671
136,-0.00355220190249383,0.0100889317691326,0.0177436321973801,-0.00032234750688076,-0.000664219725877047,0.022179888561368
137,-0.00538796046748757,0.00875725224614143,0.0179627705365419,-0.000318185600917786,-0.00119166739750654,0.0221874844282866
138,-0.00616639712825418,0.0087977722287178,0.0184870380908251,-0.000315379904350266,-0.00115606200415641,0.0257721859961748
139,-0.00617058854550123,0.00873944256454706,0.0190548673272133,-0.000313680386170745,-0.000549758900888264,0.0285966861993074
140,-0.00502832885831594,0.00822484772652388,0.0199357736855745,-0.000312240299535915,0.00200417637825012,0.0275471899658442
141,-0.00289140245877206,0.00792741775512695,0.0211908835917711,-0.000310060975607485,0.00651223724707961,0.023806931450963
142,-0.000500290305353701,0.00847022980451584,0.0229747872799635,-0.000306527566863224,0.0112095829099417,0.0212767943739891
143,0.00114094919990748,0.00936690717935562,0.0248006116598845,-0.000301748048514128,0.0136926909908652,0.0216143075376749
144,0.00118958868551999,0.00972723960876465,0.0255598463118076,-0.000296507903840393,0.0124530214816332,0.0233496855944395
145,-0.000396075687604025,0.00926063768565655,0.024463701993227,-0.000291858275886625,0.00819879677146673,0.0248189531266689
146,-0.00316983158700168,0.00820435862988234,0.0214186497032642,-0.00028855333221145,0.00275925849564373,0.0259311087429523
147,-0.00637764343991876,0.00714997202157974,0.017046919092536,-0.000286639056866989,-0.0023971046321094,0.0269424710422754
148,-0.00853404588997364,0.0068843113258481,0.0128966812044382,-0.000285417947452515,-0.00572280306369066,0.0274634640663862
149,-0.00831429567188025,0.00791687332093716,0.0107407085597515,-0.00028381499578245,-0.00630764476954937,0.0281288176774979
150,-0.00707873562350869,0.00860606320202351,0.00988093856722116,-0.000280952692264691,-0.00603187037631869,0.028806371614337
151,-0.00657278066501021,0.00711885700002313,0.00900733284652233,-0.000276627339189872,-0.00645566312596202,0.0281031634658575
152,-0.00572994910180569,0.00477898772805929,0.0092962859198451,-0.000271427561528981,-0.0058481078594923,0.0264087524265051
153,-0.004148721229285,0.00319101149216294,0.0108147691935301,-0.000266426242887974,-0.0037490960676223,0.0243125259876251
154,-0.00303828855976462,0.00244195410050452,0.0112976720556617,-0.000262607296463102,-0.00232308218255639,0.0215152241289616
155,-0.00300481077283621,0.00246311840601265,0.00954497419297695,-0.000260333792539313,-0.00280758575536311,0.0186702199280262
156,-0.00371711747720838,0.00288059189915657,0.00687738135457039,-0.000259145977906883,-0.00441769137978554,0.0162286311388016
157,-0.00420117890462279,0.00301404972560704,0.00550507195293903,-0.00025800138246268,-0.0059642088599503,0.0127843366935849
158,-0.00426734006032348,0.00292155030183494,0.0057461797259748,-0.00025583224487491,-0.00764510221779346,0.00776061322540045
159,-0.00461739301681519,0.00349957076832652,0.00635046605020761,-0.000252121477387846,-0.0102605316787958,0.00349883502349257
160,-0.00573713425546885,0.00472070416435599,0.00638932501897216,-0.000247186573687941,-0.0141022419556975,0.00221049995161593
161,-0.00703287543728948,0.00557343475520611,0.00577465631067753,-0.000242014750256203,-0.0181076321750879,0.00305642653256655
162,-0.00741098681464791,0.00562811642885208,0.00473654828965664,-0.000237735395785421,-0.0204665996134281,0.00332431006245315
163,-0.00733176898211241,0.00476055080071092,0.00290617696009576,-0.00023501183022745,-0.0213521290570498,0.00181240565143526
164,-0.00743969436734915,0.00348189170472324,0.00047344746417366,-0.000233680533710867,-0.0217417180538177,-0.000138503484777175
165,-0.00703257182613015,0.00290763890370727,-0.00134594133123755,-0.00023283448535949,-0.0211685765534639,-0.00137525796890259
166,-0.00597743457183242,0.0033087283372879,-0.00234493426978588,-0.000231308556976728,-0.0195436887443066,-0.00186948641203344
167,-0.00471760099753737,0.00457959622144699,-0.00327571970410645,-0.000228306787903421,-0.0177315007895231,-0.00160965998657048
168,-0.00293645798228681,0.00679989252239466,-0.00410764338448644,-0.000223833674681373,-0.0158735774457455,-0.000344805215718225
169,-0.000545694143511355,0.00942716002464294,-0.00457413634285331,-0.000218695335206576,-0.0138901937752962,0.00162257987540215
170,0.00189633422996849,0.011346529237926,-0.00503500970080495,-0.000214068029890768,-0.012218146584928,0.00263835722580552
171,0.00379302981309593,0.0117886224761605,-0.00568497506901622,-0.000210865138797089,-0.0115977507084608,0.00126378808636218
172,0.00466663530096412,0.0107876742258668,-0.00635992269963026,-0.000209243808058091,-0.0124596888199449,-0.00221613328903914
173,0.00450041797012091,0.00883399043232203,-0.00687978649511933,-0.000208518104045652,-0.0139535553753376,-0.00667637307196856
174,0.00335739646106958,0.00632832804694772,-0.00753507949411869,-0.000207526914891787,-0.0154074747115374,-0.0112100476399064
175,0.00158435688354075,0.00409602746367455,-0.00845506973564625,-0.000205259144422598,-0.0169747974723578,-0.0144869619980454
176,-0.000126944563817233,0.0028374451212585,-0.009188586845994,-0.00020139929256402,-0.0186221320182085,-0.0159737672656775
177,-0.00140857428777963,0.00234332634136081,-0.00957986153662205,-0.000196498658624478,-0.0202336274087429,-0.0173783488571644
178,-0.00168776873033494,0.00281732156872749,-0.00945391412824392,-0.000191679253475741,-0.0211072340607643,-0.0196307823061943
179,-0.000578918552491814,0.00444518402218819,-0.00881709158420563,-0.000188029414857738,-0.0205642823129892,-0.0217154752463102
180,0.00113723834510893,0.00640173815190792,-0.00836073327809572,-0.000186017146916129,-0.0191575102508068,-0.0229217503219843
181,0.00175677728839219,0.0074486848898232,-0.0091599877923727,-0.000185237789992243,-0.0187786258757114,-0.0232974588871002
182,0.000349539826856926,0.00709888990968466,-0.0114354928955436,-0.000184632299351506,-0.0207915734499693,-0.0219303630292416
183,-0.00119046482723206,0.00692493002861738,-0.0133124683052301,-0.000183058422408067,-0.0230386909097433,-0.0173554811626673
184,-0.00111966044642031,0.00773237831890583,-0.0134289311245084,-0.000179906433913857,-0.023021075874567,-0.0126068517565727
185,-0.00105199858080596,0.00732642784714699,-0.0133369527757168,-0.00017542731075082,-0.0225612111389637,-0.0134847117587924
186,-0.00186801073141396,0.00542725855484605,-0.0143274450674653,-0.000170596351381391,-0.0238440055400133,-0.0187436621636152
187,-0.00184239691589028,0.00486096413806081,-0.0155422976240516,-0.000166586687555537,-0.0256408434361219,-0.0211615674197674
188,-0.000611137191299349,0.0058950986713171,-0.0168224722146988,-0.000164136712555774,-0.0265172310173512,-0.0176351815462112
189,0.000514343730174005,0.00645671505481005,-0.0186909344047308,-0.000163153323228471,-0.0264376848936081,-0.0110436603426933
190,0.00178704457357526,0.00709011685103178,-0.0200232770293951,-0.000162764074048027,-0.0248969867825508,-0.004128388594836
191,0.004389395006001,0.00975935626775026,-0.0192188769578934,-0.000161789314006455,-0.0213185921311378,0.0027227436657995
192,0.00737092876806855,0.013329322449863,-0.0167858377099037,-0.000159378556418233,-0.0170430429279804,0.00802253186702728
193,0.00851203594356775,0.0149198705330491,-0.0150480708107352,-0.000155467656441033,-0.0145152006298304,0.00941668171435595
194,0.00710457423701882,0.0141265569254756,-0.0154150417074561,-0.000150810650666244,-0.0150755923241377,0.0070539116859436
195,0.0049991337582469,0.0129805617034435,-0.0166422985494137,-0.000146570702781901,-0.0175407417118549,0.003506870707497
196,0.00404955027624965,0.0122239552438259,-0.017263762652874,-0.00014369205746334,-0.019729632884264,0.000594860757701099
197,0.0038269383367151,0.0106925386935472,-0.0178214516490698,-0.000142392600537278,-0.0214118286967278,-0.00179354089777917
198,0.00366117618978024,0.00833075493574142,-0.019030524417758,-0.000142049699206837,-0.023511478677392,-0.00425275228917599
199,0.00296091637574136,0.00548954866826534,-0.0207759514451027,-0.000141539407195523,-0.0263665188103914,-0.00844844337552786
200,0.00176888587884605,0.00232128892093897,-0.0217254720628262,-0.000139844123623334,-0.02842066437006,-0.0151358805596828
201,0.00170005008112639,2.71608769253362E-05,-0.0207170601934195,-0.000136599861434661,-0.0277501326054335,-0.0210453141480684
202,0.00292589422315359,-0.000591488496866077,-0.0189440175890923,-0.000132288740132935,-0.0251444261521101,-0.0231116004288197
203,0.00391842564567924,1.56426303874468E-05,-0.0179504156112671,-0.000127974737551995,-0.0226705297827721,-0.0219258014112711
204,0.00408671982586384,0.00103465036954731,-0.017704214900732,-0.000124727666843683,-0.0211190488189459,-0.0190227497369051
205,0.00346271996386349,0.00163353444077075,-0.0174158271402121,-0.000123047342640348,-0.0203012004494667,-0.015864659100771
206,0.00174687372054905,0.00127609306946397,-0.0174214784055948,-0.000122598168672994,-0.0209988560527563,-0.0143491318449378
207,-0.000711772183421999,0.000328839116264135,-0.0189309883862734,-0.000122395184007473,-0.0241175498813391,-0.0157203394919634
208,-0.00258195213973522,-0.000427251914516091,-0.0212514866143465,-0.000121338358439971,-0.0281483251601458,-0.0198924653232098
209,-0.00267897406592965,-0.000131924694869667,-0.0223655793815851,-0.000118805372039787,-0.0305825173854828,-0.0242028348147869
210,-0.0012620686320588,0.00157503073569387,-0.0222832169383764,-0.000114983013190795,-0.0313252694904804,-0.02526930347085
211,3.74541305063758E-05,0.00347092445008457,-0.0225709937512875,-0.000110760767711326,-0.0323105566203594,-0.0234164875000715
212,0.000238620355958119,0.00394720211625099,-0.0237471573054791,-0.000107247062260285,-0.0344685390591621,-0.0212238505482674
213,-0.000552982033696026,0.00240063178353012,-0.0254881381988525,-0.000105171304312535,-0.03725890442729,-0.0204149056226015
214,-0.00200545252300799,-0.000741294061299413,-0.0272723380476236,-0.000104494538391009,-0.039810586720705,-0.0216373261064291
215,-0.00271391565911472,-0.00377636938355863,-0.0278072636574507,-0.000104436658148188,-0.0407055728137493,-0.0240598991513252
216,-0.00164262356702238,-0.00559668941423297,-0.0269256997853518,-0.000103902100818232,-0.0394190736114979,-0.0269760675728321
217,0.000339656427968293,-0.00672889407724142,-0.0262090563774109,-0.000102071717265062,-0.0375169664621353,-0.0302118770778179
218,0.00235453830100596,-0.00722875073552132,-0.0264282189309597,-9.88408210105263E-05,-0.0365905612707138,-0.0325028635561466
219,0.00369342020712793,-0.00700968224555254,-0.027693934738636,-9.48691522353329E-05,-0.0373711846768856,-0.0329875200986862
220,0.00373078533448279,-0.00655257608741522,-0.0298707075417042,-9.12191389943473E-05,-0.0394347384572029,-0.0315300673246384
221,0.00292533449828625,-0.00616359198465943,-0.0320153348147869,-8.87810019776225E-05,-0.0412127636373043,-0.0286474321037531
222,0.00227037467993796,-0.00588227016851306,-0.0330211631953716,-8.77957718330435E-05,-0.0416121929883957,-0.0263395644724369
223,0.00209225970320404,-0.00593097181990743,-0.0328816957771778,-8.77319762366824E-05,-0.0409078262746334,-0.0266115553677082
224,0.00252016517333686,-0.00598667934536934,-0.0322900339961052,-8.75789119163528E-05,-0.0395063422620296,-0.0283316597342491
225,0.00327833881601691,-0.00522700464352965,-0.0317238792777061,-8.63946552271955E-05,-0.0377959795296192,-0.0280348882079124
226,0.0031012617982924,-0.00426507648080587,-0.0320119373500347,-8.38115665828809E-05,-0.037172794342041,-0.0252465792000294
227,0.00185773870907724,-0.00374094862490892,-0.0332276709377766,-8.02279100753367E-05,-0.0384114980697632,-0.0223858207464218
228,0.000497196451760829,-0.00309861241839826,-0.0345396995544434,-7.65856893849559E-05,-0.040723130106926,-0.0214291848242283
229,-0.000265336886513978,-0.00220019300468266,-0.0355043858289719,-7.38586386432871E-05,-0.0426291525363922,-0.0233093742281199
230,0.000138586095999926,-0.00126528169494122,-0.0355012528598309,-7.25286372471601E-05,-0.0425987914204597,-0.0267750918865204
231,0.00128091091755778,-0.000586233043577522,-0.034102275967598,-7.23322882549837E-05,-0.0403225645422935,-0.0291593596339226
232,0.00211355183273554,-0.000700059172231704,-0.0321793369948864,-7.24107521818951E-05,-0.0373162776231766,-0.0292898789048195
233,0.00201551499776542,-0.00173212203662843,-0.0309836156666279,-7.1777896664571E-05,-0.0355973914265633,-0.027418864890933
234,0.000951521215029061,-0.00346622196957469,-0.0306381080299616,-6.98514704708941E-05,-0.0358818434178829,-0.0247345101088285
235,-0.000290861265966669,-0.00556691596284509,-0.0303711704909801,-6.67610074742697E-05,-0.0370705835521221,-0.0229404475539923
236,-0.000655718031339347,-0.00707349507138133,-0.0297842361032963,-6.32697556284256E-05,-0.0376253090798855,-0.0224346574395895
237,-4.61244380858261E-05,-0.00741827860474586,-0.0293289478868246,-6.03570297244005E-05,-0.0375436209142208,-0.023214053362608
238,0.000276078906608745,-0.00745801394805312,-0.0297665502876043,-5.86896676395554E-05,-0.038331400603056,-0.0258478112518787
239,-0.00063368515111506,-0.00766064459457994,-0.0312461815774441,-5.82678076170851E-05,-0.0406624041497707,-0.0289792232215405
240,-0.00216406164690852,-0.00758108077570796,-0.0332248322665691,-5.84331901336554E-05,-0.0432878360152245,-0.0298747271299362
241,-0.00353999971412122,-0.00701849767938256,-0.035210270434618,-5.8230958529748E-05,-0.0450407788157463,-0.0275140274316072
242,-0.00456211948767304,-0.0056261601857841,-0.0370791405439377,-5.69260664633475E-05,-0.045877892524004,-0.0217715725302696
243,-0.00547030847519636,-0.00380439101718366,-0.039148785173893,-5.43949499842711E-05,-0.0458222590386868,-0.0138332974165678
244,-0.00652794819325209,-0.00314212427474558,-0.0414539650082588,-5.1183673349442E-05,-0.0448031276464462,-0.00814687553793192
245,-0.00696723535656929,-0.00402095355093479,-0.0430452413856983,-4.82058130728547E-05,-0.0428870134055614,-0.00819854158908129
246,-0.00611609686166048,-0.00521994475275278,-0.0429203882813454,-4.62470889033284E-05,-0.0405428111553192,-0.0120571544393897
247,-0.00462409481406212,-0.00585664575919509,-0.0407401993870735,-4.55454355687834E-05,-0.0382920801639557,-0.0156975518912077
248,-0.00358629832044244,-0.00616035982966423,-0.037056814879179,-4.5670891267946E-05,-0.0364275500178337,-0.0177009012550116
249,-0.00340170203708112,-0.00631165318191051,-0.0331626459956169,-4.57656860817224E-05,-0.0354254841804504,-0.018835574388504
250,-0.00380564783699811,-0.00608475459739566,-0.0303991083055735,-4.50105035270099E-05,-0.0357493609189987,-0.0201340299099684
251,-0.00404871953651309,-0.00517135439440608,-0.0290925800800323,-4.30634572694544E-05,-0.0366977006196976,-0.0213284976780415
252,-0.00332967913709581,-0.00335255172103643,-0.0283333994448185,-4.02364967158064E-05,-0.0366822369396687,-0.0212185699492693
253,-0.0021781490650028,-0.00135725690051913,-0.0275283008813858,-3.7318401155062E-05,-0.0355739519000053,-0.0204312428832054
254,-0.00170001981314272,-0.00039285741513595,-0.0269776191562414,-3.51445451087784E-05,-0.0346588455140591,-0.0209380127489567
255,-0.00163711817003787,-0.000546490831766278,-0.0267408192157745,-3.41481063514948E-05,-0.0342821814119816,-0.0231239572167397
256,-0.000782922783400863,-0.000842411129269749,-0.0264714397490025,-3.41337981808465E-05,-0.0334371477365494,-0.0262238495051861
257,0.00125430396292359,-0.000983616104349494,-0.0261787734925747,-3.43922038155142E-05,-0.0314135700464249,-0.029491750523448
258,0.00391147984191775,-0.00102808140218258,-0.025509487837553,-3.40880869771354E-05,-0.0282083582133055,-0.0298228021711111
259,0.00585634121671319,-0.000950292393099517,-0.0244151521474123,-3.27101624861825E-05,-0.0252711866050959,-0.0248433351516724
260,0.00658963667228818,-0.0011239581508562,-0.0233709905296564,-3.03400411212351E-05,-0.0237342044711113,-0.0175107158720493
261,0.00744523527100682,-0.00143577868584543,-0.0221299584954977,-2.75989732472226E-05,-0.0224137138575315,-0.0114620430395007
262,0.00827418360859156,-0.0020811774302274,-0.0213895719498396,-2.53060479735723E-05,-0.0220392122864723,-0.00861826818436384
263,0.00745296804234385,-0.00369137083180249,-0.0224844552576542,-2.40358785958961E-05,-0.0247608534991741,-0.0100902589038014
264,0.00484529044479132,-0.00574896298348904,-0.0252262558788061,-2.38145767070819E-05,-0.0297335218638182,-0.0142109645530581
265,0.00183702213689685,-0.0071270102635026,-0.0283006988465786,-2.41147954511689E-05,-0.0341862887144089,-0.0173910912126303
266,-0.000340895901899785,-0.00746478885412216,-0.0308599565178156,-2.41475390794221E-05,-0.0360694713890553,-0.0180754717439413
267,-0.00115892826579511,-0.00686686625704169,-0.0324351079761982,-2.3289325326914E-05,-0.0350067056715488,-0.0174973458051682
268,-0.000932512106373906,-0.00537589471787214,-0.0326603911817074,-2.14133779081749E-05,-0.0327425263822079,-0.0174620766192675
269,-0.00107615115121007,-0.00358027406036854,-0.0327137112617493,-1.89489637705265E-05,-0.032144021242857,-0.0190805438905954
270,-0.00195401790551841,-0.00209498102776706,-0.0336698405444622,-1.6641708498355E-05,-0.0338975414633751,-0.0216230098158121
271,-0.00274569285102189,-0.000922769133467227,-0.0345809496939182,-1.51485819515074E-05,-0.0363525301218033,-0.0231000706553459
272,-0.00314139714464545,9.42397400649497E-06,-0.0344285368919373,-1.46874926940654E-05,-0.0380248092114925,-0.022778706625104
273,-0.00324528082273901,0.000745899102184922,-0.0333268791437149,-1.49283323480631E-05,-0.0384862907230854,-0.0215463638305664
274,-0.00360092823393643,0.00115113763604313,-0.031590573489666,-1.51795502461027E-05,-0.0383958220481873,-0.0207665059715509
275,-0.00399132445454597,0.00136064528487623,-0.0289669968187809,-1.47649816426565E-05,-0.0377723462879658,-0.0207961667329073
276,-0.00331258471123874,0.00207539042457938,-0.0256133321672678,-1.33855874082656E-05,-0.0355975888669491,-0.0208968687802553
277,-0.00207179551944137,0.00301254633814096,-0.0231381319463253,-1.12725647340994E-05,-0.0323106870055199,-0.0211219098418951
278,-0.00170017872005701,0.00308714457787573,-0.0221784878522158,-9.0536623247317E-06,-0.0289390180259943,-0.0214691981673241
279,-0.00254927482455969,0.00171332166064531,-0.0206319913268089,-7.40963378120796E-06,-0.0249277334660292,-0.0212305970489979
280,-0.00397690711542964,-0.000550510594621301,-0.0166402291506529,-6.70876261210651E-06,-0.0198606923222542,-0.019345274195075
281,-0.0051772971637547,-0.00240313238464296,-0.0116626136004925,-6.81561505189165E-06,-0.0157325193285942,-0.015023379586637
282,-0.00650583952665329,-0.00335179921239614,-0.00991859007626772,-7.17312786946422E-06,-0.0164051745086908,-0.0105527956038713
283,-0.00813040416687727,-0.00318773416802287,-0.0143379252403975,-7.10881977283861E-06,-0.0233199577778578,-0.00973461754620075
284,-0.00830680876970291,-0.0019315651152283,-0.0231512654572725,-6.19684715275071E-06,-0.0324722193181515,-0.0142735280096531
285,-0.00657138647511601,-0.00100916158407927,-0.0324783958494663,-4.48095715910313E-06,-0.0392606258392334,-0.0235762000083923
286,-0.00516990106552839,-0.00150594173464924,-0.0401731990277767,-2.44172883867577E-06,-0.0432277172803879,-0.0348400287330151
287,-0.00540561554953456,-0.00252849911339581,-0.0455456748604774,-7.30692192973947E-07,-0.0458472296595573,-0.0440435707569122
288,-0.00712586147710681,-0.00341562461107969,-0.0491869710385799,1.81702915824644E-07,-0.048652745783329,-0.0497208945453167
289,-0.0103231482207775,-0.00451864907518029,-0.0527883917093277,2.54122369369725E-07,-0.0532191731035709,-0.0534668304026127
290,-0.0137285282835364,-0.00490198889747262,-0.0566384047269821,-1.12241380634259E-07,-0.0592906922101974,-0.0555335469543934
291,-0.0149421282112598,-0.00322618591599166,-0.0594233050942421,-2.97267177984395E-07,-0.0645063668489456,-0.0550150126218796
292,-0.0138382837176323,-0.000334252690663561,-0.0610552541911602,2.02008109795315E-07,-0.0678095743060112,-0.0530418194830418
293,-0.0119438208639622,0.00272838235832751,-0.0620629824697971,1.50496146034129E-06,-0.0695950165390968,-0.0506633222103119
294,-0.00937371328473091,0.00636198557913303,-0.0618298538029194,3.29169051838107E-06,-0.0692391768097878,-0.0477019883692265
295,-0.00638343906030059,0.00959993712604046,-0.0609195530414581,4.98340978083434E-06,-0.0670976564288139,-0.0458157360553741
296,-0.00415462162345648,0.0107300253584981,-0.0610990971326828,6.05743434789474E-06,-0.06515022367239,-0.0466031171381474
297,-0.00294078420847654,0.0106510287150741,-0.0621684454381466,6.32541514278273E-06,-0.0642232075333595,-0.047891516238451
298,-0.00194602855481207,0.0115963825955987,-0.0623629577457905,6.02681984673836E-06,-0.0637335255742073,-0.0465697832405567
299,-0.0010046191746369,0.0132767632603645,-0.0619461312890053,5.69168196307146E-06,-0.0637951195240021,-0.0436992980539799
300,-0.001289700740017,0.0131099186837673,-0.0635298788547516,5.85104817218962E-06,-0.0659532994031906,-0.0438568629324436
301,-0.00233007920905948,0.0108277872204781,-0.067129023373127,6.75327919452684E-06,-0.0698432102799416,-0.0488342270255089
302,-0.00209836079739034,0.00876166578382254,-0.0691407397389412,8.23773643787717E-06,-0.0726236030459404,-0.0557424128055573
303,-0.000692860456183553,0.00794188119471073,-0.0675928369164467,9.82985056907637E-06,-0.073090173304081,-0.060628317296505
304,0.000434530054917559,0.00776520185172558,-0.0647264420986176,1.10017790575512E-05,-0.0725518390536308,-0.0612191595137119
305,0.000961633631959558,0.00799255538731813,-0.0639753267168999,1.14556005428312E-05,-0.0727179870009422,-0.0583156384527683
306,0.00158621266018599,0.00863439217209816,-0.0661813914775848,1.12771913336474E-05,-0.0738921537995338,-0.055128563195467
307,0.00220227660611272,0.00881127547472715,-0.0703093111515045,1.08815547719132E-05,-0.0757672339677811,-0.0540483444929123
308,0.00200961320661008,0.00811753328889608,-0.0749999508261681,1.07836312963627E-05,-0.0783757939934731,-0.0537984296679497
309,0.0008087910246104,0.00726993521675467,-0.0785807818174362,1.13211099233013E-05,-0.0811562091112137,-0.0521698035299778
310,-0.000968670181464404,0.00694794720038772,-0.0808473378419876,1.2478415555961E-05,-0.0836754143238068,-0.049811277538538
311,-0.00275488896295428,0.00736450077965856,-0.0829075276851654,1.39035018946743E-05,-0.086527980864048,-0.0485398359596729
312,-0.00419346848502755,0.00801206473261118,-0.084270566701889,1.51038611875265E-05,-0.0896661132574081,-0.0487014651298523
313,-0.0046814582310617,0.00863349623978138,-0.0838543996214867,1.5712799722678E-05,-0.0916438773274422,-0.0494546629488468
314,-0.00445830635726452,0.00911766197532415,-0.083089716732502,1.5682098819525E-05,-0.0924034267663956,-0.0505852662026882
315,-0.00505683245137334,0.00888677407056093,-0.0843759030103683,1.52999928104691E-05,-0.0940843597054482,-0.052453774958849
316,-0.00700321281328797,0.00792799238115549,-0.0873584523797035,1.50291753016063E-05,-0.0969013720750809,-0.0549977384507656
317,-0.00885412283241749,0.00726624159142375,-0.0888569355010986,1.52557277033338E-05,-0.0977607294917107,-0.0571977309882641
318,-0.00972047075629234,0.00750904437154531,-0.0877934768795967,1.6085192328319E-05,-0.0958436653017998,-0.0581878982484341
319,-0.0103296684101224,0.00785352475941181,-0.0866447687149048,1.72934214788256E-05,-0.0938352569937706,-0.0585409328341484
320,-0.0103977378457785,0.00816458556801081,-0.0864005386829376,1.84545242518652E-05,-0.0923656225204468,-0.0581371411681175
321,-0.0087400795891881,0.00926956441253424,-0.0855986624956131,1.91731433005771E-05,-0.0896108150482178,-0.0560075528919697
322,-0.00590209849178791,0.0108243841677904,-0.0836767479777336,1.92944771697512E-05,-0.0848464742302895,-0.0529593117535114
323,-0.00356760201975703,0.0120816379785538,-0.0812819376587868,1.89806123671588E-05,-0.0790463984012604,-0.0504388920962811
324,-0.0026180564891547,0.0127692995592952,-0.0786429271101952,1.86159268196207E-05,-0.0738992989063263,-0.0483265146613121
325,-0.0029876499902457,0.0122716380283237,-0.0754304528236389,1.85964818228967E-05,-0.0704498365521431,-0.0467005372047424
326,-0.00333177181892097,0.0109129957854748,-0.0711848735809326,1.91187500604428E-05,-0.067635789513588,-0.046141505241394
327,-0.00199273903854191,0.0104070510715246,-0.0654873847961426,2.00803424377227E-05,-0.0636027753353119,-0.0448927693068981
328,0.000337705976562575,0.011406940408051,-0.0590755045413971,2.11426322493935E-05,-0.058709766715765,-0.0409454219043255
329,0.0015242324443534,0.0130073837935925,-0.0538506545126438,2.19175562961027E-05,-0.0549934133887291,-0.0355858914554119
330,0.00110950577072799,0.0143365571275353,-0.0507463254034519,2.21756654354976E-05,-0.0531808696687222,-0.0315805226564407
331,-1.74725028045941E-05,0.0144987450912595,-0.049220647662878,2.19639914575964E-05,-0.0523850098252296,-0.0316497199237347
332,-0.00123384455218911,0.0127117885276675,-0.0482801906764507,2.15734253288247E-05,-0.0513448975980282,-0.0370104424655437
333,-0.00243923673406243,0.00962305068969727,-0.0471812188625336,2.13771400012774E-05,-0.0495392493903637,-0.0445127375423908
334,-0.0035083566326648,0.00711429957300425,-0.0455435775220394,2.16297448787373E-05,-0.0473071672022343,-0.0482612885534763
335,-0.00423556845635176,0.00624033529311419,-0.0433568321168423,2.23352108150721E-05,-0.0449138395488262,-0.0450963266193867
336,-0.00478326296433806,0.00636727176606655,-0.0408841334283352,2.32519487326499E-05,-0.0424201339483261,-0.0370000973343849
337,-0.00547725660726428,0.00676007708534598,-0.0387567020952702,2.40284334722674E-05,-0.0404505059123039,-0.0283147804439068
338,-0.00651640258729458,0.0073610870167613,-0.0375354960560799,2.43933900492266E-05,-0.0397547595202923,-0.0223644245415926
339,-0.00704245595261455,0.00876116752624512,-0.035918403416872,2.42977821471868E-05,-0.0390599444508553,-0.0192842222750187
340,-0.00621458189561963,0.0108668813481927,-0.0321801640093327,2.39344190049451E-05,-0.0366548150777817,-0.0172144938260317
341,-0.00505295163020492,0.0121202087029815,-0.0269654542207718,2.36283703998197E-05,-0.0331714004278183,-0.0152232469990849
342,-0.00582638429477811,0.0112760281190276,-0.0230911523103714,2.36603082157671E-05,-0.0311143044382334,-0.0135188773274422
343,-0.0096120061352849,0.00846652220934629,-0.0227531231939793,2.41187335632276E-05,-0.032264705747366,-0.0124378465116024
344,-0.0140174627304077,0.00559707032516599,-0.0243752840906382,2.48588148679119E-05,-0.0348441451787949,-0.0108310449868441
345,-0.0159724913537502,0.00482130562886596,-0.0250185336917639,2.55864852078957E-05,-0.0361908152699471,-0.00682691065594554
346,-0.0159515887498856,0.00516539998352528,-0.0246945321559906,2.60192628047662E-05,-0.0366879813373089,-0.0020209567155689
347,-0.0160724148154259,0.00427857926115394,-0.0245373640209436,2.60359611274907E-05,-0.0376653298735619,-9.29791931412183E-05
348,-0.0160151701420546,0.00289088021963835,-0.0235591102391481,2.57360552495811E-05,-0.038231186568737,-0.000867846771143377
349,-0.0145147172734141,0.00248403963632882,-0.0207376070320606,2.53800135396887E-05,-0.0367111712694168,-0.0020760043989867
350,-0.0124977668747306,0.00193147838581353,-0.0175173692405224,2.52460195042659E-05,-0.0335393846035004,-0.00384194264188409
351,-0.0117405243217945,-1.05006602098001E-05,-0.0157807804644108,2.5481844204478E-05,-0.0307216476649046,-0.00625743623822927
352,-0.0121505074203014,-0.00187053892295808,-0.0149363530799747,2.60306987911463E-05,-0.0287426523864269,-0.00677902158349752
353,-0.0123619083315134,-0.00161688402295113,-0.013537647202611,2.6668019927456E-05,-0.0267013311386108,-0.00421873200684786
354,-0.011689986102283,0.000476752029499039,-0.0120745925232768,2.71260905719828E-05,-0.0246815513819456,-0.00114362058229744
355,-0.0106556015089154,0.00259600603021681,-0.0115119917318225,2.7237436370342E-05,-0.0235502012073994,-0.000337563891662285
356,-0.00959550868719816,0.00378098781220615,-0.0107877906411886,2.70203381660394E-05,-0.0227394849061966,-0.00154763518366963
357,-0.00807678140699863,0.00470747565850616,-0.00820693373680115,2.666297586984E-05,-0.0206734053790569,-0.0024394802749157
358,-0.00704790744930506,0.00536394212394953,-0.0049746660515666,2.64180671365466E-05,-0.018224960193038,-0.0023586917668581
359,-0.00723761087283492,0.00515646999701858,-0.00297224475070834,2.64668578893179E-05,-0.0167989488691092,-0.00217663450166583
360,-0.00751794315874577,0.00452309334650636,-0.00177589152008295,2.68256371782627E-05,-0.0158967413008213,-0.00224727555178106
361,-0.00752999074757099,0.00368548277765512,-0.000986192375421524,2.73428631771822E-05,-0.0154175153002143,-0.00259677926078439
362,-0.00750243896618485,0.00256565329618752,-0.000676724244840443,2.77852559520397E-05,-0.0155592039227486,-0.00291741522960365
363,-0.00732917618006468,0.00164841988589615,-0.000368509296094999,2.79641681117937E-05,-0.0161312706768513,-0.00255537452176213
364,-0.0071739973500371,0.0013977613998577,0.000247225601924583,2.78338357020402E-05,-0.0169884823262692,-0.00128995638806373
365,-0.00702041294425726,0.00181586935650557,0.000773974694311619,2.75105412583798E-05,-0.017717607319355,-0.000295381702017039
366,-0.00721168098971248,0.00235229334793985,0.000418201263528317,2.72053348453483E-05,-0.0185169354081154,-0.00120537006296217
367,-0.00793656148016453,0.00230349157936871,-1.1004624866473E-05,2.71090975729749E-05,-0.0191660486161709,-0.0043695755302906
368,-0.00762629415839911,0.00189998571295291,0.0020942622795701,2.72924517048523E-05,-0.0176686216145754,-0.00862565170973539
369,-0.0051334067247808,0.0017972553614527,0.00714621739462018,2.76729588222224E-05,-0.0136094400659204,-0.0123641472309828
370,-0.00163734436500818,0.00222213030792773,0.0126992482692003,2.80643998848973E-05,-0.00932055152952671,-0.0146622452884912
371,0.000189291153219529,0.00252221105620265,0.0159848220646381,2.82790333585581E-05,-0.00737792532891035,-0.0154256392270327
372,-0.00109115871600807,0.00199982523918152,0.0157487001270056,2.82267810689518E-05,-0.0084101241081953,-0.0142030101269484
373,-0.00346216978505254,0.00158032740000635,0.0138670057058334,2.79590440186439E-05,-0.0102899102494121,-0.0100708296522498
374,-0.00480218278244138,0.00167052005417645,0.0126620233058929,2.76361806754721E-05,-0.0111786546185613,-0.00431459024548531
375,-0.00524456799030304,0.00143966893665493,0.012337232939899,2.74387512035901E-05,-0.0114659462124109,0.000155894085764885
376,-0.00544500071555376,0.000749277649447322,0.012518085539341,2.74716185231227E-05,-0.0119602661579847,0.0018355572829023
377,-0.005630096886307,0.00030906408210285,0.0134789943695068,2.77117615041789E-05,-0.012533345259726,0.00124741578474641
378,-0.00599624263122678,0.000694926246069372,0.0153260324150324,2.80255717370892E-05,-0.0128166005015373,-0.000219360197661445
379,-0.00660673016682267,0.00161026848945767,0.0170100051909685,2.824371222232E-05,-0.0127041172236204,-0.0019067560788244
380,-0.00691720843315125,0.00250975857488811,0.0177476182579994,2.8251708499738E-05,-0.0120488740503788,-0.00327784242108464
381,-0.00684602977707982,0.00276220263913274,0.0177234318107367,2.80479362118058E-05,-0.0114136822521687,-0.00404189899563789
382,-0.00703073432669044,0.00179804267827421,0.0172050781548023,2.77397975878557E-05,-0.0115981819108129,-0.00526059279218316
383,-0.00746803637593985,-1.72611307789339E-05,0.0168817415833473,2.74827361863572E-05,-0.0121761597692966,-0.00688744429498911
384,-0.00793216098099947,-0.00209577032364905,0.0167477671056986,2.73965888482053E-05,-0.0125806899741292,-0.00830545090138912
385,-0.00825619604438543,-0.00396646372973919,0.0158404726535082,2.75042602879694E-05,-0.012501822784543,-0.00976032391190529
386,-0.00786807760596275,-0.00490379566326737,0.0140435537323356,2.77239541901508E-05,-0.011521608568728,-0.01004693005234
387,-0.00678135640919209,-0.00482082134112716,0.0117800980806351,2.79167161352234E-05,-0.0103257894515991,-0.00794311705976725
388,-0.00519620906561613,-0.00408226437866688,0.0100495908409357,2.79618288914207E-05,-0.00960232131183147,-0.00366505165584385
389,-0.00303577678278089,-0.00284715066663921,0.00991187803447247,2.78192746918648E-05,-0.00909125804901123,0.00190114276483655
390,-0.000663586950395256,-0.000975039380136877,0.0110200811177492,2.75470501946984E-05,-0.0088176317512989,0.00719605013728142
391,0.00112531322520226,0.00143429182935506,0.0125684477388859,2.72663673968054E-05,-0.00901755504310131,0.0102959591895342
392,0.0013291408540681,0.00301292561925948,0.0140749476850033,2.70953805738827E-05,-0.00987198948860168,0.00932998675853014
393,-0.00033910881029442,0.00268247071653605,0.0148619208484888,2.70876316790236E-05,-0.0115945618599653,0.00465376162901521
394,-0.00286127254366875,0.00113494612742215,0.0140796415507793,2.72072029474657E-05,-0.0140046766027808,-0.00110691250301898
395,-0.00470691407099366,-0.000336792640155181,0.0116690080612898,2.73517871391959E-05,-0.016333719715476,-0.00633716583251953
396,-0.00434603961184621,-0.000351814232999459,0.00957569293677807,2.74092981271679E-05,-0.0167427677661181,-0.0102988472208381
397,-0.00226605567149818,0.00101169652771205,0.00892781093716621,2.73167752311565E-05,-0.0147117115557194,-0.0130526442080736
398,-0.000679498538374901,0.0024464565794915,0.00832145381718874,2.70907530648401E-05,-0.0121040735393763,-0.0147480554878712
399,0.000430797488661483,0.00433273054659367,0.00771440798416734,2.68146868620534E-05,-0.0091194286942482,-0.0132997781038284
400,0.00239429553039372,0.00725519331172109,0.0085123423486948,2.65922044491163E-05,-0.00488650845363736,-0.0075629809871316
401,0.00502079585567117,0.0103400712832808,0.0104729738086462,2.64923000941053E-05,-0.000683963822666556,-0.000144503384944983
402,0.00705881835892797,0.0125969499349594,0.0120700700208545,2.65153921645833E-05,0.00155306654050946,0.00518248463049531
403,0.00824040547013283,0.0140225002542138,0.012898150831461,2.65967719315086E-05,0.00210803141817451,0.00697806291282177
404,0.00952940061688423,0.0149520570412278,0.0138159124180675,2.66436272795545E-05,0.0028591260779649,0.00594166154041886
405,0.0111295059323311,0.0148782916367054,0.0150584252551198,2.65845974354306E-05,0.00455467775464058,0.00226013106293976
406,0.0119300866499543,0.0136584769934416,0.0155585175380111,2.64054688159376E-05,0.00583039363846183,-0.00320324255153537
407,0.0114089483395219,0.0123722208663821,0.014800819568336,2.61533550656168E-05,0.00548512162640691,-0.00722084101289511
408,0.0103879813104868,0.0113587733358145,0.0136626288294792,2.5908981115208E-05,0.00431567523628473,-0.00805722735822201
409,0.0091931214556098,0.00937854498624802,0.0120995491743088,2.57432602666086E-05,0.00307130138389766,-0.00751037150621414
410,0.00787908118218184,0.00632313825190067,0.00985617749392986,2.56814564636443E-05,0.00180005433503538,-0.00680306553840637
411,0.00665630120784044,0.00383560918271542,0.00789861567318439,2.56929542956641E-05,0.000505689240526408,-0.00524891261011362
412,0.00550128752365708,0.00297487829811871,0.00648514367640018,2.57103074545739E-05,-0.00109415838960558,-0.00265077711082995
413,0.00488409120589495,0.00329525442793965,0.00506081804633141,2.56659932347247E-05,-0.0026608519256115,-0.000161152536747977
414,0.00571313546970487,0.00388969318009913,0.00421600556001067,2.55269096669508E-05,-0.00246293609961867,0.00108941609505564
415,0.00788749102503061,0.00436441134661436,0.00495428685098886,2.53091257036431E-05,0.000457489571999758,0.00121202121954411
416,0.00967675913125277,0.0043682255782187,0.00696421647444367,2.50666234933306E-05,0.00412118108943105,0.000182951407623477
417,0.0106820417568088,0.0043090065009892,0.00994413159787655,2.48615033342503E-05,0.00668746093288064,-0.0020940350368619
418,0.0116463247686625,0.00489781051874161,0.013241377659142,2.47320367634529E-05,0.0080036660656333,-0.00493196444585919
419,0.0120711792260408,0.00601334776729345,0.0151319866999984,2.4674931410118E-05,0.00821788236498833,-0.00739128002896905
420,0.0118746915832162,0.00729276286438107,0.0152255669236183,2.46498002525186E-05,0.00821494217962027,-0.00844539422541857
421,0.0116236954927444,0.00782603397965431,0.0144086619839072,2.46020026679616E-05,0.00890095345675945,-0.00761021580547094
422,0.0115715442225337,0.00710927229374647,0.0134430695325136,2.44910424953559E-05,0.0104237450286746,-0.00506971031427383
423,0.0121096968650818,0.00612077815458179,0.0127369379624724,2.43098420469323E-05,0.0124610681086779,-0.00162170070689172
424,0.0131857143715024,0.00559224374592304,0.0117885423824191,2.40859426412499E-05,0.0137490835040808,0.0010237229289487
425,0.0137788262218237,0.00498752994462848,0.00995132979005575,2.38653774431441E-05,0.0128612034022808,0.0011664928169921
426,0.0132796298712492,0.00372979324311018,0.00786401610821486,2.36885862250347E-05,0.0102872084826231,-0.00179378874599934
427,0.0125712240114808,0.00231436314061284,0.00683396682143211,2.35709103435511E-05,0.00795881450176239,-0.00722450809553266
428,0.0125343520194292,0.00188987888395786,0.0069601833820343,2.34969284065301E-05,0.00684158876538277,-0.0130229201167822
429,0.0119853476062417,0.00213256385177374,0.00628638360649347,2.34303006436676E-05,0.00589465023949742,-0.0168161857873201
430,0.00956416130065918,0.00152040936518461,0.00368912005797029,2.3333048375207E-05,0.00441667903214693,-0.0177865885198116
431,0.00721103232353926,0.00080703420098871,0.00174365192651749,2.31841022468871E-05,0.00436241878196597,-0.0157422106713057
432,0.00698440382257104,0.00159727758727968,0.00230993004515767,2.29882134590298E-05,0.00676503917202353,-0.0115159414708614
433,0.0072426344268024,0.00276492652483284,0.00320002669468522,2.27717664529337E-05,0.0091710826382041,-0.00781696196645498
434,0.00684794178232551,0.00324884848669171,0.00289255450479686,2.25685907935258E-05,0.0100211361423135,-0.00563702313229442
435,0.00641948590055108,0.00346846762113273,0.00170602893922478,2.24033719860017E-05,0.00951074529439211,-0.00422746874392033
436,0.00553060369566083,0.00307793193496764,-0.000253834150498733,2.22806884266902E-05,0.00752835115417838,-0.00420476263388991
437,0.00420867744833231,0.00175992900040001,-0.00193284207489342,2.21843183680903E-05,0.00513316644355655,-0.00629197573289275
438,0.00313220056705177,-0.000293088989565149,-0.00203374400734901,2.2086278477218E-05,0.00362805929034948,-0.00999259110540152
439,0.00223535858094692,-0.00272391084581614,-0.000721369404345751,2.19606299651787E-05,0.00284617533907294,-0.0137851443141699
440,0.00161759427282959,-0.00439429515972734,0.0011525898007676,2.17953420360573E-05,0.00249957386404276,-0.0154840042814612
441,0.00152341707143933,-0.00447233719751239,0.00286675384268165,2.15970048884628E-05,0.00243644649162889,-0.0138605143874884
442,0.00221244036220014,-0.00321418535895646,0.00407632999122143,2.13867733691586E-05,0.00255007110536098,-0.00961649231612682
443,0.00378199620172381,-0.00130659644491971,0.00468258699402213,2.11899841815466E-05,0.00270352303050458,-0.00427446467801929
444,0.00508852489292622,9.88562314887531E-05,0.00416278745979071,2.10244525078451E-05,0.00164205604232848,0.000521602923981845
445,0.00514274043962359,0.000134839312522672,0.00248927297070622,2.08926885534311E-05,-0.00111318042036146,0.00313183618709445
446,0.00468377349898219,-0.000745930767152458,0.000938352255616337,2.07812936423579E-05,-0.00366163183934987,0.00293747056275606
447,0.00497151026502252,-0.00171048776246607,0.000456839392427355,2.06674903893145E-05,-0.00435074558481574,-0.000352080300217494
448,0.00614607287570834,-0.00276330136694014,0.000641586957499385,2.05297128559323E-05,-0.00333127216435969,-0.00731261167675257
449,0.00807413831353188,-0.00382718560285866,0.00140267924871296,2.03574818442576E-05,-0.000691348861437291,-0.0161258969455957
450,0.0106196608394384,-0.00420346111059189,0.00310748443007469,2.01561942958506E-05,0.00346304546110332,-0.0229262132197618
451,0.0120799029245973,-0.0040965317748487,0.00501687917858362,1.99446621991228E-05,0.00693453196436167,-0.025587409734726
452,0.0111858416348696,-0.00450256885960698,0.00617334479466081,1.97464833036065E-05,0.00738769164308906,-0.0246598646044731
453,0.00977108627557755,-0.00512370048090816,0.00710598612204194,1.95790289581055E-05,0.00604866351932287,-0.0216310992836952
454,0.00919762719422579,-0.00549827329814434,0.00790149345993996,1.94450985873118E-05,0.0048120585270226,-0.0185567885637283
455,0.00796399731189013,-0.00655052810907364,0.00717845978215337,1.9331235307618E-05,0.00286993244662881,-0.016707381233573
456,0.00597059773281217,-0.00751688610762358,0.00560356397181749,1.9213746782043E-05,0.000417182396631688,-0.0130702182650566
457,0.0046971132978797,-0.0068020336329937,0.00529408780857921,1.90698974620318E-05,-0.000532783335074782,-0.00533980270847678
458,0.00399843230843544,-0.00576273817569017,0.00641338527202606,1.8889097191277E-05,0.000857267819810659,0.00177420594263822
459,0.00329276989214122,-0.00612989347428083,0.00766286998987198,1.86786164704245E-05,0.00395604548975825,0.00274293636903167
460,0.00308470288291574,-0.00714051816612482,0.00861978065222502,1.84607033588691E-05,0.00794398598372936,-0.00132166221737862
461,0.00376268615946174,-0.00736090214923024,0.0100030805915594,1.82620751729701E-05,0.0119715491309762,-0.00498629547655582
462,0.00469136470928788,-0.00665925955399871,0.0115932337939739,1.81006616912782E-05,0.0145331434905529,-0.00558789726346731
463,0.00529211899265647,-0.00558978551998734,0.0125286933034658,1.79761445906479E-05,0.0149031486362219,-0.00467039830982685
464,0.00579177075996995,-0.00412248773500323,0.0131022967398167,1.78693480847869E-05,0.0142192794010043,-0.00358484871685505
465,0.00671844324097037,-0.00192231114488095,0.0140023119747639,1.77512538357405E-05,0.0137675628066063,-0.00178676843643188
466,0.00845665484666824,0.000846879847813398,0.015111455693841,1.75975346792256E-05,0.0137276714667678,0.00150156707968563
467,0.0107822306454182,0.00374586810357869,0.0159059595316648,1.74013293872122E-05,0.0139013677835464,0.00629008002579212
468,0.0118995299562812,0.00539954146370292,0.0158768352121115,1.71775591297774E-05,0.0134993912652135,0.0106103718280792
469,0.0105596594512463,0.00455229496583343,0.0155034074559808,1.6956071704044E-05,0.0120228817686439,0.0118638072162867
470,0.00898888148367405,0.00311036058701575,0.0164338164031506,1.67666785273468E-05,0.0111090391874313,0.0110838608816266
471,0.00881197489798069,0.00292759179137647,0.0179767850786448,1.66235549841076E-05,0.0110955545678735,0.0105693340301514
472,0.00809742603451014,0.00247190520167351,0.01716080121696,1.65172077686293E-05,0.0095188831910491,0.0107720764353871
473,0.00680924346670508,0.00120644236449152,0.014698650687933,1.64185894391267E-05,0.00706647662445903,0.0125006940215826
474,0.007455222774297,0.000732381187845021,0.0139895752072334,1.62936976266792E-05,0.00718082115054131,0.01546585932374
475,0.00962276570498943,0.00111832201946527,0.0151598025113344,1.61213774845237E-05,0.00978029798716307,0.0175930391997099
476,0.0111228311434388,0.00160839431919158,0.0162442103028297,1.59049741341732E-05,0.0122000072151423,0.0189200062304735
477,0.011488732881844,0.00214254530146718,0.0162973590195179,1.56714049808215E-05,0.0130597939714789,0.0204904396086931
478,0.011021513491869,0.00189581431914121,0.0150109473615885,1.54576464410638E-05,0.0123451827093959,0.0208168718963861
479,0.0100381961092353,-0.000161680101882666,0.0128605598583817,1.52914271893678E-05,0.011009655892849,0.0184387173503637
480,0.00890303030610085,-0.00363741186447442,0.0107360109686852,1.5176188753685E-05,0.0100373532623053,0.0138972979038954
481,0.00722708646208048,-0.00782841350883245,0.00823748670518398,1.50885416587698E-05,0.00862121023237705,0.00758532295003533
482,0.0047164699062705,-0.0121166007593274,0.00495945010334253,1.49899797179387E-05,0.00595466932281852,0.000152283042552881
483,0.00237872451543808,-0.0153539422899485,0.00199589296244085,1.48470098793041E-05,0.00306441425345838,-0.00638094451278448
484,0.00165481434669346,-0.0166974999010563,0.000524404866155237,1.46491947816685E-05,0.00139816314913332,-0.00961456075310707
485,0.00211737980134785,-0.0166319720447063,5.55544684175402E-05,1.4415338227991E-05,0.00080291781341657,-0.00861011259257793
486,0.00182411796413362,-0.016518410295248,-0.00118834699969739,1.41841774166096E-05,-0.000264469505054876,-0.00514694303274155
487,0.000626217690296471,-0.0168168433010578,-0.00336398393847048,1.39941366796847E-05,-0.0020451107993722,-0.00161564291920513
488,-0.000147438826388679,-0.0171048566699028,-0.00493444222956896,1.38627592605189E-05,-0.00360654899850488,0.000745283847209066
489,-2.8664975616266E-05,-0.0174396559596062,-0.00525948079302907,1.37768383865478E-05,-0.00448787026107311,0.000752437044866383
490,0.000797782558947802,-0.0179258268326521,-0.00463305227458477,1.36988401209237E-05,-0.00421967031434178,-0.00238949991762638
491,0.00175594899337739,-0.0185093693435192,-0.00363115919753909,1.35865293486859E-05,-0.00279392371885479,-0.0079449201002717
492,0.00186842249240726,-0.0193144623190165,-0.00294410088099539,1.34155434352579E-05,-0.00145548582077026,-0.0136545561254025
493,0.00134019739925861,-0.019724240526557,-0.00241006794385612,1.31928245536983E-05,-0.00100589531939477,-0.0161937922239304
494,0.00136113725602627,-0.019373144954443,-0.00155583792366087,1.29534882944427E-05,-0.00105444621294737,-0.0138515857979655
495,0.00182466872502118,-0.0194321554154158,-0.00120667635928839,1.27424809761578E-05,-0.00163215410429984,-0.00937463715672493
496,0.00191634718794376,-0.0205393359065056,-0.00263198255561292,1.25906117318664E-05,-0.00326532172039151,-0.00706694414839149
497,0.00131917896214873,-0.0221636146306992,-0.00557357398793101,1.24977696032147E-05,-0.00569961033761501,-0.00815408304333687
498,0.000453591899713501,-0.0233336333185434,-0.00826719123870134,1.24324969874579E-05,-0.00772623112425208,-0.0101410569623113
499,0.000646715227048844,-0.0229184757918119,-0.00936564337462187,1.23484269352048E-05,-0.00803888868540525,-0.00986961461603642
500,0.00244820560328662,-0.0211060885339975,-0.00917048379778862,1.22089977594442E-05,-0.00631029438227415,-0.00700325425714254
501,0.00519997393712401,-0.0188037101179361,-0.00812362506985664,1.20072645586333E-05,-0.0030964317265898,-0.00324643030762672
502,0.00788407865911722,-0.0164129808545113,-0.00586428306996822,1.17700392365805E-05,0.000659169920254499,-0.000384366663638502
503,0.00899381004273891,-0.0146747939288616,-0.00315992347896099,1.15439115688787E-05,0.00329533824697137,0.000196120978216641
504,0.00857501477003098,-0.013817404396832,-0.0011186352930963,1.13704363684519E-05,0.00430092215538025,-0.00139440363273025
505,0.00818776246160269,-0.013128861784935,0.000232508129556663,1.12637198981247E-05,0.00479371752589941,-0.00405091559514403
506,0.00777213741093874,-0.0124884760007262,0.000767753866966814,1.12025245471159E-05,0.00482622627168894,-0.00687696458771825
507,0.00651034992188215,-0.0121650537475944,0.000386596249882132,1.11413255581283E-05,0.0039395340718329,-0.00878890883177519
508,0.00492744334042072,-0.0122088780626655,-0.000882856082171202,1.10345699795289E-05,0.0028368083294481,-0.00960791576653719
509,0.00401550345122814,-0.0126648116856813,-0.0030043413862586,1.08611993709928E-05,0.00208675349131227,-0.0107337888330221
510,0.00349219213239849,-0.013175624422729,-0.00554074114188552,1.06362194856047E-05,0.000988116720691323,-0.0122392484918237
511,0.00253339344635606,-0.0132677098736167,-0.00739464070647955,1.04029422800522E-05,-0.000261708803009242,-0.0131901009008288
512,0.001393131329678,-0.0132790310308337,-0.00744990538805723,1.02099093055585E-05,-0.000129146996187046,-0.0142753561958671
513,0.00110369734466076,-0.01303287781775,-0.00574530707672238,1.00848055808456E-05,0.00145893590524793,-0.0154040418565273
514,0.00209348322823644,-0.0117501551285386,-0.0032626916654408,1.00194047263358E-05,0.00303674023598433,-0.0151427006348968
515,0.00285928719677031,-0.0105527779087424,-0.00174243678338826,9.97375082079088E-06,0.00296843284741044,-0.013913432136178
516,0.00225754990242422,-0.0107279317453504,-0.00193324848078191,9.89747331914259E-06,0.00138737936504185,-0.0130986571311951
517,0.00151776091661304,-0.0114326793700457,-0.00225384789519012,9.75684270088095E-06,0.000702972989529371,-0.0129514327272773
518,0.00122372817713767,-0.0122840944677591,-0.00183156505227089,9.55303585215006E-06,0.00178981071803719,-0.0133598921820521
519,0.000659015960991383,-0.0137242367491126,-0.00163989944849163,9.32168677536538E-06,0.00305095664225519,-0.0137537196278572
520,-3.6024532164447E-05,-0.0150506906211376,-0.00228572986088693,9.11387451196788E-06,0.00344070605933666,-0.0134002640843391
521,-3.4068179957103E-05,-0.0152838034555316,-0.00316592957824469,8.96869278221857E-06,0.00370755884796381,-0.0127647025510669
522,0.000452093401690945,-0.0149973267689347,-0.00360837974585593,8.89215516508557E-06,0.00464739836752415,-0.012688372284174
523,0.000271772732958198,-0.0151877533644438,-0.00380881736055017,8.85383542481577E-06,0.00553158158436418,-0.0127649586647749
524,-0.000478879897855222,-0.0150475306436419,-0.00387873919680715,8.80313200468663E-06,0.00590196484699845,-0.0118316430598497
525,-0.000643815903458744,-0.0133646540343761,-0.00327612645924091,8.69645100465277E-06,0.00663548149168491,-0.0101870661601424
526,-0.000521480920724571,-0.0107202548533678,-0.00238042511045933,8.52070388646098E-06,0.00762474490329623,-0.00984415225684643
527,-0.000889449554961175,-0.00802220311015844,-0.00203317729756236,8.30042699817568E-06,0.0081388708204031,-0.0112094664946198
528,-0.000549529038835317,-0.00452979933470488,-0.00152971677016467,8.08464756119065E-06,0.00893746875226498,-0.0112293222919106
529,0.000906894681975245,-0.000101190104032867,-0.000524434435646981,7.92053288023453E-06,0.010044451802969,-0.00775898993015289
530,0.00205746595747769,0.00392413744702935,0.000159458169946447,7.82799725129735E-06,0.0104300370439887,-0.00186661083716899
531,0.00219160923734307,0.00693314475938678,-0.000216677130083553,7.78895719122374E-06,0.00975272338837385,0.00471115205436945
532,0.00073825177969411,0.00829991512000561,-0.00289306556805968,7.75703756517032E-06,0.00683146761730313,0.00933311972767115
533,-0.00238603772595525,0.00720268581062555,-0.00769673520699143,7.68253448768519E-06,0.00116919295396656,0.00912332814186811
534,-0.005254867952317,0.00485989730805159,-0.0113729620352387,7.53916583562386E-06,-0.00408360129222274,0.00498393084853888
535,-0.00610595569014549,0.00339440512470901,-0.0116073666140437,7.3382188929827E-06,-0.00545900780707598,0.0011183520546183
536,-0.00616098614409566,0.00263647106476128,-0.0102056004106998,7.12245810063905E-06,-0.00403505377471447,1.97055578610161E-05
537,-0.00729064457118511,0.00161285907961428,-0.0095056239515543,6.94308073434513E-06,-0.00301242037676275,0.00141014042310417
538,-0.00833915919065475,0.00155320356134325,-0.00897334981709719,6.8321560320328E-06,-0.0025875037536025,0.00475301267579198
539,-0.00786207523196936,0.00320924888364971,-0.00769340014085174,6.78539208820439E-06,-0.00151022628415376,0.00892440602183342
540,-0.00676662381738424,0.00470864120870829,-0.00617815973237157,6.76450736136758E-06,4.04497113777325E-05,0.01119330432266
541,-0.00567287625744939,0.00484512280672789,-0.00497090723365545,6.71789985062787E-06,0.00123195839114487,0.00989219360053539
542,-0.00447154650464654,0.00405032560229301,-0.00472654541954398,6.60844352751155E-06,0.00139768456574529,0.00626251474022865
543,-0.00419421307742596,0.00199723476544023,-0.00656238431110978,6.43343446427025E-06,0.00019350387447048,0.00199360959231853
544,-0.00491572637110949,-0.00107452727388591,-0.00973065756261349,6.22595189270214E-06,-0.00114215991925448,-0.0016618495574221
545,-0.00461356295272708,-0.00288400589488447,-0.0114710293710232,6.03695298195817E-06,-0.000483020878164098,-0.00316076283343136
546,-0.00301974290050566,-0.00261409021914005,-0.011014542542398,5.90779973208555E-06,0.00135039014276117,-0.00310158729553223
547,-0.00130706978961825,-0.00123859872110188,-0.00921424012631178,5.84804092795821E-06,0.002284477930516,-0.00292618735693395
548,0.000258426036452875,0.000332008086843416,-0.00631583714857697,5.83039263801766E-06,0.00252534332685173,-0.00258760387077928
549,0.00148146296851337,0.000815537467133254,-0.00303700217045844,5.80556388740661E-06,0.00279190856963396,-0.00275835255160928
550,0.00236226082779467,-0.000182739982847124,-0.000181055453140289,5.72886438021669E-06,0.00309438607655466,-0.00401392159983516
551,0.00304348510690033,-0.00191208079922944,0.00188861170317978,5.58422379981494E-06,0.00329649448394775,-0.00573760224506259
552,0.00295865815132856,-0.00383837334811687,0.00219647074118257,5.39270013177884E-06,0.00305455387569964,-0.00820931512862444
553,0.00146037607919425,-0.00586289539933205,-0.000306891015497968,5.20097182743484E-06,0.00159640237689018,-0.0131490612402558
554,-0.000189934784430079,-0.00773569056764245,-0.00434356881305575,5.05610159962089E-06,-0.000757903151679784,-0.0214391350746155
555,0.000195173473912291,-0.00893631856888533,-0.00677441246807575,4.98022382089403E-06,-0.00191042851656675,-0.0312252566218376
556,0.00213622953742743,-0.00929018948227167,-0.00652075279504061,4.95878157380503E-06,-0.00111172499600798,-0.0385742522776127
557,0.00348749826662242,-0.00871225818991661,-0.00529622519388795,4.94856840305147E-06,-0.000201392365852371,-0.0394914261996746
558,0.00343693629838526,-0.00767799559980631,-0.00473689567297697,4.9011318878911E-06,-0.000719828065484762,-0.03412164747715
559,0.00269781751558185,-0.00728330248966813,-0.00475599337369204,4.78885976917809E-06,-0.00200934428721666,-0.0275902599096298
560,0.00251492974348366,-0.00737689947709441,-0.00455874344334006,4.61968647869071E-06,-0.00261214631609619,-0.0235097166150808
561,0.00279511837288737,-0.00741240195930004,-0.0048519978299737,4.43259204985225E-06,-0.00261973752640188,-0.0214118771255016
562,0.00294491997919977,-0.00757915107533336,-0.00644720206037164,4.27643135481048E-06,-0.0026641390286386,-0.0207961462438107
563,0.00337453093379736,-0.00814526621252298,-0.00838630087673664,4.18360150433728E-06,-0.00215246551670134,-0.022755928337574
564,0.00437013665214181,-0.00881008803844452,-0.0094549311324954,4.15274689657963E-06,-0.000544972543139011,-0.026597460731864
565,0.00587108731269836,-0.00869210623204708,-0.00845839641988277,4.14974238083232E-06,0.00182503915857524,-0.0295597538352013
566,0.00696576898917556,-0.00822293478995562,-0.00654654391109943,4.12628378398949E-06,0.00319363782182336,-0.0316745080053806
567,0.00682889530435205,-0.00889899209141731,-0.00686743203550577,4.04596039516036E-06,0.00206646113656461,-0.035540871322155
568,0.00606550928205252,-0.0110379615798593,-0.00918705854564905,3.90372269976069E-06,-0.000629856309387833,-0.0417826399207115
569,0.00507638184353709,-0.0136275133118033,-0.0122503973543644,3.72833596884448E-06,-0.00376343098469079,-0.0479895584285259
570,0.00423369696363807,-0.0150831863284111,-0.0164493825286627,3.56663304046378E-06,-0.00701656145974994,-0.0514423549175262
571,0.00472613936290145,-0.0142224673181772,-0.020991038531065,3.4581948966661E-06,-0.010159813798964,-0.0523767322301865
572,0.00698061194270849,-0.0116486856713891,-0.0245815310627222,3.41414738613821E-06,-0.012878755107522,-0.0535852946341038
573,0.0102881249040365,-0.00854781176894903,-0.0272777304053307,3.41144141202676E-06,-0.0151590388268232,-0.0554743222892284
574,0.0130475778132677,-0.00545953074470162,-0.0305399261415005,3.40554925060133E-06,-0.0186218321323395,-0.0564213544130325
575,0.0137809365987778,-0.003107700496912,-0.0354582965373993,3.35458571498748E-06,-0.0247492287307978,-0.057480700314045
576,0.0134622603654861,-0.00199667038396001,-0.0408555418252945,3.24177790389513E-06,-0.0318345762789249,-0.0612498894333839
577,0.0138241816312075,-0.00215708697214723,-0.0452606528997421,3.08422636408068E-06,-0.0372709520161152,-0.0688760802149773
578,0.0141479708254337,-0.00376658607274294,-0.0493474826216698,2.92338108920376E-06,-0.0413260571658611,-0.0789377763867378
579,0.0134721649810672,-0.00639971764758229,-0.0537587329745293,2.80253107121098E-06,-0.045244362205267,-0.0880268737673759
580,0.0128576830029488,-0.00831044558435678,-0.0576372221112251,2.74353828899621E-06,-0.0489899478852749,-0.0926186144351959
581,0.0130803743377328,-0.00831177551299334,-0.060982707887888,2.73532168648671E-06,-0.052817814052105,-0.091939389705658
582,0.0135859111323953,-0.00723064038902521,-0.0646020248532295,2.74015883405809E-06,-0.0575151368975639,-0.0885680466890335
583,0.0140497433021665,-0.00649399124085903,-0.0685340911149979,2.71422595687909E-06,-0.0630919709801674,-0.0853242501616478
584,0.0148536656051874,-0.00664082122966647,-0.0725734531879425,2.63119136434398E-06,-0.0688701122999191,-0.0843602046370506
585,0.0155402682721615,-0.00755742192268372,-0.0770427063107491,2.49615322900354E-06,-0.0749148428440094,-0.0867978483438492
586,0.0154585484415293,-0.00842401571571827,-0.0815561711788177,2.3425413928635E-06,-0.0808836445212364,-0.0910982340574265
587,0.0150596732273698,-0.00843148585408926,-0.0850072354078293,2.21384493670485E-06,-0.0851712003350258,-0.0953201428055763
588,0.0147175984457135,-0.00790022406727076,-0.0872225537896156,2.14014880839386E-06,-0.0871225968003273,-0.0993748232722282
589,0.0145322280004621,-0.00759210390970111,-0.0883717909455299,2.12214604289329E-06,-0.0870682001113892,-0.103575751185417
590,0.0148250553756952,-0.00742528820410371,-0.0881712138652802,2.13111820812628E-06,-0.0852207839488983,-0.107137009501457
591,0.015329871326685,-0.00631656078621745,-0.0875654742121696,2.1247042241157E-06,-0.0833162739872932,-0.108070157468319
592,0.0149070033803582,-0.00426755612716079,-0.0889918133616447,2.06979757422232E-06,-0.0845665112137794,-0.10593669116497
593,0.0130069321021438,-0.00292812078259885,-0.093365341424942,1.96019095710653E-06,-0.0897004157304764,-0.103401012718678
594,0.0103172985836864,-0.00314732710830867,-0.099145345389843,1.81956158940011E-06,-0.0961058661341667,-0.103126749396324
595,0.00765664130449295,-0.00432615913450718,-0.103970594704151,1.68838118952408E-06,-0.10098098218441,-0.105444967746735
596,0.0052638896740973,-0.00588299194350839,-0.106056474149227,1.60198339926865E-06,-0.103611171245575,-0.108482502400875
597,0.00341022247448564,-0.00725949741899967,-0.104839101433754,1.57167596626095E-06,-0.104198388755322,-0.109475612640381
598,0.00252277590334415,-0.00785610266029835,-0.101391941308975,1.57899455643928E-06,-0.102598667144775,-0.107767581939697
599,0.00263830786570907,-0.0077263368293643,-0.098359651863575,1.58600676058995E-06,-0.099810816347599,-0.105395473539829
600,0.00329113006591797,-0.00715752923861146,-0.0971890166401863,1.55591953898693E-06,-0.0973593145608902,-0.103285357356071
601,0.00429582875221968,-0.00572443893179297,-0.0959936529397964,1.47279115481069E-06,-0.0945393294095993,-0.100313656032085
602,0.00588835868984461,-0.00291164242662489,-0.0927939265966415,1.34978495225369E-06,-0.0899650752544403,-0.0968597829341888
603,0.00713776610791683,0.000126986560644582,-0.0890994220972061,1.22169592486898E-06,-0.0851020738482475,-0.0955139324069023
604,0.00690404092893004,0.0017674476839602,-0.0873319134116173,1.12598240775696E-06,-0.0821703672409058,-0.0971259251236916
605,0.00580962188541889,0.00209918175823987,-0.0873100161552429,1.08264316622808E-06,-0.0812524035573006,-0.0988137796521187
606,0.00459137372672558,0.0012784416321665,-0.0876753777265549,1.08374911178544E-06,-0.0815778747200966,-0.0988094881176949
607,0.00313793495297432,-0.00137398601509631,-0.0873742327094078,1.09810491721873E-06,-0.0819413736462593,-0.0987994223833084
608,0.00139624171424657,-0.00546716991811991,-0.0856891497969627,1.08831477518834E-06,-0.0812646895647049,-0.0994729399681091
609,-4.51303531008307E-05,-0.00905297789722681,-0.0826112851500511,1.03091633718577E-06,-0.0792648494243622,-0.0988689437508583
610,-0.000596087542362511,-0.0107530625537038,-0.0788305997848511,9.28738700167742E-07,-0.0759577602148056,-0.0946354195475578
611,6.91862223902717E-05,-0.0104710692539811,-0.074424110352993,8.08978313671105E-07,-0.0712064430117607,-0.0861270129680634
612,0.00190864829346538,-0.0086729358881712,-0.0688864216208458,7.08243419467181E-07,-0.0648295134305954,-0.0759310871362686
613,0.00391353247687221,-0.00613142270594835,-0.0628899484872818,6.52788060051535E-07,-0.0579118058085442,-0.0671757683157921
614,0.00559046538546681,-0.00312679028138518,-0.0573145672678947,6.44607951016951E-07,-0.051532257348299,-0.0601291991770267
615,0.00748688634485006,3.93401160181384E-06,-0.0520926974713802,6.60757223158726E-07,-0.0449331067502499,-0.0545626617968082
616,0.00997452158480883,0.00271926308050752,-0.0471822880208492,6.66041330532607E-07,-0.037419505417347,-0.0508206449449062
617,0.0124021377414465,0.00443475460633636,-0.0433094128966331,6.32066019079502E-07,-0.0300426185131073,-0.0485287643969059
618,0.0142374690622091,0.00475119892507792,-0.0404493100941181,5.52330732261908E-07,-0.023571440950036,-0.0464334264397621
619,0.0159467756748199,0.00393615616485476,-0.0370696522295475,4.45342635657653E-07,-0.0171502996236086,-0.0434936061501503
620,0.0174149349331856,0.00219929800368845,-0.0324492081999779,3.4428231288075E-07,-0.0107407299801707,-0.0401553325355053
621,0.0173171833157539,-0.000627240689937025,-0.0280533935874701,2.78984458645937E-07,-0.0061315419152379,-0.0373354144394398
622,0.0146539183333516,-0.00477933045476675,-0.0255941785871983,2.600170603273E-07,-0.00389141659252346,-0.0353365764021873
623,0.0106256743893027,-0.00910129398107529,-0.0245400965213776,2.73352611657174E-07,-0.00154639023821801,-0.032692551612854
624,0.0079538244754076,-0.0110735716298223,-0.0226828828454018,2.88302999251755E-07,0.00346769625321031,-0.0267997365444899
625,0.0076440772973001,-0.0101007716730237,-0.0190534424036741,2.74237095254648E-07,0.00994117371737957,-0.0183276273310184
626,0.00791163556277752,-0.00809895060956478,-0.0150306914001703,2.16973219835381E-07,0.0140933180227876,-0.0112818367779255
627,0.00725354161113501,-0.00652349600568414,-0.0117444070056081,1.26072919215403E-07,0.0142944091930985,-0.00753426272422075
628,0.00635817972943187,-0.00523107778280973,-0.00836987234652042,2.92930781853329E-08,0.0125554436817765,-0.00526700168848038
629,0.0060822507366538,-0.00393184088170528,-0.00410588411614299,-4.26018509358528E-08,0.011562442407012,-0.00259151053614914
630,0.00611777929589152,-0.00305806333199143,0.000561451772227883,-7.23604003383116E-08,0.0120242116972804,0.00023952433548402
631,0.00618657656013966,-0.00279585178941488,0.00517037138342857,-6.52284128932479E-08,0.0133409788832068,0.00263132946565747
632,0.00658212322741747,-0.0030097751878202,0.00976095162332058,-4.57267113063153E-08,0.0154960956424475,0.00465199491009116
633,0.00670100236311555,-0.00459505431354046,0.0132851013913751,-4.41742535883805E-08,0.0182901713997126,0.00528254499658942
634,0.00649200612679124,-0.00733128329738975,0.0153748728334904,-8.03627173695531E-08,0.0216933730989695,0.00453706970438361
635,0.00783863943070173,-0.00835003145039082,0.0182630028575659,-1.53173886019431E-07,0.0269029680639505,0.00606966158375144
636,0.0107677867636085,-0.00614813435822725,0.022953886538744,-2.41582711169031E-07,0.0332199819386005,0.0127376047894359
637,0.0132368998602033,-0.00220295926555991,0.0277061723172665,-3.16290254431806E-07,0.0380926243960857,0.02295265160501
638,0.0139772482216358,0.000988875399343669,0.0305384825915098,-3.55556181830252E-07,0.0404608771204948,0.0325390696525574
639,0.0128469048067927,0.00178431824315339,0.0313225612044334,-3.56677901436342E-07,0.0411704853177071,0.0383746288716793
640,0.0113712707534432,0.00143705436494201,0.0321066118776798,-3.37060896526964E-07,0.0420007146894932,0.0411092154681683
641,0.0114455064758658,0.00235426938161254,0.0345720089972019,-3.24514928706776E-07,0.0443192049860954,0.0439362265169621
642,0.012989092618227,0.00448072841390967,0.0385891199111938,-3.4218112432427E-07,0.0483057387173176,0.0483701303601265
643,0.0148487696424127,0.00611883774399757,0.0432218834757805,-3.96260418256134E-07,0.0534338355064392,0.0526959821581841
644,0.015979690477252,0.00594575237482786,0.0470166765153408,-4.73048743288018E-07,0.0583334043622017,0.0545183047652245
645,0.0160690434277058,0.00425990438088775,0.0489490814507008,-5.46674016277393E-07,0.0615247264504433,0.053936380892992
646,0.0156544521450996,0.00261690537445247,0.04902658239007,-5.9317710565665E-07,0.062526524066925,0.0529373846948147
647,0.0147864269092679,0.00139900867361575,0.0473571345210075,-6.03277044319839E-07,0.061383068561554,0.0519320480525494
648,0.0136899836361408,0.000828234013170004,0.04494259506464,-5.87023237130779E-07,0.0589944608509541,0.0507989339530468
649,0.0131736341863871,0.00179419689811766,0.0434867292642593,-5.68019629554328E-07,0.0567818135023117,0.0505485162138939
650,0.0130679672583938,0.00390836503356695,0.0433215908706188,-5.7052892543652E-07,0.055392324924469,0.0513283088803291
651,0.0125200189650059,0.00599902495741844,0.0438109412789345,-6.06502624123095E-07,0.0549053549766541,0.0528184697031975
652,0.011523368768394,0.00759576400741935,0.0449298471212387,-6.69468079195212E-07,0.0552604608237743,0.0557601861655712
653,0.0109274359419942,0.00899217277765274,0.0466634072363377,-7.38390951937618E-07,0.056344348937273,0.0605816021561623
654,0.0111986519768834,0.0101982289925218,0.0482322163879871,-7.89230512054928E-07,0.0581066496670246,0.0656188130378723
655,0.0120834792032838,0.010313518345356,0.0494410134851933,-8.0784485589902E-07,0.0606600753962994,0.0682841837406158
656,0.0127613637596369,0.00851422548294067,0.0506111942231655,-7.97322456946858E-07,0.0633577555418015,0.0676703453063965
657,0.0123261529952288,0.00562221184372902,0.0511846877634525,-7.759490472381E-07,0.0643051415681839,0.0655535981059074
658,0.0104176476597786,0.00313994754105806,0.0505359955132008,-7.67106200783019E-07,0.0625668540596962,0.0642217770218849
659,0.00745805678889155,0.00128724041860551,0.0493424497544765,-7.86679379416455E-07,0.0597550570964813,0.0642776116728783
660,0.00474690832197666,0.000133565394207835,0.0491437613964081,-8.34756463063968E-07,0.0583127625286579,0.0660314410924912
661,0.00321658235043287,-0.000138505172799341,0.0504003204405308,-8.95949256118911E-07,0.0591416619718075,0.0688839629292488
662,0.00235255295410752,-0.000643100123852491,0.0517544075846672,-9.47967180309206E-07,0.0613704174757004,0.0697860270738602
663,0.00098404660820961,-0.0023684436455369,0.0515874251723289,-9.7367342277721E-07,0.0633577033877373,0.0669948011636734
664,-0.000872799486387521,-0.00422617746517062,0.0499897226691246,-9.70106839304208E-07,0.0646204352378845,0.0633122771978378
665,-0.00198699813336134,-0.00485968729481101,0.0483287535607815,-9.49726711496623E-07,0.0662008300423622,0.0627684965729713
666,-0.00208257278427482,-0.00461188470944762,0.0469436794519424,-9.33401793190569E-07,0.0679063051939011,0.0657059848308563
667,-0.00156185310333967,-0.00383993377909064,0.0459949374198914,-9.39082326567586E-07,0.0685914307832718,0.0697780102491379
668,2.34370399994077E-05,-0.002166602993384,0.0468021035194397,-9.7230372375634E-07,0.0686314180493355,0.0732284933328629
669,0.0023786888923496,-0.000363652681699023,0.0491013191640377,-1.02354226783064E-06,0.0685544162988663,0.0745153650641441
670,0.00391516555100679,-0.000208756406209432,0.0508369095623493,-1.07366622614791E-06,0.0679917857050896,0.0720560550689697
671,0.00416849134489894,-0.00214941380545497,0.0513656511902809,-1.1043736094507E-06,0.0671320930123329,0.0664484202861786
672,0.00333697372116148,-0.00489783752709627,0.0510179400444031,-1.10792768737156E-06,0.0662004202604294,0.0606412850320339
673,0.00179839367046952,-0.00669940188527107,0.05025589838624,-1.0910159744526E-06,0.0656486451625824,0.0573945455253124
674,0.000894906523171812,-0.00672513525933027,0.0496870055794716,-1.07082462363906E-06,0.0664837285876274,0.0569926239550114
675,0.00121518282685429,-0.0057380716316402,0.0490577220916748,-1.06561776647141E-06,0.0684215277433395,0.0570053681731224
676,0.00183526298496872,-0.00504457717761397,0.0483402907848358,-1.08498454665096E-06,0.0703280493617058,0.0553429834544659
677,0.00240020174533129,-0.00472415052354336,0.0489406920969486,-1.12495979465166E-06,0.0720240548253059,0.0532429553568363
678,0.00385614787228405,-0.00380812725052238,0.0520680844783783,-1.17049194159335E-06,0.0739448070526123,0.0535278096795082
679,0.0054437629878521,-0.00314983376301825,0.0559703148901463,-1.20375034384779E-06,0.0751491710543633,0.0557851977646351
680,0.00482084229588509,-0.00457606231793761,0.0574623830616474,-1.21369430416962E-06,0.0738470926880836,0.0568551979959011
681,0.00178919045720249,-0.00732232304289937,0.0560337044298649,-1.20177116968989E-06,0.0700580105185509,0.0560915619134903
682,-0.00169178319629282,-0.00908873416483402,0.0535259582102299,-1.18081391065061E-06,0.065628357231617,0.0552569553256035
683,-0.00385448313318193,-0.00872011948376894,0.0517576932907104,-1.16790749871143E-06,0.0624578408896923,0.0555068179965019
684,-0.00457445485517383,-0.00692181149497628,0.0512940548360348,-1.17518595743604E-06,0.0613305829465389,0.0568201541900635
685,-0.00463462620973587,-0.00482704769819975,0.0518448352813721,-1.20351558052789E-06,0.0620382092893124,0.0581268481910229
686,-0.0043173017911613,-0.00292292283847928,0.0530568808317184,-1.24234782106214E-06,0.063958540558815,0.0576783120632172
687,-0.00368732749484479,-0.00158593710511923,0.0540568716824055,-1.27564931062807E-06,0.0660623759031296,0.0545913428068161
688,-0.00279812701046467,-0.000725121528375894,0.0539718382060528,-1.29058275888383E-06,0.0672244429588318,0.050666730850935
689,-0.0017602943116799,-0.000160704366862774,0.0529003478586674,-1.28424505874136E-06,0.0668862462043762,0.0487591847777367
690,-0.000888084236066788,0.000102941899967846,0.0517094507813454,-1.26493057450716E-06,0.06540497392416,0.0494807437062263
691,-0.000453895714599639,0.000337890756782144,0.0508807711303234,-1.24740540741186E-06,0.0635643377900124,0.05078249797225
692,-6.63950049784034E-05,0.000763413612730801,0.0506084486842155,-1.24487701214093E-06,0.0621369853615761,0.0507200360298157
693,0.000770519895013422,0.000956934352871031,0.0509802177548409,-1.26202530736919E-06,0.0612119808793068,0.0493491254746914
694,0.000877625308930874,-0.000516855623573065,0.0507026128470898,-1.29276804727851E-06,0.0594242438673973,0.0467528402805328
695,-0.000268155738012865,-0.00350606767460704,0.0488248318433762,-1.32381069306575E-06,0.056341465562582,0.0431857518851757
696,-0.00133451505098492,-0.00544225657358766,0.0461481846868992,-1.34192225687002E-06,0.053220696747303,0.0406636036932468
697,-0.00250458833761513,-0.00556921167299151,0.0434233583509922,-1.34096057990973E-06,0.0506593957543373,0.0399784296751022
698,-0.00438899407163262,-0.00511802127584815,0.0414498373866081,-1.32492175453081E-06,0.0492563433945179,0.0398966930806637
699,-0.00614750478416681,-0.00454595545306802,0.0408865548670292,-1.30551438815019E-06,0.0494204834103584,0.0397646278142929
700,-0.00708911707624793,-0.00374512700363994,0.040952805429697,-1.29571401430439E-06,0.0500273331999779,0.0394896529614925
701,-0.00721467286348343,-0.00294466177001596,0.0407393164932728,-1.30284263377689E-06,0.0500270649790764,0.0387605689466
702,-0.00710289739072323,-0.0025549263227731,0.0404679700732231,-1.32486275106203E-06,0.0497650653123856,0.0380896143615246
703,-0.00712402816861868,-0.00224274350330234,0.0411834418773651,-1.35175253035413E-06,0.0503680557012558,0.0396561063826084
704,-0.00683746766299009,-0.00167864537797868,0.0434785857796669,-1.37107303999073E-06,0.0520257502794266,0.0442132391035557
705,-0.0060178991407156,-0.00140813726466149,0.0466086454689503,-1.37464064664528E-06,0.0534506291151047,0.0487914383411407
706,-0.00499507645145059,-0.00157958036288619,0.0496235564351082,-1.36273069983872E-06,0.0538815371692181,0.0504221618175507
707,-0.00394311733543873,-0.00158315047156066,0.0522936210036278,-1.34366121073981E-06,0.0541342385113239,0.0489778257906437
708,-0.00310638593509793,-0.00167510006576777,0.0541718006134033,-1.32912816752651E-06,0.0543462559580803,0.0452366173267365
709,-0.0030962722375989,-0.00302094966173172,0.0543731898069382,-1.32790319185006E-06,0.0531971342861652,0.0399498827755451
710,-0.00344366952776909,-0.00495672645047307,0.0535332001745701,-1.34128754325502E-06,0.0508862175047398,0.0356218032538891
711,-0.00256821722723544,-0.00510104931890965,0.0537494979798794,-1.36267419748037E-06,0.0494732260704041,0.0354561135172844
712,-0.000250316865276545,-0.0026256232522428,0.0555274374783039,-1.38131144922227E-06,0.0499931983649731,0.0393583253026009
713,0.0018382640555501,0.000903768406715244,0.0571780167520046,-1.38813300054608E-06,0.0513516813516617,0.0438982546329498
714,0.00251805176958442,0.00353078241460025,0.0580334290862083,-1.38049881570623E-06,0.0522275194525719,0.0465812645852566
715,0.00193871464580297,0.00397667847573757,0.0586418136954308,-1.3633725757245E-06,0.0523112677037716,0.0469923429191113
716,0.000850423704832792,0.00216955854557455,0.0590144395828247,-1.34643687488278E-06,0.0520811192691326,0.0456152930855751
717,0.000393394642742351,-0.000145081445225514,0.0594825111329556,-1.33881337660569E-06,0.0526058003306389,0.0440477877855301
718,0.000648331653792411,-0.00179305905476213,0.0598993860185146,-1.34426534259546E-06,0.0537558943033218,0.0431296825408936
719,0.000286803813651204,-0.00348956626839936,0.058956291526556,-1.35940183554339E-06,0.0538848824799061,0.0424456186592579
720,-0.00048515954404138,-0.00508212484419346,0.0568433813750744,-1.37572646963235E-06,0.0527970232069492,0.0428817793726921
721,0.000129804408061318,-0.00530858431011438,0.0555192269384861,-1.38430823426461E-06,0.0519617907702923,0.0448213182389736
722,0.00200767465867102,-0.00463791377842426,0.0553453229367733,-1.38051279918727E-06,0.0514991283416748,0.0458443611860275
723,0.00366797228343785,-0.00456743221729994,0.0556032918393612,-1.36629125790932E-06,0.051169365644455,0.0440379604697227
724,0.00436649424955249,-0.00553489755839109,0.0562020875513554,-1.34890967729007E-06,0.0514518618583679,0.0397390797734261
725,0.00437528220936656,-0.00664601381868124,0.0565093830227852,-1.33692242343386E-06,0.051723800599575,0.0346193090081215
726,0.00468304846435785,-0.00650248862802982,0.0556048192083836,-1.33561741222366E-06,0.0510831288993359,0.0308577753603458
727,0.00522933946922421,-0.00540643092244864,0.0527829304337502,-1.34435663312615E-06,0.0493904799222946,0.0285928826779127
728,0.0049874559044838,-0.00517196767032146,0.0485035143792629,-1.35714083171479E-06,0.0471197292208672,0.0261875912547112
729,0.00385907734744251,-0.00627615628764033,0.0448678657412529,-1.36597702748986E-06,0.0451906286180019,0.0232118684798479
730,0.00276522967033088,-0.00720722088590264,0.0430894270539284,-1.36516337079229E-06,0.0439338535070419,0.0208885818719864
731,0.00181760499253869,-0.00738081056624651,0.0420899130403996,-1.35420032165712E-06,0.042175330221653,0.0193845517933369
732,0.000387055479222909,-0.0076297908090055,0.0410258434712887,-1.33784874378762E-06,0.0391590408980846,0.0173549335449934
733,-0.000938972516451031,-0.00750945368781686,0.0405472330749035,-1.32341870084929E-06,0.0361303761601448,0.0149206090718508
734,-0.000931047310587019,-0.00596789643168449,0.040948111563921,-1.31682827486657E-06,0.0345281660556793,0.013914012350142
735,0.000304627930745482,-0.00363395013846457,0.041443757712841,-1.31955482629564E-06,0.0344941765069962,0.0153471808880568
736,0.000987639068625867,-0.0022762396838516,0.0407913140952587,-1.32804439090251E-06,0.0347933173179626,0.0183514021337032
737,0.00050798908341676,-0.00200727256014943,0.039017628878355,-1.33578703298554E-06,0.034758672118187,0.0219581890851259
738,-0.000587597896810621,-0.00230721011757851,0.036375816911459,-1.33685648506798E-06,0.0337375402450562,0.0249753165990114
739,-0.00212440569885075,-0.00334724807180464,0.0328863151371479,-1.3289916296344E-06,0.0308938287198544,0.0267415773123503
740,-0.00358456908725202,-0.00466817989945412,0.0297066364437342,-1.31462593344622E-06,0.0272452365607023,0.0285957045853138
741,-0.0054552941583097,-0.00638833409175277,0.0268167909234762,-1.29941224713548E-06,0.0235001351684332,0.0304461941123009
742,-0.00784811750054359,-0.00803586933761835,0.0240504685789347,-1.28912631680578E-06,0.0201801005750895,0.0308323390781879
743,-0.00951991509646177,-0.00797698553651571,0.0225264560431242,-1.28664362364361E-06,0.0182978492230177,0.0302129462361336
744,-0.0102495672181249,-0.0062129725702107,0.0226030610501766,-1.29056797959493E-06,0.017452185973525,0.0303779989480972
745,-0.0109197003766894,-0.0043248781003058,0.0234761629253626,-1.29615477817424E-06,0.0164651479572058,0.0316029638051987
746,-0.0123512726277113,-0.0035059975925833,0.0237141642719507,-1.2979403436475E-06,0.0147292576730251,0.0324229039251804
747,-0.014346725307405,-0.00398443406447768,0.0224199090152979,-1.29262616610504E-06,0.0126045104116201,0.0315347202122211
748,-0.0159285310655832,-0.00544419605284929,0.0200818143785,-1.28069791571761E-06,0.011148882098496,0.0279464237391949
749,-0.0167965088039637,-0.00692344224080443,0.0181157980114222,-1.26599672967131E-06,0.010803509503603,0.0225683730095625
750,-0.0172689631581306,-0.00730322953313589,0.0178052820265293,-1.25356245916919E-06,0.0111912935972214,0.0187658686190844
751,-0.0172497890889645,-0.00612562242895365,0.0193328764289618,-1.24695816339226E-06,0.0123214619234204,0.018705302849412
752,-0.0167648196220398,-0.00398539192974567,0.021567665040493,-1.24649181998393E-06,0.0138008985668421,0.0214891545474529
753,-0.0165270790457726,-0.00231527420692146,0.0228786487132311,-1.24921859878668E-06,0.0142904072999954,0.0242998283356428
754,-0.0168910548090935,-0.00212764460593462,0.0225720833986998,-1.25063058931119E-06,0.0134178623557091,0.0249202381819487
755,-0.0167880393564701,-0.00270277471281588,0.0217080377042294,-1.24707150916947E-06,0.0127223609015346,0.0241835061460733
756,-0.0153996478766203,-0.00256862095557153,0.0215990953147411,-1.23758741210622E-06,0.0132497837767005,0.0242024026811123
757,-0.0138094592839479,-0.00191544287372381,0.0218280348926783,-1.22428207305347E-06,0.0139282206073403,0.0245080422610044
758,-0.012831075116992,-0.00187060399912298,0.021585538983345,-1.21107257200492E-06,0.0139273637905717,0.0227119754999876
759,-0.0120288031175733,-0.00299543747678399,0.0208897087723017,-1.20157551464217E-06,0.0134932324290276,0.0172268766909838
760,-0.0113546112552285,-0.00535576650872827,0.0201258827000856,-1.19726075809012E-06,0.012562207877636,0.00875307526439428
761,-0.0106847072020173,-0.00763591472059488,0.0207210779190063,-1.19681226351531E-06,0.0115536851808429,0.00154520280193537
762,-0.00973816122859716,-0.00821744371205568,0.0233813654631376,-1.19695755529392E-06,0.0112276216968894,0.000254302634857595
763,-0.00904787611216307,-0.00707579450681806,0.0261651128530502,-1.19425612865598E-06,0.0111502073705196,0.00500977225601673
764,-0.0083779925480485,-0.004797731526196,0.0275282543152571,-1.1868731917275E-06,0.0112645924091339,0.012178379110992
765,-0.00675336318090558,-0.00211300351656973,0.0280412156134844,-1.17542879252142E-06,0.0124783497303724,0.0181268118321896
766,-0.0043700011447072,5.48827920283657E-05,0.0282619968056679,-1.16254227577883E-06,0.0146028026938438,0.0213820841163397
767,-0.00252755335532129,0.000614453805610538,0.0275629926472902,-1.1513825484144E-06,0.0161727778613567,0.0216266345232725
768,-0.00212762760929763,-0.000867109745740891,0.0256052017211914,-1.14402303097449E-06,0.015956737101078,0.0191651750355959
769,-0.00252466811798513,-0.00266320118680596,0.0238882973790169,-1.14045474219893E-06,0.014281589537859,0.0161316208541393
770,-0.00262283510528505,-0.00283876853063703,0.0238412749022245,-1.13871556095546E-06,0.0125211579725146,0.0144905056804419
771,-0.00205543753691018,-0.00173513346817344,0.0248817522078753,-1.13600299300742E-06,0.0117493532598019,0.0134696271270514
772,-0.000949490466155112,-0.00103628390934318,0.0258613713085651,-1.13014209546236E-06,0.0123662361875176,0.010948209092021
773,2.37826043303357E-05,-0.00171075842808932,0.026149082928896,-1.12064412860491E-06,0.0136517807841301,0.00644586654379964
774,-0.000360356381861493,-0.00373378861695528,0.0249359533190727,-1.10884877813078E-06,0.0140411918982863,0.00151230813935399
775,-0.00191220373380929,-0.00624679634347558,0.0222887545824051,-1.09713835172442E-06,0.013288963586092,-0.00189095071982592
776,-0.00306575000286102,-0.00775107135996223,0.0196464248001575,-1.0876808573812E-06,0.0122707197442651,-0.00289317476563156
777,-0.00356677500531077,-0.00743114436045289,0.0177246276289225,-1.08136259768798E-06,0.010890276171267,-0.00228993850760162
778,-0.00365648977458477,-0.00549732148647308,0.0166680663824081,-1.07743085209222E-06,0.00910485908389091,-0.00113241944927722
779,-0.00297403708100319,-0.00276916101574898,0.0169198401272297,-1.07397397641762E-06,0.00781243247911334,0.000146966267493553
780,-0.00144734536297619,-0.000112303074274678,0.0187287218868732,-1.06894344753528E-06,0.00802918616682291,0.00120923051144928
781,0.000188355217687786,0.00185874931048602,0.0214636512100697,-1.0611738616717E-06,0.00964547973126173,0.00151995464693755
782,0.000332502735545859,0.00265420041978359,0.0231493655592203,-1.05089839053107E-06,0.0105483205989003,0.000280292646493763
783,-0.00149648240767419,0.00292820390313864,0.0224384646862745,-1.03954471342149E-06,0.00943038985133171,-0.0019938787445426
784,-0.00367825501598418,0.00381151703186333,0.0201582219451666,-1.02896115095064E-06,0.00765499798581004,-0.00232854695059359
785,-0.00462778564542532,0.0052093262784183,0.0182351395487785,-1.02049193628773E-06,0.00699982047080994,0.00199138117022812
786,-0.00477060582488775,0.00607570819556713,0.0171717312186956,-1.01435932720051E-06,0.00734728388488293,0.00967206154018641
787,-0.00538134016096592,0.00596398860216141,0.0157570131123066,-1.0096293863171E-06,0.00732020102441311,0.0170725099742413
788,-0.00618738401681185,0.00562862679362297,0.0140209244564176,-1.00473346265062E-06,0.00678306259214878,0.0219737235456705
789,-0.00661874748766422,0.0051683159545064,0.0127006759867072,-9.982596793634E-07,0.00598409678786993,0.0231716278940439
790,-0.00673214811831713,0.00462786993011832,0.0118222385644913,-9.89617205959803E-07,0.00432327343150973,0.0214320216327906
791,-0.00668906280770898,0.00452928990125656,0.0108246067538857,-9.79270225798246E-07,0.00105816568247974,0.018947197124362
792,-0.00682161236181855,0.00467205047607422,0.00922621786594391,-9.68459630712459E-07,-0.00346304941922426,0.0166645795106888
793,-0.00710146501660347,0.00484101288020611,0.00785817578434944,-9.58576492848806E-07,-0.00724483281373978,0.0150482570752501
794,-0.00702250609174371,0.00512708863243461,0.00773542234674096,-9.50500975704927E-07,-0.00864867679774761,0.0146467983722687
795,-0.00609567388892174,0.00598372798413038,0.00863113440573215,-9.44213411457895E-07,-0.00822803191840649,0.0155676649883389
796,-0.00495352223515511,0.00688624614849687,0.00933726038783789,-9.38844380016235E-07,-0.00790742412209511,0.0158949345350266
797,-0.00470761163160205,0.00657083932310343,0.00918571092188358,-9.33115700263443E-07,-0.00882830563932657,0.0133347986266017
798,-0.00541761936619878,0.00538201024755836,0.00826254393905401,-9.25953315800143E-07,-0.01114431489259,0.00879368744790554
799,-0.00620976928621531,0.00418225396424532,0.00673845037817955,-9.16983935894677E-07,-0.0138462241739035,0.00413657026365399
800,-0.0069145942106843,0.00232949992641807,0.00467051193118095,-9.06691923319158E-07,-0.0155989471822977,-0.00117748451884836
801,-0.00790596846491098,-0.000536539184395224,0.00236787484027445,-8.96174981335207E-07,-0.0162594802677631,-0.00782296806573868
802,-0.00887629669159651,-0.00309523963369429,0.000620088481809944,-8.86619432094449E-07,-0.0159317012876272,-0.0144404619932175
803,-0.00951091293245554,-0.00454513030126691,-0.000135380963911302,-8.7874099108376E-07,-0.0145519068464637,-0.0194441489875317
804,-0.0092665608972311,-0.0049637290649116,1.9903198335669E-05,-8.72449618327664E-07,-0.0123029351234436,-0.021533815190196
805,-0.00816946197301149,-0.00494526419788599,0.000295931909931824,-8.66893742568209E-07,-0.0101188160479069,-0.0203002244234085
806,-0.00723223621025682,-0.00519329914823174,0.000152376655023545,-8.60865156937507E-07,-0.00935395807027817,-0.0162168182432652
807,-0.00737808039411902,-0.00552154332399368,-0.000431601394666359,-8.53376263876271E-07,-0.010840286500752,-0.00998205877840519
808,-0.00920072663575411,-0.0056873275898397,-0.00198726379312575,-8.44140117806091E-07,-0.0144373560324311,-0.00368931097909808
809,-0.0120930010452867,-0.00576598709449172,-0.00477285031229258,-8.33721060189418E-07,-0.0188985485583544,-0.000211684789974242
810,-0.0148888006806374,-0.00576874148100615,-0.00829218793660402,-8.23275684069813E-07,-0.0228246413171291,-0.00121954618953168
811,-0.0170671697705984,-0.00591647811233997,-0.0112745901569724,-8.13998155990703E-07,-0.0252081695944071,-0.00656142784282565
812,-0.0176256988197565,-0.00634518312290311,-0.0116075519472361,-8.06532000297011E-07,-0.0246530119329691,-0.0143855884671211
813,-0.0158442314714193,-0.00657388288527727,-0.00891701970249414,-8.00636826170376E-07,-0.0210140086710453,-0.0211693327873945
814,-0.0132469357922673,-0.00630141980946064,-0.00591871095821261,-7.95284165633348E-07,-0.0170931257307529,-0.0237142872065306
815,-0.0117382667958736,-0.00601064274087548,-0.00517296185716987,-7.89151442859293E-07,-0.0155585622414947,-0.0222507417201996
816,-0.0114223249256611,-0.00578525243327022,-0.00672765262424946,-7.81280334649637E-07,-0.0164347570389509,-0.0190120283514261
817,-0.0116624310612679,-0.00479737436398864,-0.00889187958091497,-7.71574264035735E-07,-0.0184324886649847,-0.0144792357459664
818,-0.0124571574851871,-0.00307085434906185,-0.0105131529271603,-7.60875650485104E-07,-0.0210773441940546,-0.00876714382320642
819,-0.0134097691625357,-0.00155885121785104,-0.0116138365119696,-7.50566528040508E-07,-0.0241128113120794,-0.00437234155833721
820,-0.0134094674140215,-0.00064708519494161,-0.0122864488512278,-7.41877840937377E-07,-0.026100892573595,-0.00408251769840717
821,-0.0123392092064023,-0.000395257287891582,-0.0128907784819603,-7.35251205696841E-07,-0.0262744650244713,-0.00749555742368102
822,-0.0105615137144923,-0.000493771280162036,-0.0132905514910817,-7.30085560007865E-07,-0.0248051546514034,-0.0110282246023417
823,-0.00823164731264114,-0.000158267968799919,-0.0128306606784463,-7.25015297575737E-07,-0.0219789184629917,-0.0118269296362996
824,-0.00629814201965928,0.000445993413450196,-0.0124150114133954,-7.18595742910111E-07,-0.0192621238529682,-0.0109073286876082
825,-0.0054347119294107,0.000332516268827021,-0.0129733886569738,-7.10053484453965E-07,-0.0177909750491381,-0.0107575533911586
826,-0.00464627472683787,-0.000504502444528043,-0.0134118720889091,-6.99712188634294E-07,-0.0165493004024029,-0.0117846252396703
827,-0.00314651615917683,-0.00153473985847086,-0.0131898857653141,-6.88857198838377E-07,-0.0145529471337795,-0.0128227733075619
828,-0.00189474679064006,-0.0027016750536859,-0.0133806820958853,-6.79090874200483E-07,-0.0126158399507403,-0.0130161149427295
829,-0.00179391668643802,-0.0040557598695159,-0.0143118230625987,-6.71500174576067E-07,-0.0117960320785642,-0.013515560887754
830,-0.00337072112597525,-0.00592965958639979,-0.0161564946174622,-6.66070036459132E-07,-0.0132403112947941,-0.0166153442114592
831,-0.00619331654161215,-0.00763402646407485,-0.0187062993645668,-6.61660692458099E-07,-0.017066603526473,-0.0211602784693241
832,-0.00805958174169064,-0.00758333085104823,-0.020170871168375,-6.56578890811943E-07,-0.0208395272493362,-0.0236030351370573
833,-0.00834777392446995,-0.00634813169017434,-0.0199374575167894,-6.49459195756208E-07,-0.0230131093412638,-0.0232755783945322
834,-0.00769182574003935,-0.0051172636449337,-0.0184871256351471,-6.39995846540842E-07,-0.0238067321479321,-0.0209385901689529
835,-0.00622467789798975,-0.00384158827364445,-0.0162630472332239,-6.2913215970184E-07,-0.0238058865070343,-0.017219016328454
836,-0.00491270143538713,-0.00279715424403548,-0.0145056815817952,-6.1859117295171E-07,-0.0238606166094542,-0.014149310067296
837,-0.00471596326678991,-0.0023312964476645,-0.0141952699050307,-6.09979224464041E-07,-0.0239813625812531,-0.0133338626474142
838,-0.00549009488895535,-0.00238307053223252,-0.0152187002822757,-6.03929379394685E-07,-0.0237908810377121,-0.0146485520526767
839,-0.00570648303255439,-0.00214156904257834,-0.016094146296382,-5.99742918439006E-07,-0.0228118933737278,-0.0167182609438896
840,-0.00474663218483329,-0.00134690513368696,-0.0157958809286356,-5.95732728925213E-07,-0.021293330937624,-0.0185305532068014
841,-0.00368023663759232,-0.000761601084377617,-0.0148898866027594,-5.90102331443632E-07,-0.0202015172690153,-0.0196899827569723
842,-0.00232954113744199,-0.000117207571747713,-0.0133747197687626,-5.81902042995353E-07,-0.0190611835569143,-0.0187733564525843
843,-0.00116750400047749,-7.33335691620596E-05,-0.012028438039124,-5.71552959627297E-07,-0.0181702971458435,-0.0165641587227583
844,-0.00133502774406224,-0.00153565709479153,-0.0124837774783373,-5.60648345526715E-07,-0.0187592823058367,-0.0156823862344027
845,-0.0013481656787917,-0.00259361183270812,-0.0136203477159142,-5.51124287540006E-07,-0.0194077268242836,-0.015843540430069
846,-9.21963728615083E-05,-0.00190178712364286,-0.0133914249017835,-5.44231113508431E-07,-0.0184962749481201,-0.0167759917676449
847,0.000383253413019702,-0.00128774461336434,-0.0126751800999045,-5.39853431291704E-07,-0.0178169757127762,-0.0208182707428932
848,-0.00136623508296907,-0.00197110394947231,-0.0131099466234446,-5.36549634944095E-07,-0.0193892698734999,-0.0278502404689789
849,-0.00384826096706092,-0.00267730210907757,-0.0141399772837758,-5.32302635747328E-07,-0.0219621770083904,-0.0338908396661282
850,-0.00567464856430888,-0.00255748862400651,-0.0149483634158969,-5.2559124696927E-07,-0.0236307270824909,-0.0358762070536613
851,-0.00719447247684002,-0.00175942911300808,-0.0160686112940311,-5.16212367074331E-07,-0.0243912097066641,-0.0331294387578964
852,-0.00927379261702299,-0.000411044107750058,-0.0185797084122896,-5.05408650042227E-07,-0.0257435739040375,-0.0263635870069265
853,-0.012039958499372,0.000875318597536534,-0.0228754412382841,-4.9522230938237E-07,-0.0289591737091541,-0.0181229803711176
854,-0.0138315632939339,0.00201325700618327,-0.0270577482879162,-4.87411227823031E-07,-0.0322957932949066,-0.0114629464223981
855,-0.012994272634387,0.0037428867071867,-0.0287283007055521,-4.8250331019517E-07,-0.0330635719001293,-0.00772960018366575
856,-0.01063924562186,0.0056642759591341,-0.0281684435904026,-4.79498623917607E-07,-0.031739741563797,-0.00635615177452564
857,-0.00865952204912901,0.00680288253352046,-0.0266405008733273,-4.76388891001989E-07,-0.0301923248916864,-0.00574093824252486
858,-0.00749338045716286,0.00699389260262251,-0.0247361492365599,-4.71223671638654E-07,-0.0293650310486555,-0.00530812004581094
859,-0.00720791378989816,0.00645599747076631,-0.0231566280126572,-4.63157959984528E-07,-0.0294133126735687,-0.00551261380314827
860,-0.00740145519375801,0.00599480047821999,-0.0221401825547218,-4.5291682226889E-07,-0.0298120565712452,-0.00559272244572639
861,-0.00735033024102449,0.00616866583004594,-0.0214089304208755,-4.42421224988721E-07,-0.0303737707436085,-0.00476771546527743
862,-0.00732212234288454,0.00584058510139585,-0.0209572110325098,-4.33767866070411E-07,-0.0309898462146521,-0.00439154589548707
863,-0.00765867531299591,0.00426146248355508,-0.0212755668908358,-4.28105153105207E-07,-0.0312161538749933,-0.00570863857865334
864,-0.00818929728120565,0.00227913307026029,-0.0230197049677372,-4.25008948923278E-07,-0.031509879976511,-0.00802518241107464
865,-0.00888636987656355,0.000556032988242805,-0.0256456509232521,-4.22698377633424E-07,-0.0323593355715275,-0.0101658627390862
866,-0.00980339758098125,-0.000912945833988488,-0.0276909861713648,-4.18982551764202E-07,-0.0330360271036625,-0.0118642160668969
867,-0.0113177169114351,-0.00276057561859488,-0.0290019996464252,-4.12434673080497E-07,-0.0332655645906925,-0.0144367991015315
868,-0.0135291507467628,-0.00502143427729607,-0.0301289632916451,-4.031635114643E-07,-0.033930841833353,-0.0183688383549452
869,-0.0156888253986835,-0.00655806111171842,-0.0307771544903517,-3.92764547996194E-07,-0.0355685018002987,-0.0217995177954435
870,-0.0175902768969536,-0.00735817803069949,-0.0310075096786022,-3.83471075338093E-07,-0.0379919335246086,-0.0240155402570963
871,-0.018699998036027,-0.00728219887241721,-0.0306483954191208,-3.76957927983312E-07,-0.0396066904067993,-0.0251987706869841
872,-0.018354332074523,-0.00566933443769813,-0.0293395631015301,-3.73438865608478E-07,-0.0389718301594257,-0.0245834104716778
873,-0.017847303301096,-0.00361853209324181,-0.0280164238065481,-3.71545468169643E-07,-0.0368930473923683,-0.021675132215023
874,-0.0181723423302174,-0.00195994041860104,-0.0271950922906399,-3.69055896953796E-07,-0.0346131734549999,-0.0163262896239758
875,-0.0190249588340521,-0.000998451490886509,-0.026948694139719,-3.6408584946912E-07,-0.0331635661423206,-0.0107534294947982
876,-0.0196804851293564,-0.00101000594440848,-0.0271610524505377,-3.5610219129012E-07,-0.0324780605733395,-0.00874945893883705
877,-0.0191244427114725,-0.00057339109480381,-0.0267277862876654,-3.46213710145094E-07,-0.0314597934484482,-0.0101749850437045
878,-0.0180773455649614,0.00101792451459914,-0.0257080569863319,-3.36579830673145E-07,-0.0307741910219193,-0.011745392344892
879,-0.0173872634768486,0.00297093228437006,-0.02465895190835,-3.2925257187344E-07,-0.0307801049202681,-0.0110492538660765
880,-0.0159901957958937,0.00501148961484432,-0.0231330525130033,-3.2507361424905E-07,-0.0302501246333122,-0.00810004025697708
881,-0.0141614601016045,0.00644071400165558,-0.0220677759498358,-3.23220120890255E-07,-0.0298726223409176,-0.00544389337301254
882,-0.0133809205144644,0.00662483042106032,-0.0226398203521967,-3.21644563427981E-07,-0.0308857094496489,-0.00475268438458443
883,-0.0133446967229247,0.00649007130414248,-0.0237134099006653,-3.18174102176272E-07,-0.0323475524783134,-0.00479025393724442
884,-0.013055581599474,0.00654947618022561,-0.023993356153369,-3.11678007847149E-07,-0.0330377072095871,-0.00511961616575718
885,-0.0129517437890172,0.00553925102576613,-0.0242402125149965,-3.02675999819257E-07,-0.0335119105875492,-0.00805338378995657
886,-0.0137320253998041,0.00314809288829565,-0.0250725448131561,-2.9305900284271E-07,-0.0346159636974335,-0.0145507687702775
887,-0.0149083090946078,0.000749982718843967,-0.0254547204822302,-2.8507284355328E-07,-0.0356652699410915,-0.0219229273498058
888,-0.0150875886902213,-0.000531040772330016,-0.024187134578824,-2.80111180472886E-07,-0.0349376946687698,-0.0265766978263855
889,-0.013224589638412,-0.000279267784208059,-0.0207949299365282,-2.7796735935226E-07,-0.0313499383628368,-0.0266893692314625
890,-0.0101653942838311,0.00123563315719366,-0.0165796242654324,-2.76946991561999E-07,-0.0259888023138046,-0.0225784126669168
891,-0.00795049499720335,0.00297732185572386,-0.013963975943625,-2.74780347808701E-07,-0.0206742696464062,-0.0165774207562208
892,-0.0074091930873692,0.00395254185423255,-0.0132982153445482,-2.69843098976708E-07,-0.0158069431781769,-0.0116432551294565
893,-0.00689134187996387,0.00485426094383001,-0.0120514230802655,-2.62027924691211E-07,-0.0104628959670663,-0.00817431509494781
894,-0.00523545732721686,0.00604982394725084,-0.0092327669262886,-2.52799083000355E-07,-0.00499396584928036,-0.00594898732379079
895,-0.00381339970044792,0.00605080742388964,-0.00724793551489711,-2.44402059479398E-07,-0.00178232998587191,-0.00643269810825586
896,-0.00351330451667309,0.00468066241592169,-0.00726851774379611,-2.38654763506929E-07,-0.00160912401042879,-0.00939638074487448
897,-0.00363789359107614,0.00298752984963357,-0.00818547885864973,-2.35971896245246E-07,-0.0028827078640461,-0.0131155019626021
898,-0.00334602408111095,0.00151607394218445,-0.00917849969118834,-2.35146288218857E-07,-0.00422334251925349,-0.0171426143497229
899,-0.00246450211852789,0.000530569988768548,-0.0103362230584025,-2.34002868637617E-07,-0.00552191445603967,-0.0213681422173977
900,-0.00152238504961133,2.87888396997005E-05,-0.0120847271755338,-2.30570904591332E-07,-0.007381996139884,-0.0246583484113216
901,-0.000245630944846198,0.000626985391136259,-0.0135668395087123,-2.2414214129185E-07,-0.00922136567533016,-0.0254691112786531
902,0.00170960696414113,0.00267486367374659,-0.0138031831011176,-2.15646380752332E-07,-0.00982045009732246,-0.0232882983982563
903,0.00366188213229179,0.00571172358468175,-0.0136606469750404,-2.071448506058E-07,-0.00937899760901928,-0.0181487016379833
904,0.00520767876878381,0.00945457071065903,-0.0143122160807252,-2.00717551024354E-07,-0.00900585576891899,-0.0110313212499022
905,0.00581297837197781,0.0128661738708615,-0.0160617623478174,-1.97345499941548E-07,-0.0100964037701488,-0.0054905847646296
906,0.00508918473497033,0.0144860809668899,-0.0180011801421642,-1.96389066786651E-07,-0.012686125934124,-0.00518781645223498
907,0.00371018890291452,0.0140195861458778,-0.0188884474337101,-1.95939932723377E-07,-0.015147821046412,-0.009843984618783
908,0.00216992874629796,0.0123916827142239,-0.0197182521224022,-1.93853111341014E-07,-0.0175601523369551,-0.0159355215728283
909,0.000927035696804523,0.0108827361837029,-0.0223734024912119,-1.8890067110533E-07,-0.0211317501962185,-0.0211657397449017
910,0.00103390275035053,0.0107097234576941,-0.0257508177310228,-1.81425917844535E-07,-0.0250961575657129,-0.0248670428991318
911,0.00211493344977498,0.01226756721735,-0.0278878789395094,-1.73149572901821E-07,-0.0290393568575382,-0.0265068598091602
912,0.00222773011773825,0.0145308915525675,-0.0298217441886663,-1.66236631571337E-07,-0.0342570692300797,-0.0267984606325626
913,0.000687102612573653,0.0157909374684095,-0.0336273871362209,-1.62130433523089E-07,-0.0404963977634907,-0.027884429320693
914,-0.0010827750666067,0.0153649030253291,-0.0392185226082802,-1.60782036573437E-07,-0.0456431917846203,-0.0312353558838367
915,-0.00139090756420046,0.014255871064961,-0.0447578690946102,-1.60686695949153E-07,-0.0485050678253174,-0.0360670238733292
916,0.000367023225408047,0.0132789127528667,-0.0487335994839668,-1.59702437940723E-07,-0.0498560555279255,-0.0413735471665859
917,0.00358632719144225,0.0120332399383187,-0.0510489828884602,-1.56205146595312E-07,-0.0511055327951908,-0.0481165498495102
918,0.00656778458505869,0.00989977084100246,-0.0535327419638634,-1.49956917994132E-07,-0.0532373152673244,-0.0572526380419731
919,0.0078814560547471,0.00672493828460574,-0.0582013763487339,-1.42222944532477E-07,-0.056478176265955,-0.0677899420261383
920,0.00760887702926993,0.00309479329735041,-0.0645863711833954,-1.35080099994411E-07,-0.0604926161468029,-0.0772602558135986
921,0.00620263256132603,0.000117616342322435,-0.0713542550802231,-1.30294878886161E-07,-0.0653933808207512,-0.0831175968050957
922,0.00400440813973546,-0.00124256697017699,-0.0776714310050011,-1.28377337205166E-07,-0.0712448582053185,-0.084350511431694
923,0.00204947660677135,-0.00041783569031395,-0.0824736133217812,-1.28317793723909E-07,-0.0773994848132133,-0.0819399654865265
924,0.00125529651995748,0.00209595006890595,-0.0857911854982376,-1.28142247035612E-07,-0.0831311121582985,-0.0782515779137611
925,0.00178304221481085,0.00484296819195151,-0.0883857682347298,-1.25980690768301E-07,-0.0875656828284264,-0.0754136219620705
926,0.00351070240139961,0.00667584361508489,-0.0900437906384468,-1.21070002023771E-07,-0.0899710580706596,-0.0743115991353989
927,0.00561217684298754,0.00684656854718924,-0.091002494096756,-1.14153280605933E-07,-0.0907852947711945,-0.0749743357300758
928,0.00634102197363973,0.00506906257942319,-0.0929438099265099,-1.07066519206001E-07,-0.0916495844721794,-0.0773298069834709
929,0.0055774305947125,0.00290356809273362,-0.0959714949131012,-1.01742372748959E-07,-0.0932086035609245,-0.080199658870697
930,0.0052568749524653,0.00260221865028143,-0.097901925444603,-9.91716362364059E-08,-0.0942751988768578,-0.0812380909919739
931,0.00511464243754745,0.00351455970667303,-0.0986248254776001,-9.88807471458131E-08,-0.0953080430626869,-0.080726258456707
932,0.00351997767575085,0.00385563145391643,-0.100005686283112,-9.92008182265636E-08,-0.0979887023568153,-0.0809694677591324
933,0.00157348660286516,0.004306985065341,-0.102130725979805,-9.81756542728363E-08,-0.101322539150715,-0.0825133249163628
934,0.000604144472163171,0.00533156096935272,-0.104169972240925,-9.46145490843264E-08,-0.103736706078053,-0.0846858620643616
935,-0.000515372608788311,0.00535803893581033,-0.106390364468098,-8.87229703039338E-08,-0.106040000915527,-0.0870879366993904
936,-0.00240141293033957,0.00390288280323148,-0.108912266790867,-8.19769567783624E-08,-0.108667701482773,-0.0893887281417847
937,-0.00360470241867006,0.00248779077082872,-0.110822349786758,-7.63168372941436E-08,-0.110109314322472,-0.0908549278974533
938,-0.00319424411281943,0.00251404964365065,-0.111354969441891,-7.31007858689736E-08,-0.109587758779526,-0.09055395424366
939,-0.00200462690554559,0.00403485540300608,-0.11043494194746,-7.23826545367956E-08,-0.107866078615189,-0.0882426127791405
940,-0.00110631820280105,0.00569597026333213,-0.10832779109478,-7.28980680264613E-08,-0.105552688241005,-0.0848936289548874
941,-0.000273443467449397,0.00644526304677129,-0.104718007147312,-7.27581266346533E-08,-0.101945891976357,-0.0812972784042358
942,0.00174471654463559,0.00735465344041586,-0.0989286750555038,-7.04699729681124E-08,-0.0961679741740227,-0.0766172632575035
943,0.00420470582321286,0.008690414018929,-0.0928443744778633,-6.57326424402527E-08,-0.0903642848134041,-0.0714479833841324
944,0.00429973471909761,0.00827546510845423,-0.0901961773633957,-5.9583669553831E-08,-0.088111437857151,-0.0689351484179497
945,0.00193570938427001,0.00568190962076187,-0.0910997092723846,-5.38258397853042E-08,-0.0888501554727554,-0.069651298224926
946,-0.000568976334761828,0.00264211720786989,-0.09222511947155,-5.00506054379457E-08,-0.0892550125718117,-0.0712554380297661
947,-0.00111812655813992,0.00109474023338407,-0.0909490659832954,-4.87872924281874E-08,-0.0871410369873047,-0.0713516622781754
948,0.000665206753183156,0.00182094506453723,-0.0875972509384155,-4.92329519374834E-08,-0.0827266201376915,-0.0685220062732697
949,0.00268301763571799,0.00294012879021466,-0.0844769179821014,-4.97002439203698E-08,-0.078193373978138,-0.0642365291714668
950,0.00373568362556398,0.00270756892859936,-0.0819874778389931,-4.85336819622262E-08,-0.0744399949908257,-0.061654657125473
951,0.00419116811826825,0.00154077401384711,-0.0790553539991379,-4.49964794313473E-08,-0.0708091109991074,-0.0622143037617207
952,0.00384171237237751,0.000313514552544802,-0.0761992633342743,-3.96527504165078E-08,-0.0675333216786385,-0.0642651543021202
953,0.00260427547618747,-0.000348734698491171,-0.0743257775902748,-3.40470300841389E-08,-0.0651693865656853,-0.0634886845946312
954,0.00109595246613026,-0.000135588939883746,-0.0728179663419724,-2.98627433892307E-08,-0.062992051243782,-0.0572677366435528
955,-0.000216633823583834,0.000457631016615778,-0.0707176327705383,-2.80180039169409E-08,-0.0597712844610214,-0.0487523637712002
956,-0.000904070679098368,0.000647736596874893,-0.0678745880723,-2.81844467764358E-08,-0.0550255961716175,-0.0429413393139839
957,-0.000502981420140713,0.000297238177154213,-0.0647907257080078,-2.89809936049323E-08,-0.0495033413171768,-0.0409707315266132
