,AF3,AF4,Fp1,Fp2,AF7,AF8
0,0.0121335098519921,-0.00875012017786503,0.0209479182958603,-0.5,0.0369496457278728,0.00409341510385275
1,0.0117821712046862,-0.00945078115910292,0.0197362452745438,-0.5,0.0367242358624935,0.00116122723557055
2,0.0112864030525088,-0.00955668836832047,0.0185942556709051,-0.5,0.0367458984255791,-0.00200225738808513
3,0.0112148001790047,-0.00841665547341108,0.0177270285785198,-0.5,0.0373325608670712,-0.00506794825196266
4,0.0113559188321233,-0.00654733786359429,0.0166836809366941,-0.5,0.0375467874109745,-0.00749086821451783
5,0.011138784699142,-0.00505133857950568,0.015274291858077,-0.5,0.0366025157272816,-0.00869412906467915
6,0.0106370681896806,-0.00438755610957742,0.0136275766417384,-0.5,0.0347800441086292,-0.00832590088248253
7,0.0102138519287109,-0.0042753592133522,0.0118481758981943,-0.5,0.0328757092356682,-0.00626959651708603
8,0.00989025458693504,-0.00428043073043227,0.0102542145177722,-0.5,0.0314948745071888,-0.00363525305874646
9,0.00967775844037533,-0.00411822041496634,0.00916717108339071,-0.5,0.0308407228440046,-0.00203076913021505
10,0.00930502265691757,-0.00382442935369909,0.0081108259037137,-0.5,0.0303062684834003,-0.00186527729965746
11,0.00825760141015053,-0.00364696187898517,0.00645861076191068,-0.5,0.0288003459572792,-0.00247348006814718
12,0.00655191391706467,-0.00392946461215615,0.00434074457734823,-0.5,0.0262496657669544,-0.00309491297230124
13,0.00441378448158503,-0.00472658826038241,0.00200854288414121,-0.5,0.0233450289815664,-0.00353283970616758
14,0.00235680676996708,-0.00515216821804643,-0.000331726012518629,-0.5,0.0204495452344418,-0.00332758738659322
15,0.00126426899805665,-0.00433899369090796,-0.00212573516182601,-0.5,0.0178659241646528,-0.00175624247640371
16,0.00129118480253965,-0.00286274333484471,-0.00297196162864566,-0.5,0.0158574022352695,0.000508060853462666
17,0.001515495008789,-0.00185580237302929,-0.00335452449508011,-0.5,0.0138795245438814,0.00197963835671544
18,0.00126519019249827,-0.00147398223634809,-0.00368816708214581,-0.5,0.0115089593455195,0.00261372397653759
19,0.000914511329028755,-0.00112630671355873,-0.00370673136785626,-0.5,0.00932987779378891,0.00359888607636094
20,0.0009299794328399,-0.000259766937233508,-0.00360914599150419,-0.5,0.00781451910734177,0.00533069204539061
21,0.000945883337408304,0.000867534196004272,-0.00425375113263726,-0.5,0.00645816884934902,0.00644357688724995
22,0.000223311784793623,0.00111096701584756,-0.0065390644595027,-0.5,0.00412350334227085,0.00504984753206372
23,-0.000962266232818365,0.000197586748981848,-0.0100710075348616,-0.5,0.000918340403586626,0.00132603570818901
24,-0.00137229147367179,-0.000857701641507447,-0.012914665043354,-0.5,-0.00132815097458661,-0.00277327210642397
25,-0.000604859669692814,-0.00136321177706122,-0.0140850953757763,-0.5,-0.00180846860166639,-0.00657279137521982
26,0.000302980886772275,-0.00153289444278926,-0.0145765235647559,-0.5,-0.0016950995195657,-0.0109056839719415
27,0.00071099610067904,-0.00155084405560046,-0.015403208322823,-0.5,-0.00197449582628906,-0.0151622602716088
28,0.00110444985330105,-0.00120262079872191,-0.0164712890982628,-0.5,-0.00268885027617216,-0.0173537842929363
29,0.00148312095552683,-0.000723095727153122,-0.017458638176322,-0.5,-0.00378816178999841,-0.0165998227894306
30,0.00147967832162976,-0.000607852067332715,-0.0183249320834875,-0.5,-0.00519891502335668,-0.0136536490172148
31,0.001094687031582,-0.00101167988032103,-0.0190276559442282,-0.5,-0.00655610533431172,-0.0104930447414517
32,0.000462838273961097,-0.00165415881201625,-0.019377164542675,-0.5,-0.00742578972131014,-0.00837342161685228
33,-0.000191153914784081,-0.00202002422884107,-0.0193384028971195,-0.5,-0.00806356687098742,-0.00661732023581862
34,-0.00109281355980784,-0.00219635968096554,-0.0192586649209261,-0.5,-0.00938238482922316,-0.00459391437470913
35,-0.00250719534233212,-0.00249461177736521,-0.0193414706736803,-0.5,-0.0115135619416833,-0.00270053674466908
36,-0.00392860593274236,-0.00259448261931539,-0.0194301307201386,-0.5,-0.0135996527969837,-0.00165116996504366
37,-0.00486344192177057,-0.00208088220097125,-0.0197470132261515,-0.5,-0.0152855291962624,-0.00200048927217722
38,-0.00540833175182343,-0.00101335649378598,-0.0205621439963579,-0.5,-0.016682542860508,-0.00346482126042247
39,-0.00569413881748915,0.000388306740205735,-0.0212314985692501,-0.5,-0.0175333749502897,-0.0049027712084353
40,-0.00589397782459855,0.00160896230954677,-0.021154286339879,-0.021480567753315,-0.0177110396325588,-0.0056681465357542
41,-0.00644996063783765,0.00180218031164259,-0.0204785354435444,0.299997121095657,-0.0173957627266645,-0.00598128186538816
42,-0.00700382515788078,0.00138223962858319,-0.0190500505268574,0.464518457651138,-0.0165389012545347,-0.00535445334389806
43,-0.0070440242998302,0.00139511155430228,-0.017229188233614,0.5,-0.0154154226183891,-0.00334952143020928
44,-0.0072157378308475,0.00136234425008297,-0.0164467059075832,0.5,-0.014743410050869,-0.00165096553973854
45,-0.00727806985378265,0.00125671597197652,-0.0163591895252466,0.5,-0.0140610011294484,-0.00120906869415194
46,-0.00635586865246296,0.00194288708735257,-0.015693785622716,0.5,-0.0128170540556312,-0.000811341102235019
47,-0.0052793063223362,0.00256995228119195,-0.0149869285523891,0.5,-0.0120421452447772,-7.77608292992227E-05
48,-0.00463238777592778,0.00242768018506467,-0.0145926745608449,0.5,-0.0119409523904324,0.001162902219221
49,-0.00380676006898284,0.00244076829403639,-0.0140271112322807,0.5,-0.0115936584770679,0.0034839625004679
50,-0.00260425568558276,0.00346099119633436,-0.0130280088633299,0.5,-0.0107456436380744,0.0065903328359127
51,-0.00141672277823091,0.00543368607759476,-0.011707354336977,0.5,-0.00981599744409323,0.00985273160040379
52,-0.000375282164895907,0.00767368683591485,-0.0105189830064774,0.5,-0.00936380960047245,0.0128761008381844
53,0.00109055312350392,0.0097094839438796,-0.00927593000233173,0.5,-0.00921719335019588,0.0157362408936024
54,0.0026297876611352,0.011242545209825,-0.00785950291901827,0.5,-0.00908335763961077,0.0183783899992704
55,0.00309496815316379,0.0120334345847368,-0.00664721010252833,0.5,-0.00885901506990194,0.0200768373906612
56,0.00244782003574073,0.0121982917189598,-0.00531723769381642,0.5,-0.00797366630285978,0.0205255448818207
57,0.00146987696643919,0.0121717536821961,-0.00323301693424582,0.381988912820816,-0.00630527688190341,0.0202169548720121
58,0.000404771330067888,0.0118950149044394,-0.000789528421591967,0.103177614510059,-0.00500667234882712,0.0191123113036156
59,-0.00110610446427017,0.0107085276395082,0.00086823693709448,-0.0103681934997439,-0.00514158047735691,0.0170098412781954
60,-0.00274808472022414,0.00890800636261702,0.0015480435686186,0.00253537949174643,-0.00589792849496007,0.01493248809129
61,-0.00369397550821304,0.0077022397890687,0.00190181750804186,0.0683386400341988,-0.00584234436973929,0.014141658321023
62,-0.00366732012480497,0.00757638178765774,0.00219991919584572,0.126022815704346,-0.00483842985704541,0.0146267861127853
63,-0.00317396433092654,0.0077576944604516,0.00215163710527122,0.130389556288719,-0.00370852323248982,0.0151288565248251
64,-0.00275255041196942,0.00756100518628955,0.00156555429566652,0.0747580453753471,-0.00299215782433748,0.0147029981017113
65,-0.00191011431161314,0.00752499466761947,0.00111772038508207,-0.00749859726056457,-0.00206734985113144,0.0140063194558024
66,-5.67946372029837E-05,0.00816215388476849,0.0014445458073169,-0.101762861013412,-0.000177374691702425,0.0142671698704362
67,0.00207799021154642,0.00892225187271833,0.00224451930262148,-0.219797313213348,0.00221826904453337,0.0157311968505383
68,0.00361642078496516,0.00928285252302885,0.00348090147599578,-0.334214061498642,0.00440132850781083,0.0177030079066753
69,0.00484250579029322,0.00943798571825027,0.00545592932030559,-0.380581974983215,0.00636858493089676,0.01938989572227
70,0.00607353821396828,0.00955145061016083,0.00780963292345405,-0.355352461338043,0.00824934337288141,0.020133787766099
71,0.0069019878283143,0.00933350156992674,0.0101268822327256,-0.299851357936859,0.00979191344231367,0.0195627752691507
72,0.00625781994313002,0.00808521546423435,0.0114190625026822,-0.181260511279106,0.00956122484058142,0.0174867659807205
73,0.0034165729302913,0.00566649017855525,0.0102967452257872,0.0952604115009308,0.00641082087531686,0.0138775510713458
74,-0.000377430522348732,0.00307164550758898,0.00728889601305127,0.5,0.00207014032639563,0.00942448526620865
75,-0.00299571873620152,0.00121532310731709,0.00428068824112415,0.5,-0.000718694471288472,0.00494524231180549
76,-0.00354644772596657,0.000168335260241292,0.00241905660368502,0.5,-0.00104486953932792,0.000905988505110145
77,-0.00262351264245808,-0.000546896946616471,0.00178750022314489,0.5,0.000414680951507762,-0.00179232913069427
78,-0.00120698381215334,-0.00110756966751069,0.00214056391268969,0.5,0.00285184010863304,-0.00203315122053027
79,0.000592239841353148,-0.000842661364004016,0.0037121654022485,0.5,0.00613733427599072,0.000504241441376507
80,0.00327807338908315,0.000898844213224947,0.00665783369913697,0.5,0.0104558384045959,0.00479614455252886
81,0.00609294371679425,0.00327907945029438,0.0096765486523509,0.5,0.0147043755277991,0.00848389882594347
82,0.00784719455987215,0.00491179944947362,0.0112724034115672,0.5,0.0172575116157532,0.0102922320365906
83,0.00863571744412184,0.00543669331818819,0.0112168360501528,0.5,0.0181050412356853,0.0110565787181258
84,0.00896729528903961,0.00496029853820801,0.0100885136052966,0.5,0.0182824581861496,0.0108949430286884
85,0.0092920083552599,0.00357303582131863,0.00927301030606031,0.5,0.0187831427901983,0.0092207919806242
86,0.0102092986926436,0.00190444849431515,0.0099960109218955,0.5,0.02011763677001,0.00709350733086467
87,0.011905936524272,0.000980997807346284,0.0117953466251493,0.5,0.0218044128268957,0.00584701821208
88,0.0136892516165972,0.000762976473197341,0.0130574386566877,0.5,0.0226419251412153,0.00464922050014138
89,0.014757183380425,2.88198771158932E-05,0.0126101011410356,0.5,0.0219664797186852,0.00176290352828801
90,0.0148654142394662,-0.00218080449849367,0.0103376712650061,0.458272963762283,0.0200120788067579,-0.00337614095769823
91,0.0143594313412905,-0.00547085097059608,0.00704034371301532,0.364295780658722,0.0176510475575924,-0.00997969042509794
92,0.013993832282722,-0.00818120781332254,0.00426738057285547,0.361097604036331,0.0163502022624016,-0.0159348528832197
93,0.0139522440731525,-0.00915436819195747,0.00305884564295411,0.425806850194931,0.0165395010262728,-0.0190693624317646
94,0.0138170709833503,-0.00869874656200409,0.00289287604391575,0.49626961350441,0.0170626472681761,-0.019622566178441
95,0.013726650737226,-0.00754924491047859,0.0030098061542958,0.5,0.0173183307051659,-0.0198354981839657
96,0.0141329113394022,-0.00612652162089944,0.00367333716712892,0.5,0.0177962705492973,-0.0210621375590563
97,0.0146922497078776,-0.00479179341346025,0.0051728873513639,0.5,0.0184922926127911,-0.022752907127142
98,0.0150944124907255,-0.00339979096315801,0.00744237285107374,0.467449218034744,0.0191521141678095,-0.0232717469334602
99,0.0156767535954714,-0.00142461538780481,0.0103963138535619,0.281958699226379,0.0200445242226124,-0.0210956409573555
100,0.0163168292492628,0.000712553097400814,0.013153376057744,0.0209213122725487,0.0207116473466158,-0.0161612723022699
101,0.0167997032403946,0.0022746822796762,0.0148904919624329,-0.264184862375259,0.0204560868442059,-0.010421134531498
102,0.0167577527463436,0.00271844514645636,0.0156263839453459,-0.5,0.0195743292570114,-0.00720101082697511
103,0.015424613840878,0.00147086416836828,0.0152822956442833,-0.5,0.018228629603982,-0.00848081894218922
104,0.0127854598686099,-0.00127375044394284,0.0136621268466115,-0.5,0.0158394146710634,-0.0132729401811957
105,0.00970311742275953,-0.00440702307969332,0.0110745085403323,-0.5,0.0123952012509108,-0.019238218665123
106,0.00752255506813526,-0.00647613825276494,0.00827279407531023,-0.5,0.00882982928305864,-0.0242177695035934
107,0.00698138168081641,-0.00666636414825916,0.0057027405127883,-0.5,0.00576882995665073,-0.0271456483751535
108,0.00729071628302336,-0.00549269188195467,0.00318239745683968,-0.448213338851929,0.00309397536329925,-0.0282627753913403
109,0.00708435894921422,-0.00448957644402981,0.000489668920636177,-0.448699712753296,0.000607560912612826,-0.0287173371762037
110,0.00598625559359789,-0.00476000504568219,-0.00168671377468854,-0.469213247299194,-0.00121301924809814,-0.029631769284606
111,0.004713443107903,-0.00615516444668174,-0.00219281180761755,-0.442944794893265,-0.00157387624494731,-0.0310909505933523
112,0.00367796490900218,-0.00815986189991236,-0.00113359012175351,-0.344563335180283,-0.000709830375853926,-0.0326203927397728
113,0.00265102973207831,-0.010348348878324,0.000178733884240501,-0.192162916064262,0.000253466772846878,-0.0337849780917168
114,0.00164362706709653,-0.0121319238096476,0.00091038056416437,-0.0592119358479977,0.000799761619418859,-0.034045148640871
115,0.00104385812301189,-0.0125320116057992,0.00147551065310836,-0.0397349819540977,0.001348617952317,-0.0321643687784672
116,0.000970655237324536,-0.0109504824504256,0.00225046277046204,-0.152198493480682,0.00210375967435539,-0.0269648283720016
117,0.00095939205493778,-0.00838754791766405,0.00227515026926994,-0.322972267866135,0.00241387379355729,-0.0199598874896765
118,0.000254796876106411,-0.00634253304451704,0.00065485161030665,-0.454819113016129,0.00138508481904864,-0.0143033126369119
119,-0.00104296987410635,-0.00470765680074692,-0.00198513618670404,-0.483458459377289,-0.00109550799243152,-0.0105738183483481
120,-0.00242720101960003,-0.0030369192827493,-0.00501042464748025,-0.391964167356491,-0.0047647780738771,-0.00812118221074343
121,-0.00414044270291924,-0.00207181717269123,-0.00845490489155054,-0.195849299430847,-0.0094328485429287,-0.00766082014888525
122,-0.0057621537707746,-0.00182167370803654,-0.0114440880715847,0.0519467666745186,-0.0136673143133521,-0.00925428979098797
123,-0.00649493420496583,-0.00143265933729708,-0.0129028959199786,0.280995488166809,-0.0159377846866846,-0.0119352824985981
124,-0.00681287841871381,-0.0010820955503732,-0.0130828004330397,0.4684077501297,-0.0167269241064787,-0.0149907013401389
125,-0.00725983502343297,-0.000975406845100224,-0.012149203568697,0.5,-0.0167930517345667,-0.0173603054136038
126,-0.0073804329149425,-0.000210386235266924,-0.00961040891706944,0.5,-0.0158520713448524,-0.0173262190073729
127,-0.00707716774195433,0.00136835116427392,-0.00619639456272125,0.5,-0.0142151908949018,-0.0141039872542024
128,-0.00671707885339856,0.00278375810012221,-0.00341804954223335,0.5,-0.012603553943336,-0.00858268979936838
129,-0.00577252544462681,0.00387403136119246,-0.00151511968579143,0.5,-0.010697515681386,-0.00213439157232642
130,-0.00398242147639394,0.00498988991603255,8.90103474375792E-05,0.5,-0.0081084668636322,0.00411181384697557
131,-0.00203232909552753,0.00617118831723928,0.00178098841570318,0.5,-0.00517481658607721,0.00959495082497597
132,-0.000246375595452264,0.00762610789388418,0.0037428610958159,0.5,-0.00247066025622189,0.0143726095557213
133,0.00144938484299928,0.00918698497116566,0.00555679202079773,0.0375801138579845,-0.000232513586524874,0.0180163308978081
134,0.00288834609091282,0.0102169187739491,0.00666739419102669,-0.5,0.00188932893797755,0.0200199075043201
135,0.00339687895029783,0.010027083568275,0.00724331615492702,-0.5,0.00371328718028963,0.0208850167691708
136,0.00244879350066185,0.00800484325736761,0.00793219916522503,-0.5,0.0046036234125495,0.0212266221642494
137,0.000651956186629832,0.00483810575678945,0.00946449674665928,-0.5,0.00509693240746856,0.0214512646198273
138,-0.000907455338165164,0.00213857344351709,0.0119159398600459,-0.5,0.00603902665898204,0.0220500025898218
139,-0.0022896162699908,0.000483984389575198,0.0139277270063758,-0.5,0.00657723564654589,0.023045752197504
140,-0.00382270431146026,-2.57147639786126E-05,0.0141397211700678,-0.5,0.00562252523377538,0.0239251703023911
141,-0.00524772843346,0.000330457114614546,0.0121538611128926,-0.5,0.00315450364723802,0.023327898234129
142,-0.00653884606435895,0.000488763733301312,0.00828149914741516,-0.5,-0.00045469737960957,0.0198532752692699
143,-0.0068125850521028,0.000691565917804837,0.00475004501640797,-0.337270259857178,-0.00337000121362507,0.0147312507033348
144,-0.0050927521660924,0.0021073252428323,0.00391231290996075,0.134968176484108,-0.00356754474341869,0.0108194872736931
145,-0.00224271533079445,0.00465395161882043,0.00506774848327041,0.301575154066086,-0.00159595662262291,0.00955493375658989
146,0.000433674576925114,0.00753476517274976,0.00593133131042123,0.0958276465535164,0.000611968454904854,0.0113085126504302
147,0.00212038517929614,0.00979986879974604,0.00553821865469217,-0.3321453332901,0.00185308919753879,0.0157093293964863
148,0.002521394751966,0.010507745668292,0.00481900665909052,-0.5,0.00243343529291451,0.0208625160157681
149,0.00242366828024387,0.0100523354485631,0.00532091083005071,-0.5,0.00356822740286589,0.0251916199922562
150,0.00241341744549572,0.00937437918037176,0.00728401821106672,-0.5,0.00541199976578355,0.0284191239625216
151,0.00208593159914017,0.00876621063798666,0.00958707462996244,-0.5,0.00694655627012253,0.0305174719542265
152,0.00119078974239528,0.00883627682924271,0.0112339835613966,-0.5,0.00750900665298104,0.0318455584347248
153,9.85838050837629E-06,0.00988595187664032,0.0118043376132846,-0.5,0.00713578797876835,0.0326660946011543
154,-0.000914068368729204,0.0112712504342198,0.0114982267841697,-0.5,0.00611253082752228,0.0324673093855381
155,-0.0013391386019066,0.0123202297836542,0.0105098988860846,-0.5,0.00472500827163458,0.0306274611502886
156,-0.00113139429595321,0.0129144042730331,0.009098413400352,-0.5,0.00386006594635546,0.0273171383887529
157,-7.54057473386638E-05,0.0134010817855597,0.00803768169134855,-0.5,0.00441608252003789,0.0235415063798428
158,0.00112342834472656,0.0134630287066102,0.00728531647473574,-0.5,0.0056314030662179,0.0197668671607971
159,0.00160944927483797,0.0125224646180868,0.00657384656369686,-0.5,0.00640982529148459,0.0163289867341518
160,0.00133358698803931,0.0109370453283191,0.00649304408580065,-0.5,0.00676334043964744,0.0142436325550079
161,0.000406092673074454,0.00935477390885353,0.00710683409124613,-0.5,0.0066728531382978,0.0134127670899034
162,-0.000738000322598964,0.00811555050313473,0.00800512079149485,-0.5,0.00627750204876065,0.0128387687727809
163,-0.00124276429414749,0.0073902546428144,0.00953339785337448,-0.5,0.00640329299494624,0.0125649813562632
164,-0.00107256753835827,0.00691179186105728,0.0117673827335238,-0.5,0.00694453669711947,0.0136366374790668
165,-0.00113823800347745,0.00625163689255714,0.0135975312441587,-0.5,0.00673554604873061,0.0167983323335648
166,-0.00136062456294894,0.00593200512230396,0.014555205591023,-0.5,0.00575183657929301,0.021176740527153
167,-0.00102601596154273,0.00641783373430371,0.0150210540741682,-0.5,0.00466313073411584,0.0245565846562386
168,-0.000945272273384035,0.00679565081372857,0.0140959266573191,-0.5,0.00276352558284998,0.0252734869718552
169,-0.00194156053476036,0.00634044175967574,0.0108470125123858,-0.5,-0.000373670744011179,0.0230942387133837
170,-0.00305033707991242,0.00549779972061515,0.00653970334678888,-0.5,-0.00318413600325584,0.0187408812344074
171,-0.0036750144790858,0.00460076611489058,0.00264656450599432,-0.5,-0.00458259740844369,0.0132167842239141
172,-0.00438665691763163,0.0035672967787832,-0.000528527889400721,-0.5,-0.0051513803191483,0.00753588974475861
173,-0.00493753515183926,0.00274046300910413,-0.00216306420043111,-0.5,-0.00495095085352659,0.00298156798817217
174,-0.004767672624439,0.00264495960436761,-0.00157171580940485,-0.5,-0.00360852968879044,0.000832414836622775
175,-0.00434236088767648,0.00342086493037641,0.000182829142431729,-0.336321502923965,-0.00218128692358732,0.00176494102925062
176,-0.00385033409111202,0.00510398484766483,0.00181544630322605,-0.307341009378433,-0.00166837999131531,0.00541089242324233
177,-0.00328234187327325,0.00698287505656481,0.00249439966864884,-0.418239712715149,-0.0020595109090209,0.00921082217246294
178,-0.00317406770773232,0.00784401874989271,0.00141943688504398,-0.5,-0.00331666460260749,0.00963243935257196
179,-0.00325664132833481,0.00799592118710279,-0.000933246919885278,-0.5,-0.00487230345606804,0.00611706217750907
180,-0.00286801974289119,0.0082714231684804,-0.00323896715417504,-0.5,-0.00601645931601524,0.000934963638428599
181,-0.00191051862202585,0.00859409477561712,-0.00462746992707253,-0.5,-0.00643808860331774,-0.00325640337541699
182,-0.000762555166147649,0.00859204586595297,-0.0049431324005127,-0.5,-0.00639217393472791,-0.00446651829406619
183,-0.000117082949145697,0.00784700084477663,-0.0045838919468224,-0.5,-0.0065275295637548,-0.00311985542066395
184,-0.000101374120276887,0.00635464582592249,-0.00390220899134874,-0.5,-0.00691781891509891,-0.00111873249989003
185,-0.00035062522510998,0.00470904214307666,-0.00322443014010787,-0.5,-0.00750576611608267,0.00112031225580722
186,-0.00036890001501888,0.00364513345994055,-0.00267461850307882,-0.5,-0.00815392844378948,0.00402029557153583
187,0.000439432711573318,0.00360888405703008,-0.00205139839090407,-0.5,-0.00834676250815392,0.00704949768260121
188,0.00157248985487968,0.00400379439815879,-0.00197201548144221,-0.5,-0.00854953844100237,0.00868961494415998
189,0.00186355737969279,0.00381748541258276,-0.00348969525657594,-0.5,-0.00985377375036478,0.00778924161568284
190,0.00162652565632015,0.00329679623246193,-0.00600133277475834,-0.5,-0.0117978285998106,0.00500319991260767
191,0.00160379440058023,0.00297781080007553,-0.00798804685473442,-0.5,-0.0130180511623621,0.00154703564476222
192,0.00117320998106152,0.00238275015726686,-0.00920288544148207,-0.5,-0.0136806238442659,-0.00219542533159256
193,-0.00030429067555815,0.00106677552685142,-0.0102293025702238,-0.5,-0.0150133809074759,-0.00597198586910963
194,-0.00297308992594481,-0.00103379564825445,-0.0117819812148809,-0.5,-0.0176839176565409,-0.00942345801740885
195,-0.00677610747516155,-0.00375596107915044,-0.0144232781603932,-0.5,-0.0215172432363033,-0.0119358329102397
196,-0.0103380242362618,-0.00612057093530893,-0.0174230299890041,-0.5,-0.0250465907156467,-0.0124018592759967
197,-0.0122058941051364,-0.0073461290448904,-0.0195621829479933,-0.5,-0.0268244091421366,-0.0111550483852625
198,-0.0125704659149051,-0.00785181205719709,-0.0204957090318203,0.371351301670074,-0.0269026421010494,-0.0103172101080418
199,-0.012179234996438,-0.00826075952500105,-0.0201951880007982,0.5,-0.0256913937628269,-0.010822469368577
200,-0.0110810473561287,-0.00848750583827496,-0.0184271223843098,0.5,-0.0230837222188711,-0.0115076452493668
201,-0.00851005129516125,-0.0075946026481688,-0.0150930033996701,0.5,-0.0189400911331177,-0.0106097236275673
202,-0.00469006318598986,-0.00511040491983294,-0.0111137935891747,0.5,-0.0142401373013854,-0.00766756758093834
203,-0.00105599511880428,-0.00215567764826119,-0.00754508376121521,0.5,-0.00995643623173237,-0.00400226283818483
204,0.00184821675065905,5.64231631869916E-05,-0.00409231055527925,0.5,-0.00567086320370436,-0.000924975262023509
205,0.00369457737542689,0.00117189739830792,-0.000798072607722133,0.5,-0.00189616461284459,0.00124110048636794
206,0.00399818038567901,0.00126285897567868,0.00132641929667443,0.160299777984619,-0.000210348967812024,0.00258805509656668
207,0.00344311306253076,0.000652244896627963,0.00166385248303413,-0.389820605516434,-0.00084658752894029,0.00264754262752831
208,0.00317920162342489,-0.000161203555762768,0.000240014254814014,-0.5,-0.00272757024504244,0.000727202394045889
209,0.00331387924961746,-0.000709520420059562,-0.0022150450386107,-0.5,-0.00477580493316054,-0.00269955350086093
210,0.00323934154585004,-0.000964344770181924,-0.00453731790184975,-0.5,-0.00631994660943747,-0.00632782792672515
211,0.00279947649687529,-0.00116921670269221,-0.00579837430268526,-0.5,-0.00688681751489639,-0.00920474994927645
212,0.00190768938045949,-0.00176601763814688,-0.00604220945388079,-0.5,-0.00678072962909937,-0.0113689573481679
213,0.000267220922978595,-0.00282338331453502,-0.00616990076377988,-0.5,-0.00719091994687915,-0.0128018334507942
214,-0.00180382723920047,-0.00364797026850283,-0.00693827774375677,-0.5,-0.00879296939820051,-0.012604414485395
215,-0.00336932600475848,-0.00382674904540181,-0.00842329207807779,-0.5,-0.0109058152884245,-0.0109392702579498
216,-0.00374013208784163,-0.00356287369504571,-0.00996185466647148,-0.5,-0.012318292632699,-0.00971943885087967
217,-0.00305983307771385,-0.00309415766969323,-0.0104345865547657,-0.5,-0.0122065879404545,-0.00974847655743361
218,-0.00230301287956536,-0.00236342661082745,-0.00945865735411644,-0.5,-0.0107669029384851,-0.00931375753134489
219,-0.00282762036658823,-0.00182820064947009,-0.00834085140377283,-0.5,-0.00959443300962448,-0.00739191845059395
220,-0.00464397389441729,-0.00200308812782168,-0.00802437774837017,-0.5,-0.00947574153542519,-0.00511934142559767
221,-0.00640258565545082,-0.00259443512186408,-0.00787773635238409,-0.5,-0.00963990855962038,-0.00381100876256824
222,-0.00705303344875574,-0.0028031375259161,-0.00696478690952063,-0.5,-0.00934614520519972,-0.00337919709272683
223,-0.00623395945876837,-0.00163367378991097,-0.0048141535371542,-0.5,-0.00793977733701468,-0.0025994370225817
224,-0.00494808563962579,0.00021904225286562,-0.00241966941393912,-0.5,-0.00577775994315743,-0.00126156641636044
225,-0.00498783960938454,0.000565991504117846,-0.00179980916436762,-0.5,-0.00444971257820725,-0.000447957485448569
226,-0.00709725776687264,-0.00154299114365131,-0.00399047322571278,-0.5,-0.00505250925198197,-0.00108545005787164
227,-0.0100462632253766,-0.00483563216403127,-0.00765707157552242,-0.312648475170136,-0.00667065754532814,-0.00305248307995498
228,-0.0116840247064829,-0.00693018641322851,-0.0100415218621492,0.291371703147888,-0.00712326914072037,-0.00465511064976454
229,-0.0111205829307437,-0.00649172393605113,-0.0097424853593111,0.5,-0.00550372106954455,-0.00353104085661471
230,-0.00891950726509094,-0.00386669160798192,-0.00763753242790699,0.5,-0.00268507143482566,0.00105209194589406
231,-0.00597147131338716,0.000112228430225514,-0.00501072546467185,0.5,0.00017870262672659,0.00745945330709219
232,-0.00344295869581401,0.0042675556614995,-0.00249891681596637,0.5,0.00228167348541319,0.0131763722747564
233,-0.00234076217748225,0.00722211366519332,-0.000654871575534344,0.5,0.00322230532765388,0.0166217945516109
234,-0.00254938192665577,0.00846740789711475,0.000489659490995109,0.116561055183411,0.0033412016928196,0.0177384614944458
235,-0.00340390973724425,0.0081006046384573,0.00135815632529557,-0.289847373962402,0.00311960303224623,0.017256723716855
236,-0.00419279793277383,0.00666755391284823,0.00192351231817156,-0.5,0.00273543293587863,0.0161595027893782
237,-0.00415919488295913,0.00530317146331072,0.00177404482383281,-0.5,0.00231482065282762,0.015208188444376
238,-0.00322990375570953,0.0046450886875391,0.000627706991508603,-0.5,0.00184307503513992,0.0143054137006402
239,-0.0023871292360127,0.00441545154899359,-0.00129880441818386,-0.5,0.00103899149689823,0.012728875502944
240,-0.00254143681377172,0.00411558477208018,-0.00313923880457878,-0.5,-8.47686242195778E-05,0.0105941668152809
241,-0.00346746551804245,0.0034452797845006,-0.00415794318541884,-0.5,-0.00093031715368852,0.00899996608495712
242,-0.00458439067006111,0.00231363996863365,-0.0047575356438756,-0.5,-0.00135544955264777,0.00797503069043159
243,-0.00539952423423529,0.00112530449405313,-0.0054219476878643,-0.396359413862228,-0.00173127953894436,0.0065367161296308
244,-0.00515132350847125,0.000770390324760228,-0.0056534013710916,-0.30884850025177,-0.00186294934246689,0.00492214970290661
245,-0.0038591471966356,0.00128082535229623,-0.00509682483971119,-0.313951194286346,-0.00129905412904918,0.00421299273148179
246,-0.00279672117903829,0.0014713165583089,-0.00409655272960663,-0.421316206455231,-0.000169339749845676,0.00478183897212148
247,-0.00264239008538425,0.000831727578770369,-0.00300112087279558,-0.5,0.000933012284804136,0.00679666269570589
248,-0.00263067218475044,0.000259528838796541,-0.00189075083471835,-0.5,0.00183260266203433,0.00987923890352249
249,-0.00233421381562948,0.000379017554223537,-0.0011510505573824,-0.5,0.00249524228274822,0.0125485770404339
250,-0.00250697834417224,0.00073616486042738,-0.0015741481911391,-0.335169702768326,0.00207393034361303,0.013948661275208
251,-0.00350103760138154,0.000852144323289394,-0.00288916123099625,-0.023398382589221,0.00039984195609577,0.0145892668515444
252,-0.00467973574995995,0.000956179341301322,-0.00355516630224884,0.354450911283493,-0.0012506126658991,0.0156208630651236
253,-0.00572225311771035,0.0015865737805143,-0.00273802503943443,0.5,-0.00228223646990955,0.017942663282156
254,-0.00688867317512631,0.0028237181250006,-0.000923649175092578,0.5,-0.00285540707409382,0.0212117228657007
255,-0.00811138562858105,0.0042426404543221,0.00113352853804827,0.5,-0.00257549225352705,0.0240182559937239
256,-0.00913496967405081,0.00514166569337249,0.00282527739182115,0.5,-0.00134506332688034,0.0248409230262041
257,-0.0100226979702711,0.00491667818278074,0.00373626477085054,0.5,8.10386991361156E-05,0.0232567638158798
258,-0.0110372705385089,0.003506452543661,0.00373132317326963,0.5,0.000569379655644298,0.0203508511185646
259,-0.0123855099081993,0.00143883435521275,0.00287314737215638,0.5,-0.000498770794365555,0.0178112294524908
260,-0.0133586032316089,3.16944242513273E-05,0.00183797162026167,0.5,-0.00214634952135384,0.0169772077351809
261,-0.0125762037932873,0.000354039890225977,0.00169093208387494,0.5,-0.00261808722279966,0.0179296582937241
262,-0.0101671731099486,0.0016911318525672,0.00239512673579156,0.5,-0.00157577462960035,0.0194131005555391
263,-0.00776347471401095,0.00254798075184226,0.00288763549178839,0.5,-0.00053524796385318,0.0203346014022827
264,-0.0067620612680912,0.00214838120155036,0.00249904487282038,0.5,-0.000908629794139415,0.0205454938113689
265,-0.00743340468034148,0.000685509818140417,0.0014616718981415,0.5,-0.00225251959636807,0.0200265124440193
266,-0.00847773533314466,-0.000527419440913945,0.000956795760430396,0.5,-0.00280969124287367,0.0190085172653198
267,-0.0089210718870163,-0.000515398976858705,0.00178427831269801,0.5,-0.00227765808813274,0.0184280034154654
268,-0.00945350341498852,0.000107300831587054,0.00290848966687918,0.5,-0.00220567057840526,0.0191495213657618
269,-0.0105643076822162,0.000741479569114745,0.00302971620112658,0.5,-0.00322841829620302,0.0219319015741348
270,-0.0120609533041716,0.00137768778949976,0.00218514329753816,0.5,-0.004645018838346,0.0266975946724415
271,-0.0135262217372656,0.00213929452002048,0.00143695692531765,0.5,-0.00543482461944222,0.0319922082126141
272,-0.0147253936156631,0.00271462858654559,0.00135627028066665,0.5,-0.00546975433826447,0.0360067151486874
273,-0.015570592135191,0.00252295192331076,0.00158341648057103,0.5,-0.0053206286393106,0.0377512350678444
274,-0.0152392359450459,0.00225998763926327,0.00245964108034968,0.5,-0.00453479122370481,0.0382205434143543
275,-0.013818540610373,0.00237226439639926,0.00401257909834385,0.5,-0.003300950396806,0.038402795791626
276,-0.0120414616540074,0.00253757671453059,0.00567358266562223,0.5,-0.00205434020608664,0.0382394827902317
277,-0.00998789723962545,0.00277360714972019,0.00746498489752412,0.456731766462326,3.93700211134274E-05,0.0378866046667099
278,-0.00861143041402102,0.00232805544510484,0.00860122591257095,0.187459021806717,0.00249118590727448,0.0369039326906204
279,-0.00848847720772028,0.000806081050541252,0.00860781036317348,-0.0702513679862022,0.00482253264635801,0.0348300151526928
280,-0.00832693371921778,-0.000591062009334564,0.00903883296996355,-0.27779495716095,0.00853501353412867,0.0326514169573784
281,-0.0069452365860343,-0.000765826320275664,0.0112022338435054,-0.440487205982208,0.0134664187207818,0.0316760875284672
282,-0.00524653866887093,-0.000267211929894984,0.0141190150752664,-0.5,0.0164327025413513,0.0317680723965168
283,-0.00540000293403864,-0.000753219821490347,0.015455205924809,-0.5,0.0149406902492046,0.0314824469387531
284,-0.00768076255917549,-0.00256418506614864,0.0143643645569682,-0.5,0.0101319160312414,0.0304950457066298
285,-0.0102907698601484,-0.00461755879223347,0.0120642129331827,-0.5,0.00486753229051828,0.0298344809561968
286,-0.0119148073717952,-0.00621167523786426,0.00990625564008951,-0.5,0.000947391905356199,0.029484000056982
287,-0.0120261134579778,-0.00687002763152123,0.00900943577289581,-0.5,-0.000713540764991194,0.0287399217486382
288,-0.01100586168468,-0.00653663650155067,0.00968574453145266,-0.5,-0.000308315065922216,0.0273254718631506
289,-0.0104823242872953,-0.00610856432467699,0.0106569565832615,-0.5,0.000306394213112071,0.0255487971007824
290,-0.0107084922492504,-0.00564543018117547,0.0116186123341322,-0.5,0.000639942998532206,0.0251281149685383
291,-0.0104748671874404,-0.00446770433336496,0.0137047609314322,-0.5,0.00227364688180387,0.0276590865105391
292,-0.0100365402176976,-0.00316053465940058,0.0163914933800697,-0.5,0.00483792368322611,0.0320246703922749
293,-0.00992302689701319,-0.00248792255297303,0.0183824934065342,-0.5,0.00667404010891914,0.0358598865568638
294,-0.00979409739375114,-0.00241927755996585,0.0195712633430958,-0.5,0.00738733354955912,0.0379966720938683
295,-0.00901756342500448,-0.00241901190020144,0.0208299458026886,-0.5,0.00781906582415104,0.0387880392372608
296,-0.00748979253694415,-0.00217810040339828,0.0223267786204815,-0.5,0.00829811207950115,0.0387659333646297
297,-0.00619801692664623,-0.00188673089724034,0.0227859523147345,-0.5,0.00783881545066834,0.0379772745072842
298,-0.00512611260637641,-0.000852851604577154,0.0224258378148079,-0.5,0.00706167984753847,0.0378554277122021
299,-0.00420338660478592,0.000798786990344524,0.0222018398344517,-0.5,0.00703898211941123,0.0395224802196026
300,-0.00477440422400832,0.00101161818020046,0.0212164875119925,-0.5,0.00685300724580884,0.0412277206778526
301,-0.00668870285153389,-0.000574301229789853,0.0190454199910164,-0.5,0.00590135622769594,0.041784793138504
302,-0.00793589744716883,-0.00191484612878412,0.0171468053013086,-0.5,0.00533201778307557,0.042285930365324
303,-0.00744595704600215,-0.00189237191807479,0.0168141666799784,-0.5,0.00714908773079515,0.0431107804179192
304,-0.00606955122202635,-0.00116401992272586,0.017818620428443,-0.5,0.011377178132534,0.0436887331306934
305,-0.00498862145468593,-0.000226536401896738,0.0191783308982849,-0.5,0.0152834402397275,0.0443731471896172
306,-0.00426454236730933,0.00109833141323179,0.0206730347126722,-0.5,0.0174241997301579,0.0457743108272552
307,-0.00352779123932123,0.00253674853593111,0.0228104796260595,-0.5,0.019157450646162,0.0476003177464008
308,-0.00277751078829169,0.0035299900919199,0.0253060758113861,-0.5,0.0215212740004063,0.049122080206871
309,-0.00198651128448546,0.00431399326771498,0.027216823771596,-0.5,0.0238420758396387,0.0503098703920841
310,-0.00152914319187403,0.00504287146031857,0.0277192704379559,-0.5,0.0246372204273939,0.0511626563966274
311,-0.00192574493121356,0.0050742388702929,0.0266165286302567,-0.5,0.0228141564875841,0.0509373694658279
312,-0.00237982231192291,0.00452553946524858,0.0253020264208317,-0.5,0.0198529586195946,0.0499417372047901
313,-0.00232711364515126,0.00421829475089908,0.025183342397213,-0.5,0.0183259434998035,0.049296673387289
314,-0.00255147344432771,0.00431627407670021,0.0258299708366394,-0.5,0.0183531362563372,0.0495102629065514
315,-0.00315973814576864,0.00486780516803265,0.0263993386179209,-0.5,0.0191311277449131,0.0511933974921703
316,-0.00332202902063727,0.00614013522863388,0.0271582286804914,-0.5,0.0207940936088562,0.0545513369143009
317,-0.00310964649543166,0.00753866275772452,0.0282717850059271,-0.5,0.0228357501327991,0.0581890866160393
318,-0.00328280730172992,0.0082022650167346,0.0289390385150909,-0.5,0.0240802429616451,0.0605685748159885
319,-0.00385914766229689,0.00814800802618265,0.0287000220268965,-0.5,0.0243567172437906,0.0613571815192699
320,-0.00456895446404815,0.00774767994880676,0.0278379786759615,-0.5,0.0241430439054966,0.0610933899879456
321,-0.00568391755223274,0.00713570695370436,0.0267542749643326,-0.5,0.0233181715011597,0.0608028136193752
322,-0.00719148106873035,0.00664367619901896,0.0261320900171995,-0.5,0.0220667384564877,0.0617806501686573
323,-0.00774109456688166,0.00752097927033901,0.0273605547845364,-0.5,0.0221616458147764,0.065417192876339
324,-0.00685045123100281,0.00982304662466049,0.0306240692734718,-0.272619992494583,0.0244648344814777,0.0709631890058517
325,-0.00625139102339745,0.0114414859563112,0.0339653603732586,-0.19181914627552,0.0270828828215599,0.075259655714035
326,-0.00630517303943634,0.0118980463594198,0.0362305268645287,-0.337531119585037,0.028409106656909,0.0769115835428238
327,-0.0056524951942265,0.012639481574297,0.0373819768428802,-0.5,0.0285030212253332,0.0765852853655815
328,-0.00438012229278684,0.0138984955847263,0.0366621054708958,-0.5,0.0275665819644928,0.0741969645023346
329,-0.00335874105803669,0.0149879511445761,0.0338510200381279,-0.5,0.0259421281516552,0.0698414146900177
330,-0.00312043447047472,0.0152286244556308,0.0299037415534258,-0.5,0.0238221138715744,0.0648437961935997
331,-0.00340836076065898,0.0144423209130764,0.0265417359769344,-0.5,0.0218038111925125,0.0607590451836586
332,-0.00317284022457898,0.0131686795502901,0.0256147589534521,-0.5,0.0215490199625492,0.0582264810800552
333,-0.00262521533295512,0.0114045394584537,0.0266936644911766,-0.5,0.0232964027673006,0.0563244894146919
334,-0.00255333189852536,0.0090648178011179,0.0278555452823639,-0.5,0.0257920324802399,0.0537554770708084
335,-0.00256049772724509,0.00689693680033088,0.0283975433558226,-0.365214675664902,0.0283207036554813,0.0504382774233818
336,-0.00216245395131409,0.00542388902977109,0.0284725334495306,-0.0645412728190422,0.0301963444799185,0.0473472736775875
337,-0.0019046044908464,0.00419150944799185,0.0277983918786049,0.146739840507507,0.030444635078311,0.0449316129088402
338,-0.0023358438629657,0.00276233721524477,0.0263142809271812,0.272561937570572,0.0293467901647091,0.0427605956792831
339,-0.00327562051825225,0.000978057854808867,0.0248279441148043,0.345566779375076,0.0283447410911322,0.040017232298851
340,-0.00394207518547773,-0.000981004093773663,0.0244544427841902,0.359904080629349,0.0288356821984053,0.0365379154682159
341,-0.00320954131893814,-0.00191951356828213,0.0259612184017897,0.2757448554039,0.0317524895071983,0.033642303198576
342,-0.001367854536511,-0.00149591010995209,0.0285893362015486,0.0982832238078117,0.0364545732736588,0.0325853265821934
343,0.000411851651733741,-0.0005950469058007,0.0306127779185772,-0.113489925861359,0.041016086935997,0.0334553755819798
344,0.00149439310189337,-2.46852960117394E-05,0.0311454795300961,-0.299530178308487,0.0437219701707363,0.0348965711891651
345,0.00136735045816749,-0.000509225763380528,0.0308192241936922,-0.427161604166031,0.0449098870158196,0.0354204587638378
346,0.000707545783370733,-0.00141782523132861,0.0311436839401722,-0.5,0.0470269955694675,0.0355965010821819
347,0.00120538182090968,-0.0014019797090441,0.032841544598341,-0.5,0.0506871677935123,0.0364727936685085
348,0.00296370056457818,-0.000846937124151737,0.0352030843496323,-0.5,0.0534484311938286,0.037452258169651
349,0.00404108082875609,-0.00120318285189569,0.0367201007902622,-0.5,0.053142387419939,0.0372420027852058
350,0.00337388436309993,-0.00252176029607654,0.0370177589356899,-0.5,0.0505752637982368,0.0360388867557049
351,0.00202738982625306,-0.0034416513517499,0.0373701676726341,-0.5,0.048058994114399,0.0356222838163376
352,0.000648435379844159,-0.00349525385536253,0.0380745865404606,-0.5,0.0462124869227409,0.0364818423986435
353,-0.000866412417963147,-0.00324323517270386,0.0385682955384254,-0.205795750021935,0.0449176654219627,0.0375492349267006
354,-0.00203879782930017,-0.00321590295061469,0.0389255657792091,0.103438802063465,0.0446481965482235,0.0380534902215004
355,-0.00266697071492672,-0.0040048360824585,0.0390368662774563,0.389493554830551,0.0452735424041748,0.0373326614499092
356,-0.00255685695447028,-0.00533472606912255,0.0391914732754231,0.5,0.0467377491295338,0.0355121493339539
357,-0.00162980915047228,-0.00640005152672529,0.039791751652956,0.5,0.0490303635597229,0.0334978960454464
358,-0.000453293992904946,-0.00678194267675281,0.0402072481811047,0.5,0.051130373030901,0.0317539386451244
359,0.000871982832904905,-0.00592485163360834,0.0402426421642303,0.5,0.0521987788379192,0.0307991188019514
360,0.00249294983223081,-0.00399641692638397,0.040212944149971,0.5,0.0520288608968258,0.0308277234435081
361,0.00415760604664683,-0.00212181592360139,0.0396693684160709,0.5,0.0505995154380798,0.0310072731226683
362,0.00521244760602713,-0.000903773063328117,0.0384385585784912,0.5,0.0485587641596794,0.0312260016798973
363,0.00535554345697165,-0.000108370593807194,0.0373641215264797,0.5,0.0470951125025749,0.0322551019489765
364,0.00485704373568296,0.00012965383939445,0.0367389880120754,0.451786875724792,0.0464770272374153,0.033146820962429
365,0.00407898286357522,-0.000160464740474708,0.0363541059195995,0.404557287693024,0.046018723398447,0.0329614877700806
366,0.00329101760871708,-0.000246715790126473,0.03635423630476,0.5,0.0451239496469498,0.0328563787043095
367,0.00223926943726838,-0.000256242754403502,0.0365909077227116,0.5,0.043545164167881,0.0331118665635586
368,0.000858002400491387,-0.000602136948145926,0.0368701070547104,0.5,0.0415766462683678,0.0327638685703278
369,-0.000162817872478627,-0.00102604809217155,0.0373515486717224,0.5,0.0396894961595535,0.031743198633194
370,-0.000332369672833011,-0.00160215829964727,0.0379747934639454,0.5,0.0383259057998657,0.0302095208317041
371,0.000268271658569574,-0.00231211143545806,0.0384426936507225,0.5,0.0386200025677681,0.0282363574951887
372,0.0017421436496079,-0.00219295104034245,0.0389049723744392,0.5,0.0416470319032669,0.0269505009055138
373,0.00341755314730108,-0.00121682381723076,0.0392469391226768,0.5,0.0454039201140404,0.027054388076067
374,0.00368112698197365,-0.000671219197101891,0.038730226457119,0.5,0.0460211485624313,0.0275658443570137
375,0.00213580881245434,-0.00138178921770304,0.037056066095829,0.5,0.0429304614663124,0.0269438493996859
376,0.00029845314566046,-0.00292520225048065,0.0350583344697952,0.5,0.0394687689840794,0.0247852597385645
377,0.000359204539563507,-0.00351742352358997,0.0343329608440399,0.5,0.0387063734233379,0.0229038391262293
378,0.00257903523743153,-0.00244869641028345,0.034984402358532,0.5,0.0399852395057678,0.0221904162317514
379,0.00530802691355348,-0.00074809166835621,0.0355180241167545,0.5,0.0406581908464432,0.0213652160018682
380,0.00679335510358214,0.000499813002534211,0.0347337648272514,0.5,0.0393072627484798,0.0196694359183311
381,0.00573735870420933,7.66638477216475E-05,0.0321123041212559,0.5,0.0361511223018169,0.0167823005467653
382,0.00287463003769517,-0.00174378207884729,0.0283666178584099,0.5,0.0326493568718433,0.0134452544152737
383,0.000901738880202174,-0.00235032453201711,0.0255055278539658,0.5,0.0308173224329948,0.0121919140219688
384,0.00133854802697897,-0.000261287932517007,0.0249162148684263,0.5,0.0316202901303768,0.0142639549449086
385,0.00277779903262854,0.00283075636252761,0.025926485657692,0.5,0.0334004536271095,0.0182628519833088
386,0.00294711976312101,0.0043703424744308,0.0273335259407759,0.5,0.0337998531758785,0.0217455364763737
387,0.00177742016967386,0.00351350102573633,0.0289739295840263,0.5,0.0325715467333794,0.0225036591291428
388,0.00121466210111976,0.00135696528013796,0.0305156037211418,0.5,0.030688127502799,0.0195725932717323
389,0.00210881349630654,-0.000749106868170202,0.0301101431250572,0.5,0.0284312106668949,0.0134659400209785
390,0.00317890266887844,-0.00236977217718959,0.0260024257004261,0.5,0.0254283081740141,0.00610489398241043
391,0.00363817787729204,-0.00319401384331286,0.0195994954556227,0.5,0.0225505270063877,0.000337601872161031
392,0.00411437638103962,-0.00297764083370566,0.014617869630456,0.5,0.0218427293002605,-0.0022339983843267
393,0.00545025058090687,-0.00198090425692499,0.0135414507240057,0.5,0.0242953598499298,-0.002170673571527
394,0.00772646488621831,-0.000971330504398793,0.0156646780669689,0.5,0.0287215393036604,-0.00114860618487
395,0.00950282532721758,-0.00102427671663463,0.0174509864300489,0.5,0.0322868078947067,-0.00104547233786434
396,0.00986472237855196,-0.00200045388191938,0.0166358612477779,0.5,0.033501073718071,-0.00224474701099098
397,0.00967202894389629,-0.0029907519929111,0.0147142941132188,0.5,0.0338376238942146,-0.00379956513643265
398,0.00993539579212666,-0.00376075645908713,0.0142420222982764,0.5,0.0354066528379917,-0.00495480513200164
399,0.0106574883684516,-0.00446561025455594,0.0157794803380966,0.5,0.0381729900836945,-0.00556311896070838
400,0.0113052977249026,-0.00532243913039565,0.0179004352539778,0.5,0.0406660027801991,-0.00630612205713987
401,0.0124752372503281,-0.00602377345785499,0.0196241699159145,0.5,0.0429478585720062,-0.00767529802396894
402,0.0148595524951816,-0.0063764969818294,0.0210774168372154,0.5,0.0459043011069298,-0.00949121080338955
403,0.0172208994626999,-0.00724333338439465,0.021912157535553,0.5,0.0487452447414398,-0.0118545768782496
404,0.0179526973515749,-0.00908669363707304,0.0213180109858513,0.5,0.0498288907110691,-0.0146564608439803
405,0.0170658621937037,-0.0110891712829471,0.0199202224612236,0.5,0.0489348024129868,-0.0167339388281107
406,0.0154376784339547,-0.012371595017612,0.019358079880476,0.5,0.0470087118446827,-0.0169264413416386
407,0.0135953081771731,-0.0127477617934346,0.0199585929512978,0.5,0.0446206703782082,-0.0158376023173332
408,0.0121557004749775,-0.0124724442139268,0.0209153741598129,0.5,0.0422794744372368,-0.0157353263348341
409,0.0118707111105323,-0.0117789953947067,0.0217249430716038,0.5,0.0407275520265102,-0.0176713541150093
410,0.0122823864221573,-0.0108698885887861,0.022112725302577,0.5,0.039740364998579,-0.0198143720626831
411,0.0126428231596947,-0.00954748317599297,0.0222618896514177,0.5,0.0388118512928486,-0.0190238505601883
412,0.0131690669804811,-0.00727333081886172,0.0229013208299875,0.5,0.038992989808321,-0.0139429643750191
413,0.0137143339961767,-0.00464513851329684,0.0237861406058073,0.5,0.0410661399364471,-0.0066497796215117
414,0.0135616743937135,-0.0030779407825321,0.0238081105053425,0.5,0.043276235461235,-0.000526016403455287
415,0.0129922721534967,-0.00293376646004617,0.0229717921465635,0.5,0.0435662604868412,0.00243069464340806
416,0.0130255119875073,-0.00338688911870122,0.0221120361238718,0.5,0.0417644456028938,0.00200479035265744
417,0.0140479076653719,-0.00359087251126766,0.021642092615366,0.5,0.0392224751412869,-0.000442992401076481
418,0.0156977809965611,-0.00334001402370632,0.021822577342391,0.5,0.0374754704535007,-0.0028432896360755
419,0.0170602314174175,-0.00311036640778184,0.0223916750401258,0.5,0.0366457030177116,-0.0043305829167366
420,0.0172042399644852,-0.00359149137511849,0.0226261056959629,0.5,0.035851962864399,-0.00539698218926787
421,0.016206007450819,-0.00458998745307326,0.0225244835019112,0.5,0.0348101928830147,-0.00607424788177013
422,0.0149379866197705,-0.00531300157308578,0.0222518108785152,0.5,0.0337520949542522,-0.00565967289730906
423,0.0146445566788316,-0.00503953313454986,0.0220744758844376,0.5,0.0334781557321548,-0.0039936862885952
424,0.0160662699490786,-0.0035563544370234,0.0225365050137043,0.472576200962067,0.0349672511219978,-0.00207917299121618
425,0.0179274193942547,-0.00186615728307515,0.0229011923074722,0.256159752607346,0.0372278317809105,-0.00120100029744208
426,0.0186748560518026,-0.000897332618478686,0.022148298099637,0.00625890027731657,0.0384982861578465,-0.00147759355604649
427,0.0184791274368763,-0.0005231854156591,0.0208425782620907,-0.17154635488987,0.0386055484414101,-0.00198144861496985
428,0.0177618227899075,-0.000592876749578863,0.0200536083430052,-0.237934097647667,0.0379125662147999,-0.00206364528276026
429,0.0161826778203249,-0.00161567679606378,0.019767178222537,-0.203460216522217,0.036285538226366,-0.00235378067009151
430,0.0139882769435644,-0.00328307086601853,0.0194474868476391,-0.105809092521667,0.0338997691869736,-0.00295448186807334
431,0.012503495439887,-0.00414855079725385,0.019305769354105,0.00867636874318123,0.0317422412335873,-0.0027837345842272
432,0.0126984221860766,-0.00363386585377157,0.0195500049740076,0.092025101184845,0.0307025499641895,-0.00176163157448173
433,0.0138738444074988,-0.00280817574821413,0.0194158665835857,0.106277495622635,0.0303128715604544,-0.000955470488406718
434,0.0146886678412557,-0.00295892870053649,0.0183381568640471,0.0613487809896469,0.0296804346144199,-0.00129875016864389
435,0.0146671095862985,-0.0038235776592046,0.0168354138731956,0.0100838700309396,0.0289015453308821,-0.00253704003989697
436,0.0137796243652701,-0.0048132510855794,0.0156201487407088,-0.00256420136429369,0.0281321853399277,-0.00399234937503934
437,0.0123385405167937,-0.00592894712463021,0.015014948323369,0.0338640324771404,0.0270532760769129,-0.00576921598985791
438,0.0110064037144184,-0.0064610717818141,0.0149026894941926,0.1015794724226,0.0252712238579988,-0.00745446141809225
439,0.00986499339342117,-0.00570053700357676,0.0145158646628261,0.178758636116982,0.0224373321980238,-0.0077316528186202
440,0.00873609725385904,-0.00433125672861934,0.0132406791672111,0.244745329022408,0.0191318150609732,-0.00646322360262275
441,0.00804954208433628,-0.00358703383244574,0.0115279788151383,0.286368697881699,0.0168038457632065,-0.00453047314658761
442,0.00814098306000233,-0.00374910910613835,0.0101820966228843,0.318763971328735,0.0161019917577505,-0.0023669796064496
443,0.008399972692132,-0.00456489156931639,0.00913478992879391,0.376837939023972,0.0161663144826889,-0.000657804310321808
444,0.00809772033244371,-0.00573235237970948,0.00762936472892761,0.497283756732941,0.0156555436551571,-0.000336465134751052
445,0.00760845094919205,-0.00637738080695271,0.00583808403462172,0.5,0.0141589259728789,-0.00107698061037809
446,0.00759098120033741,-0.00606690859422088,0.00488008186221123,0.5,0.0124883642420173,-0.00223659188486636
447,0.00805299915373325,-0.00513803912326694,0.00536248786374927,0.5,0.0119253657758236,-0.00393602019175887
448,0.00904558133333921,-0.00365471607074142,0.00701721105724573,0.5,0.0131183229386806,-0.00569411367177963
449,0.0102587472647429,-0.00221726158633828,0.00856918003410101,0.436219602823257,0.0151139264926314,-0.00695954961702228
450,0.0106635680422187,-0.00182202621363103,0.00853161048144102,0.169399961829185,0.0162055660039186,-0.00816944055259228
451,0.00963169429451227,-0.00232307286933064,0.00679851230233908,-0.0143797788769007,0.0154584161937237,-0.00961287599056959
452,0.00799861084669828,-0.00262388680130243,0.00498779211193323,-0.0766485333442688,0.0136686721816659,-0.0107355024665594
453,0.00717147020623088,-0.00206218077801168,0.00464566750451922,-0.0607392750680447,0.0124468039721251,-0.0113191045820713
454,0.00696605024859309,-0.00113942171446979,0.00523068709298968,-0.0244723930954933,0.0117012429982424,-0.0116392411291599
455,0.00676144333556294,-0.000385550694772974,0.00577897764742374,0.00579555844888091,0.0107936942949891,-0.0114622004330158
456,0.00647607864812016,-9.03399486560375E-05,0.00623317435383797,0.031955610960722,0.00965367071330547,-0.0111226765438914
457,0.00561857409775257,-0.000570444739423692,0.00665440317243338,0.0566084198653698,0.0081862909719348,-0.0115210888907313
458,0.00458362512290478,-0.00106978823896497,0.00744498614221811,0.0452888160943985,0.00710452813655138,-0.0125068435445428
459,0.00453227013349533,-0.000345210923114792,0.0087521206587553,-0.041276577860117,0.0069611337967217,-0.0133332563564181
460,0.0051703262142837,0.00147351587656885,0.00978597346693277,-0.186218783259392,0.00710317306220531,-0.0137538081035018
461,0.00553964031860232,0.00340353907085955,0.00988002959638834,-0.335620045661926,0.0070471023209393,-0.0134718958288431
462,0.00560767715796828,0.00533371325582266,0.00938376411795616,-0.442956984043121,0.00687946239486337,-0.0113512827083468
463,0.00558748980984092,0.00756395002827048,0.00870983209460974,-0.495903551578522,0.00613505020737648,-0.00688873091712594
464,0.00538396975025535,0.00953374709933996,0.0074725765734911,-0.5,0.00418894644826651,-0.00173907820135355
465,0.00491528166458011,0.0105102257803082,0.00561064621433616,-0.5,0.00155880767852068,0.0018603065982461
466,0.00424254825338721,0.010557341389358,0.0036545405164361,-0.5,-0.000733783817850053,0.00329323275946081
467,0.00367855443619192,0.0104338610544801,0.00178906018845737,-0.5,-0.0021637505851686,0.00355486781336367
468,0.00357022741809487,0.0109900375828147,0.000247879303060472,-0.5,-0.0025318581610918,0.00404730765148997
469,0.00337125710211694,0.0120058916509151,-0.000195883942069486,-0.5,-0.00205834559164941,0.00564606813713908
470,0.00252914987504482,0.0125311082229018,0.00118238257709891,-0.5,-0.000285386922769248,0.00804497208446264
471,0.00173588271718472,0.0120489997789264,0.00367738609202206,-0.5,0.00335998623631895,0.00898278877139091
472,0.00136153271887451,0.00999740231782198,0.00475807907059789,-0.5,0.00645356625318527,0.00518855452537537
473,0.00144847098272294,0.00685188500210643,0.00254983268678188,-0.5,0.00581265706568956,-0.00351020088419318
474,0.00252819969318807,0.00473970640450716,-0.00237456476315856,-0.5,0.00151391047984362,-0.0133595550432801
475,0.00406331289559603,0.00409900257363915,-0.00821733381599188,-0.5,-0.00413331063464284,-0.0212959870696068
476,0.00498470850288868,0.0033359753433615,-0.012965832836926,-0.5,-0.00870198756456375,-0.026694294065237
477,0.00496847974136472,0.0017574280500412,-0.0151117090135813,-0.5,-0.0111762285232544,-0.0297149233520031
478,0.00435343151912093,-0.00012672167213168,-0.0147609123960137,-0.5,-0.0120307840406895,-0.0311242528259754
479,0.0041983244009316,-0.00157016585581005,-0.0134744727984071,-0.5,-0.0118045136332512,-0.0324281975626946
480,0.00513852015137672,-0.00205980311147869,-0.0125985406339169,-0.5,-0.0109392087906599,-0.0342275351285934
481,0.00653293123468757,-0.00197847210802138,-0.0122796520590782,-0.5,-0.0098186144605279,-0.0358616672456265
482,0.00737986853346229,-0.00244592572562397,-0.012342824600637,-0.5,-0.00864260084927082,-0.0370171554386616
483,0.00776614807546139,-0.00363579415716231,-0.0125243943184614,-0.5,-0.00722290296107531,-0.0375559665262699
484,0.00855039153248072,-0.00474644731730223,-0.0124212075024843,-0.496513724327087,-0.00506862672045827,-0.0374617800116539
485,0.00937992986291647,-0.00589843420311809,-0.0125794000923634,-0.474160015583038,-0.00290904799476266,-0.0379077233374119
486,0.00932090636342764,-0.00748129794374108,-0.0137582030147314,-0.432099431753159,-0.00206265109591186,-0.0399419143795967
487,0.00866815913468599,-0.00915266387164593,-0.015575991012156,-0.374122619628906,-0.0023586405441165,-0.0433829091489315
488,0.00779855158179998,-0.0110860047861934,-0.0175054762512445,-0.288393378257751,-0.00310924835503101,-0.0476151183247566
489,0.00720116961747408,-0.0127593530341983,-0.0187275670468807,-0.147634327411652,-0.00347603904083371,-0.0505497828125954
490,0.00743549643084407,-0.0132684195414186,-0.0189999025315046,0.0782821029424667,-0.00297141913324595,-0.0510413125157356
491,0.00743508944287896,-0.0137992072850466,-0.0198149681091309,0.491523832082748,-0.00269208173267543,-0.0519816540181637
492,0.00638397829607129,-0.0151505824178457,-0.0214143842458725,0.5,-0.00309716793708503,-0.0552447363734245
493,0.00528964819386601,-0.0159787237644196,-0.0221589002758265,0.5,-0.00324669503606856,-0.0584296733140945
494,0.0058341771364212,-0.0147389695048332,-0.0208418294787407,0.5,-0.00213724188506603,-0.0585223659873009
495,0.0085364505648613,-0.0114221088588238,-0.0175050608813763,0.5,0.000531531928572804,-0.0554707832634449
496,0.012195473536849,-0.00735926069319248,-0.0133445002138615,0.5,0.00357719603925943,-0.0509497560560703
497,0.0154404547065496,-0.0038931651506573,-0.0097614387050271,0.5,0.00574483815580606,-0.0460231229662895
498,0.0178462360054255,-0.00179158127866685,-0.00705331470817328,0.5,0.0076624290086329,-0.0421138554811478
499,0.018912460654974,-0.00163440359756351,-0.0056147575378418,0.5,0.00955103151500225,-0.0410090871155262
500,0.0170666687190533,-0.00424072565510869,-0.00709050195291638,0.5,0.00928552821278572,-0.043203566223383
501,0.0124911423772573,-0.00866733957082033,-0.0111141344532371,0.5,0.00645126448944211,-0.0465611293911934
502,0.00827567279338837,-0.01198719907552,-0.0143314860761166,0.5,0.0038444260135293,-0.0477190800011158
503,0.00684729497879744,-0.0124761452898383,-0.014709840528667,0.5,0.0032272613607347,-0.0459717214107513
504,0.00857564993202686,-0.010098016820848,-0.0126109831035137,0.5,0.00443520629778504,-0.0424245521426201
505,0.0125969713553786,-0.00567235611379147,-0.00895232893526554,0.5,0.00708522228524089,-0.0374124497175217
506,0.0168345049023628,-0.00109402369707823,-0.00513534946367145,0.5,0.010388221591711,-0.0319459289312363
507,0.0194837935268879,0.00212823320180178,-0.0021252678707242,0.5,0.0136694759130478,-0.0271907337009907
508,0.0203809253871441,0.00391188310459256,-2.21932659769664E-05,0.5,0.0166072528809309,-0.0231149196624756
509,0.0199483893811703,0.00453947903588414,0.000748544523958117,-0.0151767916977406,0.0183701552450657,-0.0202790666371584
510,0.0181167665868998,0.0038263916503638,-0.000503103714436293,-0.5,0.0178746208548546,-0.0204103849828243
511,0.0150129059329629,0.0017591678770259,-0.00354161206632853,-0.5,0.0148284807801247,-0.0239895973354578
512,0.0115443272516131,-0.000675776856951416,-0.00709848804399371,-0.5,0.0102706793695688,-0.0291487127542496
513,0.0087939165532589,-0.00222781719639897,-0.00983943231403828,-0.5,0.00608302047476172,-0.0337161310017109
514,0.00768109178170562,-0.00207195477560163,-0.010810911655426,-0.5,0.00373964011669159,-0.0361260659992695
515,0.0085271205753088,-0.000161117903189734,-0.0099249929189682,-0.5,0.00333465985022485,-0.035816989839077
516,0.0105970399454236,0.00245749694295228,-0.00801817607134581,-0.5,0.00426132138818502,-0.0340790450572968
517,0.0121597936376929,0.00438831420615315,-0.00621210876852274,-0.5,0.0056197508238256,-0.0324262343347073
518,0.0117406351491809,0.00487492606043816,-0.00491901254281402,-0.5,0.00658556865528226,-0.0307127293199301
519,0.010069808922708,0.00426567066460848,-0.0033073949161917,-0.5,0.0076732593588531,-0.0284220222383738
520,0.00885557383298874,0.00320210261270404,-0.00151246774476022,-0.5,0.00893381703644991,-0.0270730629563332
521,0.00844481028616428,0.00185927480924875,-0.00189850467722863,-0.5,0.00844539515674114,-0.0293239392340183
522,0.00852152239531279,0.000424966478021815,-0.00597603106871247,-0.5,0.00523447198793292,-0.0358500443398952
523,0.00928275845944881,-0.00063303712522611,-0.0117159374058247,-0.5,0.00146957370452583,-0.0438919328153133
524,0.0106268953531981,-0.00122743926476687,-0.0158438179641962,-0.5,-0.000207326258532703,-0.0498730912804604
525,0.0120361689478159,-0.00151960144285113,-0.0169838909059763,-0.5,0.000683349091559649,-0.0518946312367916
526,0.0133147919550538,-0.00132136209867895,-0.0157551523298025,-0.5,0.00320998812094331,-0.0496275685727596
527,0.0138099463656545,-0.00122777267824858,-0.0141100361943245,-0.5,0.00546344835311174,-0.0454353764653206
528,0.0125848604366183,-0.00227272696793079,-0.0135466260835528,-0.5,0.00573921110481024,-0.0425520539283752
529,0.00979897193610668,-0.00417866464704275,-0.0138119785115123,-0.5,0.0042510237544775,-0.0413606129586697
530,0.00694210454821587,-0.00571181857958436,-0.0140261305496097,-0.5,0.00232232245616615,-0.0405886620283127
531,0.00522810593247414,-0.00637575518339872,-0.01369000505656,-0.5,0.000869935203809291,-0.0403750352561474
532,0.00460437405854464,-0.00663513550534844,-0.0127349840477109,-0.419544786214828,9.76532464846969E-05,-0.0415904223918915
533,0.00455505587160587,-0.00668224645778537,-0.0115452026948333,-0.151732802391052,-0.000462038966361433,-0.0435711145401001
534,0.0052620037458837,-0.00574992317706347,-0.0102679450064898,0.0185810197144747,-0.000897986348718405,-0.044135607779026
535,0.00677841203287244,-0.00369301252067089,-0.00936681590974331,0.0259876940399408,-0.00118808599654585,-0.0426375456154346
536,0.0078740306198597,-0.00188257871195674,-0.00999877043068409,-0.109183974564075,-0.00220035458914936,-0.0406137630343437
537,0.00814612023532391,-0.00073611771222204,-0.0115658491849899,-0.289799600839615,-0.00360375479795039,-0.0378437116742134
538,0.00843020435422659,0.00024482182925567,-0.0122053483501077,-0.454180538654327,-0.00402080453932285,-0.0337177254259586
539,0.00865905731916428,0.000594865647144616,-0.0115170702338219,-0.5,-0.00341004994697869,-0.0302288085222244
540,0.00821903813630342,-0.000156523223267868,-0.0103226350620389,-0.5,-0.00237195915542543,-0.0291817523539066
541,0.00699345069006085,-0.0017124826554209,-0.00972967687994242,-0.5,-0.00143657601438463,-0.0302299279719591
542,0.00454849842935801,-0.00413665873929858,-0.0108939604833722,-0.5,-0.00183870899491012,-0.0326110795140266
543,0.00115115114022046,-0.00732440501451492,-0.0137069933116436,-0.320162981748581,-0.00401057954877615,-0.0361092761158943
544,-0.00175834575202316,-0.0103571945801377,-0.0170298758894205,0.371826261281967,-0.00688347686082125,-0.0405384562909603
545,-0.00377263803966343,-0.0130388764664531,-0.0201638452708721,0.5,-0.0096105607226491,-0.0457581020891666
546,-0.004907694645226,-0.0153319519013166,-0.0222084727138281,0.5,-0.0115288598462939,-0.0502410419285297
547,-0.00468463357537985,-0.0158523917198181,-0.0220503285527229,0.5,-0.0118738329038024,-0.0508816726505756
548,-0.00340490555390716,-0.0137340007349849,-0.0198062527924776,0.5,-0.0106512000784278,-0.0465347543358803
549,-0.00220745825208724,-0.0104150678962469,-0.0167364068329334,0.5,-0.00869824923574924,-0.0394274480640888
550,-0.00137804634869099,-0.00731877842918038,-0.0135590480640531,0.5,-0.00631381990388036,-0.0323713794350624
551,0.000423202465754002,-0.00390480854548514,-0.00976688414812088,0.5,-0.00268447794951499,-0.0262652337551117
552,0.0040893629193306,0.00035277524148114,-0.00530635192990303,0.5,0.00241248030215502,-0.0210727471858263
553,0.00849291309714317,0.00446540210396051,-0.00155667588114738,0.5,0.00756643107160926,-0.0173161253333092
554,0.0114804329350591,0.006645233836025,-0.000154324981849641,0.5,0.0106217497959733,-0.0160341709852219
555,0.0111898658797145,0.00537891266867518,-0.00192249950487167,0.5,0.00991351343691349,-0.0181707590818405
556,0.0075376252643764,0.00131264445371926,-0.00594052951782942,0.5,0.0056663928553462,-0.0225348621606827
557,0.00271604326553643,-0.00281264260411263,-0.0101140607148409,0.5,3.91182438761462E-05,-0.0263661351054907
558,-6.06692119617946E-05,-0.00440802006050944,-0.0123691568151116,0.5,-0.00411574356257916,-0.0278184823691845
559,0.000752116786316037,-0.00296645425260067,-0.0117629701271653,0.5,-0.00525449309498072,-0.0270570032298565
560,0.00299380859360099,-0.00107271352317184,-0.0101650971919298,0.5,-0.00493395421653986,-0.0268488954752684
561,0.00410923780873418,-0.00105427496600896,-0.00989904254674912,0.5,-0.00542858941480517,-0.0289925318211317
562,0.00388836511410773,-0.00221973424777389,-0.0112249907106161,0.5,-0.00740361213684082,-0.0317433848977089
563,0.00319599872455001,-0.00269811879843473,-0.0129648754373193,0.5,-0.010101237334311,-0.0322908833622932
564,0.00307013792917132,-0.00152730487752706,-0.0133692529052496,0.5,-0.0119037823751569,-0.0289106909185648
565,0.00332970614545047,0.000219541805563495,-0.0120328012853861,0.5,-0.0124450549483299,-0.022845296189189
566,0.00288349995389581,0.000807447184342891,-0.0102258259430528,0.5,-0.012671522796154,-0.0179381053894758
567,0.00189087714534253,0.000222559843678027,-0.00892374850809574,0.5,-0.0129230739548802,-0.0164563357830048
568,0.00150224159006029,-0.000322277308441699,-0.00809259247034788,0.5,-0.0129063213244081,-0.0171203725039959
569,0.00185971497558057,-0.000512243248522282,-0.00759601872414351,0.5,-0.0126538947224617,-0.0179599169641733
570,0.00278692552819848,-7.47400044929236E-05,-0.00690316827967763,0.5,-0.0119363591074944,-0.0178829226642847
571,0.00475360220298171,0.0018729887669906,-0.00530063547194004,0.5,-0.0102719822898507,-0.0162149518728256
572,0.00672883121296763,0.0044455504976213,-0.00370651879347861,0.5,-0.00882992427796125,-0.0139754060655832
573,0.00673986505717039,0.00566558260470629,-0.00351956323720515,0.5,-0.00935445260256529,-0.0132652726024389
574,0.00499253766611218,0.00538145750761032,-0.00412788474932313,0.5,-0.0111394310370088,-0.0143203483894467
575,0.00271021714434028,0.00436981115490198,-0.00475749699398875,0.5,-0.0126552125439048,-0.0160687454044819
576,1.83479460247327E-05,0.0028417429421097,-0.00618619378656149,0.5,-0.0141285546123981,-0.0177235882729292
577,-0.00225223950110376,0.00208822079002857,-0.00787943601608276,0.5,-0.0154087385162711,-0.0179033391177654
578,-0.00235254201106727,0.00380936567671597,-0.00777677120640874,0.5,-0.0151780247688293,-0.0154660074040294
579,-0.000315179408062249,0.00750130601227283,-0.00556659465655684,0.5,-0.0134564079344273,-0.0112799974158406
580,0.0015413659857586,0.0107407718896866,-0.00311638088896871,0.5,-0.0118615124374628,-0.00788857322186232
581,0.00170370959676802,0.0118731232360005,-0.00183470291085541,0.422552943229675,-0.0111565990373492,-0.0069424076937139
582,0.00105183268897235,0.0118632707744837,-0.00138343416620046,-0.5,-0.0110714929178357,-0.00714889680966735
583,0.000808632175903767,0.0126064280048013,-0.00101711030583829,-0.5,-0.0114439176395535,-0.00619744416326284
584,0.00175372499506921,0.0145040871575475,-0.000421206612372771,-0.5,-0.0115539263933897,-0.00383085897192359
585,0.00379914999939501,0.0163510218262672,1.70397124747979E-05,-0.5,-0.0111597264185548,-0.00171481247525662
586,0.00561292143538594,0.0167673267424107,-0.000241458459640853,-0.5,-0.0112129654735327,-0.00111590302549303
587,0.00618705293163657,0.0152735570445657,-0.00123026454821229,-0.5,-0.0122140776365995,-0.00198825751431286
588,0.00554540101438761,0.0122450031340122,-0.00297762989066541,-0.5,-0.0137042952701449,-0.00367873953655362
589,0.00418687518686056,0.00867245625704527,-0.0052177282050252,-0.5,-0.0149278417229652,-0.00585548114031553
590,0.00271259690634906,0.00577383255586028,-0.0071657570078969,-0.5,-0.0154470410197973,-0.00822123140096664
591,0.00177651841659099,0.00448010349646211,-0.00801398698240519,-0.5,-0.0152040962129831,-0.00966008566319942
592,0.00147666421253234,0.00459988228976727,-0.00805185828357935,-0.5,-0.0148961776867509,-0.00974200014024973
593,0.00142295006662607,0.00528297293931246,-0.00832623615860939,-0.5,-0.0152755687013268,-0.00932795181870461
594,0.00153757643420249,0.00607022503390908,-0.00925389025360346,-0.5,-0.0160768590867519,-0.00963507685810328
595,0.00177075574174523,0.00657890317961574,-0.0107749067246914,-0.5,-0.0167385712265968,-0.0114720994606614
596,0.00170577655080706,0.0062847938388586,-0.012396284379065,-0.5,-0.016961358487606,-0.0143028199672699
597,0.000975076167378575,0.00495956093072891,-0.0134325651451945,-0.5,-0.0167108066380024,-0.0173977334052324
598,6.72901005600579E-05,0.00322620826773345,-0.0133931552991271,-0.5,-0.0159264728426933,-0.0205886345356703
599,-0.000249142700340599,0.00179132039193064,-0.0122560383751988,-0.5,-0.0148169249296188,-0.0235296003520489
600,0.000125850696349517,0.000846069771796465,-0.0107097178697586,-0.5,-0.0140078607946634,-0.0251934118568897
601,0.000583806599024683,0.000382789759896696,-0.00991187896579504,-0.5,-0.0142398970201612,-0.0245957877486944
602,0.000730190717149526,0.000477538269478828,-0.0101356664672494,-0.5,-0.0154589284211397,-0.0221709925681353
603,0.000841783185023814,0.0010399108286947,-0.0105726486071944,-0.5,-0.0166148897260427,-0.0193789023905993
604,0.000859782798215747,0.00149893073830754,-0.0109411990270019,-0.5,-0.0172471161931753,-0.0169513821601868
605,0.000347167311701924,0.0013754362007603,-0.01144665107131,-0.5,-0.017721813172102,-0.0147202964872122
606,-0.00104486546479166,0.00019389578665141,-0.0124561497941613,-0.5,-0.0187876634299755,-0.0132248587906361
607,-0.00245796958915889,-0.00161425897385925,-0.013463344424963,-0.5,-0.0200237277895212,-0.0127009749412537
608,-0.00246169441379607,-0.00282229902222753,-0.0133050736039877,-0.5,-0.0199968442320824,-0.0125663680955768
609,-0.00124567945022136,-0.00303749577142298,-0.0122018456459045,-0.5,-0.0188393406569958,-0.0128431571647525
610,-0.000327271001879126,-0.00285491556860507,-0.0114717436954379,-0.5,-0.0181439276784658,-0.0142082385718822
611,-0.000594203476794064,-0.00314706959761679,-0.0118868723511696,-0.5,-0.0188030526041985,-0.0170054454356432
612,-0.00151139497756958,-0.00403724471107125,-0.0131010226905346,-0.5,-0.0202131625264883,-0.0202128905802965
613,-0.00233625876717269,-0.00500887492671609,-0.0142130935564637,-0.5,-0.0214670188724995,-0.0224527362734079
614,-0.00281746638938785,-0.0057183476164937,-0.0144289843738079,-0.5,-0.0220675971359015,-0.0236463118344545
615,-0.00323614059016109,-0.00628371024504304,-0.0139039205387235,-0.5,-0.0220500081777573,-0.0248254388570786
616,-0.00376511877402663,-0.00673233345150948,-0.0134229809045792,-0.5,-0.0216970331966877,-0.0266641266644001
617,-0.00408831797540188,-0.00699529657140374,-0.0136352898553014,-0.5,-0.021416524425149,-0.0292438473552465
618,-0.0042990711517632,-0.00737813580781221,-0.0148632945492864,-0.5,-0.0219044703990221,-0.032336600124836
619,-0.00477648805826902,-0.00802949629724026,-0.0167775768786669,-0.5,-0.0233813747763634,-0.0347203724086285
620,-0.00511646037921309,-0.00830668024718761,-0.0184053350239992,-0.5,-0.0249687172472477,-0.0348689742386341
621,-0.00492680491879582,-0.00790123455226421,-0.0190856605768204,-0.5,-0.0259453170001507,-0.0329884067177773
622,-0.00472265807911754,-0.00750416750088334,-0.0189525727182627,-0.5,-0.0264168828725815,-0.0305313784629107
623,-0.00484972633421421,-0.00750700291246176,-0.0181158296763897,-0.5,-0.0262100398540497,-0.0282845068722963
624,-0.0052265920676291,-0.0078381085768342,-0.0168649442493916,-0.5,-0.0253677014261484,-0.0267005208879709
625,-0.00578765012323856,-0.00834850687533617,-0.0159848090261221,-0.5,-0.0246363449841738,-0.0263917576521635
626,-0.00643613981083035,-0.00894707813858986,-0.0159057285636663,-0.5,-0.0243311040103436,-0.0275320019572973
627,-0.00702943000942469,-0.00974048860371113,-0.0165148936212063,-0.5,-0.0241643730551004,-0.0298267304897308
628,-0.00744076678529382,-0.0105819562450051,-0.0174295343458653,-0.452040702104568,-0.023870462551713,-0.0324348546564579
629,-0.00737187033519149,-0.010880384594202,-0.0181520562618971,-0.5,-0.0234358720481396,-0.0338474959135056
630,-0.00662099756300449,-0.0105314021930099,-0.0188300963491201,-0.5,-0.0232900660485029,-0.03359379991889
631,-0.00584526499733329,-0.0105241257697344,-0.0198873337358236,-0.5,-0.023764431476593,-0.0330275893211365
632,-0.00565427867695689,-0.0115899629890919,-0.0207576584070921,-0.5,-0.0243320316076279,-0.0332165583968163
633,-0.00557341845706105,-0.0131172919645905,-0.020502582192421,-0.5,-0.0241876617074013,-0.0338006876409054
634,-0.0053711486980319,-0.0142528377473354,-0.0195660814642906,-0.5,-0.0238487981259823,-0.0345446988940239
635,-0.00519659137353301,-0.0148279685527086,-0.019178107380867,-0.5,-0.0245142709463835,-0.0360280126333237
636,-0.00474938144907355,-0.0151271857321262,-0.0192550122737885,-0.5,-0.0256815943866968,-0.0382602997124195
637,-0.00421292055398226,-0.015761461108923,-0.0188570711761713,-0.5,-0.0259805005043745,-0.0407959334552288
638,-0.00397053314372897,-0.0168449748307467,-0.0175851602107286,-0.5,-0.0250567495822906,-0.0431276299059391
639,-0.00379408500157297,-0.0174724012613297,-0.0158950127661228,-0.5,-0.0237503834068775,-0.0435934662818909
640,-0.0032192193903029,-0.0166896134614944,-0.014598828740418,-0.5,-0.0230442844331265,-0.0402511246502399
641,-0.00232682330533862,-0.0147472592070699,-0.0142916264012456,-0.5,-0.0232030190527439,-0.0341573730111122
642,-0.00203230767510831,-0.0129672707989812,-0.0152849787846208,-0.5,-0.0242398120462894,-0.0287012159824371
643,-0.00288981618359685,-0.0120628587901592,-0.0171818342059851,-0.5,-0.0259022526443005,-0.025568887591362
644,-0.00427172007039189,-0.0115247899666429,-0.0188842825591564,-0.5,-0.0272152628749609,-0.024218313395977
645,-0.00539040332660079,-0.0107505833730102,-0.0198889877647161,-0.5,-0.0274218413978815,-0.0233896467834711
646,-0.00616094470024109,-0.00961860455572605,-0.0209212061017752,-0.5,-0.0272878110408783,-0.0222613643854856
647,-0.00626337062567472,-0.00772866420447826,-0.0222668889909983,-0.5,-0.0274985767900944,-0.0207042247056961
648,-0.0051541430875659,-0.00492794439196587,-0.0229859035462141,-0.5,-0.0272412616759539,-0.0193733647465706
649,-0.00355497281998396,-0.00280228187330067,-0.0228452850133181,-0.5,-0.0263547915965319,-0.0203964076936245
650,-0.00278772879391909,-0.00288453092798591,-0.0228872895240784,-0.5,-0.0262633003294468,-0.0250017270445824
651,-0.00334460032172501,-0.00447836611419916,-0.0239273961633444,-0.5,-0.0282212384045124,-0.0312300100922585
652,-0.00495373411104083,-0.00611443212255836,-0.0261130463331938,-0.5,-0.0324668660759926,-0.0363241210579872
653,-0.00655170297250152,-0.00670020468533039,-0.0290713775902987,-0.359792083501816,-0.0379777327179909,-0.0388360507786274
654,-0.00730800023302436,-0.00613714568316936,-0.0323509983718395,0.0586992986500263,-0.0429129526019096,-0.0391897149384022
655,-0.00786794815212488,-0.00586693035438657,-0.0361784100532532,0.5,-0.0467024259269238,-0.039271529763937
656,-0.00868843216449022,-0.00673723313957453,-0.0405941419303417,0.5,-0.0500615835189819,-0.0400959625840187
657,-0.008710578083992,-0.00773132499307394,-0.0445079989731312,0.5,-0.0528562515974045,-0.0412316657602787
658,-0.00695973914116621,-0.00742143206298351,-0.0470034517347813,0.5,-0.0544440820813179,-0.0416001304984093
659,-0.00393630657345057,-0.00548389740288258,-0.0484736412763596,0.5,-0.054898340255022,-0.0405804142355919
660,-0.00074253196362406,-0.00285158236511052,-0.0498210564255714,0.5,-0.0539968498051167,-0.0393084362149239
661,0.00219718110747635,-0.00027172002592124,-0.0511795543134212,0.5,-0.0514027066528797,-0.0391669571399689
662,0.00464664818719029,0.0019228485180065,-0.0524032488465309,0.208235666155815,-0.0489382967352867,-0.0407296605408192
663,0.00542836170643568,0.00269049685448408,-0.0541054829955101,-0.185370042920113,-0.0499478802084923,-0.0445569679141045
664,0.00390593660995364,0.00176290445961058,-0.0565868392586708,-0.48786672949791,-0.0555196665227413,-0.049722071737051
665,0.0013275156961754,0.000607734778895974,-0.0598810985684395,-0.5,-0.0636825263500214,-0.0537417009472847
666,-0.00076805183198303,0.00017938096425496,-0.064276821911335,-0.5,-0.0719457343220711,-0.0554268509149551
667,-0.00199354230426252,-0.000212305836612359,-0.0695833116769791,-0.5,-0.0788876339793205,-0.0560196898877621
668,-0.00291428552009165,-0.00176707783248276,-0.0753152891993523,-0.5,-0.0842976942658424,-0.0582573227584362
669,-0.00390110723674297,-0.00442133750766516,-0.0807862877845764,-0.5,-0.0886633172631264,-0.0633300989866257
670,-0.00483913719654083,-0.00666972855105996,-0.0852538272738457,-0.348188579082489,-0.0923403277993202,-0.0690112188458443
671,-0.00495499139651656,-0.00681558158248663,-0.0878386944532394,-0.130177199840546,-0.0943147838115692,-0.0722632110118866
672,-0.0035673389211297,-0.00442250305786729,-0.0881199464201927,-0.0447401218116283,-0.0934968888759613,-0.0724136307835579
673,-0.00200432119891047,-0.00145180185791105,-0.0877210199832916,-0.0681787431240082,-0.0918416678905487,-0.0717582106590271
674,-0.00159513205289841,0.000190414051758125,-0.0883085057139397,-0.0531588494777679,-0.0919256061315537,-0.0727162808179855
675,-0.00157665472943336,0.000779245863668621,-0.0895214751362801,0.0887686014175415,-0.0932331904768944,-0.0754133984446526
676,-0.00149218703154475,0.000855210062582046,-0.0909465625882149,0.308176964521408,-0.0944993048906326,-0.0786681100726128
677,-0.00139782100450248,0.000938014767598361,-0.0922807157039642,0.5,-0.0953273847699165,-0.0809675082564354
678,-0.000514657120220363,0.00180774799082428,-0.0926154255867004,0.5,-0.0953207165002823,-0.0816657692193985
679,0.00116576964501292,0.00318619143217802,-0.0919192582368851,0.5,-0.0949003174901009,-0.0817485973238945
680,0.0027208139654249,0.00442730309441686,-0.0908674746751785,0.446655750274658,-0.0947476252913475,-0.0817639529705048
681,0.00352066592313349,0.0054740603081882,-0.0900028049945831,0.134176298975945,-0.0949971526861191,-0.0809432789683342
682,0.00289500947110355,0.00607661390677094,-0.089745782315731,-0.14490832388401,-0.0960244834423065,-0.0790921151638031
683,0.00107988761737943,0.0063750627450645,-0.0896278098225594,-0.236376941204071,-0.0976871699094772,-0.0767013654112816
684,-0.000441908690845594,0.00741435820236802,-0.0889887735247612,-0.104986771941185,-0.0990048348903656,-0.0745683237910271
685,-0.000746961333788931,0.00937126763164997,-0.0878871381282806,0.20463652908802,-0.0989516898989677,-0.0743385180830956
686,-0.000616483041085303,0.0107104405760765,-0.0866767838597298,0.5,-0.0974059328436852,-0.077271468937397
687,-0.00126138294581324,0.0105618350207806,-0.0854610875248909,0.5,-0.0952793881297112,-0.0820578783750534
688,-0.00218298379331827,0.0103112356737256,-0.0837189257144928,0.5,-0.0930088683962822,-0.0848153531551361
689,-0.00255793682299554,0.0109881805256009,-0.0815364345908165,0.5,-0.0908348858356476,-0.0826383903622627
690,-0.00224585575051606,0.0121631221845746,-0.0789922848343849,0.5,-0.088405430316925,-0.0763620957732201
691,-0.000841270084492862,0.0133880535140634,-0.075001172721386,0.5,-0.0843534991145134,-0.0691601261496544
692,0.0015874681994319,0.0145403435453773,-0.0693545415997505,0.5,-0.0787383541464806,-0.0629241839051247
693,0.00410507200285792,0.015845000743866,-0.0631456449627876,0.5,-0.0731905698776245,-0.0567518696188927
694,0.005486402194947,0.0171130616217852,-0.057447787374258,0.5,-0.0689860284328461,-0.0498949959874153
695,0.00461468705907464,0.0171037316322327,-0.0534724928438663,0.49116063117981,-0.0669611915946007,-0.0441156551241875
696,0.00209754495881498,0.0154552739113569,-0.0513613112270832,0.5,-0.0663528144359589,-0.0410774014890194
697,0.000775628723204136,0.0140247801318765,-0.0490682572126389,0.5,-0.0641729012131691,-0.0397857427597046
698,0.0014234307454899,0.0136756990104914,-0.0460117757320404,0.5,-0.0600432977080345,-0.039254080504179
699,0.000868422561325133,0.012515602633357,-0.0446355119347572,0.5,-0.0571113377809525,-0.0405654087662697
700,-0.00243433983996511,0.00955872982740402,-0.0453189387917519,0.5,-0.0560211688280106,-0.0434872843325138
701,-0.00584236346185207,0.00661541149020195,-0.0450420305132866,0.5,-0.054714523255825,-0.0446733944118023
702,-0.0071110175922513,0.00553616788238287,-0.0424893796443939,0.5,-0.0532533712685108,-0.0417382642626762
703,-0.00723255425691605,0.00566020095720887,-0.0393771827220917,0.5,-0.0531193651258945,-0.0364251583814621
704,-0.0077667748555541,0.00524739129468799,-0.0369450002908707,0.5,-0.0534376949071884,-0.0316708646714687
705,-0.00829340890049934,0.00407155323773623,-0.0349188186228275,0.5,-0.05236991122365,-0.0283549446612597
706,-0.008060023188591,0.00288423942402005,-0.0332189872860909,0.5,-0.0502275563776493,-0.0261747054755688
707,-0.00736389541998506,0.00232900562696159,-0.0317962728440762,0.5,-0.0478498563170433,-0.0245601441711187
708,-0.00655981618911028,0.0028408789075911,-0.0299402177333832,0.5,-0.0450356751680374,-0.0228999629616737
709,-0.00572581356391311,0.00406641187146306,-0.0271607078611851,0.5,-0.0416341684758663,-0.0212544556707144
710,-0.00493292370811105,0.00541743217036128,-0.0235247146338224,0.5,-0.0378996767103672,-0.0188910067081451
711,-0.00445249816402793,0.00664387596771121,-0.019785912707448,0.5,-0.0345675237476826,-0.0141119416803122
712,-0.00445217778906226,0.00770033430308104,-0.016941212117672,0.5,-0.0322936326265335,-0.00725525291636586
713,-0.00472034187987447,0.00877396855503321,-0.0150034110993147,0.5,-0.030707711353898,-0.000402230769395828
714,-0.00522247608751059,0.00962860696017742,-0.0133819067850709,0.5,-0.0290535073727369,0.00523154903203249
715,-0.00571158481761813,0.0102268364280462,-0.0115686981007457,0.5,-0.0270552467554808,0.00986611656844616
716,-0.00461906939744949,0.0119275292381644,-0.00830530188977718,0.5,-0.0239909142255783,0.0146809313446283
717,-0.000489171128720045,0.0158421155065298,-0.00244315201416612,0.5,-0.0189931131899357,0.0206569265574217
718,0.00525364698842168,0.0204949080944061,0.00469161197543144,0.5,-0.0127980429679155,0.0269636996090412
719,0.00939161330461502,0.0229071900248528,0.0102520994842052,0.5,-0.00617085304111242,0.0311846416443586
720,0.0105340080335736,0.0223789568990469,0.0130900982767344,0.5,0.000806276337243617,0.0326501652598381
721,0.00950584560632706,0.0206272136420012,0.014172213152051,0.5,0.00591749930754304,0.0331386923789978
722,0.00732664810493588,0.0185593515634537,0.0143943354487419,0.239438816905022,0.00628694286569953,0.033523116260767
723,0.0047793397679925,0.0165886245667934,0.0142777040600777,-0.348441690206528,0.00333382678218186,0.0337514020502567
724,0.00294712441973388,0.0158237684518099,0.0150954471901059,-0.5,0.00201839092187583,0.0343737415969372
725,0.00211308617144823,0.0162913780659437,0.0173191744834185,-0.5,0.00449148006737232,0.0356543250381947
726,0.000906774075701833,0.0163706783205271,0.0191414225846529,-0.5,0.00795814115554094,0.0368149466812611
727,-0.00206605857238173,0.0143954996019602,0.0188044756650925,-0.5,0.00946822855621576,0.0363676957786083
728,-0.00683686276897788,0.0100648403167725,0.0165195353329182,0.01152553409338,0.008406026288867,0.0335859023034573
729,-0.0118789151310921,0.00486885104328394,0.0140411648899317,0.5,0.00556891551241279,0.0294289011508226
730,-0.0147923920303583,0.000989931751973927,0.013279183767736,0.5,0.00322476611472666,0.0259660985320807
731,-0.014575726352632,-0.000153621687786654,0.0146773923188448,0.5,0.00310359615832567,0.0255818925797939
732,-0.0132133513689041,0.000786636490374804,0.0169329699128866,0.5,0.00415974762290716,0.0286762975156307
733,-0.0128343105316162,0.00205361633561552,0.0188746377825737,0.5,0.00491397781297565,0.0332947969436646
734,-0.0127302957698703,0.00321439211256802,0.0210758745670319,0.5,0.00636697746813297,0.0379638597369194
735,-0.0112684909254313,0.00475790351629257,0.0245178062468767,0.5,0.0104156685993075,0.0419730581343174
736,-0.00774273090064526,0.00706871645525098,0.0291653908789158,0.5,0.0170718468725681,0.0448822490870953
737,-0.00232666893862188,0.00961779709905386,0.0339461453258991,0.5,0.0257652178406715,0.0466342084109783
738,0.00348390219733119,0.0106441015377641,0.037675891071558,0.5,0.0364555306732655,0.046907801181078
739,0.00756775634363294,0.00981487426906824,0.0400121957063675,0.5,0.0462921224534512,0.0467832982540131
740,0.00882191676646471,0.00868962984532118,0.0406486392021179,0.5,0.0497362352907658,0.0482592582702637
741,0.00746291596442461,0.00801128055900335,0.0394060388207436,0.5,0.0444255247712135,0.0507404841482639
742,0.00449288124218583,0.00744310300797224,0.0367924086749554,0.5,0.0332058966159821,0.0523183606564999
743,0.00144169584382325,0.00684926612302661,0.0338177978992462,0.5,0.0211988855153322,0.0526744909584522
744,-0.000578664941713214,0.00631797546520829,0.031669657677412,0.5,0.0124215316027403,0.0522983744740486
745,-0.000805925636086613,0.00644118990749121,0.0311309993267059,0.5,0.00868241395801306,0.051716111600399
746,0.00179392274003476,0.00838399026542902,0.0329228155314922,0.5,0.0104444930329919,0.0518597289919853
747,0.00612576492130756,0.0111722480505705,0.0365284793078899,0.5,0.0159186683595181,0.0523451194167137
748,0.00884852930903435,0.0115705542266369,0.0392490811645985,0.5,0.0211058035492897,0.0510475821793079
749,0.00823509134352207,0.00824154261499643,0.0389190800487995,0.5,0.0230875425040722,0.0472856052219868
750,0.00569400237873197,0.00315668131224811,0.036334902048111,0.5,0.0223890282213688,0.042801596224308
751,0.00354247447103262,-0.000920905091334134,0.0340104773640633,0.5,0.0214382950216532,0.0396145060658455
752,0.00212412211112678,-0.00317674549296498,0.0329834185540676,0.5,0.0210324823856354,0.0381301790475845
753,0.000925141852349043,-0.00410016113892198,0.0328944958746433,0.5,0.0206759236752987,0.0376495271921158
754,0.000547453702893108,-0.00370393204502761,0.0338351167738438,0.5,0.021085986867547,0.0379372164607048
755,0.000823642942123115,-0.00254720007069409,0.0354451313614845,0.5,0.0227952785789967,0.0387466251850128
756,0.00117497809696943,-0.00142020266503096,0.0370558314025402,0.5,0.0254468359053135,0.0398348234593868
757,0.00205903057940304,-0.000204614392714575,0.0386059060692787,0.5,0.0288377646356821,0.0412221066653728
758,0.00356191187165678,0.00126686401199549,0.0401772707700729,0.5,0.0325576923787594,0.0428599417209625
759,0.00529552344232798,0.00292453845031559,0.0419495142996311,0.5,0.0362178757786751,0.0446769259870052
760,0.00611868035048246,0.00390478363260627,0.0431423410773277,0.5,0.038756113499403,0.0453995279967785
761,0.00485617341473699,0.00316643691621721,0.0424625687301159,0.5,0.0387748368084431,0.0438875071704388
762,0.00250663096085191,0.00118561973795295,0.0403457842767239,0.5,0.0367423072457314,0.0411244034767151
763,0.000514707178808749,-0.00103590323124081,0.0383417904376984,0.5,0.0342511236667633,0.0383478291332722
764,-0.00100507936440408,-0.00299850478768349,0.0372483469545841,0.5,0.032338373363018,0.0359836034476757
765,-0.00204756041057408,-0.00431522727012634,0.0369080752134323,0.5,0.0313231386244297,0.0340541563928127
766,-0.00223576184362173,-0.00496605364605784,0.0372692719101906,0.5,0.0314624421298504,0.0322657227516174
767,-0.00104442925658077,-0.00494542485103011,0.0386772453784943,0.5,0.0334357619285584,0.0314681492745876
768,0.00203545135445893,-0.00348130404017866,0.0414621271193028,0.5,0.0376109257340431,0.0340098179876804
769,0.00655667297542095,-0.000358835037332028,0.0453367978334427,0.5,0.043044451624155,0.0401277244091034
770,0.0104134324938059,0.00273055490106344,0.0486291199922562,0.5,0.0474961437284946,0.0464524328708649
771,0.0109958993270993,0.00356883998028934,0.0491112023591995,0.5,0.0487518832087517,0.0497223921120167
772,0.00800742674618959,0.00191674591042101,0.0465164259076118,0.5,0.0466759987175465,0.0493882521986961
773,0.00397918093949556,-0.000431359483627602,0.0430336929857731,0.5,0.0435341559350491,0.0468560755252838
774,0.00142681680154055,-0.00180843472480774,0.0407761596143246,0.5,0.041625153273344,0.0440931357443333
775,0.00147173891309649,-0.00142284913454205,0.0406915917992592,0.5,0.0417779199779034,0.0429740212857723
776,0.00323090422898531,0.000100995428510942,0.0421144962310791,0.5,0.0430722460150719,0.0439122021198273
777,0.00459447875618935,0.000929408823139966,0.0431585796177387,0.5,0.0439447946846485,0.0452067442238331
778,0.00479900278151035,0.000446464255219325,0.0429069213569164,0.5,0.04374148696661,0.0455867536365986
779,0.00427950173616409,-0.000492834951728582,0.0415809825062752,0.5,0.0424474105238914,0.0456814467906952
780,0.00414959061890841,-0.000756377936340868,0.0402383059263229,0.5,0.0410882793366909,0.0467513129115105
781,0.00492805568501353,-0.000146093152579851,0.0396444723010063,0.5,0.0406188815832138,0.048511765897274
782,0.00581636372953653,0.000398645759560168,0.0393873639404774,0.5,0.0407387167215347,0.0496222078800201
783,0.00705061294138432,0.000707180763129145,0.0396001152694225,0.5,0.0416327901184559,0.050207357853651
784,0.00896044261753559,0.00087532919133082,0.0402550771832466,0.5,0.0431740209460258,0.0503370948135853
785,0.0104720182716846,0.000577973027247936,0.0404920801520348,0.5,0.0439030565321445,0.0496374256908894
786,0.0111822653561831,0.000399031618144363,0.0403972752392292,0.5,0.0433358401060104,0.04912219196558
787,0.0112945241853595,0.00106726645026356,0.0403679348528385,0.5,0.0422077961266041,0.0496908538043499
788,0.0101988650858402,0.00185857282485813,0.0398289524018765,0.5,0.0405228808522224,0.0504537709057331
789,0.00775661272928119,0.00162718875799328,0.0384307093918324,0.5,0.0382491908967495,0.0497860573232174
790,0.0045002899132669,9.69890606938861E-05,0.0364032685756683,0.5,0.0358981266617775,0.0471218377351761
791,0.000768462603446096,-0.00231116730719805,0.0339024178683758,0.5,0.0341004244983196,0.0433540903031826
792,-0.00202330877073109,-0.00407608179375529,0.032035518437624,0.5,0.0341800786554813,0.0402577631175518
793,-0.00269569712691009,-0.00422271620482206,0.031685546040535,0.5,0.0355726033449173,0.0385877937078476
794,-0.00233509344980121,-0.00376458885148168,0.0320538021624088,0.5,0.0350384376943111,0.0378364212810993
795,-0.00266094040125608,-0.0037033895496279,0.0319321379065514,0.5,0.0309208910912275,0.037840262055397
796,-0.00425495533272624,-0.00417459663003683,0.0305463932454586,0.5,0.0247426740825176,0.0387314222753048
797,-0.00619127927348018,-0.00484376586973667,0.0281379595398903,0.5,0.0194011703133583,0.0402860715985298
798,-0.00711114890873432,-0.00497719366103411,0.0257865507155657,0.5,0.0167168825864792,0.041804738342762
799,-0.00668770866468549,-0.00417750515043736,0.0242046900093555,0.5,0.0162455812096596,0.0427224673330784
800,-0.005383743904531,-0.0028678544331342,0.0231490023434162,0.5,0.0166348721832037,0.0428714938461781
801,-0.00330991391092539,-0.00120529846753925,0.0226116795092821,0.5,0.017561225220561,0.0427400916814804
802,-0.00110851821955293,0.000606115791015327,0.0229616314172745,0.5,0.0189038850367069,0.0426664166152477
803,1.64804241649108E-05,0.00159628503024578,0.0240719206631184,0.5,0.0197764411568642,0.0420583263039589
804,-0.000431620690505952,0.00109963084105402,0.0253211837261915,0.5,0.0196862686425447,0.0406148470938206
805,-0.00223664753139019,-0.000469933991553262,0.0256542172282934,0.5,0.0189763270318508,0.0386917144060135
806,-0.00413343636319041,-0.00194294843822718,0.0247232671827078,0.5,0.0184385124593973,0.0366959124803543
807,-0.00502409180626273,-0.00263660680502653,0.0231080465018749,0.5,0.0182531327009201,0.0350192561745644
808,-0.00498777534812689,-0.00212622690014541,0.0215603318065405,0.5,0.0180310606956482,0.0345270186662674
809,-0.00468366779386997,-0.00031889442470856,0.0205266699194908,0.5,0.0174674298614264,0.0355699807405472
810,-0.00438571395352483,0.00211124634370208,0.0202623475342989,0.5,0.0167048927396536,0.0372907407581806
811,-0.00364926550537348,0.00459989858791232,0.0209768507629633,0.5,0.0163571946322918,0.0389137864112854
812,-0.00249933009035885,0.00686127552762628,0.0221640057861805,0.5,0.0164566356688738,0.0401440300047398
813,-0.00127493869513273,0.00895779952406883,0.0232006460428238,0.5,0.0167420282959938,0.0409696400165558
814,-0.000291529315290973,0.0105949956923723,0.0236092004925013,0.5,0.0170566383749247,0.0407732501626015
815,0.000210731639526784,0.0108915250748396,0.0228966437280178,0.5,0.0170598495751619,0.0384555235505104
816,0.000606173649430275,0.00991196185350418,0.0214069187641144,0.5,0.0167436357587576,0.0345714539289474
817,0.00082656810991466,0.00843702536076307,0.0196222830563784,0.5,0.0161048695445061,0.0309128798544407
818,-0.000125126127386466,0.00684862118214369,0.0173276737332344,0.5,0.0145144816488028,0.0287502519786358
819,-0.00248543615452945,0.00562293082475662,0.0146868275478482,0.5,0.0117541020736098,0.0290182568132877
820,-0.0046967351809144,0.00566458189859986,0.0129283359274268,0.307245999574661,0.00921712629497051,0.031684935092926
821,-0.00506746442988515,0.00713269878178835,0.0129876742139459,-0.251024395227432,0.00834061577916145,0.0345807783305645
822,-0.00355302426032722,0.00932676251977682,0.0144179817289114,-0.5,0.00878753047436476,0.0356274470686913
823,-0.000940642028581351,0.0119811948388815,0.0161483511328697,-0.5,0.00965990126132965,0.0352232903242111
824,0.00147837726399302,0.014375563710928,0.0166854169219732,-0.5,0.00977379735559225,0.0343507751822472
825,0.00247334269806743,0.0154281035065651,0.0153244696557522,-0.5,0.00818407256156206,0.0333285257220268
826,0.00301565020345151,0.0158315766602755,0.0139480633661151,-0.5,0.00649384362623096,0.0331150554120541
827,0.00465103145688772,0.0165947265923023,0.0144414640963078,-0.5,0.00679382123053074,0.0338352620601654
828,0.00709423376247287,0.0172286797314882,0.0162819847464561,-0.5,0.00872215908020735,0.03382233902812
829,0.00958111975342035,0.0173531584441662,0.0181649271398783,-0.5,0.010962232016027,0.0323072634637356
830,0.0114930346608162,0.0173588022589684,0.019203195348382,-0.5,0.0124900061637163,0.0299900975078344
831,0.0118441050872207,0.0169761441648006,0.018610367551446,-0.5,0.012431837618351,0.026867464184761
832,0.010044970549643,0.015249072574079,0.0158697590231895,-0.5,0.0105183133855462,0.0224545914679766
833,0.00652753654867411,0.0120629472658038,0.0117536382749677,-0.5,0.00728644197806716,0.017719704657793
834,0.00187968031968921,0.00786036252975464,0.00732919340953231,-0.5,0.0033685895614326,0.013662438839674
835,-0.00415655551478267,0.00231663533486426,0.00216423161327839,-0.5,-0.00146745936945081,0.00922908820211887
836,-0.0116466367617249,-0.00450933212414384,-0.00401811907067895,-0.5,-0.00755257997661829,0.00340593419969082
837,-0.0199112705886364,-0.0117767527699471,-0.0106379492208362,-0.5,-0.0147015154361725,-0.00352073763497174
838,-0.0278497263789177,-0.0186714194715023,-0.0169536639004946,-0.5,-0.0218917913734913,-0.0107884230092168
839,-0.0330358445644379,-0.023145530372858,-0.0209732316434383,-0.230817198753357,-0.0263538751751184,-0.0158703215420246
840,-0.0333412773907185,-0.0232630856335163,-0.0208686720579863,0.5,-0.0260336026549339,-0.0154671305790544
841,-0.0284336842596531,-0.0191667545586824,-0.016527334228158,0.5,-0.0208235029131174,-0.00877603143453598
842,-0.0198766440153122,-0.0127254901453853,-0.00953304767608643,0.5,-0.0120418034493923,0.00126452883705497
843,-0.0118091981858015,-0.00735011743381619,-0.00348823936656117,0.5,-0.00363522255793214,0.00984226539731026
844,-0.00757474638521671,-0.00526453414931893,-0.00106830673757941,0.5,0.000862423854414374,0.01441565528512
845,-0.00604382622987032,-0.00517276069149375,-0.000768113532103598,0.5,0.00239940290339291,0.0161566361784935
846,-0.00493381964042783,-0.00542305829003453,-0.00018239526252728,0.5,0.00332662253640592,0.0165047515183687
847,-0.00462067080661654,-0.00636102817952633,0.00016463991778437,0.5,0.00346352974884212,0.0153345819562674
848,-0.00515254493802786,-0.00736683141440153,-0.000273176236078143,0.5,0.00268105510622263,0.0137728042900562
849,-0.00564478943124413,-0.00746278837323189,-0.000937723205424845,0.5,0.00170170771889389,0.0128165567293763
850,-0.00600620405748487,-0.00725232716649771,-0.00156454520765692,0.5,0.000719154428225011,0.0115303387865424
851,-0.00481660570949316,-0.0061157732270658,-0.000787709024734795,0.5,0.00118692207615823,0.0107336603105068
852,-0.00158324174117297,-0.00363234593532979,0.00208547268994153,0.5,0.00378911895677447,0.0115691944956779
853,0.00164911395404488,-0.00127333018463105,0.00545896776020527,0.5,0.006658676546067,0.0127493292093277
854,0.00439092423766851,0.000895647564902902,0.00843839161098003,0.5,0.00899484287947416,0.014085317030549
855,0.00653846887871623,0.00303601659834385,0.0106241246685386,0.5,0.010695131495595,0.016358619555831
856,0.00638384278863668,0.00365852122195065,0.0107700303196907,0.5,0.0104265222325921,0.0185801181942225
857,0.00367035553790629,0.00233414373360574,0.00880137458443642,0.5,0.00803631823509932,0.019470252096653
858,5.8285215345677E-05,0.000221982671064325,0.0060651688836515,0.5,0.00510291289538145,0.0188566278666258
859,-0.00219360319897532,-0.000960858538746834,0.00453622126951814,0.5,0.0035504603292793,0.0179454181343317
860,-0.00159941893070936,0.000122202356578782,0.00542385969310999,0.5,0.00429685926064849,0.0182658899575472
861,0.000656883581541479,0.00309875258244574,0.00722176348790526,0.5,0.00561151839792728,0.0199276469647884
862,0.00252989609725773,0.00677372235804796,0.00809022597968578,0.5,0.00535034760832787,0.0226745344698429
863,0.00342571036890149,0.0102724246680737,0.00795002188533545,0.5,0.00372548424638808,0.0264304354786873
864,0.00333899329416454,0.0127922622486949,0.00698082195594907,0.5,0.00178637960925698,0.0297530926764011
865,0.00178550463169813,0.0132868038490415,0.00530254142358899,0.5,-0.0003706605930347,0.0304767172783613
866,-0.00134345074184239,0.0114117655903101,0.00313834752887487,0.5,-0.00316332723014057,0.0280052963644266
867,-0.00515620084479451,0.00800586212426424,0.000139777766889893,0.5,-0.0067676892504096,0.0232195109128952
868,-0.00900765601545572,0.00392814632505178,-0.00399229303002357,0.5,-0.0110426461324096,0.017250781878829
869,-0.0120603609830141,0.000437911658082157,-0.00793664809316397,0.5,-0.014927688986063,0.0117582147940993
870,-0.012742199935019,-0.000813970866147429,-0.00956628657877445,0.5,-0.016698133200407,0.00864559970796108
871,-0.0101089244708419,0.00093097030185163,-0.00809156894683838,0.5,-0.0152856074273586,0.00900725927203894
872,-0.00493465270847082,0.0049452637322247,-0.00462168175727129,0.5,-0.0111491112038493,0.0121705308556557
873,0.000258040439803153,0.00912114698439837,-0.00126808474306017,0.5,-0.00658952398225665,0.015545547939837
874,0.0028993496671319,0.0111446809023619,7.43896889616735E-05,0.5,-0.00435092858970165,0.016232093796134
875,0.00285641965456307,0.0105692390352488,-0.000709987885784358,0.5,-0.00452940864488482,0.0138928629457951
876,0.00187393301166594,0.00881428830325603,-0.00202878448180854,0.5,-0.00502364058047533,0.0107025289908051
877,0.000384344166377559,0.00631738780066371,-0.00318791740573943,0.5,-0.00563526200130582,0.00740816351026297
878,-0.00216288841329515,0.00286575476638973,-0.00441395817324519,0.5,-0.0073140524327755,0.00357785099186003
879,-0.00458837021142244,0.000109630520455539,-0.00501011125743389,0.5,-0.00883660465478897,0.000776606670115143
880,-0.00488886842504144,-7.48556776670739E-05,-0.00395006546750665,0.5,-0.00810799282044172,0.000741559255402535
881,-0.00278522842563689,0.00200923532247543,-0.00147552136331797,0.5,-0.00496415700763464,0.00270195421762764
882,0.000919621554203331,0.00535055575892329,0.00154985266271979,0.5,-0.000722701894119382,0.00546877412125468
883,0.0053298519924283,0.00917444285005331,0.00475542945787311,0.5,0.00341622368432581,0.00850189663469791
884,0.00936258397996426,0.0124795194715261,0.00774846691638231,0.5,0.0068710925988853,0.0108338920399547
885,0.0132055310532451,0.0155168641358614,0.0105779301375151,0.5,0.0102593619376421,0.0127234486863017
886,0.0176689978688955,0.0190587155520916,0.0133385667577386,0.5,0.0140869366005063,0.0149419205263257
887,0.0219928063452244,0.0222973171621561,0.0151447225362062,0.5,0.0174430385231972,0.0171551816165447
888,0.0249746572226286,0.0240689069032669,0.0157346427440643,0.5,0.0196156967431307,0.0196364931762218
889,0.02610033005476,0.0238679051399231,0.0155142871662974,0.5,0.0201700124889612,0.022300960496068
890,0.0250641461461782,0.0217532366514206,0.0141316745430231,0.5,0.0181902777403593,0.0235448703169823
891,0.0220096670091152,0.0185815766453743,0.0114891370758414,0.5,0.0135948993265629,0.0223712977021933
892,0.0172467306256294,0.0148359043523669,0.00808937754482031,0.430929601192474,0.0073173581622541,0.0189966317266226
893,0.0109181115403771,0.0100579801946878,0.00400188146159053,-0.5,0.000269762298557907,0.0138111039996147
894,0.00469138007611036,0.00540278432890773,0.000118485164421145,-0.5,-0.00577865773811936,0.00843421369791031
895,0.000859754916746169,0.00302216620184481,-0.00220610736869276,-0.5,-0.00909280031919479,0.00498939119279385
896,-0.000324279593769461,0.00310789351351559,-0.00316847511567175,-0.5,-0.0100855939090252,0.00367801473475993
897,-0.000122508266940713,0.00425905454903841,-0.00368745159357786,-0.5,-0.0102986237034202,0.00312838633544743
898,-0.000351068010786548,0.00435646111145616,-0.00478348229080439,-0.5,-0.011216439306736,0.00157065282110125
899,-0.00185763952322304,0.00249850586988032,-0.00687227072194219,-0.5,-0.0129655692726374,-0.00139910762663931
900,-0.00392832653596997,-9.28162990021519E-05,-0.00934758596122265,-0.5,-0.0144884223118424,-0.00479646399617195
901,-0.00605794135481119,-0.00232544681057334,-0.0120182037353516,-0.116154231131077,-0.0158416554331779,-0.00841288734227419
902,-0.00841436348855495,-0.00463300524279475,-0.0153423193842173,0.5,-0.0179233774542809,-0.0132001684978604
903,-0.0108935469761491,-0.00763959204778075,-0.0192468948662281,0.5,-0.0208116937428713,-0.0190404318273067
904,-0.0123312333598733,-0.00993333756923676,-0.022341214120388,0.5,-0.0231245141476393,-0.0231955926865339
905,-0.0117805860936642,-0.00972401537001133,-0.0230799894779921,0.5,-0.0233215298503637,-0.023488812148571
906,-0.00977388024330139,-0.00740480842068791,-0.0214446280151606,0.5,-0.0214762538671494,-0.0208790861070156
907,-0.00739247305318713,-0.00439073191955686,-0.018792973831296,0.5,-0.0188754834234715,-0.0173127800226212
908,-0.00541872344911098,-0.00173556013032794,-0.0163645371794701,0.5,-0.0165225248783827,-0.0139884809032083
909,-0.00446989294141531,-0.000471073319204152,-0.0148426340892911,0.5,-0.0149691486731172,-0.0122669581323862
910,-0.00474759703502059,-0.00112314627040178,-0.0144951799884439,0.5,-0.0145672634243965,-0.013088452629745
911,-0.00537147931754589,-0.00268688122741878,-0.0146742593497038,0.5,-0.01455441955477,-0.0151519989594817
912,-0.00575763639062643,-0.00425091292709112,-0.0149192400276661,0.5,-0.0140326581895351,-0.0164516996592283
913,-0.00609766878187656,-0.00562242325395346,-0.0152302430942655,0.5,-0.0130201922729611,-0.016078095883131
914,-0.00599357532337308,-0.00619540177285671,-0.0150428684428334,0.5,-0.0114861885085702,-0.0141251180320978
915,-0.0054460447281599,-0.0062357559800148,-0.0145773235708475,0.5,-0.0100004440173507,-0.0119647439569235
916,-0.00481573631986976,-0.00633640075102448,-0.0145224183797836,0.5,-0.00923057831823826,-0.0109414616599679
917,-0.00326327700167894,-0.00529453763738275,-0.0138999512419105,0.5,-0.00818349979817867,-0.00997554790228605
918,-0.000114508198748808,-0.00196758634410799,-0.0115272523835301,0.5,-0.00570162199437618,-0.0068819266743958
919,0.00356402131728828,0.00248238164931536,-0.00807531084865332,0.5,-0.00231629027985036,-0.00195932574570179
920,0.00647369446232915,0.00628569070249796,-0.0049100024625659,0.5,0.00091869750758633,0.00223457394167781
921,0.0085932482033968,0.00907486863434315,-0.00268849963322282,0.5,0.00366648542694747,0.00415713107213378
922,0.0105944499373436,0.0115601914003491,-0.00120864203199744,0.5,0.00584082351997495,0.00472661759704351
923,0.0127852521836758,0.0142344031482935,0.000355970405507833,0.5,0.00750952353700995,0.0054904711432755
924,0.0142098879441619,0.0158646516501904,0.00163104839157313,0.5,0.0083369892090559,0.00577283883467317
925,0.0136922048404813,0.0148789770901203,0.00120279518887401,0.5,0.0074275191873312,0.00410948181524873
926,0.0110178589820862,0.0112713277339935,-0.00141883559990674,0.5,0.00427578715607524,0.000442131247837096
927,0.00715973461046815,0.00652336189523339,-0.00543256429955363,0.5,-0.00029538111994043,-0.00436016730964184
928,0.00376785732805729,0.00255992659367621,-0.00924386736005545,0.5,-0.00445561902597547,-0.00897153466939926
929,0.00194662262219936,0.000473866355605423,-0.0114498306065798,0.5,-0.00683859083801508,-0.0121036609634757
930,0.00241682468913496,0.00082036858657375,-0.0113690011203289,0.5,-0.00689779501408339,-0.0132442396134138
931,0.00487213162705302,0.00301471468992531,-0.0096434410661459,0.5,-0.00534614827483892,-0.013626360334456
932,0.00742423348128796,0.00536454236134887,-0.00807493459433317,0.0150575190782547,-0.00406354991719127,-0.0145033355802298
933,0.0085757514461875,0.00695456052199006,-0.00791382696479559,-0.5,-0.00419303588569164,-0.0148907667025924
934,0.00913534499704838,0.00859013199806213,-0.00835268292576075,-0.5,-0.00491433963179588,-0.0123158246278763
935,0.0111593967303634,0.0119518721476197,-0.00735202385112643,-0.5,-0.00445889867842197,-0.00566596072167158
936,0.0143109569326043,0.0163422413170338,-0.00526438467204571,-0.5,-0.0030169531237334,0.00178141065407544
937,0.0162375327199697,0.0191820040345192,-0.00474724359810352,-0.5,-0.00278053898364306,0.00547600258141756
938,0.0178722720593214,0.0212923604995012,-0.00537822861224413,-0.5,-0.00320822419598699,0.00602730503305793
939,0.0217801779508591,0.0250495225191116,-0.00454900832846761,-0.5,-0.00162643834482878,0.00649048248305917
940,0.0262383185327053,0.0291988495737314,-0.0031100488267839,-0.5,0.00126144965179265,0.00659810472279787
941,0.0280437171459198,0.0315529406070709,-0.00361939030699432,-0.5,0.00260495021939278,0.00540664698928595
942,0.0273799914866686,0.0323639325797558,-0.00614003837108612,-0.5,0.00174215028528124,0.00390151073224843
943,0.0253077615052462,0.0316814370453358,-0.00995831005275249,-0.5,-0.000924681080505252,0.00211886712349951
944,0.0214119143784046,0.0283638052642345,-0.0149875394999981,-0.5,-0.00561177171766758,-0.00120628997683525
945,0.0161078963428736,0.0227610040456057,-0.0198882147669792,-0.5,-0.0113650448620319,-0.0061164041981101
946,0.0103397611528635,0.0158484298735857,-0.0237889587879181,-0.5,-0.0169512871652842,-0.0124995736405253
947,0.00452170753851533,0.00836590025573969,-0.0275312568992376,-0.5,-0.0222962368279696,-0.0205287504941225
948,-0.000583112996537238,0.00194451259449124,-0.0312738083302975,-0.5,-0.0274215992540121,-0.0286989398300648
949,-0.00532448478043079,-0.00295666512101889,-0.0351188443601131,-0.5,-0.0328807458281517,-0.035575058311224
950,-0.0108849313110113,-0.00761063024401665,-0.0395902469754219,-0.5,-0.0392633527517319,-0.0411634333431721
951,-0.0173976607620716,-0.0128256427124143,-0.0446560271084309,-0.5,-0.0465306453406811,-0.0455586612224579
952,-0.0242420751601458,-0.0182471144944429,-0.0500532537698746,-0.5,-0.0542090609669685,-0.0485844686627388
953,-0.0299761760979891,-0.022611889988184,-0.05488445982337,-0.5,-0.0607007890939713,-0.050222922116518
954,-0.0326451286673546,-0.0244814325124025,-0.0575556308031082,-0.5,-0.0641190558671951,-0.0508225820958614
955,-0.0317243449389935,-0.023657413199544,-0.0573671720921993,-0.5,-0.0643533989787102,-0.0507681220769882
956,-0.0284292101860046,-0.021065866574645,-0.0554310232400894,-0.5,-0.0629367083311081,-0.0499333627521992
957,-0.0238615833222866,-0.0170871037989855,-0.0530940629541874,-0.5,-0.0608770847320557,-0.0478862822055817
958,-0.0190494321286678,-0.012502514757216,-0.051245104521513,-0.5,-0.0587619952857494,-0.0458467677235603
959,-0.014973109588027,-0.00894564110785723,-0.0501396581530571,-0.5,-0.0567848458886147,-0.045915275812149
960,-0.0114751774817705,-0.00682486314326525,-0.0491269566118717,-0.5,-0.0542888715863228,-0.0478715337812901
961,-0.00856717582792044,-0.00557734863832593,-0.0488056130707264,-0.5,-0.0520601570606232,-0.0505299158394337
962,-0.0068151387386024,-0.00483823660761118,-0.0501909218728542,-0.5,-0.0515977963805199,-0.0536724142730236
963,-0.00593388685956597,-0.00419727340340614,-0.0521157421171665,-0.5,-0.0523134618997574,-0.057126060128212
964,-0.00557546550408006,-0.00356954825110734,-0.0534768290817738,-0.5,-0.0533446855843067,-0.0608000345528126
965,-0.00575489830225706,-0.00315475766547024,-0.0542230792343616,-0.5,-0.054724708199501,-0.0640439987182617
966,-0.00588075025007129,-0.0025204683188349,-0.0536214336752892,-0.5,-0.055681835860014,-0.0649907365441322
967,-0.00556756695732474,-0.0013082236982882,-0.0520054027438164,-0.5,-0.0555009692907333,-0.0625788643956184
968,-0.00525308540090919,2.47272437263746E-05,-0.0513447448611259,-0.5,-0.054855365306139,-0.0581823848187923
969,-0.00494861369952559,0.00121889333240688,-0.0522018186748028,-0.5,-0.0546930879354477,-0.0542364604771137
970,-0.00406018225476146,0.00254029943607748,-0.0534008219838142,-0.5,-0.0551083087921143,-0.0517846494913101
971,-0.00294256443157792,0.00351171637885273,-0.0544769950211048,-0.5,-0.0559259466826916,-0.0511672608554363
972,-0.00221556983888149,0.00373223423957825,-0.0556880459189415,-0.5,-0.056700699031353,-0.0522841885685921
973,-0.00153352459892631,0.00405211606994271,-0.0568964704871178,-0.5,-0.0568958036601543,-0.0534243546426296
974,-0.000767413934227079,0.0050308876670897,-0.0579320006072521,-0.5,-0.0569771118462086,-0.0536343082785606
975,-0.000131769789732061,0.00618476187810302,-0.0587379857897758,-0.5,-0.0573315992951393,-0.0541914328932762
976,0.00049248308641836,0.00713712442666292,-0.0590878091752529,-0.5,-0.0578223764896393,-0.0559008233249187
977,0.00120284385047853,0.00809796992689371,-0.0586546398699284,-0.5,-0.058658804744482,-0.0579866133630276
978,0.0018683027010411,0.00914608314633369,-0.057714968919754,-0.5,-0.0598890706896782,-0.0600774139165878
979,0.00267575960606337,0.0104030193760991,-0.0567296072840691,-0.5,-0.0611078403890133,-0.0621445700526237
980,0.00393227068707347,0.0118158813565969,-0.0555281117558479,-0.5,-0.0616273395717144,-0.0636014193296433
981,0.00459472928196192,0.012012573890388,-0.0546535551548004,-0.5,-0.0616373382508755,-0.0646847411990166
982,0.00310178613290191,0.00990581046789885,-0.0554743707180023,-0.5,-0.0627882778644562,-0.0663155913352966
983,-0.000342039711540565,0.00649114092811942,-0.0581420175731182,-0.5,-0.0655837804079056,-0.0685276091098785
984,-0.00439543183892965,0.00308142765425146,-0.0614036582410336,-0.5,-0.0686008408665657,-0.0709279179573059
985,-0.00779871828854084,0.000284304871456698,-0.0642004460096359,-0.5,-0.0707826763391495,-0.0728020966053009
986,-0.00978663843125105,-0.00130202097352594,-0.0664243996143341,-0.5,-0.072193332016468,-0.072763979434967
987,-0.010442822240293,-0.00118624255992472,-0.0681208297610283,-0.5,-0.0731201097369194,-0.0702115893363953
988,-0.0108634065836668,-7.85977026680484E-05,-0.0695643946528435,-0.5,-0.0741290673613548,-0.0665691718459129
989,-0.012332571670413,0.00025157182244584,-0.0715489611029625,-0.5,-0.0760166868567467,-0.0637975931167603
990,-0.0146347470581532,-0.00076241185888648,-0.0741406679153442,-0.5,-0.0786673650145531,-0.0624453760683537
991,-0.0163865499198437,-0.00189989327918738,-0.0761169567704201,-0.5,-0.0808082520961761,-0.0619408264756203
992,-0.0165017284452915,-0.00178201135713607,-0.0764026939868927,-0.5,-0.0812899693846703,-0.0617172792553902
993,-0.0150033002719283,-0.000466186524135992,-0.0752175599336624,-0.5,-0.0798357352614403,-0.0618696361780167
994,-0.0125236380845308,0.00124182575382292,-0.072664700448513,-0.5,-0.0759963616728783,-0.0622691661119461
995,-0.00993913505226374,0.00284882471896708,-0.0689063519239426,-0.5,-0.0703937783837318,-0.0622876659035683
996,-0.00917286239564419,0.00318223843351007,-0.0661998316645622,-0.5,-0.0666356161236763,-0.0624162964522839
997,-0.0114990118891001,0.00162662204820663,-0.0669430494308472,-0.5,-0.067931242287159,-0.0636178106069565
998,-0.0151091450825334,-0.000248093012487516,-0.0707794278860092,-0.390628963708878,-0.0730069279670715,-0.0662447884678841
999,-0.0170798096805811,-0.00112605094909668,-0.0753926262259483,0.477130621671677,-0.0779400393366814,-0.0707335770130157
1000,-0.0165598727762699,-0.00139643007423729,-0.0786700695753098,0.5,-0.080499030649662,-0.0764934048056602
1001,-0.0142651135101914,-0.0013073222944513,-0.0796673521399498,0.5,-0.0806546285748482,-0.0814208090305328
1002,-0.0111567061394453,-0.000358991790562868,-0.0786007791757584,0.5,-0.0794840380549431,-0.0838297009468079
1003,-0.00844258815050125,0.00172410858795047,-0.0765301212668419,0.5,-0.0787575989961624,-0.0829417631030083
1004,-0.00710733560845256,0.00427436968311667,-0.0749861598014832,0.5,-0.0793954059481621,-0.0792193189263344
1005,-0.00767457485198975,0.00560672441497445,-0.0751980841159821,0.5,-0.0812542960047722,-0.0747266858816147
1006,-0.00989900715649128,0.00487755425274372,-0.0766139253973961,0.5,-0.0838274881243706,-0.0710514411330223
1007,-0.0123301204293966,0.00317276269197464,-0.0773588716983795,0.5,-0.085772842168808,-0.0682114958763123
1008,-0.0132535668089986,0.00228149769827724,-0.0762703344225883,0.5,-0.0854294970631599,-0.0652867555618286
1009,-0.011981968767941,0.00341983139514923,-0.0733784139156342,0.5,-0.0822351276874542,-0.0611987933516502
1010,-0.00956340227276087,0.00594856450334191,-0.0696561858057976,0.5,-0.0774721726775169,-0.0566969476640224
1011,-0.00746974255889654,0.00830305926501751,-0.0660986378788948,0.195796728134155,-0.0730296224355698,-0.0535770505666733
1012,-0.00598157895728946,0.0100851729512215,-0.0627851188182831,-0.398138344287872,-0.0695817098021507,-0.0516015738248825
1013,-0.00478307716548443,0.011755783110857,-0.0593716278672218,-0.5,-0.0667630732059479,-0.0491120256483555
1014,-0.00289748283103108,0.0137539487332106,-0.0551167018711567,-0.5,-0.0631649270653725,-0.0453208759427071
1015,1.94814110727748E-05,0.015467663295567,-0.0500836707651615,-0.5,-0.057979442179203,-0.0415326505899429
1016,0.00302637368440628,0.0165012460201979,-0.0454670302569866,-0.5,-0.0524859093129635,-0.0388677082955837
1017,0.00654533226042986,0.01861965470016,-0.0413336679339409,-0.5,-0.0471302047371864,-0.0356797240674496
1018,0.0110825290903449,0.0226787198334932,-0.0372874513268471,-0.5,-0.0412725210189819,-0.030628552660346
1019,0.0154882473871112,0.0272356383502483,-0.0334405191242695,-0.5,-0.0351467169821262,-0.0247321501374245
1020,0.0182997547090054,0.0306016635149717,-0.0303117036819458,-0.5,-0.0298690050840378,-0.0200997088104486
1021,0.0183607004582882,0.0313306339085102,-0.0288204867392778,-0.5,-0.0269526150077581,-0.018602542579174
1022,0.0160022024065256,0.0291765760630369,-0.028653571382165,-0.5,-0.0264776069670916,-0.0201044026762247
1023,0.0129690188914537,0.0255679674446583,-0.0283500663936138,-0.5,-0.0268300324678421,-0.0224304758012295
1024,0.0104322722181678,0.0220816489309072,-0.0272831432521343,-0.5,-0.0270128715783358,-0.0229795407503843
1025,0.00828391313552856,0.0189969297498465,-0.0260646883398294,-0.5,-0.0273922961205244,-0.0212056413292885
1026,0.00616870960220695,0.0159783307462931,-0.0252036806195974,-0.5,-0.0282067190855742,-0.0186997689306736
1027,0.00374953378923237,0.0129848513752222,-0.024976372718811,-0.5,-0.0294291079044342,-0.0168062709271908
1028,0.00012549442180898,0.00963408313691616,-0.026316475123167,-0.5,-0.0318347103893757,-0.0165573414415121
1029,-0.00487586297094822,0.0058615654706955,-0.0295158084481955,-0.5,-0.0358764715492725,-0.0179064944386482
1030,-0.010030334815383,0.00227951654233038,-0.0332268588244915,-0.5,-0.0404544286429882,-0.0195126794278622
1031,-0.0128631545230746,0.000228726712521166,-0.0346596948802471,-0.5,-0.0426437146961689,-0.0197343919426203
1032,-0.0116342948749661,0.000448804581537843,-0.0318694971501827,-0.5,-0.0401919782161713,-0.0178530178964138
1033,-0.00823567342013121,0.00107092352118343,-0.0266262236982584,-0.5,-0.0348811969161034,-0.0155183030292392
1034,-0.00569448107853532,0.000293909368338063,-0.0218931250274181,-0.5,-0.030046172440052,-0.0145068075507879
1035,-0.00503853801637888,-0.00132964411750436,-0.0187485404312611,-0.5,-0.0269567929208279,-0.0143482275307179
1036,-0.00501913717016578,-0.00193346792366356,-0.0161122661083937,-0.5,-0.0243537556380033,-0.0126862209290266
1037,-0.00394040253013372,-0.00078842620132491,-0.0125207807868719,-0.5,-0.0206245128065348,-0.0083540165796876
1038,-0.00176996900700033,0.000747992831747979,-0.00827244948595762,-0.5,-0.0157352481037378,-0.00338821788318455
1039,0.000438455783296376,0.00116662099026144,-0.00425088312476873,-0.5,-0.0103810597211123,-0.000446589576313272
1040,0.00118496082723141,-0.000249147502472624,-0.00113658222835511,-0.5,-0.00581734348088503,-0.000524317845702171
1041,-1.99634741875343E-05,-0.00275299325585365,0.000628317007794976,-0.5,-0.00302699021995068,-0.00214236858300865
1042,-0.00188826862722635,-0.00471536722034216,0.00163261452689767,-0.5,-0.00152679160237312,-0.00281648640520871
1043,-0.00333674834109843,-0.00577066047117114,0.00307040708139539,-0.5,-0.000297432619845495,-0.00200112070888281
1044,-0.00419262889772654,-0.0062250467017293,0.00536187272518873,-0.5,0.00110643194057047,-0.000216977059608325
1045,-0.00495232734829187,-0.00615461263805628,0.00730838160961866,-0.5,0.00195206678472459,0.00268939207307994
1046,-0.00585666391998529,-0.00554149830713868,0.00842250604182482,-0.5,0.00210966425947845,0.00702157244086266
1047,-0.00652769953012466,-0.00466493377462029,0.00972756836563349,-0.5,0.00279015302658081,0.0117338681593537
1048,-0.00718234525993466,-0.00428007170557976,0.0114508280530572,-0.5,0.00408355798572302,0.0150948278605938
1049,-0.0076750754378736,-0.00419052084907889,0.0136275663971901,-0.5,0.00554669415578246,0.0170664489269257
1050,-0.00709484331309795,-0.00356316240504384,0.0164595525711775,-0.5,0.00744821131229401,0.0182087328284979
1051,-0.00545872561633587,-0.00243213376961648,0.0194020941853523,-0.5,0.00975306984037161,0.0181425847113132
1052,-0.00397625705227256,-0.001765719614923,0.0220165178179741,-0.5,0.0120231118053198,0.01666016317904
1053,-0.00429073255509138,-0.00274066114798188,0.0237012710422277,-0.5,0.0131410304456949,0.0148186590522528
1054,-0.00665439385920763,-0.0053091268055141,0.0238181632012129,-0.5,0.0124301807954907,0.0149160381406546
1055,-0.00977448001503944,-0.0089177843183279,0.0228369627147913,-0.5,0.0110457884147763,0.017612412571907
1056,-0.0135861290618777,-0.0142822992056608,0.0211525857448578,-0.5,0.00959521997720003,0.0198578294366598
1057,-0.0185935124754906,-0.0212539229542017,0.0188870076090097,-0.5,0.00761554250493646,0.0191181097179651
1058,-0.0239299144595861,-0.0276303254067898,0.016700429841876,-0.5,0.00536323757842183,0.016360966488719
1059,-0.0281758606433868,-0.0315829031169415,0.0154265584424138,-0.5,0.00378053705208004,0.0138406325131655
1060,-0.0299606714397669,-0.0326222442090511,0.0160414762794971,-0.5,0.00421852897852659,0.0131511585786939
1061,-0.0286017581820488,-0.0314895771443844,0.0189669318497181,-0.5,0.00761079741641879,0.0140056554228067
1062,-0.0252101439982653,-0.0296500287950039,0.0230292230844498,-0.5,0.0130255445837975,0.0148958871141076
1063,-0.021583529189229,-0.0276890471577644,0.0271314214915037,-0.5,0.0187730193138123,0.0158320218324661
1064,-0.0182389188557863,-0.0251929499208927,0.0318071022629738,-0.5,0.0246689505875111,0.0180453211069107
1065,-0.0150862699374557,-0.0221001151949167,0.0371340773999691,-0.5,0.0308295805007219,0.0217952281236649
1066,-0.0127630345523357,-0.0191139448434114,0.0414836518466473,-0.5,0.0356802232563496,0.0262743663042784
1067,-0.0119590181857347,-0.0170307140797377,0.0435054823756218,-0.5,0.0375506952404976,0.0306305419653654
1068,-0.012804064899683,-0.0164731126278639,0.0431623123586178,-0.5,0.0364345386624336,0.0338779389858246
1069,-0.0144582837820053,-0.0172245260328054,0.0416703708469868,-0.5,0.034166943281889,0.0349687971174717
1070,-0.0146213117986918,-0.0173567477613688,0.0416775196790695,-0.5,0.033908274024725,0.0349655337631702
1071,-0.011606159619987,-0.015023622661829,0.0450982637703419,-0.5,0.0374144874513149,0.0366611517965794
1072,-0.00611889502033591,-0.0103544816374779,0.0509381256997585,-0.5,0.0434355065226555,0.0406931601464748
1073,-0.000965539482422173,-0.00546068930998445,0.056108396500349,-0.5,0.0488183908164501,0.0446160584688187
1074,0.00120726448949426,-0.00251402659341693,0.0586327128112316,-0.5,0.051218681037426,0.0465626455843449
1075,0.000420544442022219,-0.00149817485362291,0.0589716657996178,-0.5,0.0506529957056046,0.0470336861908436
1076,-0.00174092676024884,-0.0015199271729216,0.0580980852246284,-0.5,0.0481197200715542,0.0464322157204151
1077,-0.00346597516909242,-0.00200208183377981,0.0573078878223896,-0.5,0.0456899330019951,0.0445385910570621
1078,-0.00355556048452854,-0.00226098112761974,0.0576721020042896,-0.5,0.0452952347695827,0.0420917347073555
1079,-0.00316412141546607,-0.00284778932109475,0.0582251809537411,-0.5,0.0457648895680904,0.0397490561008453
1080,-0.0039322217926383,-0.00467015104368329,0.0579284988343716,-0.5,0.0453982576727867,0.0378833711147308
1081,-0.00475990260019898,-0.00633348245173693,0.0579223930835724,-0.5,0.0455243289470673,0.0388300530612469
1082,-0.00385271105915308,-0.00619564391672611,0.0593002401292324,-0.5,0.0479636713862419,0.0445184707641602
