,AF3,AF4,Fp1,Fp2,AF7,AF8
0,0.00379559141583741,-0.00146100448910147,0.072088323533535,-0.487714648246765,0.0769787952303886,0.0593612007796764
1,0.00149591034278274,-0.000894109020009637,0.0718170776963234,-0.286930739879608,0.074579156935215,0.0624983683228493
2,0.0013752356171608,0.000178188740392216,0.0718322098255157,-0.0965030789375305,0.0741860494017601,0.0653307363390923
3,0.0034604724496603,0.000941201113164425,0.0719296187162399,0.0446282848715782,0.0741106942296028,0.0658370405435562
4,0.00611184956505895,0.00151397578883916,0.072590097784996,0.136603876948357,0.0742975696921349,0.0639876276254654
5,0.00744693586602807,0.00204713316634297,0.0735278502106667,0.21964430809021,0.0768802687525749,0.0609039403498173
6,0.0073527623899281,0.00206858455203474,0.0733999684453011,0.322007894515991,0.0807166025042534,0.0570633262395859
7,0.00795018952339888,0.00245030876249075,0.0734395906329155,0.392621725797653,0.08210239559412,0.0538528002798557
8,0.00955758523195982,0.00353441527113318,0.0745104253292084,0.354445904493332,0.0799601227045059,0.0514154434204102
9,0.00964878313243389,0.00361243030056357,0.0739550814032555,0.219484239816666,0.0761384218931198,0.0474603958427906
10,0.00767361605539918,0.0026596977841109,0.0716723799705505,0.064148798584938,0.07347472012043,0.0428179688751698
11,0.00613873964175582,0.00216981652192771,0.0708663538098335,-0.0698990076780319,0.0728242993354797,0.0410870052874088
12,0.0068893525749445,0.00226891902275383,0.072431318461895,-0.182736456394196,0.0728428438305855,0.0432251878082752
13,0.00902352295815945,0.00197747210040689,0.0742161050438881,-0.273729801177979,0.0718461573123932,0.0468603037297726
14,0.0107130333781242,0.000929114175960422,0.0743662044405937,-0.342461347579956,0.0693513825535774,0.0499280616641045
15,0.0110720256343484,-0.000379934121156111,0.072907030582428,-0.403892785310745,0.067575491964817,0.0521670244634151
16,0.0100746685639024,-0.00192686798982322,0.0700044482946396,-0.461254864931107,0.0670727342367172,0.0526072792708874
17,0.0088152689859271,-0.00331919780001044,0.0658592730760574,-0.490566343069077,0.0650849789381027,0.0506518594920635
18,0.00840458739548922,-0.00370470946654677,0.061503779143095,-0.464693248271942,0.0607244968414307,0.048048198223114
19,0.00866710487753153,-0.00370557187125087,0.0585402622818947,-0.407354444265366,0.0562661811709404,0.0463764332234859
20,0.00883810129016638,-0.00404470600187778,0.0580976940691471,-0.417387157678604,0.0537531599402428,0.0457119271159172
21,0.00844114366918802,-0.00375911523588002,0.0596175156533718,-0.5,0.0526257753372192,0.0468088164925575
22,0.00745881162583828,-0.00241408031433821,0.0612798444926739,-0.5,0.0510578230023384,0.0496108122169971
23,0.0061590033583343,-0.00104656664188951,0.0620474219322205,-0.5,0.0489461869001389,0.0514667928218842
24,0.00523182423785329,0.000382256519515067,0.0628243982791901,-0.5,0.0480279475450516,0.05146274715662
25,0.00533861527219415,0.00250194733962417,0.0646016523241997,-0.5,0.0495507754385471,0.0508705452084541
26,0.00618193158879876,0.00459478283300996,0.0665351897478104,-0.5,0.0529816895723343,0.0504562370479107
27,0.00665460294112563,0.00588534958660603,0.0667012706398964,-0.5,0.0565935149788857,0.0508215613663197
28,0.00667351111769676,0.00651056645438075,0.0654757469892502,-0.5,0.0600599385797977,0.0519850924611092
29,0.00658997939899564,0.00620275782421231,0.065123587846756,-0.5,0.0642491430044174,0.0527133382856846
30,0.00543490191921592,0.00453728018328547,0.0656201392412186,-0.5,0.0684436708688736,0.0521038174629211
31,0.00249908189289272,0.00186472863424569,0.0650706738233566,-0.5,0.0706588700413704,0.050256073474884
32,-0.000648498476948589,-0.000944984436500818,0.0635740458965302,-0.5,0.0701721012592316,0.047898706048727
33,-0.000967429543379694,-0.00244292803108692,0.0630127191543579,-0.5,0.0678224191069603,0.0464871972799301
34,0.002046326873824,-0.00175639998633415,0.0633761361241341,-0.5,0.063727118074894,0.0472238250076771
35,0.00540103670209646,0.000567124865483493,0.0633240789175034,-0.5,0.0576449893414974,0.0506036840379238
36,0.0066137476824224,0.00323189469054341,0.062620535492897,-0.5,0.0510199330747128,0.0558899194002151
37,0.00578930042684078,0.0049096466973424,0.0619368217885494,-0.5,0.0461588576436043,0.060449305921793
38,0.00372299738228321,0.00488173775374889,0.0616267621517181,-0.5,0.0437272042036057,0.0623022951185703
39,0.00103184289764613,0.00367815629579127,0.0621216669678688,-0.5,0.0431895069777966,0.0622613690793514
40,-0.00055991078261286,0.00330359791405499,0.0641267076134682,-0.5,0.0450419448316097,0.062185849994421
41,0.000235256826272234,0.00480755977332592,0.0662549808621407,-0.5,0.0497401282191277,0.0625952854752541
42,0.00234946422278881,0.00641670683398843,0.0664223209023476,-0.5,0.055963184684515,0.0618865415453911
43,0.00411536917090416,0.00597193138673902,0.0651148334145546,-0.5,0.061238843947649,0.0582631267607212
44,0.00516451196745038,0.00386242126114666,0.0641472563147545,-0.5,0.0636565089225769,0.0531010590493679
45,0.00597041938453913,0.00236161868087947,0.0641352906823158,-0.5,0.0631507113575935,0.0495004579424858
46,0.00676985643804073,0.00232973182573915,0.0634487494826317,-0.5,0.0607855916023254,0.0471900328993797
47,0.00743395928293467,0.00289012072607875,0.0604082532227039,-0.5,0.057356771081686,0.0440129414200783
48,0.00771404709666967,0.00359177892096341,0.0564599968492985,-0.5,0.0539647862315178,0.0401139222085476
49,0.00776396971195936,0.00477309990674257,0.0542637147009373,-0.5,0.0524551086127758,0.0377056784927845
50,0.00754823163151741,0.00598074169829488,0.0536848157644272,-0.5,0.0532578937709332,0.0376236625015736
51,0.00619637360796332,0.00570963649079204,0.0525557659566402,-0.5,0.0548785552382469,0.0369593277573586
52,0.0037066547665745,0.00359362922608852,0.0497876703739166,-0.5,0.0556993819773197,0.033121507614851
53,0.00123805238399655,0.00111374980770051,0.046430591493845,-0.5,0.0550105758011341,0.0278910081833601
54,-0.000520483939908445,0.000221652182517573,0.0446488820016384,-0.5,0.0535348318517208,0.024644648656249
55,-0.00157702795695513,0.00102654576767236,0.0445235781371593,-0.5,0.0514933653175831,0.0237621385604143
56,-0.0017697555013001,0.00166563817765564,0.0438622087240219,-0.5,0.0475742146372795,0.0239433664828539
57,-0.000936811906285584,0.00113137008156627,0.0419984683394432,-0.5,0.042116429656744,0.0257454887032509
58,0.000474750500870869,0.000628851761575788,0.040263082832098,-0.264522284269333,0.0376024320721626,0.0305570047348738
59,0.00134602061007172,0.00155843130778521,0.0391882322728634,-0.10563350468874,0.0361574776470661,0.0377630218863487
60,0.000767557765357196,0.00314558926038444,0.0380343534052372,-0.065193384885788,0.0385870076715946,0.0437615513801575
61,-0.000500324182212353,0.00384252471849322,0.037144273519516,-0.126959234476089,0.0434818528592587,0.0452678054571152
62,-0.00108345516491681,0.00351566704921424,0.0377141945064068,-0.273694425821304,0.0467160828411579,0.0430641807615757
63,-0.000826907926239073,0.00336088775657117,0.0394282154738903,-0.470029801130295,0.0447927378118038,0.0403377339243889
64,-0.000423952064011246,0.00378673220984638,0.0407039113342762,-0.5,0.0384429395198822,0.0384948179125786
65,-0.000312770978780463,0.00371401780284941,0.0407308973371983,-0.5,0.0312262568622828,0.0369400940835476
66,-0.000422577955760062,0.00285139563493431,0.0397797934710979,-0.5,0.026276022195816,0.0356742516160011
67,-0.000418120849644765,0.00180649070534855,0.038547370582819,-0.5,0.0252403095364571,0.0348898358643055
68,0.000270325632300228,0.000956907751969993,0.0385518297553062,-0.5,0.028123626485467,0.0339979603886604
69,0.00138392776716501,9.43565319175832E-05,0.0401518195867538,-0.5,0.0323122292757034,0.0323568657040596
70,0.00199914327822626,-0.0011241277679801,0.041552409529686,-0.5,0.034488819539547,0.0302810091525316
71,0.00257035274989903,-0.00206293212249875,0.0418944358825684,-0.5,0.0343129299581051,0.0292739626020193
72,0.00391869805753231,-0.00204756553284824,0.0415379256010056,-0.5,0.033349271863699,0.0300649926066399
73,0.00561166414991021,-0.00152006361167878,0.0406770519912243,-0.5,0.0323206596076488,0.0313026942312717
74,0.00663150008767843,-0.00123012438416481,0.0396336428821087,-0.5,0.0313964001834393,0.031411949545145
75,0.00588359823450446,-0.00144793349318206,0.0383431017398834,-0.5,0.031731516122818,0.0298419073224068
76,0.00325421057641506,-0.00210939417593181,0.0369343757629395,-0.5,0.0347197577357292,0.0266665052622557
77,0.000913319236133248,-0.00262069702148438,0.0365819707512856,-0.5,0.0385273545980453,0.0236671417951584
78,0.00110234704334289,-0.002468814374879,0.0370609015226364,-0.5,0.0387985967099667,0.0223025269806385
79,0.0031700327526778,-0.00228586792945862,0.0366753153502941,-0.5,0.0348599217832088,0.0214171055704355
80,0.00525368610396981,-0.00280440482310951,0.0349240601062775,-0.426959335803986,0.0301913544535637,0.0202246457338333
81,0.00687248585745692,-0.00348770036362112,0.0325030162930489,-0.417626231908798,0.0266488082706928,0.0195131730288267
82,0.00865369476377964,-0.00280916295014322,0.0310255959630013,-0.441928833723068,0.0239103883504868,0.0207191929221153
83,0.0103022893890738,-0.000463781092548743,0.0317162163555622,-0.488031178712845,0.0222631767392159,0.0239721368998289
84,0.010398923419416,0.00166773796081543,0.0327080562710762,-0.5,0.0213686116039753,0.0271096639335155
85,0.00934066623449326,0.00260272715240717,0.0316684618592262,-0.5,0.0210462026298046,0.0287004262208939
86,0.00884959939867258,0.00392070040106773,0.0297171995043755,-0.5,0.0228284168988466,0.0293613169342279
87,0.0087923938408494,0.00674961833283305,0.029019033536315,-0.5,0.0261931363493204,0.0301346722990274
88,0.00801263190805912,0.00988296698778868,0.0293978396803141,-0.5,0.029293904080987,0.0311393402516842
89,0.00593041209504008,0.011103319004178,0.0288920123130083,-0.5,0.0317876674234867,0.0313851498067379
90,0.00278376857750118,0.00943361595273018,0.0266810189932585,-0.5,0.0330177880823612,0.0300078820437193
91,-0.000380113371647894,0.00613028416410089,0.0234784781932831,-0.5,0.0327004157006741,0.026687141507864
92,-0.00229024118743837,0.00296981050632894,0.0205152463167906,-0.5,0.0332977436482906,0.021845206618309
93,-0.00203701085411012,0.000826425908599049,0.0193464923650026,-0.5,0.0355044901371002,0.0173667632043362
94,-0.000517656502779573,-0.000602542946580797,0.0194382518529892,-0.5,0.033792968839407,0.0142620531842113
95,0.000341217033565044,-0.00194381643086672,0.0190099105238914,-0.5,0.0255404952913523,0.0119446851313114
96,-0.00026289964444004,-0.0034952717833221,0.0180939305573702,-0.5,0.0160162150859833,0.00988123938441277
97,-0.00175511359702796,-0.00483221374452114,0.0176543332636356,-0.5,0.00902850646525621,0.00888376031070948
98,-0.00291046081110835,-0.00506252469494939,0.0185277424752712,-0.5,0.00403845962136984,0.010288973338902
99,-0.00377615261822939,-0.00511861825361848,0.0201893821358681,-0.176558837294579,-0.000408460065955296,0.0120877772569656
100,-0.00458802003413439,-0.00597660429775715,0.0209393240511417,0.118862234055996,-0.00462542194873095,0.011526326648891
101,-0.00429625483229756,-0.00687627214938402,0.0201777331531048,0.328537076711655,-0.00690760184079409,0.00864816457033157
102,-0.0027926592156291,-0.00747781340032816,0.0182450450956821,0.448075592517853,-0.00705807050690055,0.00481827231124043
103,-0.000906528031919152,-0.00785266794264317,0.0154256019741297,0.5,-0.0068673538044095,0.00163967336993665
104,0.00109848019201308,-0.00806308165192604,0.0120147205889225,0.5,-0.00642442749813199,0.00012428748595994
105,0.00318593857809901,-0.00822379160672426,0.00869583431631327,0.5,-0.00445670029148459,0.000927536108065397
106,0.00493316119536757,-0.00810269266366959,0.00608114153146744,0.5,-0.000661786063574255,0.0035942189861089
107,0.00550817884504795,-0.00766568537801504,0.00502166384831071,0.423885643482208,0.00410074228420854,0.00661504548043013
108,0.00491699576377869,-0.0070782913826406,0.0066007561981678,0.261054545640945,0.00886538252234459,0.00952289719134569
109,0.00361122470349073,-0.0071128336712718,0.00865889247506857,0.110689923167229,0.0116547830402851,0.01092070620507
110,0.00148942437954247,-0.00850924290716648,0.00732571491971612,0.00164144788868725,0.0101866414770484,0.00870661903172731
111,-0.000482139235828072,-0.0100831035524607,0.00306818704120815,-0.0673517435789108,0.00597817683592439,0.00450149597600102
112,-0.00084673537639901,-0.0102856829762459,-0.000165532415849157,-0.120433583855629,0.00354386423714459,0.00168157916050404
113,0.000222243354073726,-0.00915258284658194,-0.000131296663312241,-0.139098301529884,0.00504177948459983,0.00148172711487859
114,0.000966775347478688,-0.00789887178689241,0.00134523573797196,-0.0678630024194717,0.00848658196628094,0.00316859711892903
115,0.000547595031093806,-0.00725511880591512,0.00175674841739237,0.0750035867094994,0.0113921584561467,0.00511327898129821
116,0.000145325437188149,-0.00654967036098242,0.00153405859600753,0.194520980119705,0.0127833820879459,0.00646301498636603
117,0.000187558383913711,-0.00533235305920243,0.00243771239183843,0.243843957781792,0.0117131574079394,0.00838178582489491
118,0.000148100749356672,-0.00420919852331281,0.00504044909030199,0.250065207481384,0.00839182734489441,0.0121866660192609
119,8.96761848707683E-05,-0.00378207792527974,0.00792050827294588,0.247600197792053,0.00474903360009193,0.0168012715876102
120,0.000161911768373102,-0.00394874112680554,0.00922619365155697,0.264778763055801,0.00251971394754946,0.0196503680199385
121,0.000613032549154013,-0.00430707214400172,0.00906957034021616,0.332850903272629,0.00275135575793684,0.0192527510225773
122,0.00156121933832765,-0.00499398401007056,0.00827998854219913,0.457587242126465,0.00501785660162568,0.015533777885139
123,0.00222545489668846,-0.00632533151656389,0.00622906815260649,0.5,0.00712759466841817,0.00882021617144346
124,0.00183497706893831,-0.00788737554103136,0.00241488870233297,0.5,0.00676868576556444,0.000681991397868842
125,0.00161286792717874,-0.00843673106282949,-0.00147835921961814,0.5,0.00368644087575376,-0.00643031159415841
126,0.0032887039706111,-0.00676137767732143,-0.00237828260287642,0.5,0.000217697277548723,-0.0101773403584957
127,0.0052017536945641,-0.00400214130058885,0.000609603768680245,0.5,-0.00176829856354743,-0.00967571791261435
128,0.00437897955998778,-0.00323324929922819,0.0047917403280735,0.5,-0.00274690822698176,-0.00758978724479675
129,0.00162615452427417,-0.00512544577941298,0.00786959379911423,0.5,-0.00302255689166486,-0.00653066812083125
130,-4.76622590213083E-05,-0.00745329866185784,0.00955171510577202,0.5,-0.00211546709761024,-0.00588648114353418
131,0.000330584734911099,-0.00884118396788836,0.00996651872992516,0.5,-0.000488350342493504,-0.00483755581080914
132,0.00176733231637627,-0.0096724946051836,0.00947357248514891,0.5,0.00116408814210445,-0.00438565481454134
133,0.00282818591222167,-0.0102611044421792,0.00824919994920492,0.5,0.00227204523980618,-0.00573980621993542
134,0.0028078518807888,-0.0103780496865511,0.0065968562848866,0.5,0.0021098256111145,-0.00798028986901045
135,0.0023604838643223,-0.0101863304153085,0.00517845107242465,0.5,0.000845925300382078,-0.00963347405195236
136,0.00270861107856035,-0.0103851994499564,0.00423376262187958,0.48573562502861,0.000271438068011776,-0.0122439553961158
137,0.00443038158118725,-0.0111893862485886,0.00330612156540155,0.381080508232117,0.00186542584560812,-0.0177338495850563
138,0.0069108777679503,-0.0125977536663413,0.00173044577240944,0.332126945257187,0.00450334371998906,-0.0250111557543278
139,0.00878702197223902,-0.0147041585296392,-0.000701016571838409,0.366268903017044,0.00602895813062787,-0.0317013747990131
140,0.0091546792536974,-0.0167686622589827,-0.00380957499146461,0.467295497655869,0.00674550933763385,-0.0365390740334988
141,0.00834330171346664,-0.0176919382065535,-0.00672953156754375,0.5,0.00972074922174215,-0.0394335426390171
142,0.00673698354512453,-0.0175938010215759,-0.00816238950937986,0.5,0.0158577058464289,-0.0400152653455734
143,0.00450096651911736,-0.0174948684871197,-0.00790158472955227,0.5,0.0208364482969046,-0.0381189323961735
144,0.00347544858232141,-0.0175528228282928,-0.00644952151924372,0.5,0.0210589468479156,-0.0346406511962414
145,0.00572046544402838,-0.01706119813025,-0.00345416367053986,0.5,0.0184545405209064,-0.0309864040464163
146,0.00929432548582554,-0.0161540098488331,2.68465337285306E-05,0.5,0.0146765578538179,-0.0288785416632891
147,0.0096937008202076,-0.0162607524544001,0.000182662421138957,0.5,0.00772266462445259,-0.0296548213809729
148,0.00637892866507173,-0.0172960571944714,-0.00394708011299372,0.5,-0.00221248902380466,-0.0319277197122574
149,0.00288721825927496,-0.0168923642486334,-0.0087165292352438,0.5,-0.0110956011340022,-0.0321952253580093
150,0.00120038923341781,-0.0137539906427264,-0.0110606951639056,0.49969220161438,-0.0158715043216944,-0.0284698344767094
151,0.000772576488088816,-0.00912103150039911,-0.0104316417127848,0.451520144939423,-0.0163399390876293,-0.021855141967535
152,0.00048906245501712,-0.00484026363119483,-0.00846382230520248,0.438155651092529,-0.0143234860152006,-0.0150012569501996
153,0.000440310890553519,-0.00146557914558798,-0.00702847680076957,0.425353646278381,-0.0116552226245403,-0.00980012025684118
154,0.00163144711405039,0.000868185714352876,-0.00582751585170627,0.36796647310257,-0.0085294833406806,-0.00717756245285273
155,0.00363859301432967,0.00163934659212828,-0.0040546408854425,0.274829268455505,-0.00470320135354996,-0.00647080969065428
156,0.00500304391607642,0.000505531381350011,-0.00207012658938766,0.19129541516304,-0.00103900616522878,-0.00615314720198512
157,0.00494321994483471,-0.00183443166315556,-0.00096590252360329,0.148699343204498,0.000533249403815717,-0.00587785476818681
158,0.00382298044860363,-0.00396033562719822,-0.00174332223832607,0.145443812012672,-0.00127700832672417,-0.00578904896974564
159,0.00256374478340149,-0.00535260373726487,-0.00433793757110834,0.162188604474068,-0.00553487008437514,-0.00610060431063175
160,0.00149879558011889,-0.00631210254505277,-0.00766147579997778,0.194392397999763,-0.0100228236988187,-0.00709637394174933
161,0.000765748496633023,-0.00711496500298381,-0.0106525300070643,0.251883029937744,-0.0128004644066095,-0.00871230382472277
162,0.000980883836746216,-0.0073508839122951,-0.0126911550760269,0.314890772104263,-0.0132718328386545,-0.0103083243593574
163,0.00255186436697841,-0.00620240438729525,-0.0129971550777555,0.336185157299042,-0.0126165598630905,-0.010645211674273
164,0.00512522412464023,-0.00389015325345099,-0.0105063980445266,0.29049077630043,-0.0114664090797305,-0.00954392645508051
165,0.00667360983788967,-0.00233878707513213,-0.00618943758308887,0.173672243952751,-0.00931337848305702,-0.00933701731264591
166,0.00524569069966674,-0.00314227258786559,-0.00304302736185491,-0.00233730836771429,-0.00665308116003871,-0.0114945815876126
167,0.00205578398890793,-0.00535755231976509,-0.0025564671959728,-0.202756226062775,-0.00477517070248723,-0.0137048149481416
168,-0.000285529182292521,-0.00780579820275307,-0.00436945306137204,-0.380149871110916,-0.00407450832426548,-0.0149131361395121
169,-0.00126505247317255,-0.0107072172686458,-0.0073061054572463,-0.47203928232193,-0.00383794982917607,-0.0174116585403681
170,-0.00213678670115769,-0.0134952394291759,-0.00903134979307652,-0.442819118499756,-0.00354391359724104,-0.020924910902977
171,-0.0032234110403806,-0.0145101230591536,-0.00755152525380254,-0.326466500759125,-0.00285762944258749,-0.0217532552778721
172,-0.0031144586391747,-0.0130132064223289,-0.00344363786280155,-0.199596360325813,-0.000824921007733792,-0.0186307914555073
173,-0.00058992620324716,-0.00980550609529018,0.000764354597777128,-0.13455793261528,0.0024988588411361,-0.0137512190267444
174,0.00302798813208938,-0.00631637824699283,0.00248159957118332,-0.1521075963974,0.0047572641633451,-0.00943940132856369
175,0.00507071381434798,-0.00375931616872549,0.000792985316365957,-0.21284781396389,0.00361229781992733,-0.00697243167087436
176,0.004830879624933,-0.00296372850425541,-0.00286061782389879,-0.262454003095627,-0.000649583525955677,-0.00622451351955533
177,0.00425569387152791,-0.00392909022048116,-0.00580177456140518,-0.287046611309052,-0.00415889639407396,-0.00631696777418256
178,0.00511021772399545,-0.00560536095872521,-0.00613747490569949,-0.318102955818176,-0.00265027070418,-0.00643190369009972
179,0.00606621010228992,-0.0074835903942585,-0.00484638474881649,-0.360049486160278,0.00285716960206628,-0.00695103546604514
180,0.00544425146654248,-0.00963386707007885,-0.00395461125299335,-0.367326617240906,0.00802327040582895,-0.00917454063892365
181,0.00412728497758508,-0.0113133294507861,-0.00388813368044794,-0.307714432477951,0.0104331597685814,-0.0121848499402404
182,0.00324518023990095,-0.0118569824844599,-0.00451665464788675,-0.18077577650547,0.0101434169337153,-0.0138872051611543
183,0.00275258044712245,-0.0112681807950139,-0.00567915802821517,0.00405687699094415,0.009156359359622,-0.0140535281971097
184,0.00300008058547974,-0.00957542657852173,-0.00602940050885081,0.209171310067177,0.0101312464103103,-0.0131776025518775
185,0.00433783419430256,-0.00741834612563252,-0.00449211616069078,0.368388950824738,0.0131120309233665,-0.0114287799224257
186,0.00545027479529381,-0.00578818470239639,-0.0029312539845705,0.444579422473907,0.0154759148135781,-0.00973815470933914
187,0.0055527244694531,-0.00442541996017098,-0.00341107929125428,0.455163776874542,0.0156680643558502,-0.00886931363493204
188,0.00561045575886965,-0.00242260587401688,-0.00519932201132178,0.448094099760056,0.0143738929182291,-0.00810611713677645
189,0.0058613009750843,-3.74391383957118E-05,-0.00651130452752113,0.469262063503265,0.0132411001250148,-0.00718157086521387
190,0.00511619821190834,0.00137612887192518,-0.00586770428344607,0.5,0.0127661991864443,-0.00693547073751688
191,0.00310728186741471,0.00117412174586207,-0.00320636946707964,0.5,0.0118446573615074,-0.00755091104656458
192,0.00148044875822961,-0.000125169230159372,-0.000676987750921398,0.5,0.00951575767248869,-0.00906387716531754
193,0.0012395546073094,-0.0015880330465734,-0.000605557928793132,0.5,0.00525614339858294,-0.0112799173220992
194,0.00162384193390608,-0.00210095848888159,-0.00340542034246027,0.5,-0.00045843719271943,-0.0128187024965882
195,0.00162513670511544,-0.00113018730189651,-0.00765681592747569,0.5,-0.0064262580126524,-0.0131063973531127
196,0.0010516851907596,0.00109356991015375,-0.0112301213666797,0.5,-0.0117521118372679,-0.0128795513883233
197,4.95850763400085E-05,0.0032207618933171,-0.0131885493174195,0.5,-0.0157204400748014,-0.013189909979701
198,-0.000926262582652271,0.00357645167969167,-0.014539523050189,0.5,-0.0180753394961357,-0.0150010250508785
199,-0.000655202427878976,0.00230341497808695,-0.0160558726638556,0.5,-0.0186019409447908,-0.0176668558269739
200,0.000877024489454925,0.000906967208720744,-0.0167921166867018,0.5,-0.0175176504999399,-0.0184009671211243
201,0.00207934062927961,0.000733364548068494,-0.0158255323767662,0.5,-0.0161727461963892,-0.0154494689777493
202,0.00232299184426665,0.00190119002945721,-0.0138255190104246,0.5,-0.0152055798098445,-0.0103179682046175
203,0.00268050865270197,0.00376725383102894,-0.011830790899694,0.5,-0.0134026119485497,-0.00448992568999529
204,0.00376592390239239,0.00588005781173706,-0.0104821836575866,0.5,-0.00987455900758505,0.00154061696957797
205,0.00511884689331055,0.00808561034500599,-0.00987221207469702,0.5,-0.00520867854356766,0.00638228189200163
206,0.00650934968143702,0.0102550433948636,-0.00923667103052139,0.392446726560593,-0.000367502390872687,0.00860958639532328
207,0.00704342406243086,0.0111333560198545,-0.00880548451095819,0.243756532669067,0.00226740166544914,0.00743895210325718
208,0.0058204960078001,0.00929950922727585,-0.00944588892161846,0.0836865901947021,0.000503467454109341,0.00276607181876898
209,0.00422316649928689,0.005583590362221,-0.0101968618109822,-0.0686431974172592,-0.00359986932016909,-0.00340225338004529
210,0.00375525304116309,0.0025123197119683,-0.0101428460329771,-0.17687913775444,-0.00683640409260988,-0.00765185942873359
211,0.0036679464392364,0.001564672566019,-0.0102641619741917,-0.23220132291317,-0.00823390297591686,-0.00882280711084604
212,0.00333748105913401,0.00220670294947922,-0.0111573357135057,-0.285093903541565,-0.00634373445063829,-0.00867694802582264
213,0.00362209905870259,0.00335402158088982,-0.0125619871541858,-0.393476635217667,-0.00147686724085361,-0.00866580475121737
214,0.00470169354230165,0.00456015858799219,-0.0145951369777322,-0.5,0.001987692900002,-0.00839103013277054
215,0.00518466858193278,0.0050048716366291,-0.0168852116912603,-0.5,0.00194633891806006,-0.00781059032306075
216,0.00418581767007709,0.00342592853121459,-0.0186105333268642,-0.5,0.000112950583570637,-0.00803577806800604
217,0.00309598678722978,0.000559562176931649,-0.019450057297945,-0.475367665290833,-0.00183243828359991,-0.009022181853652
218,0.00319639104418457,-0.00134923623409122,-0.0199050288647413,-0.330829381942749,-0.00452369311824441,-0.00868914648890495
219,0.00364110176451504,-0.00196251273155212,-0.0203905552625656,-0.185289844870567,-0.0095658777281642,-0.00705331610515714
220,0.00340406806208193,-0.00270778243429959,-0.0192783679813147,-0.10321119427681,-0.015062459744513,-0.0071995803155005
221,0.0022310575004667,-0.00383740407414734,-0.0151823302730918,-0.108197599649429,-0.0181202404201031,-0.0100768879055977
222,0.000702629913575947,-0.00436944887042046,-0.00966650247573853,-0.144414380192757,-0.0181701704859734,-0.0143370199948549
223,-0.000406289793318138,-0.0041458997875452,-0.00566536467522383,-0.1418167501688,-0.0154127469286323,-0.0191812980920076
224,-0.00142952031455934,-0.00409614713862538,-0.00588853377848864,-0.0947344526648521,-0.0113851930946112,-0.024068970233202
225,-0.00286571937613189,-0.00473610544577241,-0.0102080004289746,-0.0622313246130943,-0.00831741373986006,-0.0271014980971813
226,-0.00428956048563123,-0.0052804471924901,-0.0141947455704212,-0.0992047041654587,-0.00733703793957829,-0.0261816661804914
227,-0.00563341192901134,-0.00547647662460804,-0.0147458715364337,-0.202363193035126,-0.00873159058392048,-0.023656127974391
228,-0.00725700333714485,-0.00671629793941975,-0.0136883854866028,-0.298722833395004,-0.0114492885768414,-0.0232510920614004
229,-0.00890509039163589,-0.00907167047262192,-0.0140737080946565,-0.311335384845734,-0.0133582754060626,-0.023542445152998
230,-0.0105101326480508,-0.010434353724122,-0.0171470865607262,-0.236816793680191,-0.0131274061277509,-0.0218146927654743
231,-0.0114648751914501,-0.00930682569742203,-0.021298648789525,-0.12237062305212,-0.0116220489144325,-0.0179327912628651
232,-0.0113018481060863,-0.00704375887289643,-0.0245239641517401,0.00766138313338161,-0.0122030610218644,-0.0143308732658625
233,-0.0109713636338711,-0.00597468437626958,-0.0263484474271536,0.163752481341362,-0.0168071519583464,-0.013848539441824
234,-0.0108342170715332,-0.00594263756647706,-0.026307875290513,0.336398959159851,-0.0231399163603783,-0.0152760557830334
235,-0.0104858623817563,-0.00546100689098239,-0.0248572528362274,0.492251008749008,-0.027289604768157,-0.0160554647445679
236,-0.00996550731360912,-0.00409441906958818,-0.0238216705620289,0.5,-0.0263130534440279,-0.0162986181676388
237,-0.00910153519362211,-0.00247319415211678,-0.0238864403218031,0.5,-0.0207039602100849,-0.0166947040706873
238,-0.00751023693010211,-0.00114688882604241,-0.0237846709787846,0.5,-0.014202356338501,-0.0165497865527868
239,-0.00582931749522686,-0.00023840089852456,-0.0229013916105032,0.5,-0.0103183845058084,-0.0143993962556124
240,-0.00499634351581335,-2.58199906966183E-05,-0.0221056379377842,0.5,-0.0104416133835912,-0.0105480048805475
241,-0.00401293998584151,-0.000373806862626225,-0.0209311060607433,0.425916492938995,-0.012888447381556,-0.00796501338481903
242,-0.000936353113502264,-0.000169894963619299,-0.0176206454634666,0.312342613935471,-0.0142077002674341,-0.00804393459111452
243,0.00274366186931729,0.000740184390451759,-0.0135040665045381,0.220663711428642,-0.0140445753931999,-0.00948297139257193
244,0.00315095786936581,0.00127284287009388,-0.0118836155161262,0.194788873195648,-0.0155934989452362,-0.0110860988497734
245,-0.000851088669151068,0.00100974959786981,-0.0133256521075964,0.23043055832386,-0.0206679459661245,-0.0122450795024633
246,-0.00650788052007556,0.0001235511736013,-0.0166984889656305,0.296382814645767,-0.0269768442958593,-0.0129997190088034
247,-0.00968087092041969,-0.00130556814838201,-0.0209447704255581,0.370755910873413,-0.0303930081427097,-0.0142947500571609
248,-0.00909205246716738,-0.0033269536215812,-0.0250166989862919,0.479241788387299,-0.0299711115658283,-0.0163699332624674
249,-0.00662444485351443,-0.00501908315345645,-0.0278612039983273,0.5,-0.0270142070949078,-0.0176190994679928
250,-0.00372392032295465,-0.00528815854340792,-0.0278902053833008,0.5,-0.0208227578550577,-0.017274908721447
251,-0.0010059776250273,-0.00466727558523417,-0.0247728321701288,0.5,-0.0119571927934885,-0.0163326263427734
252,0.000223514784011059,-0.00401863688603044,-0.0209747850894928,0.5,-0.00500798085704446,-0.0149728925898671
253,-0.00084117375081405,-0.00376851973123848,-0.019009156152606,0.5,-0.00360249937511981,-0.0132080018520355
254,-0.00313071557320654,-0.00387640157714486,-0.0191317424178123,0.5,-0.00702282087877393,-0.0117995189502835
255,-0.00526414671912789,-0.00375240598805249,-0.0198657494038343,0.5,-0.0118546672165394,-0.0100139211863279
256,-0.00644802860915661,-0.0031272042542696,-0.0196960177272558,0.5,-0.0139184687286615,-0.00706140603870153
257,-0.00657064514234662,-0.00223107752390206,-0.0173059646040201,0.5,-0.0107281003147364,-0.00466682761907578
258,-0.00589513266459107,-0.000954672985244542,-0.0109834019094706,0.5,-0.00377111579291523,-0.00353124644607306
259,-0.00407323287799954,0.000453796121291816,-0.00240699667483568,0.5,0.00313545041717589,-0.002231685211882
260,-0.00177375203929842,-0.000237858024775051,0.00199412927031517,0.5,0.00673387013375759,-0.00213123066350818
261,-0.000908951333258301,-0.00324189406819642,-0.00124825222883374,0.5,0.00511208968237042,-0.00469247763976455
262,-0.00144263729453087,-0.00497694965451956,-0.00827421993017197,0.5,-0.000961391953751445,-0.00725780054926872
263,-0.00171150383539498,-0.00377765437588096,-0.0142531534656882,0.5,-0.0080470209941268,-0.00741442944854498
264,-0.000957883836235851,-0.000792026519775391,-0.0181190147995949,0.5,-0.0132138030603528,-0.00530902249738574
265,5.67850765946787E-05,0.00255726231262088,-0.0205490589141846,0.5,-0.0160335432738066,-0.00160711398348212
266,7.86312521086074E-05,0.0048225992359221,-0.0219202321022749,0.5,-0.0171013791114092,0.00245180912315845
267,-0.000505727890413255,0.00501689314842224,-0.0220316853374243,0.5,-0.0160832647234201,0.00346223171800375
268,-0.000281108048511669,0.00369421951472759,-0.02081667073071,0.5,-0.013086018152535,8.59845931699965E-06
269,0.00116293458268046,0.00283500296063721,-0.0185431241989136,0.5,-0.0094795897603035,-0.0041565103456378
270,0.00278496812097728,0.00294291786849499,-0.0157453808933496,0.5,-0.00621088314801455,-0.0066220723092556
271,0.00309052458032966,0.00242328550666571,-0.0129531985148788,0.5,-0.00323888240382075,-0.00851299613714218
272,0.00196751113981009,0.000818270025774837,-0.010463759303093,0.5,-0.00053126597777009,-0.0102552259340882
273,0.000707065977621824,-0.000737281399779022,-0.00833362434059381,0.5,0.00203237030655146,-0.0110306050628424
274,-8.01057103672065E-05,-0.00213513197377324,-0.00703604053705931,0.5,0.00405051372945309,-0.0110206054523587
275,-0.00120447238441557,-0.00422219885513186,-0.00815360620617867,0.5,0.00315371714532375,-0.0120995743200183
276,-0.00252218032255769,-0.00628781970590353,-0.0117156459018588,0.5,-0.00195269996766001,-0.0145987793803215
277,-0.00200774241238832,-0.00686340034008026,-0.015197578817606,0.5,-0.00871396996080875,-0.0166117660701275
278,0.000635138421785086,-0.00630274694412947,-0.01704977825284,0.5,-0.0130247641354799,-0.0177649967372417
279,0.00243946351110935,-0.00596468523144722,-0.018479747697711,0.5,-0.0132506275549531,-0.0193997621536255
280,0.00132171472068876,-0.00655019748955965,-0.0207739360630512,0.5,-0.011976913549006,-0.0210729334503412
281,-0.00132093252614141,-0.0082585196942091,-0.0226372983306646,0.5,-0.0121405553072691,-0.020359119400382
282,-0.00321385636925697,-0.00982811860740185,-0.0226838886737823,0.5,-0.0139413140714169,-0.0163300633430481
283,-0.00425596442073584,-0.00933249015361071,-0.0221859663724899,0.5,-0.0171679984778166,-0.0109446421265602
284,-0.00511433649808168,-0.00667905481532216,-0.0221422500908375,0.5,-0.0208962131291628,-0.0073326863348484
285,-0.00522593362256885,-0.00331784272566438,-0.021710105240345,0.5,-0.0228681359440088,-0.00759733701124787
286,-0.00527659198269248,-0.00127201515715569,-0.0216094274073839,0.5,-0.0233528409153223,-0.0114384815096855
287,-0.00707133952528238,-0.00150722113903612,-0.0233142096549273,0.5,-0.0243182145059109,-0.0165795907378197
288,-0.0100048240274191,-0.00325930747203529,-0.0258573312312365,0.5,-0.02561966329813,-0.0208076294511557
289,-0.0114423828199506,-0.00501396507024765,-0.0271392744034529,0.5,-0.0258403830230236,-0.0223434362560511
290,-0.0102680940181017,-0.00619397172704339,-0.0264735370874405,0.5,-0.0248514376580715,-0.0207667835056782
291,-0.00838780589401722,-0.00796848721802235,-0.0250092390924692,0.5,-0.0237785112112761,-0.0196365211158991
292,-0.00743306381627917,-0.00970254652202129,-0.0230869613587856,0.5,-0.0225994307547808,-0.0204693432897329
293,-0.00701350439339876,-0.00949260964989662,-0.0200039334595203,0.5,-0.0206489954143763,-0.0204715840518475
294,-0.00633019022643566,-0.00917074643075466,-0.0163748487830162,0.5,-0.0182917453348637,-0.0216658860445023
295,-0.00532275252044201,-0.0110158510506153,-0.0141809452325106,0.5,-0.0171085484325886,-0.0267204642295837
296,-0.00483588222414255,-0.0123914061114192,-0.0150069938972592,0.5,-0.0188079737126827,-0.0299872886389494
297,-0.0047873966395855,-0.0105096334591508,-0.0178208444267511,0.5,-0.0225697103887796,-0.0261015370488167
298,-0.00461028283461928,-0.00713136559352279,-0.0210415031760931,0.5,-0.026288777589798,-0.0188035741448402
299,-0.00524345878511667,-0.004740035161376,-0.0248705577105284,0.5,-0.0288874562829733,-0.0141423419117928
300,-0.00668485881760716,-0.00329555617645383,-0.0283150039613247,0.5,-0.0294014886021614,-0.0124919526278973
301,-0.00735572399571538,-0.0017725481884554,-0.0295398198068142,0.5,-0.0283490717411041,-0.0115520758554339
302,-0.00656524673104286,0.000795873114839196,-0.0280699022114277,0.5,-0.0273250304162502,-0.00988881662487984
303,-0.00534588843584061,0.00407384522259235,-0.024549312889576,0.5,-0.0268913600593805,-0.00743998493999243
304,-0.00580226210877299,0.00544319069013,-0.0211763307452202,0.5,-0.0270107109099627,-0.00647216290235519
305,-0.00792447943240404,0.00277775316499174,-0.0195074249058962,0.5,-0.0254492592066526,-0.00917842332273722
306,-0.00968553125858307,-0.00288297655060887,-0.0184258874505758,0.5,-0.0201660953462124,-0.0138707887381315
307,-0.0105498423799872,-0.00694270245730877,-0.0167194213718176,0.5,-0.0143168289214373,-0.0156743917614222
308,-0.0108034042641521,-0.00650985026732087,-0.0155538953840733,0.5,-0.0127182109281421,-0.0138038611039519
309,-0.0100126033648849,-0.00365915079601109,-0.0162813160568476,0.5,-0.015444764867425,-0.0114334998652339
310,-0.00847481656819582,-0.000802113034296781,-0.0179580729454756,0.5,-0.0193376783281565,-0.00906310230493546
311,-0.0074074943549931,0.00144034600816667,-0.0184182040393353,0.5,-0.022340701892972,-0.00553024327382445
312,-0.00676255067810416,0.00340128573589027,-0.0163446441292763,0.5,-0.0237002372741699,-0.00123637996148318
313,-0.00549748633056879,0.00519154500216246,-0.0131365321576595,0.5,-0.0240271333605051,0.00178647460415959
314,-0.00378335057757795,0.00636158837005496,-0.0117845935747027,0.5,-0.0248528923839331,0.00241581862792373
315,-0.00265652732923627,0.00702564651146531,-0.0134140979498625,0.5,-0.0265694689005613,0.00104003702290356
316,-0.00219923979602754,0.00750618567690253,-0.016476908698678,0.5,-0.0279116537421942,-0.00160084827803075
317,-0.00170327234081924,0.00794162321835756,-0.0187780614942312,0.483236700296402,-0.027336111292243,-0.00361780379898846
318,-0.00147179467603564,0.00857643783092499,-0.019864983856678,0.400366336107254,-0.0249814614653587,-0.00331955309957266
319,-0.00172339065466076,0.00924417749047279,-0.0200914777815342,0.312764525413513,-0.0220359563827515,-0.00157164828851819
320,-0.00120916147716343,0.00910628773272038,-0.0188212916254997,0.251747518777847,-0.0185734573751688,-0.00153863220475614
321,-0.000439666589954868,0.00896157789975405,-0.0167155843228102,0.226658597588539,-0.0156960394233465,-0.00249458127655089
322,-0.00172958476468921,0.0108123067766428,-0.0160032156854868,0.230692028999329,-0.0159943718463182,0.000520493078511208
323,-0.00448629865422845,0.0135331423953176,-0.0165720488876104,0.250686705112457,-0.0183279942721128,0.00637209555134177
324,-0.00641564559191465,0.0150057496502995,-0.0164627153426409,0.266226679086685,-0.0191819984465837,0.0107374107465148
325,-0.00724753271788359,0.0151294264942408,-0.0155378766357899,0.25878843665123,-0.0180619526654482,0.0125684542581439
326,-0.00735063897445798,0.0145405633375049,-0.0140967844054103,0.205653890967369,-0.0160324219614267,0.0129591254517436
327,-0.00667707435786724,0.0139349773526192,-0.0109035633504391,0.110356569290161,-0.0135092101991177,0.0142917148768902
328,-0.00572787830606103,0.0129995858296752,-0.00593101000413299,0.0313728637993336,-0.0114665003493428,0.0160838738083839
329,-0.00531890988349915,0.0103641301393509,-0.00189521070569754,0.0286705978214741,-0.0110096130520105,0.0153807057067752
330,-0.00530569767579436,0.00671502202749252,-0.00154746719636023,0.118199408054352,-0.0116517180576921,0.0128695722669363
331,-0.00374326063320041,0.00541256880387664,-0.00436076568439603,0.222832009196281,-0.0112402411177754,0.0121266962960362
332,-1.31244350995985E-05,0.00654498627409339,-0.0072513734921813,0.201738551259041,-0.00827131979167461,0.0123327979817986
333,0.00294083054177463,0.00692083453759551,-0.00849489308893681,0.0242004040628672,-0.00453253695741296,0.00997271481901407
334,0.00287072360515594,0.00600024359300733,-0.0086833331733942,-0.218003675341606,-0.00275594787672162,0.00588025571778417
335,0.000637330114841461,0.00538924150168896,-0.00867844372987747,-0.460604548454285,-0.00313113839365542,0.00306731765158474
336,-0.00187715073116124,0.00598645862191916,-0.00883480440825224,-0.5,-0.00494251446798444,0.00197392678819597
337,-0.00350258662365377,0.00723630608990788,-0.00937621854245663,-0.5,-0.00743170687928796,0.000902064552064985
338,-0.00403870362788439,0.00810233876109123,-0.0100415945053101,-0.5,-0.00934478361159563,-0.000513239647261798
339,-0.0038776162546128,0.00793712772428989,-0.01044309604913,-0.5,-0.0115271313115954,-0.00138982350472361
340,-0.00354071916081011,0.00657611060887575,-0.0113139422610402,-0.5,-0.016205932945013,-0.00230500288307667
341,-0.00288960058242083,0.00497206766158342,-0.0135739166289568,-0.5,-0.022413432598114,-0.00389303406700492
342,-0.00210481439717114,0.00318075506947935,-0.0167372040450573,-0.5,-0.0264560710638762,-0.00589591264724731
343,-0.00211386475712061,0.000243538728682324,-0.0194074902683496,-0.5,-0.026405518874526,-0.00741048948839307
344,-0.00249382574111223,-0.00227165198884904,-0.0204532779753208,-0.249697402119637,-0.0230690613389015,-0.00731658283621073
345,-0.00221845111809671,-0.0021121259778738,-0.0195534508675337,0.0838374495506287,-0.0188099518418312,-0.0059636658988893
346,-0.00136299815494567,5.68953619222157E-05,-0.017164058983326,0.348536998033524,-0.0162002760916948,-0.00443184981122613
347,-0.000406567327445373,0.00234451680444181,-0.0146823413670063,0.5,-0.0161057934165001,-0.0026660377625376
348,0.000955641269683838,0.0041703823953867,-0.0126776732504368,0.5,-0.0170198827981949,-0.00051166710909456
349,0.0030159605666995,0.0046404991298914,-0.0107155023142695,0.440261483192444,-0.0172040984034538,-0.00171589304227382
350,0.00401104055345058,0.00124082725960761,-0.0104713337495923,0.235518425703049,-0.0175666138529778,-0.0104245468974113
351,0.00232781935483217,-0.00500487210229039,-0.0132787823677063,0.15003527700901,-0.0196338351815939,-0.0213585421442986
352,-0.00102326320484281,-0.00839703809469938,-0.0172783136367798,0.226073428988457,-0.0229407586157322,-0.0249856077134609
353,-0.00386143242940307,-0.00681442813947797,-0.0200374741107225,0.352562010288239,-0.025623632594943,-0.0199492182582617
354,-0.00429887836799026,-0.0034964750520885,-0.0204124636948109,0.393639624118805,-0.025627676397562,-0.0119407763704658
355,-0.00193359982222319,-0.000671384448651224,-0.0184055585414171,0.256345480680466,-0.0223988443613052,-0.00543321203440428
356,0.00125496508553624,0.00172395352274179,-0.0149701423943043,-0.0797337964177132,-0.0172978192567825,-0.00104266486596316
357,0.00297557539306581,0.00340956076979637,-0.0113663617521524,-0.5,-0.01220175717026,0.00155592639930546
358,0.00318048149347305,0.00382900238037109,-0.0084778955206275,-0.5,-0.0080290175974369,0.00297895655967295
359,0.00340632745064795,0.00319292233325541,-0.00671507650986314,-0.5,-0.00403945427387953,0.00369783886708319
360,0.00441678566858172,0.00236395769752562,-0.00545211881399155,-0.5,0.00101652310695499,0.00407014368101954
361,0.0054436638019979,0.00209381221793592,-0.00348871806636453,-0.5,0.00634316774085164,0.00607120292261243
362,0.00606884947046638,0.00247741024941206,-0.000509856850840151,-0.5,0.00938975438475609,0.0101158805191517
363,0.00632629776373506,0.00259264442138374,0.00209449511021376,-0.5,0.00874656531959772,0.0125827556475997
364,0.00562104489654303,0.00169124081730843,0.00244728149846196,-0.5,0.00557164149358869,0.0114862630143762
365,0.00418232660740614,0.000265807408140972,0.000236617648624815,-0.5,0.00265372754074633,0.0081659248098731
366,0.00331536424346268,-0.00117658835370094,-0.00315053737722337,-0.5,0.00238886545412242,0.00309866387397051
367,0.00358887226320803,-0.00216234521940351,-0.00617222813889384,-0.5,0.00461186422035098,-0.00256333686411381
368,0.00399893149733543,-0.00235362420789897,-0.00876337196677923,-0.5,0.00588833587244153,-0.00619881600141525
369,0.00387451774440706,-0.00170989031903446,-0.0106111317873001,-0.5,0.00399811286479235,-0.00664969766512513
370,0.00381139200180769,-0.000623924133833498,-0.0107330828905106,-0.5,0.000424154626671225,-0.00581597164273262
371,0.00293042603880167,-0.00019451804109849,-0.0106126088649035,-0.5,-0.00436275266110897,-0.0049783349968493
372,0.000762202893383801,-0.00102330965455621,-0.0113756023347378,-0.5,-0.00995818246155977,-0.00320912664756179
373,-0.000312758347718045,-0.00354125187732279,-0.0103101599961519,-0.244322821497917,-0.0128308264538646,-0.00204292545095086
374,0.000612392614129931,-0.0066361166536808,-0.00628241337835789,-0.0147971622645855,-0.0113520529121161,-0.00260181399062276
375,0.00159996235743165,-0.00744206132367253,-0.00288872211240232,0.211996346712112,-0.00748144183307886,-0.00344838295131922
376,0.00101436814293265,-0.00617359951138496,-0.00302084372378886,0.478704482316971,-0.00317951268516481,-0.00415434688329697
377,-0.000508730940055102,-0.005179428961128,-0.00551756238564849,0.5,0.000434949906775728,-0.00468329386785626
378,-0.000575612939428538,-0.00420070812106133,-0.00785976275801659,0.5,0.00271575688384473,-0.00369804375804961
379,0.00182244158349931,-0.00258088088594377,-0.00882750004529953,0.5,0.00310322595760226,-0.000948704429902136
380,0.00536737684160471,-0.00177968735806644,-0.00785381346940994,0.5,0.00199737562797964,-5.04812815051991E-05
381,0.00795178394764662,-0.00176914455369115,-0.00460916012525558,0.5,0.000266041955910623,-0.0017051009926945
382,0.00761283608153462,-0.000442173797637224,-0.000547476345673203,0.5,-0.00252372189424932,-0.00116581551264971
383,0.00486578838899732,0.00210693804547191,0.0016738201957196,0.5,-0.0060591702349484,0.00245154020376503
384,0.00243572681210935,0.00423791725188494,0.00064423616277054,0.5,-0.00849589239805937,0.00548068201169372
385,0.00162655953317881,0.00596804497763515,-0.00311211962252855,0.5,-0.00941908545792103,0.00625505298376083
386,0.00207890034653246,0.00787237007170916,-0.00759141007438302,0.5,-0.0100348750129342,0.00629813503473997
387,0.0033995290286839,0.00944451149553061,-0.0103692980483174,0.5,-0.0104745961725712,0.00716607738286257
388,0.00545435724779963,0.0101469261571765,-0.0103561393916607,0.5,-0.0096528735011816,0.00822578277438879
389,0.00734011922031641,0.00977972894906998,-0.00890476163476706,0.347850352525711,-0.00764765776693821,0.00761505682021379
390,0.00763102900236845,0.00805370695888996,-0.00843704678118229,0.125966295599937,-0.0056013292632997,0.00451101223006845
391,0.00667352601885796,0.00603042310103774,-0.0092605073004961,-0.136701792478561,-0.00346772931516171,0.00119281734805554
392,0.00533694820478559,0.00469325669109821,-0.0104620922356844,-0.404078006744385,-0.000867884955368936,-0.000360285688657314
393,0.0036893745418638,0.00314967520534992,-0.0118564609438181,-0.5,0.00173797516617924,-0.00158038514200598
394,0.00265707075595856,0.0013574258191511,-0.0125201726332307,-0.5,0.00362111208960414,-0.00301303341984749
395,0.00290865101851523,-0.000300324580166489,-0.0116790849715471,-0.5,0.00374009204097092,-0.00415244419127703
396,0.00354844913817942,-0.00256265676580369,-0.0104456841945648,-0.5,0.00194426707457751,-0.00598487770184875
397,0.00351276900619268,-0.00442142365500331,-0.0102043924853206,-0.5,-0.000790444144513458,-0.00888720247894526
398,0.00248512928374112,-0.00401085847988725,-0.0107639133930206,-0.5,-0.00388475460931659,-0.0112553648650646
399,0.000878666643984616,-0.00143450917676091,-0.0109409810975194,-0.5,-0.00697525544092059,-0.0103141134604812
400,-0.000988511368632317,0.00186959654092789,-0.0106172859668732,-0.5,-0.00966690294444561,-0.00545480893924832
401,-0.00319352839142084,0.00365532375872135,-0.0097121698781848,-0.5,-0.0109099056571722,0.000473266467452049
402,-0.00536449113860726,0.00358554441481829,-0.0067013232037425,-0.5,-0.00867994502186775,0.00568921351805329
403,-0.00711552519351244,0.00305239227600396,-0.002370162634179,-0.39330929517746,-0.00310826417990029,0.00879988260567188
404,-0.00850076694041491,0.00176342728082091,-0.00051366479601711,-0.282571405172348,0.00242164079099894,0.00756123661994934
405,-0.00875536911189556,0.000493500730954111,-0.00225456431508064,-0.267414748668671,0.00511846737936139,0.00485578179359436
406,-0.00633041420951486,0.00196686247363687,-0.00444485666230321,-0.351535767316818,0.00540786981582642,0.00621767062693834
407,-0.00196989439427853,0.00580244790762663,-0.00508994422852993,-0.486708521842957,0.00471261097118258,0.0108450930565596
408,0.00176162261050195,0.00926738511770964,-0.00535128964111209,-0.5,0.00357416900806129,0.0141760567203164
409,0.00462314346805215,0.0110072353854775,-0.00498864566907287,-0.5,0.00419816980138421,0.0141281029209495
410,0.0070413239300251,0.0112854558974504,-0.00276608834974468,-0.5,0.0085273003205657,0.0121312281116843
411,0.00777954095974565,0.0108377952128649,-6.56362390145659E-05,-0.5,0.0146177532151341,0.0109819993376732
412,0.00639810645952821,0.00938038714230061,0.000868862494826317,-0.5,0.0198624767363071,0.009777607396245
413,0.00394043931737542,0.00761760538443923,-0.000156383364810608,-0.5,0.0225095357745886,0.00743444031104445
414,0.00127365009393543,0.00775387743487954,-0.0011671727988869,-0.5,0.0212537460029125,0.00809635128825903
415,-0.000859264517202973,0.0100219482555985,-0.000255229679169133,-0.5,0.0178445875644684,0.0135930357500911
416,-0.00135457725264132,0.0116169471293688,0.00208417279645801,-0.5,0.0154179399833083,0.0183468367904425
417,-0.000656158430501819,0.00950270146131516,0.0034965998493135,-0.5,0.0123064303770661,0.0178303476423025
418,-2.43422418861883E-05,0.00435758754611015,0.00359629257582128,-0.5,0.00560069549828768,0.0148043604567647
419,0.00121446326375008,-0.000444363249698654,0.00447217002511024,-0.5,-0.000617293640971184,0.013092371635139
420,0.00355526502244174,-0.00235237623564899,0.00587115110829473,-0.5,-7.74353975430131E-05,0.0122367041185498
421,0.00523220375180244,-0.00159559410531074,0.00482323206961155,-0.5,0.00657913275063038,0.00983954034745693
422,0.00517628062516451,-0.000713455840013921,0.00115534185897559,-0.5,0.0134486258029938,0.00543122924864292
423,0.00451719900593162,-0.000325547152897343,-0.00159582914784551,-0.5,0.0158274620771408,0.00142358487937599
424,0.00403005536645651,0.00104872428346425,-0.00160790036898106,-0.5,0.012623080983758,-0.00084344984497875
425,0.00342114712111652,0.00362654239870608,-0.000456334935734048,-0.5,0.00590729247778654,-0.00107943394687027
426,0.00241244374774396,0.00588923878967762,-4.27107297582552E-05,-0.5,-0.0012409002520144,0.00100238178856671
427,0.000989955966360867,0.00631783483549953,-0.000822735601104796,-0.5,-0.00708951009437442,0.00404738914221525
428,-0.0005627540522255,0.00460653100162745,-0.00160386424977332,-0.5,-0.0109924226999283,0.0067063020542264
429,-0.00165352842304856,0.00162198476027697,-0.0013318145647645,-0.5,-0.0123694064095616,0.00754168350249529
430,-0.00186309171840549,-0.000707220751792192,-0.000933078292291611,-0.5,-0.0112266279757023,0.00580620486289263
431,-0.00155574933160096,-0.00156533089466393,-0.00156287697609514,-0.5,-0.00852325931191444,0.0028639251831919
432,-0.00120513187721372,-0.00171417812816799,-0.00261773425154388,-0.5,-0.0051828664727509,0.000134782210807316
433,-0.000694690155796707,-0.00091222085757181,-0.00297571951523423,-0.5,-0.00156363099813461,-0.000792007602285594
434,-0.000113325098936912,0.000972855545114726,-0.0026747330557555,-0.5,0.00242104567587376,0.00133256183471531
435,-5.59261898160912E-05,0.00195152591913939,-0.00217871088534594,-0.5,0.00586112309247255,0.00369845423847437
436,-0.000627191329840571,0.000109787695691921,-0.000967167201451957,-0.5,0.00663910433650017,0.00170625268947333
437,-0.00135480926837772,-0.00326571590267122,0.00146057363599539,-0.5,0.00472063990309834,-0.00269585242494941
438,-0.0010893092257902,-0.0052229636348784,0.0049353102222085,-0.5,0.00340922735631466,-0.00413858331739903
439,0.000705904560163617,-0.00544087262824178,0.00792939215898514,-0.5,0.0049597779288888,-0.00352832698263228
440,0.00203318172134459,-0.00473816553130746,0.00714763952419162,-0.5,0.00689906533807516,-0.00240699993446469
441,0.00127363833598793,-0.0035233327653259,0.00179667572956532,-0.5,0.00627978099510074,0.000119241005450021
442,-0.000548507727216929,-0.00272362353280187,-0.00499965762719512,-0.5,0.00368712958879769,0.00230562849901617
443,-0.00201754155568779,-0.00199493626132607,-0.00983112305402756,-0.5,0.0011563046136871,0.00337723200209439
444,-0.00261071929708123,5.29155659023672E-05,-0.0117570552974939,-0.5,0.000649679452180862,0.00440845033153892
445,-0.00213948031887412,0.00345967919565737,-0.0122387604787946,-0.5,0.0034170956350863,0.00526515068486333
446,-0.00109178049024194,0.00559488590806723,-0.0121444389224052,-0.5,0.00817631930112839,0.00451262062415481
447,-0.000319958082400262,0.00502075161784887,-0.0103633496910334,-0.5,0.0124500496312976,0.0020540680270642
448,-0.00021442050638143,0.00424960348755121,-0.00669966964051127,-0.5,0.0140914134681225,0.000888801587279886
449,-0.000360540580004454,0.00456611672416329,-0.00338954292237759,-0.5,0.011109683662653,0.00214136322028935
450,-6.94040209054947E-05,0.00474358024075627,-0.00227709487080574,-0.5,0.00318033574149013,0.00350567465648055
451,0.000267442141193897,0.00492152757942677,-0.00335390632972121,-0.5,-0.00764652621001005,0.00331545504741371
452,0.000249789096415043,0.0057670003734529,-0.00571881281211972,-0.5,-0.0175589565187693,0.00194987910799682
453,-6.54914838378318E-05,0.00638417853042483,-0.00814757961779833,-0.5,-0.0232759099453688,0.00147245684638619
454,-0.000530972087290138,0.00591964973136783,-0.00958218052983284,-0.5,-0.0240460708737373,0.00227700104005635
455,-0.000774804619140923,0.00409941794350743,-0.0101495310664177,-0.5,-0.0215400774031878,0.00178424513433129
456,-0.00124480039812624,-3.7307425373001E-05,-0.0108763426542282,-0.5,-0.0179706569761038,-0.00215606205165386
457,-0.00228263740427792,-0.00572057720273733,-0.0114058647304773,-0.5,-0.0141494981944561,-0.00757716642692685
458,-0.00325699313543737,-0.0097237341105938,-0.0104914680123329,-0.5,-0.010831723921001,-0.00971565768122673
459,-0.00360650033690035,-0.010322580114007,-0.0084747951477766,-0.5,-0.00902137998491526,-0.00838667340576649
460,-0.00352394324727356,-0.00810534972697496,-0.00679464405402541,-0.5,-0.00881532393395901,-0.00622142432257533
461,-0.00352767203003168,-0.0045919930562377,-0.00599683495238423,-0.5,-0.00962306838482618,-0.00312157487496734
462,-0.00368840084411204,-0.00154299335554242,-0.00525362184271216,-0.5,-0.0104164304211736,0.00118255848065019
463,-0.00415116874501109,-0.000417726230807602,-0.00422808481380343,-0.5,-0.010849840939045,0.00449831364676356
464,-0.00452232267707586,-0.00135375128593296,-0.00312057230621576,-0.5,-0.0105002569034696,0.00436202017590404
465,-0.00426635565236211,-0.00239118770696223,-0.00134531909134239,-0.5,-0.00821812264621258,0.00223689270205796
466,-0.00401377864181995,-0.00164875912014395,0.00101564766373485,-0.5,-0.0039075156673789,0.00108026328962296
467,-0.00333253806456923,-0.000651308160740882,0.00358379422686994,-0.5,0.0025173204485327,-0.000396206160075963
468,-0.000899163016583771,-0.00127369479741901,0.00633645290508866,-0.5,0.0101841911673546,-0.00382081372663379
469,0.00203037494793534,-0.00101245008409023,0.00803891289979219,-0.5,0.0144419008865952,-0.00534277269616723
470,0.00302803586237133,0.00231262645684183,0.0078862402588129,-0.5,0.0118751665577292,-0.00199707760475576
471,0.00184779509436339,0.00626985495910048,0.0067684343084693,-0.5,0.00468623172491789,0.00336028099991381
472,-0.000209031524718739,0.00802378822118044,0.00550431571900845,-0.5,-0.00300103356130421,0.00757202971726656
473,-0.00202834024094045,0.00751042598858476,0.004289829172194,-0.5,-0.00829630810767412,0.00938746798783541
474,-0.00293969619087875,0.00633187033236027,0.00325746717862785,-0.5,-0.0100405029952526,0.00862602610141039
475,-0.00255983602255583,0.00587276834994555,0.00302184047177434,-0.5,-0.00913163274526596,0.00668443227186799
476,-0.00163375085685402,0.00583789544180036,0.0034696760121733,-0.5,-0.00779833877459168,0.00529192388057709
477,-0.00121322693303227,0.00551997590810061,0.00338626815937459,-0.5,-0.00711675779893994,0.00559420324862003
478,-0.000579922052565962,0.00538213225081563,0.00333478930406272,-0.5,-0.00538550037890673,0.00782172568142414
479,0.00101668247953057,0.00481144757941365,0.0042392467148602,-0.5,-0.00126045441720635,0.0105496551841497
480,0.00181677716318518,0.00205329852178693,0.00379148800857365,-0.5,0.00287676765583456,0.0110050085932016
481,0.000395019684219733,-0.000928618363104761,9.86310406005941E-05,-0.5,0.00372065929695964,0.00775894429534674
482,-0.00155085604637861,-0.000567164912354201,-0.00450315279886127,-0.5,0.000968572741840035,0.00303959287703037
483,-0.00241227285005152,0.00161890662275255,-0.00708385510370135,-0.5,-0.00396914547309279,-0.000125217440654524
484,-0.00241226353682578,0.00208814861252904,-0.00762587180361152,-0.5,-0.0097788218408823,-0.00214415858499706
485,-0.00169540615752339,0.00119769072625786,-0.00728637119755149,-0.5,-0.0143325608223677,-0.00446715811267495
486,-0.000793281942605972,0.000651685928460211,-0.00659293215721846,-0.5,-0.0164009016007185,-0.0067210509441793
487,-0.000137232957058586,0.000471002800622955,-0.00520163215696812,-0.5,-0.0164222978055477,-0.00730509171262383
488,0.00100517645478249,-0.000181251554749906,-0.00313002127222717,-0.5,-0.0145229659974575,-0.00603517843410373
489,0.00281958747655153,-0.00281423470005393,-0.00152584153693169,-0.5,-0.0105290906503797,-0.00636782450601459
490,0.00468009477481246,-0.00621323380619287,-0.000338957906933501,-0.5,-0.00479072611778975,-0.00797123741358519
491,0.00602852599695325,-0.00721168704330921,0.00126215629279613,-0.5,0.000788454199209809,-0.00708726746961474
492,0.0067019728012383,-0.0071241375990212,0.00290729431435466,-0.5,0.0044633592478931,-0.00619020033627748
493,0.00642865477129817,-0.0084162475541234,0.00345674413256347,-0.5,0.00567161105573177,-0.00809733103960752
494,0.00450980151072145,-0.009010324254632,0.00190306582953781,-0.5,0.00343410880304873,-0.0102445986121893
495,0.00122454110532999,-0.00708102714270353,-0.00142448127735406,-0.5,-0.00186744390521199,-0.0112732267007232
496,-0.00205156928859651,-0.00469292374327779,-0.00490794703364372,-0.283343017101288,-0.00746491830796003,-0.0126325637102127
497,-0.00404581939801574,-0.00327619491145015,-0.00659680273383856,-0.105286359786987,-0.0105202216655016,-0.013824031688273
498,-0.00419816840440035,-0.00191269966308028,-0.00523274717852473,-0.0444832891225815,-0.0100496029481292,-0.0122734578326344
499,-0.00268844608217478,-0.000169746956089512,-0.00139987375587225,-0.136944323778152,-0.00663716439157724,-0.00807360094040632
500,0.000156665599206463,0.00121331540867686,0.00359675497747958,-0.338474541902542,-0.000915403128601611,-0.00436976971104741
501,0.00322199240326881,0.00148162187542766,0.00860792398452759,-0.5,0.00578246964141726,-0.00267553492449224
502,0.0053215017542243,0.00094237644225359,0.0122015355154872,-0.472357749938965,0.011198434047401,-0.00207287049852312
503,0.00630947854369879,0.000107139348983765,0.0130428560078144,-0.112835377454758,0.0134588154032826,-0.00264062779024243
504,0.00540926167741418,-0.00157766579650342,0.0101260971277952,0.446310698986053,0.0112144015729427,-0.00500828586518765
505,0.00337715120986104,-0.00331958732567728,0.00481235794723034,0.5,0.00627330783754587,-0.00769716035574675
506,0.00279598287306726,-0.00339026469737291,0.000524262490216643,0.5,0.00288947438821197,-0.00839161965996027
507,0.0035038311034441,-0.00330049428157508,-0.00128085911273956,0.5,0.00221704365685582,-0.0082649914547801
508,0.00431432807818055,-0.00582201033830643,-0.00129760731942952,0.5,0.00368845695629716,-0.0110237561166286
509,0.00574455223977566,-0.0102532701566815,-0.000460351206129417,0.5,0.00867778994143009,-0.0156254433095455
510,0.00808621663600206,-0.0130792744457722,0.000229851299081929,0.5,0.0167331714183092,-0.0176598206162453
511,0.0104998163878918,-0.0124560287222266,0.000120174998301081,0.5,0.0224469490349293,-0.0153319714590907
512,0.011888868175447,-0.0102564282715321,-0.00102270429488271,0.5,0.0212043970823288,-0.0106569100171328
513,0.0122900493443012,-0.00874785892665386,-0.00342140067368746,0.5,0.0140866907313466,-0.00778469676151872
514,0.0129057988524437,-0.00836703646928072,-0.00579162035137415,0.5,0.00607364438474178,-0.00833481457084417
515,0.0139324609190226,-0.00882891286164522,-0.00632411474362016,0.5,0.00115395011380315,-0.0109331989660859
516,0.0141603210940957,-0.00946318358182907,-0.00518125388771296,0.5,-0.000652104790788144,-0.0140050183981657
517,0.013020159676671,-0.00964350812137127,-0.00341763347387314,0.5,-0.00087196979438886,-0.0164488349109888
518,0.0112424287945032,-0.00928128603845835,-0.0016357006970793,0.5,3.84534469048958E-05,-0.0179352704435587
519,0.00978612806648016,-0.00892778858542442,0.000303350068861619,0.5,0.00271256128326058,-0.0192771852016449
520,0.00937819387763739,-0.00873813219368458,0.0034543271176517,0.5,0.00749811250716448,-0.0202050898224115
521,0.00981869921088219,-0.00773136597126722,0.00820504780858755,0.5,0.0135182393714786,-0.0182632803916931
522,0.0104713924229145,-0.0055977157317102,0.0136569021269679,0.5,0.0194988343864679,-0.0122982133179903
523,0.0106326453387737,-0.00401077419519424,0.018001414835453,0.5,0.0230815876275301,-0.00506322691217065
524,0.00951134413480759,-0.00510745123028755,0.0192713718861341,0.5,0.0230480972677469,-0.0023284328635782
525,0.00783987063914537,-0.00730228424072266,0.0173713825643063,0.5,0.0220633409917355,-0.00526420259848237
526,0.00656959926709533,-0.0065256766974926,0.0135457161813974,0.5,0.0220295377075672,-0.00816716160625219
527,0.00547818467020988,-0.00310082361102104,0.00936754979193211,0.5,0.0221155565232039,-0.00862686429172754
528,0.00417773239314556,-0.000651066482532769,0.00622518919408321,0.5,0.0212665032595396,-0.00893394276499748
529,0.00296923122368753,0.000194079460925423,0.00464481860399246,0.5,0.0192301142960787,-0.00914191734045744
530,0.00242245453409851,0.000762082228902727,0.00417660595849156,0.5,0.0159497167915106,-0.00767248682677746
531,0.00235720258206129,0.000989572843536735,0.0043646264821291,0.5,0.0115788793191314,-0.0041199722327292
532,0.00178752630017698,0.00140767160337418,0.00529464753344655,0.5,0.00741782365366817,0.00115862349048257
533,0.000276521372143179,0.00366257317364216,0.00662337755784392,0.5,0.00487933307886124,0.00706291105598211
534,-0.00135612953454256,0.00725443148985505,0.00795903243124485,0.5,0.00392900500446558,0.0124061945825815
535,-0.0025295193772763,0.0102236140519381,0.00951179023832083,0.5,0.00351124559529126,0.0165006406605244
536,-0.00248627248220146,0.0114038316532969,0.0123227098956704,0.5,0.00474673835560679,0.0170603916049004
537,-0.000432817323599011,0.0103492541238666,0.0166920181363821,0.5,0.00941225048154593,0.0120087116956711
538,0.00249187368899584,0.00835253018885851,0.0205058753490448,0.5,0.0149585707113147,0.00481541082262993
539,0.00430358480662107,0.00714769121259451,0.0214438363909721,0.5,0.0171791594475508,0.0011739800684154
540,0.00470801210030913,0.0068299830891192,0.0193466320633888,0.5,0.0159368682652712,0.00232620001770556
541,0.00482491729781032,0.00671636546030641,0.0160274002701044,0.5,0.0151008712127805,0.00508535699918866
542,0.00532707804813981,0.00621206872165203,0.0137742925435305,0.5,0.0173198580741882,0.00609006453305483
543,0.00617070961743593,0.00503014819696546,0.0133418580517173,0.5,0.02073241956532,0.00466679222881794
544,0.00675135618075728,0.00344801577739418,0.0138014303520322,0.5,0.0214865505695343,0.00332602765411139
545,0.00681845005601645,0.00338206463493407,0.0141343856230378,0.5,0.0180751010775566,0.00544027891010046
546,0.00660336995497346,0.00624582031741738,0.0137636540457606,0.5,0.0126883182674646,0.0098747881129384
547,0.00659878645092249,0.0111266374588013,0.0135185867547989,0.5,0.00921350903809071,0.0137011222541332
548,0.00767705915495753,0.016279935836792,0.0146602755412459,0.5,0.00950455665588379,0.0160281714051962
549,0.00837917253375053,0.0180786084383726,0.0151820974424481,0.5,0.011001062579453,0.0142955631017685
550,0.00685191340744495,0.0138840638101101,0.0127424094825983,0.5,0.0113551123067737,0.00671657500788569
551,0.00452559813857079,0.00735175143927336,0.00856705382466316,0.5,0.0106557821854949,-0.00146635563578457
552,0.00353601411916316,0.00430529378354549,0.00493373442441225,0.5,0.00838208477944136,-0.00308528309687972
553,0.00424182694405317,0.00443537114188075,0.00298193586058915,0.5,0.00450293812900782,0.000381616846425459
554,0.00499922689050436,0.00415899837389588,0.00199456210248172,0.5,-0.000493122788611799,0.00199016160331666
555,0.00390041759237647,0.00312586175277829,0.000882064225152135,0.5,-0.00592439202591777,-0.00126643944531679
556,0.000816548417787999,0.00162394472863525,-3.62165410479065E-05,0.5,-0.0104234330356121,-0.00734665850177407
557,-0.00244924891740084,0.000667309213895351,-0.000140688061947003,0.5,-0.013351215980947,-0.0111072706058621
558,-0.00363950105383992,0.00247038318775594,3.34580363414716E-05,0.5,-0.0149289751425385,-0.00970127806067467
559,-0.00216111843474209,0.00585944065824151,-0.000188932390301488,0.5,-0.0154252192005515,-0.00643438939005136
560,0.000704848731402308,0.00758443074300885,-0.000520383939146996,0.5,-0.0148977721109986,-0.00609144615009427
561,0.00315509922802448,0.00682311970740557,-0.000985711463727057,0.5,-0.0138180023059249,-0.010174180381
562,0.00405504042282701,0.00549356220290065,-0.00156182260252535,0.5,-0.0132884569466114,-0.0152079192921519
563,0.00332025182433426,0.00528165465220809,-0.00176586862653494,0.5,-0.0136988153681159,-0.0164103005081415
564,0.00174648396205157,0.00596625450998545,-0.00202773464843631,0.5,-0.014059447683394,-0.0141258034855127
565,-6.61104422761127E-05,0.00679515628144145,-0.00252899876795709,0.5,-0.0117949582636356,-0.0117597207427025
566,-0.00268049328587949,0.00754550378769636,-0.00234569679014385,0.5,-0.0056171827018261,-0.00969162676483393
567,-0.00588153721764684,0.00796257611364126,-0.00119719735812396,0.5,0.000653866969514638,-0.00671151606366038
568,-0.00808602385222912,0.00792888831347227,-0.000622989377006888,0.5,0.00206367764621973,-0.0034777857363224
569,-0.00999283790588379,0.00689435889944434,-0.00336049823090434,0.5,-0.00249286484904587,-0.00152748473919928
570,-0.0131410555914044,0.00409719767048955,-0.00863838009536266,0.5,-0.00978873018175364,-0.00130463822279125
571,-0.0156842824071646,0.00109995692037046,-0.0116253439337015,0.5,-0.0149985384196043,-0.00190424849279225
572,-0.0155793465673923,0.000443061522673815,-0.0108074527233839,0.5,-0.017058290541172,-0.00206568487919867
573,-0.0135548505932093,0.00189200963359326,-0.00929934158921242,0.5,-0.0190205089747906,-0.00184095255099237
574,-0.01068414747715,0.00331163965165615,-0.00926895532757044,0.5,-0.0223277416080236,-0.00284980679862201
575,-0.00744249951094389,0.0039575737901032,-0.0103399502113461,0.5,-0.0254011377692223,-0.00457812892273068
576,-0.00420383037999272,0.00376379489898682,-0.0108953062444925,0.5,-0.0257888734340668,-0.00589737482368946
577,-0.0012877305271104,0.00279104802757502,-0.00969141162931919,0.5,-0.0217707585543394,-0.00882202107459307
578,0.00058666302356869,0.000751707353629172,-0.00778852496296167,0.464574962854385,-0.015688618645072,-0.0149501692503691
579,0.000813972495961934,-0.00189154467079788,-0.00709753390401602,0.395673274993896,-0.0121237859129906,-0.0204557031393051
580,-0.000636280630715191,-0.00256173335947096,-0.00824113562703133,0.45592525601387,-0.0125201418995857,-0.0202533323317766
581,-0.00325267482548952,-0.00110627920366824,-0.0105538535863161,0.5,-0.0153379356488585,-0.0154540585353971
582,-0.00573624204844236,0.000677203293889761,-0.0128552224487066,0.5,-0.0186231285333633,-0.0105274096131325
583,-0.00670595886185765,0.00233561359345913,-0.0139218056574464,0.5,-0.0206023473292589,-0.00800500810146332
584,-0.00603040819987655,0.00400925753638148,-0.0131328254938126,0.5,-0.0204543564468622,-0.00678632175549865
585,-0.00456196628510952,0.00542543921619654,-0.0113729694858193,0.5,-0.0188890490680933,-0.00536596123129129
586,-0.00352812767960131,0.00564538221806288,-0.0104892766103148,0.5,-0.0169781018048525,-0.00568838976323605
587,-0.00354158645495772,0.00473247235640883,-0.0112531557679176,0.5,-0.0150490831583738,-0.00905569549649954
588,-0.00326651870273054,0.00373411295004189,-0.0121966181322932,0.5,-0.0118921771645546,-0.0141220549121499
589,-0.00132494268473238,0.0029989336617291,-0.0120452670380473,0.5,-0.00686263851821423,-0.0205497890710831
590,0.0010391065152362,0.00286228326149285,-0.0119506195187569,0.5,-0.00302726100198925,-0.0272824652493
591,0.00193544186186045,0.00369258131831884,-0.0127361165359616,0.5,-0.00323443673551083,-0.0319741852581501
592,0.00201545050367713,0.00547999376431108,-0.0132073918357491,0.5,-0.0061730076558888,-0.0332378186285496
593,0.00269535277038813,0.00753511488437653,-0.0129089262336493,0.5,-0.00903244223445654,-0.0306430105119944
594,0.00363775575533509,0.00844823010265827,-0.0131506146863103,0.5,-0.0099649652838707,-0.0267167706042528
595,0.00410203356295824,0.00841673370450735,-0.0150561546906829,0.5,-0.00901484023779631,-0.025299834087491
596,0.00504395458847284,0.00883013382554054,-0.0173716675490141,0.5,-0.00705246534198523,-0.0269854199141264
597,0.00739101506769657,0.00889261346310377,-0.0190315004438162,0.5,-0.00616552447900176,-0.0313181951642036
598,0.0102408546954393,0.00726570095866919,-0.0210803300142288,0.5,-0.00914780236780643,-0.0385133661329746
599,0.0124597065150738,0.00522025860846043,-0.0224253721535206,0.5,-0.0142222214490175,-0.0455662757158279
600,0.0131811005994678,0.00501340767368674,-0.0213087946176529,0.5,-0.0175594743341208,-0.0478151366114616
601,0.0117940390482545,0.00691394787281752,-0.0200523659586906,0.5,-0.0199763625860214,-0.045640803873539
602,0.00889184419065714,0.00847991276532412,-0.0215694792568684,0.5,-0.0238636787980795,-0.0439596548676491
603,0.00629777181893587,0.00933245848864317,-0.0252708159387112,0.5,-0.0286349486559629,-0.0431639514863491
604,0.00497394613921642,0.0122139398008585,-0.0294850002974272,0.5,-0.0330091416835785,-0.0397587977349758
605,0.00383333489298821,0.0168836396187544,-0.0335235893726349,0.5,-0.0362219586968422,-0.0342625305056572
606,0.00204308074899018,0.0201027970761061,-0.036792878061533,0.5,-0.0372686386108398,-0.0297327358275652
607,1.41342788992915E-05,0.0200625341385603,-0.0385255888104439,0.5,-0.0372552424669266,-0.0275691393762827
608,-0.00180411292240024,0.0175773538649082,-0.0392049439251423,0.5,-0.039496436715126,-0.0290716849267483
609,-0.00273254467174411,0.0147769059985876,-0.0402200594544411,0.5,-0.044939324259758,-0.0357161313295364
610,-0.00208382192067802,0.012627606280148,-0.0415285639464855,0.5,-0.0510676726698875,-0.0450872480869293
611,-0.000798799213953316,0.0110319759696722,-0.042732834815979,0.5,-0.0556218177080154,-0.0518314763903618
612,-0.00064786447910592,0.0108316782861948,-0.0448241643607616,0.5,-0.0583578236401081,-0.0530988313257694
613,-0.0020286354701966,0.0122692482545972,-0.0486925505101681,0.415355354547501,-0.0603436231613159,-0.0505754686892033
614,-0.00362331350333989,0.0144024444743991,-0.053339347243309,0.208577126264572,-0.0624047890305519,-0.0480489283800125
615,-0.00372195662930608,0.0164778493344784,-0.0569458715617657,-0.0320303775370121,-0.0639678314328194,-0.0494508221745491
616,-0.00281102722510695,0.0176394544541836,-0.0595370158553123,-0.328544080257416,-0.0654034242033958,-0.0554880313575268
617,-0.00267441174946725,0.0173179898411036,-0.0624814927577972,-0.5,-0.0682836696505547,-0.0629450753331184
618,-0.00348892528563738,0.015452484600246,-0.0662733241915703,-0.5,-0.072143167257309,-0.0697414577007294
619,-0.00416449317708611,0.0128226643428206,-0.069639764726162,-0.5,-0.0741529315710068,-0.074302114546299
620,-0.00354239717125893,0.0110826035961509,-0.07051782310009,-0.5,-0.0724108442664146,-0.0748961642384529
621,-0.0015335384523496,0.0104722362011671,-0.0685578063130379,-0.5,-0.0681960731744766,-0.0727311000227928
622,0.000493382278364152,0.00951658096164465,-0.0656343623995781,-0.5,-0.0637148320674896,-0.0701399594545364
623,0.000914566800929606,0.00691794930025935,-0.0641758888959885,-0.5,-0.0602943934500217,-0.0693472474813461
624,-0.000751868006773293,0.00370183796621859,-0.0652927309274673,-0.5,-0.0588777214288712,-0.0709691792726517
625,-0.00300647947005928,0.00254066847264767,-0.0673977583646774,-0.5,-0.0589497350156307,-0.0716617107391357
626,-0.00415489310398698,0.00358030013740063,-0.068450354039669,-0.5,-0.0591920800507069,-0.0695371404290199
627,-0.00434736581519246,0.00463731680065393,-0.0685564577579498,-0.5,-0.0593542754650116,-0.0676494985818863
628,-0.004164251498878,0.00431528827175498,-0.0682073310017586,-0.5,-0.0588926859200001,-0.0687268748879433
629,-0.00357848894782364,0.00293744448572397,-0.0669916197657585,-0.5,-0.0566874407231808,-0.0709274187684059
630,-0.00214056274853647,0.00163320451974869,-0.0640419721603394,-0.5,-0.0520054474473,-0.0709140747785568
631,0.000355936324922368,0.000280382519122213,-0.0593119747936726,-0.5,-0.0455530174076557,-0.0692741870880127
632,0.0027757678180933,-0.00217975582927465,-0.0547914989292622,-0.5,-0.0394640043377876,-0.069035716354847
633,0.00336430780589581,-0.00519715063273907,-0.0529447756707668,-0.5,-0.0356306172907352,-0.0706187039613724
634,0.00259787938557565,-0.00696761906147003,-0.053240280598402,-0.5,-0.0340037383139133,-0.0718853324651718
635,0.00285901315510273,-0.0073230778798461,-0.0527759715914726,-0.5,-0.031625896692276,-0.0716409832239151
636,0.00468419957906008,-0.00704737147316337,-0.0507822968065739,-0.5,-0.0265034399926662,-0.0700226947665215
637,0.00713063683360815,-0.00633245892822742,-0.048394862562418,-0.5,-0.0210862774401903,-0.0684321671724319
638,0.00940240174531937,-0.00619237776845694,-0.0461649149656296,-0.481846749782562,-0.0191307496279478,-0.0678675845265388
639,0.01067313272506,-0.00615999288856983,-0.0440920256078243,-0.377437591552734,-0.021163834258914,-0.0648704618215561
640,0.0106976013630629,-0.00425609154626727,-0.0418770797550678,-0.332854449748993,-0.0242349393665791,-0.0577087514102459
641,0.0100906398147345,-0.00110692007001489,-0.0394451580941677,-0.339720100164413,-0.0263371281325817,-0.05026014149189
642,0.00952028390020132,0.0010636952938512,-0.0373359583318233,-0.388794660568237,-0.0281776580959558,-0.0451580062508583
643,0.00935698766261339,0.00118065217975527,-0.0356887653470039,-0.482344835996628,-0.0298694893717766,-0.0417781621217728
644,0.00941681209951639,-9.23235347727314E-05,-0.034345131367445,-0.5,-0.03059022128582,-0.0392307862639427
645,0.00915273278951645,-0.00229143584147096,-0.0331885069608688,-0.5,-0.0289697404950857,-0.0388607271015644
646,0.00830722972750664,-0.00534503301605582,-0.0317695178091526,-0.5,-0.0230985637754202,-0.0414500571787357
647,0.00674214726313949,-0.00729576870799065,-0.030131021514535,-0.5,-0.0141916973516345,-0.0433679297566414
648,0.00515595870092511,-0.00702848425135016,-0.0279706064611673,-0.5,-0.00656481273472309,-0.0418950989842415
649,0.00428468082100153,-0.0056973067112267,-0.0242009591311216,-0.5,-0.00363364908844233,-0.0377913489937782
650,0.0033865119330585,-0.00420545553788543,-0.0189901161938906,-0.5,-0.00511483754962683,-0.0318387486040592
651,0.00155482592526823,-0.00279234210029244,-0.0144817205145955,-0.5,-0.00764859467744827,-0.0258266348391771
652,-0.00075287907384336,-0.000735992973204702,-0.0124319773167372,-0.5,-0.00908983126282692,-0.0218569003045559
653,-0.00262006046250463,0.00210441555827856,-0.0122418059036136,-0.429394096136093,-0.0109197665005922,-0.0190775636583567
654,-0.00409982306882739,0.00448954245075583,-0.0131211746484041,-0.262165039777756,-0.0157472118735313,-0.0151588683947921
655,-0.00579214189201593,0.0047880276106298,-0.0155660733580589,-0.0789125934243202,-0.0234243683516979,-0.0117875514551997
656,-0.0072734565474093,0.00340318237431347,-0.0189136508852243,0.11031898111105,-0.0305412821471691,-0.0110944332554936
657,-0.00693043507635593,0.00331755424849689,-0.020855326205492,0.262508541345596,-0.0335673615336418,-0.0103962309658527
658,-0.00446656672284007,0.00513872690498829,-0.0203579813241959,0.343244910240173,-0.0314703360199928,-0.00785752851516008
659,-0.00115562975406647,0.00754052214324474,-0.0175423342734575,0.334945380687714,-0.0241773091256619,-0.00287606497295201
660,0.00208147987723351,0.00936398562043905,-0.0124347545206547,0.245140045881271,-0.0121183730661869,0.00430190982297063
661,0.0045381379313767,0.00924339145421982,-0.00595443695783615,0.126753702759743,0.00124468957073987,0.00954507756978273
662,0.00563968019559979,0.00788696203380823,0.000402019039029256,0.0263986811041832,0.0105507532134652,0.0107711888849735
663,0.00534850172698498,0.00641333730891347,0.00522555550560355,-0.0472145192325115,0.0126543398946524,0.0101199932396412
664,0.00399157591164112,0.00466972170397639,0.00770706683397293,-0.0901703834533691,0.00885275658220053,0.00965963676571846
665,0.00304851145483553,0.00277743604965508,0.00933072902262211,-0.101904563605785,0.00429993681609631,0.0100030843168497
666,0.00326195638626814,0.000996765797026455,0.0114889238029718,-0.0947071835398674,0.00252494658343494,0.0109073426574469
667,0.00231440900824964,0.00110514368861914,0.0126875331625342,-0.0802551805973053,0.00142811553087085,0.0145788211375475
668,-0.000855660939123482,0.00414091907441616,0.0125838229432702,-0.0668189376592636,-0.00113694067113101,0.0225368998944759
669,-0.00439422903582454,0.00735721085220575,0.0126889003440738,-0.0554615259170532,-0.00381030957214534,0.0309666823595762
670,-0.00692609138786793,0.00828792806714773,0.0135827483609319,-0.0377459451556206,-0.0042458395473659,0.0346497893333435
671,-0.00749821728095412,0.00788514036685228,0.0160403475165367,-0.0123987309634686,-0.0010137939825654,0.0324031002819538
672,-0.00596320629119873,0.00820416212081909,0.0198450218886137,0.0154929831624031,0.00460836756974459,0.0287508647888899
673,-0.00379367871209979,0.00848852377384901,0.0228659603744745,0.045022688806057,0.00998159777373075,0.0272865481674671
674,-0.00163825764320791,0.00732816942036152,0.0247007124125957,0.0598583891987801,0.0149520440027118,0.027844462543726
675,0.00106555561069399,0.00560656888410449,0.0270541533827782,0.0217758268117905,0.0211345162242651,0.0303523764014244
676,0.00451912079006433,0.0046758078970015,0.0305812675505877,-0.0824107676744461,0.0280524082481861,0.0347623191773891
677,0.00754514709115028,0.00464648520573974,0.0336991548538208,-0.205472633242607,0.0327484719455242,0.0398928560316563
678,0.00765607599169016,0.00400359649211168,0.0337883941829205,-0.287594854831696,0.0328847840428352,0.0419244505465031
679,0.00489457044750452,0.00225053681060672,0.0314890407025814,-0.328301548957825,0.0298347026109695,0.0383672304451466
680,0.00269851391203702,0.00117781641893089,0.0309860035777092,-0.372597485780716,0.0276164449751377,0.0330261513590813
681,0.00282618985511363,0.00203816778957844,0.0331663154065609,-0.433981209993362,0.0277310125529766,0.0310014374554157
682,0.00399936735630035,0.00385043979622424,0.0345085859298706,-0.48146852850914,0.0280193481594324,0.0326087512075901
683,0.00504845380783081,0.00500853220000863,0.0330605432391167,-0.4961758852005,0.0268677324056625,0.0353762060403824
684,0.00598710542544723,0.00561363762244582,0.030333811417222,-0.5,0.0251685176044703,0.0388784892857075
685,0.00664817309007049,0.00626908941194415,0.0282016340643168,-0.5,0.0244338661432266,0.042913019657135
686,0.0067012682557106,0.00590778049081564,0.0276984870433807,-0.5,0.02550701610744,0.0456600449979305
687,0.00631497707217932,0.00394644122570753,0.0286265090107918,-0.5,0.0283895935863256,0.0465635508298874
688,0.00553061813116074,0.00222981022670865,0.0289923641830683,-0.485418051481247,0.0316355898976326,0.045968621969223
689,0.00499274395406246,0.00182647095061839,0.028333181515336,-0.422454535961151,0.0337747819721699,0.043548371642828
690,0.00504092080518603,0.00153036694973707,0.027980038896203,-0.31397932767868,0.0339123420417309,0.0403158515691757
691,0.004596883431077,0.000620227365288883,0.0277400463819504,-0.1472088098526,0.0315136089920998,0.0379181541502476
692,0.00390026927925646,-0.000675859802868217,0.0274003595113754,0.0412421897053719,0.0282578933984041,0.0363076999783516
693,0.00399369094520807,-0.00229628104716539,0.0274244844913483,0.19213142991066,0.0261286366730928,0.0354033075273037
694,0.00421069096773863,-0.00367336464114487,0.0269117765128613,0.281861305236816,0.0246093068271875,0.0353269949555397
695,0.00384345231577754,-0.00353827769868076,0.0252939332276583,0.330019474029541,0.0230236575007439,0.0360300131142139
696,0.00368387438356876,-0.00196953397244215,0.0237544663250446,0.336364656686783,0.0224856976419687,0.0368558689951897
697,0.00451532937586308,-0.000386323459679261,0.023028276860714,0.278412520885468,0.0237953159958124,0.0359882898628712
698,0.00604092190042138,2.54444548772881E-05,0.0230572298169136,0.170515537261963,0.0261613950133324,0.0328264907002449
699,0.00758886523544788,-0.000666153384372592,0.0243093445897102,0.0509020239114761,0.0282683447003365,0.0302210878580809
700,0.00862738769501448,-0.00132078409660608,0.0267635360360146,-0.0590551272034645,0.0291317161172628,0.0311472918838263
701,0.00824970752000809,-0.00151924532838166,0.0285000149160624,-0.147356361150742,0.0280994661152363,0.0341694988310337
702,0.00623149378225207,-0.00224113371223211,0.0280551910400391,-0.205445989966393,0.0252897143363953,0.0346057526767254
703,0.00399056542664766,-0.00482295686379075,0.0262469667941332,-0.233890786767006,0.0218124967068434,0.0279732663184404
704,0.00263834418728948,-0.00710312556475401,0.0246524140238762,-0.233418390154839,0.0189393572509289,0.0178604442626238
705,0.00238800747320056,-0.00513324234634638,0.0246777031570673,-0.201951280236244,0.0180207099765539,0.0137877212837338
706,0.00341827236115932,-2.52218305831775E-05,0.0267101302742958,-0.147079855203629,0.0207914095371962,0.0166843868792057
707,0.00500611029565334,0.00411011278629303,0.0295981001108885,-0.112591475248337,0.0265576839447021,0.0203067269176245
708,0.00520219001919031,0.00543386396020651,0.0307383239269257,-0.151873111724854,0.0296426024287939,0.0211308039724827
709,0.00333165563642979,0.00399173004552722,0.0281819999217987,-0.26739913225174,0.026054859161377,0.0194319803267717
710,0.00104236346669495,0.000917178927920759,0.0235776118934155,-0.412273317575455,0.0189483147114515,0.0176493860781193
711,-0.000355803436832502,-0.00130782125052065,0.019417455419898,-0.5,0.0122984768822789,0.0168539043515921
712,-0.000765074859373271,-0.00190577702596784,0.015858331695199,-0.5,0.00684616109356284,0.0142642799764872
713,-0.000740913732443005,-0.00208309083245695,0.0120017090812325,-0.5,0.00203160895034671,0.00902894977480173
714,-0.0011377374175936,-0.00195064616855234,0.00709271524101496,-0.5,-0.00259581487625837,0.00393348792567849
715,-0.00182567106094211,-0.00158534978982061,0.00192200124729425,-0.5,-0.00592343928292394,0.000808544456958771
716,-0.00232344097457826,-0.00161772454157472,-0.00200635590590537,-0.5,-0.00697342958301306,-0.000633224844932556
717,-0.00227243290282786,-0.00179222249425948,-0.00552137568593025,-0.5,-0.00774054322391748,-0.00184746645390987
718,-0.00134468567557633,-0.00135323987342417,-0.0103903189301491,-0.5,-0.0113163655623794,-0.00330794253386557
719,-0.000978818745352328,-0.000483646959764883,-0.0167966801673174,-0.5,-0.0182832293212414,-0.00480831786990166
720,-0.00252684485167265,-0.000297795922961086,-0.0232928413897753,-0.5,-0.0261284243315458,-0.00731984665617347
721,-0.00447298167273402,-0.00242073088884354,-0.0271090716123581,-0.5,-0.0320008993148804,-0.0128825288265944
722,-0.00563957914710045,-0.00615633232519031,-0.0276306103914976,-0.5,-0.0362337045371532,-0.0199056770652533
723,-0.00665068533271551,-0.00724628241732717,-0.0280689410865307,-0.5,-0.040732380002737,-0.023026317358017
724,-0.00778868515044451,-0.00409226678311825,-0.0310598406940699,-0.5,-0.0458128489553928,-0.0220478810369968
725,-0.00889337062835693,0.00123304058797657,-0.0363764725625515,-0.5,-0.051267571747303,-0.0206963717937469
726,-0.00974153354763985,0.00655097607523203,-0.0422942489385605,-0.464566051959991,-0.0567034557461739,-0.0209798254072666
727,-0.0103057827800512,0.010231725871563,-0.0472470633685589,-0.404886394739151,-0.0611786842346191,-0.0230806469917297
728,-0.010559125803411,0.0123474858701229,-0.050596009939909,-0.428684085607529,-0.0638003274798393,-0.0243899673223495
729,-0.0108616929501295,0.0132117941975594,-0.0535889230668545,-0.5,-0.0656932219862938,-0.023365493863821
730,-0.0120179681107402,0.0126022510230541,-0.0583134666085243,-0.5,-0.0693912729620934,-0.022316737100482
731,-0.0133288083598018,0.0113642811775208,-0.063583217561245,-0.5,-0.0730275958776474,-0.0236712824553251
732,-0.0133081451058388,0.0101199578493834,-0.0662650465965271,-0.5,-0.0721905305981636,-0.0278854109346867
733,-0.0121536776423454,0.00886054523289204,-0.0665959641337395,-0.5,-0.0685233697295189,-0.0332164205610752
734,-0.0110846441239119,0.00755124259740114,-0.0674251094460487,-0.5,-0.068099744617939,-0.0375895351171494
735,-0.0106798680499196,0.00694340746849775,-0.0703614354133606,-0.5,-0.0736378505825996,-0.0400277897715569
736,-0.0109663233160973,0.00900133699178696,-0.0753863602876663,-0.5,-0.083266407251358,-0.0397093705832958
737,-0.0116220591589808,0.0124918762594461,-0.0812327787280083,-0.5,-0.0924834161996841,-0.0392807982861996
738,-0.0118025206029415,0.0130225932225585,-0.0855752751231194,-0.5,-0.0969067066907883,-0.0437230579555035
739,-0.0112325707450509,0.0110882818698883,-0.0872255861759186,-0.5,-0.0968051329255104,-0.0504928752779961
740,-0.0106106624007225,0.0114418622106314,-0.0868722647428513,-0.5,-0.0958128124475479,-0.0524986535310745
741,-0.0102119743824005,0.0145890833809972,-0.0848414823412895,-0.5,-0.0952498093247414,-0.0490937009453774
742,-0.00939388200640678,0.01742784678936,-0.0804134532809258,-0.5,-0.0932802334427834,-0.0441184006631374
743,-0.00830386579036713,0.0176321845501661,-0.0750591903924942,-0.5,-0.0890041589736938,-0.0420942269265652
744,-0.00885079614818096,0.0140525521710515,-0.0726940110325813,-0.5,-0.0848971754312515,-0.0456910878419876
745,-0.0115825142711401,0.00785676948726177,-0.0738345831632614,-0.5,-0.0830963104963303,-0.0510188899934292
746,-0.0139776673167944,0.00207829894497991,-0.0748609006404877,-0.5,-0.082068957388401,-0.0530687384307384
747,-0.0142948776483536,-0.00123117363546044,-0.0734277591109276,-0.5,-0.0794783234596252,-0.0517803691327572
748,-0.0137518560513854,-0.00220160046592355,-0.0700650811195374,-0.5,-0.0751716792583466,-0.0490976683795452
749,-0.0127232419326901,-0.00227670255117118,-0.0653542727231979,-0.5,-0.0692203715443611,-0.0479653142392635
750,-0.0102607747539878,-0.0027081691659987,-0.0595924332737923,-0.5,-0.0619803816080093,-0.0502240397036076
751,-0.00804784242063761,-0.00311845703981817,-0.0542628988623619,-0.5,-0.0565164312720299,-0.0531339831650257
752,-0.0076829120516777,-0.00271320505999029,-0.0500945411622524,-0.437256008386612,-0.0545936115086079,-0.0543512850999832
753,-0.00782104581594467,-0.00180895265657455,-0.0463509559631348,-0.269033074378967,-0.0534965954720974,-0.0538771115243435
754,-0.00806147232651711,-0.00084996415534988,-0.042952436953783,-0.0701171383261681,-0.050174854695797,-0.049934446811676
755,-0.00954851973801851,-0.000821084657218307,-0.0410486161708832,0.197897419333458,-0.045155193656683,-0.0414874404668808
756,-0.0117614734917879,-0.00305058038793504,-0.0414466708898544,0.5,-0.0412887744605541,-0.0314304530620575
757,-0.0133530739694834,-0.00642339838668704,-0.043647900223732,0.5,-0.040515560656786,-0.0240726303309202
758,-0.0138712348416448,-0.0090324729681015,-0.0460480190813541,0.5,-0.0421019867062569,-0.0217591356486082
759,-0.0124218985438347,-0.0104776313528419,-0.0460199192166328,0.5,-0.0414667353034019,-0.0221920199692249
760,-0.00898802652955055,-0.0100475018844008,-0.0431097075343132,0.5,-0.0336096882820129,-0.0212550349533558
761,-0.00593373971059918,-0.00891353841871023,-0.0403796248137951,0.5,-0.0205113384872675,-0.0203371457755566
762,-0.00419589830562472,-0.0090490598231554,-0.0386184044182301,0.5,-0.00985460821539164,-0.0213029701262712
763,-0.00255735637620091,-0.00994287338107824,-0.0354420877993107,0.5,-0.00626649940386415,-0.0212146565318108
764,-0.000918581557925791,-0.0112479301169515,-0.0309314597398043,0.5,-0.00921463128179312,-0.0194430574774742
765,0.000201271453988738,-0.0124828899279237,-0.0268080942332745,0.5,-0.0154470195993781,-0.0185112711042166
766,0.000663941900711507,-0.0126266106963158,-0.0227521061897278,0.5,-0.0207527652382851,-0.0187999308109283
767,-2.11429796763696E-05,-0.0115612875670195,-0.0182764753699303,0.5,-0.0233943685889244,-0.0176115147769451
768,-0.00140762934461236,-0.00939831137657166,-0.0138936806470156,0.5,-0.0238278489559889,-0.013914916664362
769,-0.00129267864394933,-0.00628997385501862,-0.00898025557398796,0.5,-0.0211185030639172,-0.00967516656965017
770,0.000638161029201001,-0.00321117788553238,-0.00364911765791476,0.5,-0.0152843156829476,-0.00530571769922972
771,0.00154981133528054,-0.00173678365536034,-0.000812742975540459,0.5,-0.00981514994055033,-0.000414182897657156
772,-0.000370908324839547,-0.00230590929277241,-0.00202722963877022,0.5,-0.00702587515115738,0.00389849650673568
773,-0.00414291769266129,-0.00379018089734018,-0.00467125931754708,0.5,-0.00540674338117242,0.0075452015735209
774,-0.00749704940244555,-0.00565322116017342,-0.00538689596578479,0.5,-0.00276706204749644,0.0102514140307903
775,-0.00938990898430347,-0.00794852524995804,-0.00383684108965099,0.5,0.000402227917220443,0.0114925028756261
776,-0.0106493076309562,-0.0084344856441021,-0.00129814178217202,0.5,0.00188116810750216,0.014949519187212
777,-0.0109558189287782,-0.00631843274459243,0.00246223201975226,0.5,0.00245403894223273,0.0210250969976187
778,-0.00933375116437674,-0.00410677958279848,0.00760644394904375,0.5,0.00449914531782269,0.0256714969873428
779,-0.00733336107805371,-0.00293214595876634,0.0119504146277905,0.5,0.00702345510944724,0.0296112205833197
780,-0.00639699213206768,-0.0032503604888916,0.014138544909656,0.5,0.00901784934103489,0.0338450819253922
781,-0.00556248426437378,-0.00546895153820515,0.0157428421080112,0.5,0.0125723965466022,0.0369643792510033
782,-0.00464287959039211,-0.00795289874076843,0.0176723208278418,0.5,0.017805103212595,0.0390494242310524
783,-0.0045139342546463,-0.00850855745375156,0.0189354736357927,0.5,0.0216157827526331,0.0408676192164421
784,-0.00507167400792241,-0.00803291238844395,0.019663468003273,0.5,0.0232803411781788,0.0423633977770805
785,-0.00569851556792855,-0.00880289822816849,0.0214027296751738,0.5,0.0254139211028814,0.0433281026780605
786,-0.00573220057412982,-0.00986772589385509,0.0246607828885317,0.5,0.029345165938139,0.0443814769387245
787,-0.00512123433873057,-0.00909621361643076,0.0282068904489279,0.5,0.0330654159188271,0.0467003211379051
788,-0.00446663750335574,-0.00702846143394709,0.0311649180948734,0.5,0.0346156731247902,0.0503781624138355
789,-0.00421103276312351,-0.00538959493860602,0.0334804095327854,0.5,0.0343358293175697,0.0539584010839462
790,-0.00445045484229922,-0.00528518995270133,0.0347075201570988,0.5,0.0337150096893311,0.0552146509289742
791,-0.00463752215728164,-0.00657303677871823,0.0353518314659595,0.475991576910019,0.0343910194933414,0.0540040172636509
792,-0.00507026491686702,-0.00818754732608795,0.0362764596939087,0.429982513189316,0.0356668159365654,0.0538098104298115
793,-0.00667860172688961,-0.00911314412951469,0.0368580706417561,0.5,0.0351358726620674,0.0563360713422298
794,-0.00814418867230415,-0.00818614289164543,0.037746399641037,0.5,0.034075666218996,0.0599223971366882
795,-0.00785960257053375,-0.0055379462428391,0.0411698557436466,0.5,0.0360691212117672,0.0637019872665405
796,-0.00646104151383042,-0.00241511804051697,0.0467151515185833,0.5,0.0413133390247822,0.0679693147540092
797,-0.00555749470368028,-0.000207889781449921,0.0509549900889397,0.5,0.0466894619166851,0.0716050863265991
798,-0.0063147284090519,-0.000458059890661389,0.0513827987015247,0.5,0.0492256321012974,0.0722879990935326
799,-0.00758560746908188,-0.00243417406454682,0.0495687872171402,0.5,0.0490773506462574,0.0703737884759903
800,-0.00682890741154552,-0.00428788457065821,0.0491285212337971,0.5,0.0491550676524639,0.0674935504794121
801,-0.00398063752800226,-0.00667313486337662,0.0512201339006424,0.5,0.0515620000660419,0.0630354508757591
802,-0.00118949438910931,-0.00885295681655407,0.0543540827929974,0.5,0.0552698969841003,0.0595803745090961
803,0.000652120797894895,-0.00826331041753292,0.0575406923890114,0.356257796287537,0.0583548024296761,0.0614432767033577
804,0.00171109987422824,-0.00619036611169577,0.060739878565073,0.168361827731133,0.0599872134625912,0.0668974593281746
805,0.00168566370848566,-0.00442138314247131,0.0636038184165955,-0.00971122272312641,0.0600567385554314,0.0719847977161407
806,0.000316488469252363,-0.00242454581893981,0.0656015872955322,-0.123955219984055,0.0592523217201233,0.0748070478439331
807,-0.00207865587435663,-0.000853214354719967,0.0659613385796547,-0.142239719629288,0.0579698048532009,0.074012778699398
808,-0.00412818603217602,-0.000656258605886251,0.0648411735892296,-0.0672304481267929,0.0567013099789619,0.069604367017746
809,-0.00513120833784342,-0.00174578628502786,0.0633435994386673,0.0775437578558922,0.0557941235601902,0.0645311772823334
810,-0.00546233588829637,-0.00418980838730931,0.062174316495657,0.247496634721756,0.0557588376104832,0.061033558100462
811,-0.00488795898854733,-0.0074152983725071,0.0616072341799736,0.396800935268402,0.0579659156501293,0.058041013777256
812,-0.0033031883649528,-0.0103477239608765,0.0614850632846355,0.496191650629044,0.0615357123315334,0.0542037785053253
813,-0.00176041654776782,-0.0129536930471659,0.061266764998436,0.5,0.0632304474711418,0.0499701648950577
814,-0.00194833730347455,-0.0144569994881749,0.0603305287659168,0.5,0.0612324289977551,0.0484227314591408
815,-0.00367859727703035,-0.0130584333091974,0.059177253395319,0.5,0.0574275702238083,0.0522458255290985
816,-0.00519837765023112,-0.00998341757804155,0.0587651953101158,0.5,0.054820790886879,0.0585343167185783
817,-0.00560307875275612,-0.00757303740829229,0.0595456175506115,0.5,0.0544114224612713,0.0638155937194824
818,-0.00502215977758169,-0.00589564861729741,0.0616396330296993,0.5,0.0556209795176983,0.0679031163454056
819,-0.00454243132844567,-0.00524518126621842,0.0642149597406387,0.5,0.0574757866561413,0.0699833929538727
820,-0.00453024776652455,-0.00598951289430261,0.0663557499647141,0.5,0.0595263689756393,0.069905124604702
821,-0.00383051857352257,-0.00651943031698465,0.0684952437877655,0.40086954832077,0.0618511736392975,0.0702342465519905
822,-0.00209987349808216,-0.00489768292754889,0.0714234262704849,0.234972894191742,0.0645370185375214,0.0727524235844612
823,-0.000557466817554086,-0.00180162896867841,0.074120007455349,0.0754327028989792,0.0675943568348885,0.0748187899589539
824,0.000218068817048334,0.00060068495804444,0.0755651593208313,-0.0459001138806343,0.0711553767323494,0.0744718834757805
825,0.000947866064962,0.0014063356211409,0.0768320858478546,-0.123574808239937,0.0753189325332642,0.0742581486701965
826,0.00113180687185377,0.000270833290414885,0.077861376106739,-0.16182091832161,0.0783403068780899,0.075570248067379
827,-0.000850356998853385,-0.003021907992661,0.0765789672732353,-0.164957329630852,0.0766964927315712,0.0763634592294693
828,-0.00442266184836626,-0.00775165623053908,0.0732136890292168,-0.137299239635468,0.0701550543308258,0.0740766376256943
829,-0.00670242263004184,-0.0128030152991414,0.070712223649025,-0.0860768631100655,0.0636403188109398,0.0681315287947655
830,-0.00626761466264725,-0.0169858243316412,0.0700634494423866,-0.0223407577723265,0.0611116029322147,0.0602509416639805
831,-0.00498232059180737,-0.0175288878381252,0.0694972202181816,0.0414222292602062,0.0613893754780293,0.0563223622739315
832,-0.00487980339676142,-0.0125968717038631,0.0680569559335709,0.101328745484352,0.0617556869983673,0.061742477118969
833,-0.00581238605082035,-0.00552675267681479,0.0655848681926727,0.166327387094498,0.060822956264019,0.0700114443898201
834,-0.00678229844197631,-0.000344183383276686,0.0622324272990227,0.239852860569954,0.0583518855273724,0.0718043819069862
835,-0.00699216173961759,0.0021578895393759,0.0600011870265007,0.311394721269608,0.0555305071175098,0.0684236735105515
836,-0.00656352192163467,0.00214880076237023,0.0596796087920666,0.38148421049118,0.053216427564621,0.064240038394928
837,-0.00608040392398834,0.00082397076766938,0.059771828353405,0.457431942224503,0.0513085015118122,0.0606042519211769
838,-0.00554060051217675,-0.000126189057482407,0.0595789402723312,0.5,0.0501319095492363,0.0577654913067818
839,-0.00450090784579515,1.28472038340988E-05,0.0593024305999279,0.5,0.0508208610117435,0.0562566183507442
840,-0.00237223482690752,0.00134303770028055,0.0592062138020992,0.5,0.0540807694196701,0.056720245629549
841,0.000137888797326013,0.00229115504771471,0.059186577796936,0.5,0.057563092559576,0.0576729401946068
842,0.00105259066913277,0.00124071585014462,0.0584531240165234,0.5,0.057475209236145,0.0572800114750862
843,-0.000184856791747734,-0.00024520480656065,0.0566987134516239,0.5,0.0534188114106655,0.0566017478704453
844,-0.00128310709260404,-0.000351849681464955,0.0555635467171669,0.5,0.0491041652858257,0.056307464838028
845,-0.000114550777652767,0.000356119096977636,0.0564295910298824,0.5,0.0477426201105118,0.0549855343997478
846,0.00214462960138917,0.0010158799123019,0.057806272059679,0.5,0.048587940633297,0.0523523427546024
847,0.00372510892339051,0.000458077614894137,0.0585374720394611,0.5,0.0501700453460217,0.0479821935296059
848,0.00460142688825727,-0.00198810733854771,0.059591569006443,0.362013518810272,0.0524018965661526,0.0426186881959438
849,0.00447318097576499,-0.00470009073615074,0.0601030327379704,0.189113035798073,0.0537045672535896,0.0397576466202736
850,0.00352570880204439,-0.00577641930431128,0.0589931048452854,0.1188805103302,0.0532128475606442,0.0404019020497799
851,0.0031245534773916,-0.00545892864465714,0.0578832924365997,0.206290245056152,0.0527508184313774,0.0425775311887264
852,0.0027304224204272,-0.00624227104708552,0.0571909174323082,0.424689710140228,0.0526125691831112,0.0440153330564499
853,0.000957462121732533,-0.00877353269606829,0.0551548525691032,0.5,0.0509907640516758,0.0433139875531197
854,-0.00141984573565423,-0.0108720967546105,0.0511163473129272,0.5,0.0482833385467529,0.0404072068631649
855,-0.00325590651482344,-0.0120399855077267,0.0467299185693264,0.5,0.0473665483295918,0.036573201417923
856,-0.00438790954649448,-0.0123517122119665,0.0439312905073166,0.5,0.0486395582556725,0.0348704904317856
857,-0.00435842573642731,-0.0114668700844049,0.0434412732720375,0.5,0.0504686869680882,0.0361753329634666
858,-0.0030990126542747,-0.010108039714396,0.0453484319150448,0.5,0.0524082742631435,0.0385425984859467
859,-0.000942530401516706,-0.00794262252748013,0.0490863062441349,0.5,0.0543812476098537,0.0413282699882984
860,0.00213245837949216,-0.00480708945542574,0.0528354272246361,0.5,0.0561039671301842,0.0441595651209354
861,0.00529892696067691,-0.00209531956352293,0.0544645190238953,0.5,0.0573180802166462,0.0458477661013603
862,0.00711624370887876,-0.000727393140550703,0.0534559153020382,0.5,0.0575137920677662,0.0450905375182629
863,0.00775681482627988,-0.000653982686344534,0.0513393506407738,0.5,0.0563290640711784,0.042062871158123
864,0.00855599343776703,-0.00050259631825611,0.0501819215714931,0.5,0.0541346967220306,0.0401313975453377
865,0.00946258567273617,0.000876983511261642,0.0505371503531933,0.5,0.0515062510967255,0.0413724668323994
866,0.00932626891881227,0.00245608855038881,0.0510304197669029,0.5,0.0487683266401291,0.044510904699564
867,0.00758111150935292,0.00249802507460117,0.0492985062301159,0.5,0.0455667078495026,0.0463363602757454
868,0.00496904505416751,0.00110073119867593,0.0443143285810947,0.5,0.0414661318063736,0.0436678901314735
869,0.00262666959315538,-0.000146713180583902,0.0382762551307678,0.5,0.0372714027762413,0.0383949764072895
870,0.000962689693551511,-0.00063817691989243,0.0343761891126633,0.5,0.0344928987324238,0.0349977090954781
871,0.000524575123563409,-3.28988644469064E-05,0.0339151248335838,0.5,0.0343510918319225,0.0354013890028
872,0.00188425311353058,0.00210562953725457,0.0360098369419575,0.5,0.036848358809948,0.0383135676383972
873,0.00487154629081488,0.00474457256495953,0.0395504347980022,0.5,0.0411694906651974,0.0413992255926132
874,0.00733723631128669,0.00608508754521608,0.0426327586174011,0.5,0.0451129637658596,0.0425972677767277
875,0.00684490101411939,0.00523198209702969,0.0421408452093601,0.5,0.0457925163209438,0.0392046310007572
876,0.00465076137334108,0.00275983428582549,0.0386775508522987,0.5,0.0442571602761745,0.0320268608629704
877,0.00299949245527387,-1.57121667143656E-05,0.0363300666213036,0.5,0.0435197912156582,0.0261861644685268
878,0.00236725038848817,-0.00251819891855121,0.0370266959071159,0.5,0.0441963188350201,0.0238334946334362
879,0.00234547117725015,-0.00396909844130278,0.0387617573142052,0.5,0.0441125892102718,0.024073101580143
880,0.00280668004415929,-0.00332155497744679,0.0391205623745918,0.49717965722084,0.041093435138464,0.0254472028464079
881,0.00401018699631095,-0.00160834181588143,0.0379031151533127,0.470699518918991,0.0365059338510036,0.0253482218831778
882,0.00456376187503338,0.000418610870838165,0.0354359820485115,0.436277508735657,0.032427079975605,0.02480074390769
883,0.00321763730607927,0.0030579324811697,0.0328100249171257,0.398486524820328,0.0294782929122448,0.0265879333019257
884,0.00132857740391046,0.00522767286747694,0.0319983661174774,0.357999742031097,0.028168547898531,0.0291398018598557
885,0.000773302162997425,0.00565672619268298,0.033425185829401,0.30561301112175,0.0284134149551392,0.0295476820319891
886,0.00190299865789711,0.0043040276505053,0.0361038148403168,0.230521321296692,0.0295916758477688,0.0283225513994694
887,0.00325725344009697,0.00202111713588238,0.038637176156044,0.132042557001114,0.0309175010770559,0.0282025504857302
888,0.00332729751244187,0.000270354183157906,0.0395787060260773,0.0339843481779099,0.0317745096981525,0.0300218220800161
889,0.00214278534986079,-0.00037552387220785,0.0386226139962673,-0.0203377660363913,0.0331881567835808,0.0313134305179119
890,0.0003308747545816,-0.000496655644383281,0.0372468307614326,-0.0116380471736193,0.0364531688392162,0.0302023403346539
891,-0.000879927771165967,0.000987623119726777,0.0372898764908314,0.0357532911002636,0.0400334931910038,0.0295054968446493
892,-0.000686251209117472,0.00441244477406144,0.0379410721361637,0.091876745223999,0.0402515679597855,0.0314688682556152
893,-0.000525653886143118,0.00677540805190802,0.036472849547863,0.146134451031685,0.0358837433159351,0.0329683683812618
894,-0.00118553510401398,0.00648770993575454,0.0329439528286457,0.191276580095291,0.030996922403574,0.0308486390858889
895,-0.00117397040594369,0.00463674729689956,0.0301846247166395,0.216290637850761,0.0301166381686926,0.026326896622777
896,0.000224769857595675,0.00262981187552214,0.0289084855467081,0.217935174703598,0.0321713499724865,0.0223105847835541
897,0.00148012908175588,0.0018827315652743,0.0266065038740635,0.201213359832764,0.0317681320011616,0.0196978151798248
898,0.000680602621287107,0.00254114787094295,0.021527973935008,0.179950475692749,0.0257280878722668,0.018078126013279
899,-0.00178428064100444,0.00338201876729727,0.0154976695775986,0.170390486717224,0.0171326585114002,0.016793405637145
900,-0.00425055390223861,0.0035003125667572,0.0113499332219362,0.171943098306656,0.0105159990489483,0.0150687778368592
901,-0.00567151512950659,0.00284079369157553,0.0100655946880579,0.164964929223061,0.00708298524841666,0.0131129007786512
902,-0.00546200387179852,0.00204916507937014,0.0112208323553205,0.143601506948471,0.00626314897090197,0.0116117177531123
903,-0.00429257145151496,0.00216742674820125,0.013527044095099,0.132775142788887,0.00669870432466269,0.0116586145013571
904,-0.00353995384648442,0.00364863942377269,0.015379642136395,0.143280372023582,0.00685642939060926,0.0131590310484171
905,-0.00392936542630196,0.00540000479668379,0.015745747834444,0.160488277673721,0.00684019969776273,0.0138638596981764
906,-0.00476430682465434,0.00547299208119512,0.0149568356573582,0.18720655143261,0.00860723108053207,0.0114914011210203
907,-0.00399315869435668,0.00265623815357685,0.0146406050771475,0.233113706111908,0.0134596591815352,0.0053845951333642
908,-0.00135599367786199,-0.00106054684147239,0.0151754207909107,0.270624339580536,0.0187561623752117,0.000662374775856733
909,0.000489342608489096,-0.00214983150362968,0.0145529629662633,0.27230429649353,0.019866555929184,0.00296067958697677
910,0.000133842651848681,-0.000177388734300621,0.0119286803528667,0.257355958223343,0.0165425837039948,0.00930705573409796
911,-0.0014063564594835,0.00385256577283144,0.00904795713722706,0.238138228654861,0.0122224064543843,0.0157452989369631
912,-0.0030509396456182,0.00871013849973679,0.00813943799585104,0.209844693541527,0.00874363631010056,0.0218049120157957
913,-0.00373654812574387,0.010987120680511,0.00982135627418756,0.190259605646133,0.00621271505951881,0.0235530827194452
914,-0.00336361327208579,0.00806296989321709,0.0114509491249919,0.199098914861679,0.00449312571436167,0.0170217975974083
915,-0.00284076877869666,0.00284007866866887,0.0104465605691075,0.226892501115799,0.00392943760380149,0.00747185945510864
916,-0.00193275697529316,-0.000759158923756331,0.00808896124362946,0.23909567296505,0.00538274459540844,0.001774747739546
917,-0.00077803444582969,-0.0024795641656965,0.00630354462191463,0.216292634606361,0.00829797331243753,-4.57222377008293E-05
918,-0.000369241926819086,-0.00243402482010424,0.00509084248915315,0.170725047588348,0.0114324921742082,0.000390259927371517
919,-0.000538279535248876,-0.000739598472137004,0.00432125944644213,0.122141651809216,0.0144791444763541,0.00218287482857704
920,-0.000932717463001609,0.00149495503865182,0.00433889031410217,0.0937368720769882,0.0166048612445593,0.00407214462757111
921,-0.00208739587105811,0.0032517344225198,0.00462838495150208,0.103328123688698,0.0160957425832748,0.00515204714611173
922,-0.00356451538391411,0.00410486198961735,0.00480568874627352,0.139834299683571,0.0135564003139734,0.00536693399772048
923,-0.00340899126604199,0.00356652354821563,0.00641084602102637,0.172974705696106,0.0131168542429805,0.00403345236554742
924,-0.00123580789659172,0.00154735799878836,0.00990573130548,0.18139486014843,0.0166564006358385,0.000421033473685384
925,0.000852347700856626,-0.00091128796339035,0.0131612149998546,0.18144279718399,0.0210638456046581,-0.00431924406439066
926,0.00129368482157588,-0.00328991957940161,0.0144238537177444,0.216465294361115,0.0231546703726053,-0.00830835290253162
927,0.000791431230027229,-0.00522013008594513,0.0130954021587968,0.290517032146454,0.0226454846560955,-0.0105406632646918
928,0.00078212603693828,-0.00543104344978929,0.00982643384486437,0.357713639736176,0.0210396200418472,-0.0105506833642721
929,0.00234208256006241,-0.00362395588308573,0.00743011524900794,0.37310454249382,0.0210969392210245,-0.00813431851565838
930,0.00557568995282054,-0.000496607506647706,0.00804898701608181,0.309802830219269,0.0245679263025522,-0.00383329088799655
931,0.00873183272778988,0.00294551439583302,0.00974291004240513,0.165321335196495,0.0282407738268375,0.000764037074986845
932,0.00938486307859421,0.00487598264589906,0.00921700429171324,-0.0390320830047131,0.0276348870247602,0.00306044728495181
933,0.00696550030261278,0.00346776004880667,0.00625180313363671,-0.257818073034287,0.0233721863478422,-9.86219674814492E-05
934,0.00379310990683734,-0.000292421289486811,0.00309961591847241,-0.422821968793869,0.018593417480588,-0.00675117783248425
935,0.00194402108900249,-0.00177302642259747,0.00129469414241612,-0.5,0.0134338606148958,-0.00839017238467932
936,0.00103476422373205,0.000707731524016708,0.00154433003626764,-0.5,0.00700934743508697,-0.00312985433265567
937,-0.00041260541183874,0.00398054905235767,0.00376178114674985,-0.5,0.000656902731861919,0.00303772673942149
938,-0.00392051925882697,0.00568357342854142,0.00546952523291111,-0.448977470397949,-0.00459225941449404,0.00725607527419925
939,-0.00872655119746923,0.00565783772617579,0.0051596094854176,-0.281966537237167,-0.00836576148867607,0.0104919355362654
940,-0.0124151790514588,0.00461602164432406,0.00379478931427002,-0.0967848151922226,-0.0105887083336711,0.0124856811016798
941,-0.0141174532473087,0.00277336710132658,0.00197158521041274,0.049056701362133,-0.0119881657883525,0.0113567505031824
942,-0.013785507529974,-6.54844188829884E-05,0.000712116423528641,0.146039873361588,-0.0112728998064995,0.00925254356116056
943,-0.0119978897273541,-0.00304243783466518,0.00050642219139263,0.231905743479729,-0.00708629749715328,0.0100607732310891
944,-0.0103527475148439,-0.00508026825264096,-0.000559822772629559,0.326207309961319,-0.00218480220064521,0.0116546051576734
945,-0.00923971645534039,-0.00585939455777407,-0.00325980014167726,0.372937947511673,0.000105539467767812,0.00964402407407761
946,-0.00759247690439224,-0.00563796842470765,-0.00530251068994403,0.315111935138702,-0.000442461780039594,0.00472331931814551
947,-0.00528203370049596,-0.00514756049960852,-0.00542053626850247,0.19416156411171,-0.00268819369375706,0.00132960453629494
948,-0.00310961692593992,-0.00464684795588255,-0.00532761728391051,0.0855231508612633,-0.00518245482817292,0.00154124689288437
949,-0.00156249047722667,-0.00335176615044475,-0.00701617635786533,-0.0170078575611115,-0.00693653337657452,0.00380861666053534
950,-0.000878218503203243,-0.00117432931438088,-0.0104170180857182,-0.170192509889603,-0.00841952301561832,0.00572914956137538
951,-0.00100337422918528,0.00136837281752378,-0.0135839488357306,-0.380071818828583,-0.0101615805178881,0.00671360176056623
952,-0.00121136917732656,0.00510781863704324,-0.014839069917798,-0.5,-0.0114120971411467,0.00701773352921009
953,-0.00144030677620322,0.00913088768720627,-0.0145096257328987,-0.5,-0.0116640850901604,0.0028346935287118
954,-0.00235510803759098,0.0111871752887964,-0.0133772557601333,-0.5,-0.0112714404240251,-0.0057848789729178
955,-0.00380838569253683,0.0110224382951856,-0.011789882555604,-0.5,-0.0103908590972424,-0.0118808727711439
956,-0.00568737415596843,0.00794508215039968,-0.0109356474131346,-0.5,-0.00975725520402193,-0.014808626845479
957,-0.0076768146827817,0.00163292465731502,-0.0110285151749849,-0.5,-0.00946507044136524,-0.017949566245079
958,-0.00857552792876959,-0.00609214603900909,-0.0107286712154746,-0.5,-0.00809960160404444,-0.020293403416872
959,-0.0072753643617034,-0.0129680847749114,-0.00879525300115347,-0.5,-0.00467967987060547,-0.0198113415390253
960,-0.00412680860608816,-0.0176695846021175,-0.00504243047907948,-0.5,-7.06434730091132E-05,-0.0162235908210278
961,-0.000316466263029724,-0.0210866313427687,-0.00107764743734151,-0.5,0.00404710788279772,-0.01284025516361
962,0.00391940400004387,-0.0228631123900414,0.00056355819106102,-0.5,0.00704981479793787,-0.0138218216598034
963,0.00778471399098635,-0.0199734456837177,-0.00122061499860138,-0.5,0.00828706659376621,-0.0158388391137123
964,0.00968551449477673,-0.0136849759146571,-0.00447850301861763,-0.5,0.00789567269384861,-0.0144714927300811
965,0.00914670899510384,-0.00855168234556913,-0.00692097889259458,-0.5,0.00767488684505224,-0.0122842639684677
966,0.00736467447131872,-0.00568506075069308,-0.00774513883516192,-0.5,0.00981334503740072,-0.0135369151830673
967,0.00591408414766192,-0.00436482159420848,-0.00659169023856521,-0.5,0.015369800850749,-0.0191448908299208
968,0.00481251021847129,-0.00399803929030895,-0.00403556972742081,-0.5,0.0220451187342405,-0.0251599811017513
969,0.0040074372664094,-0.00337246782146394,-6.08183945587371E-05,-0.5,0.0265744309872389,-0.0270684491842985
970,0.00446704076603055,-0.00201693433336914,0.00615012226626277,-0.5,0.0280690994113684,-0.0245302710682154
971,0.00507245492190123,-0.00146161369048059,0.0119556849822402,-0.5,0.0261113457381725,-0.0205742679536343
972,0.00316240941174328,-0.0034429095685482,0.0137087740004063,-0.5,0.0199739839881659,-0.0180819444358349
973,-3.33234420395456E-05,-0.00711729237809777,0.0126964766532183,-0.5,0.0120756449177861,-0.0178219806402922
974,-0.00050325266784057,-0.0106483362615108,0.0120607176795602,-0.5,0.00760801462456584,-0.0207676701247692
975,0.00222321855835617,-0.0132967997342348,0.0116828512400389,-0.5,0.00823584292083979,-0.0269069876521826
976,0.00525933597236872,-0.0147540224716067,0.00913320574909449,-0.5,0.0108145112171769,-0.0333032011985779
977,0.00683189928531647,-0.0141537310555577,0.00315855885855854,-0.5,0.0119330687448382,-0.0363918356597424
978,0.00666301138699055,-0.0101839629933238,-0.00514974584802985,-0.5,0.00963816978037357,-0.0334170758724213
979,0.00502567598596215,-0.0042501874268055,-0.0130737740546465,-0.5,0.00460305158048868,-0.0241629555821419
980,0.00324058160185814,-0.000919987913221121,-0.0184401720762253,-0.5,-0.000607881811447442,-0.0127837415784597
981,0.00301631214097142,-0.00209348718635738,-0.0209085196256638,-0.5,-0.00481621781364083,-0.00513994041830301
982,0.0043518440797925,-0.00526713952422142,-0.0205637831240892,-0.5,-0.00786292739212513,-0.00316543807275593
983,0.00577386422082782,-0.008326705545187,-0.0168567020446062,-0.5,-0.00877980142831802,-0.00486525241285563
984,0.00693266093730927,-0.00993605423718691,-0.0100620174780488,-0.5,-0.00718669686466455,-0.00789113529026508
985,0.00727033661678433,-0.00930147338658571,-0.0043922895565629,-0.5,-0.00568541279062629,-0.0116313407197595
986,0.00544697605073452,-0.00915982946753502,-0.00365650234743953,-0.5,-0.0061788521707058,-0.0174668338149786
987,0.00245006079785526,-0.0110770370811224,-0.00565410871058702,-0.5,-0.00681504793465137,-0.0233855377882719
988,0.000857061648275703,-0.0130388354882598,-0.00752208009362221,-0.5,-0.00603170180693269,-0.0263055749237537
989,0.0014862174866721,-0.0139397820457816,-0.00967742875218391,-0.5,-0.00467974506318569,-0.0282451827079058
990,0.00284130172803998,-0.0129257366061211,-0.0123213045299053,-0.5,-0.00429751118645072,-0.0297098308801651
991,0.00309957074932754,-0.00942654814571142,-0.0144881987944245,-0.5,-0.0059415209107101,-0.0277534052729607
992,0.00172441231552511,-0.00450494466349483,-0.015524860471487,-0.5,-0.00954306684434414,-0.021596746519208
993,-0.000111281347926706,0.000181446870556101,-0.0145659483969212,-0.5,-0.0126644996926188,-0.013926294632256
994,-0.00089902791660279,0.00255744159221649,-0.011800529435277,-0.5,-0.0121344290673733,-0.0100074596703053
995,-0.00105711678043008,0.0015827618772164,-0.00936916843056679,-0.5,-0.00744603900238872,-0.0125491311773658
996,-0.0015925302868709,-0.000930810114368796,-0.00842151418328285,-0.5,-0.00112707109656185,-0.0170262064784765
997,-0.001967967255041,-0.00306344730779529,-0.00840622931718826,-0.5,0.00315447431057692,-0.0191432703286409
998,-0.00197056191973388,-0.00470460299402475,-0.00908026099205017,-0.5,0.00248623872175813,-0.0207032337784767
999,-0.00189185654744506,-0.00529519421979785,-0.00997084844857454,-0.5,-0.00297089177183807,-0.0229574684053659
1000,-0.00105278939008713,-0.00384021503850818,-0.00943449512124062,-0.5,-0.00925392378121614,-0.0236365515738726
1001,0.000485442084027454,-0.000978775206021965,-0.00682369619607925,-0.5,-0.012713729403913,-0.0207317806780338
1002,0.00106604234315455,0.000661492056678981,-0.00440112920477986,-0.5,-0.0136844767257571,-0.0154566122218966
1003,-0.000163057833560742,-0.00121328292880207,-0.00487983180209994,-0.5,-0.0139570431783795,-0.0113197518512607
1004,-0.00156103842891753,-0.00527198612689972,-0.00791869126260281,-0.5,-0.0134123666211963,-0.0100766299292445
1005,-0.000881835061591119,-0.0083519546315074,-0.0108596989884973,-0.5,-0.0116771906614304,-0.0105544840916991
1006,0.00146928941830993,-0.0086352564394474,-0.0119753908365965,-0.5,-0.0102606751024723,-0.010416941717267
1007,0.00294238212518394,-0.006571548525244,-0.0118230441585183,-0.5,-0.0107122827321291,-0.0098606375977397
1008,0.00241934391669929,-0.00467160250991583,-0.011342890560627,-0.5,-0.0122163034975529,-0.0111086927354336
1009,0.000584673602133989,-0.00324383960105479,-0.010947210714221,-0.5,-0.0136933447793126,-0.0130548495799303
1010,-0.00114016979932785,-0.000552779820282012,-0.0107332533225417,-0.5,-0.015081450343132,-0.0124737787991762
1011,-0.00127603486180305,0.00304748816415668,-0.00992044899612665,-0.5,-0.015612231567502,-0.00850157346576452
1012,-0.000312673771986738,0.00523295626044273,-0.00878363195806742,-0.5,-0.0152206839993596,-0.00393621390685439
1013,0.000459412811324,0.00397774064913392,-0.00851684529334307,-0.5,-0.014490433037281,-0.00283264764584601
1014,0.000913883384782821,-0.000157004964421503,-0.00899805221706629,-0.5,-0.0136544946581125,-0.00566529342904687
1015,0.00121107720769942,-0.00385613297112286,-0.00987936928868294,-0.5,-0.013394957408309,-0.00953294523060322
1016,0.00207605469040573,-0.00502231437712908,-0.0103056244552135,-0.5,-0.0128561174497008,-0.0135019170120358
1017,0.00366104044951499,-0.00509737711399794,-0.00961519777774811,-0.5,-0.01135912258178,-0.0189900361001492
1018,0.00484100123867393,-0.00439310912042856,-0.00870460923761129,-0.5,-0.0107320584356785,-0.0235791634768248
1019,0.00518205296248198,-0.00172610580921173,-0.00800820253789425,-0.5,-0.0118633164092898,-0.0224609859287739
1020,0.00405511865392327,0.000675064802635461,-0.00801514368504286,-0.5,-0.0142367947846651,-0.0172540452331305
1021,0.00115534756332636,0.000586470530834049,-0.00930142123252153,-0.5,-0.0167603623121977,-0.0129335978999734
1022,-0.00140706915408373,-0.000558083935175091,-0.010744365863502,-0.5,-0.0165304057300091,-0.0114200217649341
1023,-0.0020014971960336,-0.00185149756725878,-0.0110151087865233,-0.5,-0.011763016693294,-0.0132192997261882
1024,-0.00117396598216146,-0.00378806795924902,-0.00993851665407419,-0.5,-0.00529109593480825,-0.0181014854460955
1025,4.52492304248153E-06,-0.00549387279897928,-0.00853836257010698,-0.5,-0.00170037325005978,-0.0237410310655832
1026,0.000485738943098113,-0.00591553235426545,-0.00828523095697165,-0.5,-0.00248169922269881,-0.0255937594920397
1027,0.000285025889752433,-0.00506227137520909,-0.00910355523228645,-0.5,-0.00557617796584964,-0.0206581503152847
1028,0.000685177452396601,-0.0034280049148947,-0.00937908329069614,-0.5,-0.0083119161427021,-0.0127994082868099
1029,0.0021981536410749,-0.00135764945298433,-0.00751486420631409,-0.5,-0.00908555462956429,-0.00760358944535255
1030,0.00368417170830071,0.00227743107825518,-0.00353377289138734,-0.5,-0.00802789442241192,-0.00370373670011759
1031,0.00391745520755649,0.00704317120835185,0.000363860628567636,-0.5,-0.00667215092107654,-0.000117511583084706
1032,0.0029126382432878,0.00988897494971752,0.00232830666936934,-0.436248034238815,-0.0057578100822866,0.000296121696010232
1033,0.0014297483721748,0.00991984643042088,0.00171147903893143,-0.364997446537018,-0.00528714014217258,-0.00181331776548177
1034,0.00072043325053528,0.00789689645171165,-0.00129122810903937,-0.300543755292892,-0.00486763240769506,-0.00526736071333289
1035,0.00129640230443329,0.00529233366250992,-0.00539164384827018,-0.264941185712814,-0.00456189922988415,-0.00996739603579044
1036,0.00152227783109993,0.00421241158619523,-0.00936702452600002,-0.270574003458023,-0.0059561594389379,-0.0134622547775507
1037,0.000909150403458625,0.00479436572641134,-0.0111064724624157,-0.309942930936813,-0.00846860650926828,-0.014176151715219
1038,0.000993306748569012,0.00573921576142311,-0.00968894083052874,-0.370569080114365,-0.00987445004284382,-0.0143644344061613
1039,0.00153795431833714,0.00574694480746984,-0.00853458791971207,-0.454940468072891,-0.010739803314209,-0.0164822228252888
1040,0.00134125142358243,0.00450710114091635,-0.0103930775076151,-0.5,-0.0114781362935901,-0.0197702292352915
1041,0.0010279833804816,0.00266174809075892,-0.0135991703718901,-0.5,-0.00945062749087811,-0.0231527034193277
1042,0.00148993812035769,8.43276138766669E-05,-0.0148371094837785,-0.5,-0.00409116363152862,-0.0266902130097151
1043,0.00213281298056245,-0.00345282629132271,-0.0128393461927772,-0.5,0.000546007242519408,-0.0291526056826115
1044,0.00232365005649626,-0.00679374625906348,-0.0106713995337486,-0.5,0.00085612601833418,-0.0301406048238277
1045,0.00221163034439087,-0.00801980867981911,-0.0118730394169688,-0.5,-0.00248383148573339,-0.0293777082115412
1046,0.00225812499411404,-0.00663445750251412,-0.0151638984680176,-0.5,-0.00595204997807741,-0.0255440268665552
1047,0.00256368680857122,-0.00537515059113503,-0.0167931877076626,-0.5,-0.00714186765253544,-0.0206428039819002
1048,0.00202382216230035,-0.00497703906148672,-0.0159870181232691,-0.5,-0.00785892177373171,-0.0147891091182828
1049,-0.000254110724199563,-0.00192058947868645,-0.0152411516755819,-0.5,-0.0110885174944997,-0.00624554930254817
1050,-0.00315566570498049,0.00321782566606998,-0.0156133677810431,-0.5,-0.0152155607938766,0.000329517904901877
1051,-0.00485468283295631,0.0061519811861217,-0.0151391923427582,-0.5,-0.0169692076742649,0.000966631167102605
1052,-0.00457482598721981,0.00599196087568998,-0.0115481279790401,-0.5,-0.0162236262112856,-0.00157581828534603
1053,-0.00243936153128743,0.00459252251312137,-0.0052417921833694,-0.5,-0.0139689054340124,-0.00399023853242397
1054,-0.000558683706913143,0.00278448895551264,-0.000943759048823267,-0.5,-0.0119203915819526,-0.00661244476214051
