,AF3,AF4,Fp1,Fp2,AF7,AF8
0,0.000610096962191164,-0.00176239688880742,-0.00724859675392509,0.0655951499938965,0.0046593751758337,-0.0112086106091738
1,-0.000437103415606543,-0.00206866813823581,-0.00872266665101051,-0.0522265508770943,0.00301051139831543,-0.0139922983944416
2,-0.00150553346611559,-0.00286024808883667,-0.00891119800508022,-0.141373381018639,0.00177899969276041,-0.0163468737155199
3,-0.00199531042017043,-0.00358104659244418,-0.00765080051496625,-0.196679398417473,0.00224210694432259,-0.0171009004116058
4,-0.00163087889086455,-0.00375030818395317,-0.00542160915210843,-0.233623906970024,0.00445667328312993,-0.015515161678195
5,-0.00074185396078974,-0.0037979802582413,-0.00322155514732003,-0.267661988735199,0.00688296649605036,-0.0126135274767876
6,-0.000220275687752292,-0.00429517077282071,-0.00205986527726054,-0.290332913398743,0.00824501924216747,-0.0105995209887624
7,-0.000315887184115127,-0.00485794339329004,-0.00194061605725437,-0.293163686990738,0.0084249647334218,-0.0107079884037375
8,7.83797513577156E-05,-0.00459408154711127,-0.00193075009156019,-0.284847855567932,0.00823103729635477,-0.0120990136638284
9,0.00127909414004534,-0.00335457664914429,-0.00179263658355922,-0.274253010749817,0.00835639052093029,-0.0131818512454629
10,0.00272268312983215,-0.00145156041253358,-0.00144901289604604,-0.269107758998871,0.00935289729386568,-0.0124091012403369
11,0.00453435955569148,0.000872212578542531,-6.56519187032245E-05,-0.293520092964172,0.0119287958368659,-0.00902036298066378
12,0.00662506185472012,0.00316244084388018,0.00235833483748138,-0.368162453174591,0.0154477106407285,-0.00408712588250637
13,0.00777832651510835,0.00462587038055062,0.00459713349118829,-0.460322380065918,0.0179851427674294,0.000313556054607034
14,0.007159941829741,0.00475059729069471,0.00575992185622454,-0.5,0.018917279317975,0.00277869869023561
15,0.00539466878399253,0.00368806370534003,0.00586836459115148,-0.5,0.0191300883889198,0.00329745281487703
16,0.00344024901278317,0.00197147391736507,0.00527789909392595,-0.5,0.0188737418502569,0.00280420435592532
17,0.00227941619232297,0.000565086374990642,0.00440703192725778,-0.5,0.0181280747056007,0.00234677013941109
18,0.00265049794688821,0.000309123017359525,0.00358860706910491,-0.5,0.0174760948866606,0.00226601050235331
19,0.00384495570324361,0.000682504381984472,0.00248799053952098,-0.5,0.0168629884719849,0.00144977041054517
20,0.00432240031659603,2.22234575630864E-05,0.000286716618575156,-0.5,0.0154147036373615,-0.00180173304397613
21,0.00351348170079291,-0.00223040441051126,-0.00273747486062348,-0.5,0.013134965673089,-0.00730119226500392
22,0.00222298293374479,-0.00458213640376925,-0.00491794524714351,-0.5,0.0113774565979838,-0.0127090634778142
23,0.00156857003457844,-0.0056968005374074,-0.00512409349903464,-0.5,0.0112087205052376,-0.0163495969027281
24,0.0022572404704988,-0.00558834662660956,-0.00335469143465161,-0.5,0.0125385262072086,-0.0182426106184721
25,0.00364217767491937,-0.00513411406427622,-0.000756728113628924,-0.5,0.0139366909861565,-0.0188593827188015
26,0.00411228509619832,-0.00549433985725045,0.000840939348563552,-0.5,0.0138173261657357,-0.0189678594470024
27,0.00344119686633348,-0.00663143256679177,0.00122397753875703,-0.5,0.01250687148422,-0.0189388655126095
28,0.00229145889170468,-0.00795269850641489,0.00101749319583178,-0.5,0.0108122313395143,-0.0189357679337263
29,0.00101973756682128,-0.00948245730251074,7.8553959610872E-05,-0.5,0.00904232077300549,-0.0201841499656439
30,0.00031667691655457,-0.0106917535886168,-0.000938123441301286,-0.5,0.0081325713545084,-0.022895872592926
31,0.000521119975019246,-0.0105544272810221,-0.000972298556007445,-0.5,0.00843452848494053,-0.0245123002678156
32,0.000940225436352193,-0.00898910500109196,-0.000365547370165586,-0.5,0.00883882772177458,-0.0224971007555723
33,0.00111212290357798,-0.00680918805301189,0.000283654226223007,-0.460330426692963,0.00853969808667898,-0.0175366513431072
34,0.00112859660293907,-0.00458501698449254,0.000918453151825815,-0.357970774173737,0.00775355100631714,-0.0124861253425479
35,0.00106119911652058,-0.00222458271309733,0.00136225600726902,-0.274833768606186,0.00684239203110337,-0.00910145416855812
36,0.0011558533878997,0.000574729347135872,0.00175580696668476,-0.212264612317085,0.00628135539591312,-0.00695134559646249
37,0.00153190060518682,0.00348346051760018,0.00283555802889168,-0.154893025755882,0.00680273678153753,-0.00444643758237362
38,0.0022095802705735,0.0062009347602725,0.00518111698329449,-0.102059796452522,0.00877335760742426,-0.000190127902897075
39,0.00271217292174697,0.00845037866383791,0.00767340138554573,-0.0784325823187828,0.0109847327694297,0.00457773031666875
40,0.0018771217437461,0.00894899573177099,0.0081354109570384,-0.100156284868717,0.0113185737282038,0.00645766546949744
41,0.000258087762631476,0.00778840947896242,0.00666633062064648,-0.162917643785477,0.0100845908746123,0.00498902937397361
42,-0.000251045275945216,0.00669978465884924,0.00536846881732345,-0.260741323232651,0.00972124841064215,0.00289804046042264
43,0.00037934017018415,0.00603607064113021,0.00500981695950031,-0.38135689496994,0.0107583710923791,0.00171405682340264
44,0.000829901837278157,0.00537029234692454,0.00484359078109264,-0.492574334144592,0.0112890601158142,0.00131567486096174
45,0.000325794622767717,0.00469788489863276,0.00417917920276523,-0.5,0.00968237407505512,0.00180709967389703
46,-0.000688337429892272,0.00398474233224988,0.00330017041414976,-0.5,0.00672854343429208,0.00331489043310285
47,-0.000901483348570764,0.00341349490918219,0.00318267568945885,-0.5,0.00440326659008861,0.00495866080746055
48,-0.000269475654931739,0.00303285429254174,0.00346156372688711,-0.476414144039154,0.00272076413966715,0.0054101999849081
49,-0.000397306110244244,0.00221790792420506,0.00242343451827765,-0.328664839267731,4.04216926597201E-08,0.00371741666458547
50,-0.00146168051287532,0.00103229098021984,8.02697541075759E-05,-0.165098115801811,-0.00362257589586079,0.000651870854198933
51,-0.00163345935288817,0.00065533013548702,-0.00144193961750716,-0.0436068922281265,-0.00565252313390374,-0.00142798514571041
52,-0.000993200577795506,0.00101974420249462,-0.00187223346438259,0.00423587625846267,-0.00580137269571424,-0.00238580070436001
53,-0.00125909154303372,0.00107706792186946,-0.00267519522458315,-0.0119698299095035,-0.00609033321961761,-0.003736691782251
54,-0.00244315108284354,0.000951047462876886,-0.00382070057094097,-0.0647088810801506,-0.00696548447012901,-0.00515444250777364
55,-0.0040647005662322,0.000852062541525811,-0.00494406605139375,-0.132917046546936,-0.00830572936683893,-0.00637455563992262
56,-0.00547515507787466,0.000832030782476068,-0.00554772699251771,-0.207693129777908,-0.00946771446615458,-0.00803825259208679
57,-0.00589120201766491,0.000959043391048908,-0.00484911538660526,-0.285648018121719,-0.00907330960035324,-0.010031970217824
58,-0.00587440421804786,0.000770489627029747,-0.00341914128512144,-0.36172354221344,-0.0073971776291728,-0.0116367666050792
59,-0.006044318433851,0.000219875553739257,-0.00211728108115494,-0.426865190267563,-0.0056040002964437,-0.0120747331529856
60,-0.00619083037599921,-0.000148340288433246,-0.00122257636394352,-0.466124385595322,-0.00436773151159287,-0.0106316106393933
61,-0.00598699599504471,0.000322088511893526,-0.000978076597675681,-0.475338041782379,-0.00404761265963316,-0.0065938662737608
62,-0.00595662835985422,0.00112812838051468,-0.0018992442637682,-0.473476946353912,-0.00488945608958602,-0.00163450289983302
63,-0.00674146646633744,0.00115799636114389,-0.00393398897722363,-0.476678371429443,-0.00666739838197827,0.0011297733290121
64,-0.00791710056364536,0.000570712261833251,-0.00584634486585855,-0.475115597248077,-0.00854841433465481,0.00149896577931941
65,-0.00861752778291702,0.00017713537090458,-0.00653688702732325,-0.448232054710388,-0.00987989269196987,0.00147188373375684
66,-0.00831247493624687,0.000269693235168234,-0.0060763475485146,-0.394267350435257,-0.010529788210988,0.00195592059753835
67,-0.00699711870402098,0.000593702192418277,-0.0050904918462038,-0.337298780679703,-0.0102056683972478,0.00167520833201706
68,-0.00486607244238257,0.0010291711660102,-0.00388850038871169,-0.298829942941666,-0.00841962732374668,-0.000833284226246178
69,-0.00290379533544183,0.00118135125376284,-0.00297403079457581,-0.275584846735001,-0.00597344944253564,-0.00522192381322384
70,-0.00226000137627125,0.000871963798999786,-0.00256210076622665,-0.239319816231728,-0.00451851449906826,-0.00863560382276773
71,-0.00273836264386773,0.000901740801054984,-0.00183150731027126,-0.155460491776466,-0.00449722725898027,-0.00828209612518549
72,-0.00336912670172751,0.00150433112867177,-4.79847767564934E-05,-0.0262858457863331,-0.00482834642753005,-0.00529350573197007
73,-0.00283334101550281,0.00247886520810425,0.00310504133813083,0.106288023293018,-0.00352206779643893,-0.00218387041240931
74,-0.000960787525400519,0.00374486856162548,0.00663152430206537,0.210225433111191,-0.000181792420335114,0.000188989812158979
75,0.000817546446342021,0.00495226820930839,0.00819622445851564,0.279049396514893,0.00277192913927138,0.00185460830107331
76,0.00147098815068603,0.00564647885039449,0.00668422412127256,0.316767245531082,0.00313622830435634,0.00247638113796711
77,0.000830891018267721,0.00551585201174021,0.00307488068938255,0.332742422819138,0.000974578375462443,0.00162798166275024
78,-0.000294896686682478,0.00524665927514434,-0.00052174343727529,0.33126625418663,-0.00166176864877343,0.00110624730587006
79,-0.000844905851408839,0.00560779869556427,-0.00251833605580032,0.315274357795715,-0.00253997812978923,0.00235906546004117
80,-0.000436961854575202,0.00664869602769613,-0.00239788740873337,0.285449266433716,-0.00090433907462284,0.00422341795638204
81,0.000649142602924258,0.00810383912175894,-0.000520477828104049,0.239273637533188,0.00243062782101333,0.00586625002324581
82,0.00175404257606715,0.00924973469227552,0.00191878224723041,0.188869073987007,0.00593902776017785,0.00710293930023909
83,0.00249523273669183,0.00962052773684263,0.00382662005722523,0.155332520604134,0.00833768118172884,0.00724031170830131
84,0.00306490063667297,0.0095056751742959,0.00481173861771822,0.149464517831802,0.00919501669704914,0.00571253383532166
85,0.004056291654706,0.0095245111733675,0.00495243351906538,0.148213610053062,0.0092497207224369,0.00284730945713818
86,0.00552879460155964,0.00957212876528502,0.00460923137143254,0.10747455060482,0.0095217814669013,-0.000789528829045594
87,0.00668874196708202,0.00862931367009878,0.0042250226251781,0.02160226367414,0.0102807870134711,-0.00489688431844115
88,0.00640071649104357,0.00638973852619529,0.0032800966873765,-0.0750385150313377,0.0102988937869668,-0.00802868604660034
89,0.00446891644969583,0.00406307354569435,0.00122414354700595,-0.154456898570061,0.00822946336120367,-0.00761448591947556
90,0.00245250668376684,0.00302478927187622,-0.000626415421720594,-0.211230114102364,0.00529399514198303,-0.00375558226369321
91,0.00159578549209982,0.00346057629212737,-0.000727953156456351,-0.260195046663284,0.00381873501464725,0.000613357697147876
92,0.00128543004393578,0.00421564886346459,0.000243548769503832,-0.312291353940964,0.00393590005114675,0.00305092171765864
93,0.00118056358769536,0.00461496133357286,0.001121646608226,-0.350026071071625,0.00480613531544805,0.00294168316759169
94,0.00211727200075984,0.00504486542195082,0.00208388292230666,-0.342875480651855,0.00643102033063769,0.00113638071343303
95,0.00383358751423657,0.00514782452955842,0.00278345216065645,-0.278712421655655,0.0078788148239255,-0.00158435653429478
96,0.00518078310415149,0.00457051070407033,0.0026746743824333,-0.181508257985115,0.00792439375072718,-0.00475244503468275
97,0.00557451695203781,0.00339439115487039,0.00232906988821924,-0.0863981544971466,0.00661737471818924,-0.0084598995745182
98,0.00501624774187803,0.00161680136807263,0.00222246558405459,-0.00491959368810058,0.00434084283187985,-0.0124689219519496
99,0.00413549086079001,-0.000186280856723897,0.00227619567885995,0.0534784719347954,0.00196189596317708,-0.0154413757845759
100,0.00357139552943408,-0.00157640979159623,0.0022813300602138,0.0703178867697716,0.000588057970162481,-0.0164590552449226
101,0.00367801333777606,-0.00212997221387923,0.00245774094946682,0.0381276272237301,0.00051863508997485,-0.0147986747324467
102,0.0042061316780746,-0.00152792001608759,0.00281319650821388,-0.0340365692973137,0.00098511332180351,-0.0109768388792872
103,0.0043517448939383,-0.000437134323874488,0.00264589954167604,-0.108241580426693,0.000983347650617361,-0.00725652696564794
104,0.00390215776860714,0.000456115492852405,0.00172507646493614,-0.139575526118279,0.000477237161248922,-0.00487238122150302
105,0.0036815817002207,0.00110125949140638,0.000472297193482518,-0.117179445922375,0.000306575704598799,-0.00362147414125502
106,0.00438644411042333,0.00167879555374384,-0.000977614428848028,-0.0601269975304604,0.000670714827720076,-0.00309414323419333
107,0.00528752338141203,0.0018282764358446,-0.00293612433597445,0.0101531250402331,0.000702715537045151,-0.00338060432113707
108,0.00607997458428144,0.00161144195590168,-0.00433693313971162,0.0797224268317223,0.000938457786105573,-0.00426325900480151
109,0.00706001045182347,0.00176971638575196,-0.00376268266700208,0.141855925321579,0.002348329173401,-0.00493476307019591
110,0.00735265528783202,0.00227855425328016,-0.00201584049500525,0.212209612131119,0.00397349055856466,-0.00516609102487564
111,0.00592389376834035,0.00218481081537902,-0.00107911112718284,0.323530048131943,0.00426414655521512,-0.00576156238093972
112,0.00364384357817471,0.00146948616020381,-0.00137942330911756,0.474846929311752,0.00299353967420757,-0.0070883366279304
113,0.0028163103852421,0.00175754772499204,-0.0015011279610917,0.5,0.00150438363198191,-0.00856644753366709
114,0.0038585567381233,0.00328783714212477,-0.00113216915633529,0.5,0.000614751887042075,-0.0106219714507461
115,0.00542889395728707,0.00470611266791821,-0.000783777970355004,0.5,0.000222212402150035,-0.0134258298203349
116,0.00606421614065766,0.005079735070467,-0.000509717676322907,0.5,0.000111632041807752,-0.0157224982976913
117,0.00476648006588221,0.00434845173731446,-0.000519984227139503,0.5,-8.01000569481403E-05,-0.0163583140820265
118,0.00241826777346432,0.0035007637925446,-0.000250208540819585,0.5,-0.000204275900614448,-0.0146492654457688
119,0.00023514628992416,0.00326910219155252,0.000704087666235864,0.492919474840164,-0.0002312302676728,-0.0106688113883138
120,-0.00209634797647595,0.00312157277949154,0.000960121979005635,0.481670349836349,-0.000991358072496951,-0.0063109127804637
121,-0.00425071828067303,0.00297528202645481,6.66336882204632E-06,0.479981184005737,-0.00218260940164328,-0.00364898960106075
122,-0.00513780815526843,0.00329696014523506,-0.000917831959668547,0.463963091373444,-0.00266881892457604,-0.0029514676425606
123,-0.00485853431746364,0.0039685619994998,-0.0011500921100378,0.419707447290421,-0.00253462581895292,-0.0029389881528914
124,-0.00450374931097031,0.00452943565323949,-0.00138607400003821,0.363978534936905,-0.00277121784165502,-0.00170943990815431
125,-0.00491119781509042,0.00426515052095056,-0.00234041782096028,0.339211791753769,-0.00377775100059807,0.00106259190943092
126,-0.00565352896228433,0.00264078378677368,-0.0029451223090291,0.367645293474197,-0.00423209322616458,0.00315460818819702
127,-0.00596259813755751,-4.20675278292038E-05,-0.00210889987647533,0.43728831410408,-0.0033228809479624,0.00266736303456128
128,-0.00587113574147224,-0.00236573140136898,-0.000751060200855136,0.5,-0.00219170236960053,0.00145933264866471
129,-0.00595919694751501,-0.00339976605027914,-0.000546139606740326,0.5,-0.0015953944530338,0.00249233283102512
130,-0.00542037654668093,-0.00324480957351625,-0.00136821181513369,0.5,-0.000586368492804468,0.00575530016794801
131,-0.00263322982937098,-0.00198003090918064,-0.00162835838273168,0.5,0.0013466514647007,0.0094687370583415
132,0.00125069380737841,-7.36372167011723E-05,-0.00096572283655405,0.5,0.00297683058306575,0.0125566264614463
133,0.00373093853704631,0.00193100073374808,0.000600869534537196,0.454140871763229,0.00444420007988811,0.0154214957728982
134,0.00388721516355872,0.00344994897022843,0.00332331797108054,0.319845736026764,0.00832076743245125,0.0181419309228659
135,0.00249793007969856,0.00361564406193793,0.0061289444565773,0.239770606160164,0.0156398694962263,0.0191313102841377
136,0.00121177441906184,0.00233039050363004,0.00761453155428171,0.237037792801857,0.0225441213697195,0.0176909752190113
137,0.00122303224634379,0.000966184714343399,0.00810645055025816,0.27983620762825,0.0240836199373007,0.0157524943351746
138,0.00178060331381857,0.000326306821079925,0.00858561135828495,0.33108377456665,0.0191503148525953,0.0144773051142693
139,0.000855652673635632,-0.000563512032385916,0.00933399051427841,0.386022210121155,0.0101802889257669,0.01262744423002
140,-0.001172368763946,-0.00187637109775096,0.0106041990220547,0.439856618642807,0.00257493322715163,0.00983958784490824
141,-0.00240545952692628,-0.00276490673422813,0.0120696099475026,0.469543933868408,-0.000441660900833085,0.0073706996627152
142,-0.00218781968578696,-0.00271390937268734,0.0129311652854085,0.45195260643959,-0.00138449529185891,0.00651725102216005
143,-0.000898339494597167,-0.0017258245497942,0.0129343327134848,0.382876455783844,-0.00313326762989163,0.0077971532009542
144,5.01483809784986E-05,-0.000594664423260838,0.0120686460286379,0.285486936569214,-0.0058424873277545,0.0102444989606738
145,-0.000287456990918145,-4.47281017841306E-05,0.0106960758566856,0.194868892431259,-0.00810299720615149,0.0123533429577947
146,-0.00159592682030052,-0.000108452797576319,0.00954326242208481,0.138615697622299,-0.00871994439512491,0.0135633777827024
147,-0.00346657633781433,-0.000743721553590149,0.00874095037579536,0.127466306090355,-0.00793317705392838,0.0141745591536164
148,-0.0049219480715692,-0.00127048545982689,0.00816973298788071,0.139632195234299,-0.00619320850819349,0.0157720968127251
149,-0.00508175790309906,-0.000827114738058299,0.0077619650401175,0.136774435639381,-0.00422050198540092,0.0194281004369259
150,-0.00455786939710379,-0.000111293622467201,0.00689423689618707,0.115480646491051,-0.00364156602881849,0.0225310176610947
151,-0.00416848435997963,-0.00023846048861742,0.0053122085519135,0.0992739051580429,-0.00495427474379539,0.0213719792664051
152,-0.0041395197622478,-0.0011927355080843,0.00344013911671937,0.0927435010671616,-0.00722410529851913,0.015425375662744
153,-0.00437805755063891,-0.00236550136469305,0.00148183759301901,0.0861073657870293,-0.00944515224546194,0.00734355906024575
154,-0.00463784439489245,-0.00339599256403744,-0.000458897644421086,0.0712067782878876,-0.0110199321061373,0.000195861430256628
155,-0.00469121290370822,-0.00418774783611298,-0.00188811705447733,0.0462516807019711,-0.0116207767277956,-0.00421698857098818
156,-0.00424710847437382,-0.00452785938978195,-0.00213407562114298,0.0293181352317333,-0.0107413046061993,-0.00491781812161207
157,-0.00278886873275042,-0.00426346436142921,-0.000629883783403784,0.0373015105724335,-0.00756697822362185,-0.00255598244257271
158,0.00018986732175108,-0.00398650858551264,0.0026690885424614,0.0612529926002026,-0.00107383099384606,8.44691530801356E-05
159,0.00502493046224117,-0.00472210953012109,0.00637405412271619,0.0947715565562248,0.00816058926284313,9.10416929400526E-05
160,0.0118325091898441,-0.00680967234075069,0.00777818774804473,0.146484285593033,0.0181274898350239,-0.00356559944339097
161,0.018611928448081,-0.00952170230448246,0.00557162798941135,0.216631382703781,0.0303195454180241,-0.00903006456792355
162,0.0224628448486328,-0.0114560406655073,0.00278749829158187,0.289041548967361,0.0470643453299999,-0.0134641109034419
163,0.0231880974024534,-0.0116059612482786,0.0029945804271847,0.345073133707047,0.0612659603357315,-0.0154687007889152
164,0.0222956761717796,-0.00981978978961706,0.0054840799421072,0.382565855979919,0.0616259574890137,-0.0141980620101094
165,0.0200333967804909,-0.00642763543874025,0.00805292557924986,0.410628020763397,0.0465743169188499,-0.00946310441941023
166,0.0149748232215643,-0.001663260278292,0.0100512281060219,0.440759718418121,0.024508411064744,-0.00235145748592913
167,0.00736198574304581,0.00423738686367869,0.0112621448934078,0.485746920108795,0.00558363879099488,0.00554081285372376
168,0.000141069031087682,0.00923950597643852,0.0102868694812059,0.5,-0.00612270832061768,0.0122890714555979
169,-0.00117346888873726,0.0105269253253937,0.00702462298795581,0.5,-0.0107037536799908,0.0166837144643068
170,0.00854153744876385,0.00811415817588568,0.00368318567052484,0.5,-0.00822358764708042,0.0182190649211407
171,0.0236936397850513,0.00485102087259293,0.00101689039729536,0.5,-0.00289666932076216,0.017635865136981
172,0.031482920050621,0.00281305494718254,-0.00163292419165373,0.5,0.000616206380072981,0.0192996803671122
173,0.0281765256077051,0.000883171334862709,-0.00462188152596354,0.5,0.00292774173431098,0.0266467183828354
174,0.0213891584426165,-0.00311418133787811,-0.00866611208766699,0.5,0.0053013195283711,0.0339556708931923
175,0.0191257391124964,-0.00882347859442234,-0.0147462086752057,0.5,0.00946580152958632,0.0311726219952106
176,0.0228816792368889,-0.0130179654806852,-0.0207076892256737,0.5,0.0206532794982195,0.0172796119004488
177,0.0296167209744453,-0.0120119852945209,-0.0202153995633125,0.5,0.0387295000255108,0.00192996230907738
178,0.0325299836695194,-0.00394628010690212,-0.00807117950171232,0.5,0.0538013353943825,-0.00382737745530903
179,0.0248890649527311,0.00801470130681992,0.0129594122990966,0.5,0.0597256943583488,0.00246962113305926
180,0.0102231157943606,0.0139589104801416,0.031339667737484,0.5,0.0598304197192192,0.00984288100153208
181,0.00687833270058036,0.0057724779471755,0.0412964001297951,0.5,0.0601456798613071,0.00649649137631059
182,0.0320693217217922,-0.00928518455475569,0.0483152866363525,0.5,0.0653229281306267,0.000273359648417681
183,0.0736056268215179,-0.0155334500595927,0.0536217167973518,0.5,0.0774498209357262,0.00933571252971888
184,0.102424189448357,-0.0113472621887922,0.0515693500638008,0.5,0.0940747261047363,0.0332455076277256
185,0.10856993496418,-0.00646389741450548,0.041749719530344,0.5,0.103746049106121,0.0606261640787125
186,0.0956455245614052,-0.00292159500531852,0.0329072363674641,0.491044282913208,0.0946055203676224,0.0914021953940392
187,0.0654952824115753,0.00412632105872035,0.0282649211585522,0.494454383850098,0.0721064507961273,0.121791437268257
188,0.0283663682639599,0.0152287865057588,0.0202505942434072,0.5,0.0564625449478626,0.132839351892471
189,0.00355437560938299,0.02457020804286,0.0148378480225801,0.5,0.0551742874085903,0.116559192538261
190,-0.00243929913267493,0.0292303580790758,0.0249995309859514,0.490644484758377,0.0575340576469898,0.0937350392341614
191,0.0017957923701033,0.0366027764976025,0.0428259707987309,0.492505997419357,0.0585162788629532,0.0943584442138672
192,0.00878707226365805,0.0515635125339031,0.0592241883277893,0.5,0.0493330173194408,0.126277729868889
193,0.0179340522736311,0.0627588927745819,0.0733865275979042,0.5,0.0173688605427742,0.158674567937851
194,0.0429214164614677,0.0549521595239639,0.0736960768699646,0.5,-0.011692420579493,0.147649750113487
195,0.0893759354948998,0.0296880174428225,0.063281923532486,0.5,0.00622888281941414,0.087755486369133
196,0.128779977560043,0.0106123751029372,0.064482256770134,0.470252990722656,0.0635861903429031,0.0181968938559294
197,0.14815679192543,0.0224597621709108,0.0711411312222481,0.469988226890564,0.108002215623856,-0.0194657538086176
198,0.165811568498611,0.0514193885028362,0.0673044770956039,0.5,0.108540706336498,-0.0142514202743769
199,0.167801082134247,0.061663594096899,0.0633283630013466,0.5,0.0820185542106628,0.0186891816556454
200,0.125583246350288,0.051133006811142,0.0677142664790154,0.5,0.0583529360592365,0.0682000070810318
201,0.0582136251032352,0.0422249995172024,0.0784671157598495,0.5,0.0505719259381294,0.13167604804039
202,0.00142190977931023,0.0499636493623257,0.0906396582722664,0.5,0.0590229146182537,0.182128503918648
203,-0.0279623307287693,0.0748152136802673,0.0846837982535362,0.5,0.0694308802485466,0.181303575634956
204,-0.0215747207403183,0.109056778252125,0.0426211915910244,0.5,0.060181699693203,0.134917363524437
205,0.00552965747192502,0.141577199101448,-0.0257446896284819,0.5,0.0259081348776817,0.0804089233279228
206,0.0220835283398628,0.144259095191956,-0.0894585624337196,0.451003521680832,-0.0135147552937269,0.0353171974420547
207,0.0284145586192608,0.0937940031290054,-0.122957542538643,0.422917127609253,-0.0373592600226402,-0.00715092802420259
208,0.044751837849617,0.00927470810711384,-0.123379908502102,0.430684298276901,-0.0487637557089329,-0.0507550425827503
209,0.0613039769232273,-0.0676271393895149,-0.104797378182411,0.481093883514404,-0.0588139742612839,-0.0879300385713577
210,0.0671611949801445,-0.111010894179344,-0.0860916972160339,0.5,-0.0618533752858639,-0.113903194665909
211,0.0728152841329575,-0.124422959983349,-0.0756670460104942,0.5,-0.0365126542747021,-0.122280448675156
212,0.0715454146265984,-0.126947939395905,-0.0444305688142776,0.5,0.0212590023875237,-0.0980392321944237
213,0.0618317127227783,-0.117558963596821,0.0461153648793697,0.5,0.0904077887535095,-0.0319531559944153
214,0.0676233842968941,-0.071705773472786,0.165732055902481,0.5,0.154430210590363,0.0754397958517075
215,0.0678495168685913,0.0278127081692219,0.229272842407227,0.5,0.192746877670288,0.215304315090179
216,0.0125836385414004,0.146541595458984,0.191322639584541,0.5,0.176960185170174,0.349094718694687
217,-0.0689934492111206,0.193764984607697,0.0757450833916664,0.456187456846237,0.108483456075192,0.407316982746124
218,-0.0975686237215996,0.15278023481369,-0.0614581517875195,0.344929277896881,0.0315832681953907,0.350780695676804
219,-0.0437911003828049,0.115461185574532,-0.167848259210587,0.22209744155407,-0.0132660856470466,0.221433058381081
220,0.0397792123258114,0.109054945409298,-0.213375210762024,0.0592178665101528,-0.0397902987897396,0.100609555840492
221,0.0820870921015739,0.080962285399437,-0.199105590581894,-0.124229654669762,-0.0705940276384354,0.0297804418951273
222,0.0805769488215446,0.0318568050861359,-0.14936101436615,-0.26513546705246,-0.0788769945502281,0.0175755564123392
223,0.078609935939312,0.00874496530741453,-0.0842879489064217,-0.317194133996964,-0.0350569561123848,0.0645126774907112
224,0.081193171441555,0.0180764365941286,-0.0234893839806318,-0.300048053264618,0.0285512525588274,0.106825582683086
225,0.0434712320566177,0.0213641952723265,0.0209816657006741,-0.283017575740814,0.0437417514622211,0.0586831755936146
226,-0.040640939027071,-0.00319628813304007,0.0586385726928711,-0.300590872764587,-0.0127318082377315,-0.0692074298858643
227,-0.118280172348022,-0.0438079796731472,0.0702778398990631,-0.31932145357132,-0.106182433664799,-0.206109389662743
228,-0.151666194200516,-0.0805547386407852,0.0256595034152269,-0.300918877124786,-0.191413655877113,-0.304513186216354
229,-0.143481567502022,-0.0868326127529144,-0.0425518900156021,-0.246225371956825,-0.235232710838318,-0.332358062267303
230,-0.119892545044422,-0.042917475104332,-0.0810862556099892,-0.180304169654846,-0.225838020443916,-0.28322497010231
231,-0.0972912237048149,0.0211572907865047,-0.0773820579051971,-0.130521833896637,-0.172078490257263,-0.197218760848045
232,-0.0665040984749794,0.0484099425375462,-0.0463722459971905,-0.110451951622963,-0.0955086797475815,-0.11777101457119
233,-0.0251448638737202,0.0258245468139648,-0.0170532055199146,-0.126043006777763,-0.0291580446064472,-0.0641845688223839
234,0.0115862628445029,-0.0123468860983849,-0.0184026099741459,-0.183391600847244,0.0038764295168221,-0.0393832959234715
235,0.0395497679710388,-0.031816303730011,-0.0520348660647869,-0.276397258043289,0.00921359751373529,-0.0358294956386089
236,0.0546002984046936,-0.0298875533044338,-0.0887895673513412,-0.383803069591522,0.00378952641040087,-0.042437270283699
237,0.0405776649713516,-0.0257752612233162,-0.096415676176548,-0.47283461689949,-0.0081009641289711,-0.0474506989121437
238,0.00418777810409665,-0.0269497465342283,-0.0730424597859383,-0.5,-0.0243580304086208,-0.0479451827704906
239,-0.0294135212898254,-0.0309697799384594,-0.0490217655897141,-0.5,-0.0386351943016052,-0.0567244701087475
240,-0.0471721701323986,-0.0384217835962772,-0.0382594466209412,-0.5,-0.0504027828574181,-0.0826585814356804
241,-0.0500913746654987,-0.0424012504518032,-0.0185552798211575,-0.5,-0.0511286109685898,-0.114746414124966
242,-0.0445907637476921,-0.0291429813951254,0.0202353037893772,-0.5,-0.0341567471623421,-0.128111407160759
243,-0.030742758885026,0.00326193915680051,0.0614449381828308,-0.5,-0.00929760467261076,-0.0982232019305229
244,-0.00540175521746278,0.0321920551359653,0.0864439681172371,-0.5,0.0124079193919897,-0.0341071635484695
245,0.0193979330360889,0.0320042669773102,0.0856881216168404,-0.5,0.0178715214133263,0.0164399072527885
246,0.0249604135751724,0.00505077373236418,0.065318800508976,-0.461932271718979,0.00120897183660418,0.0193501319736242
247,0.0134159242734313,-0.0263125542551279,0.0414469428360462,-0.432565152645111,-0.0204811356961727,-0.0162319932132959
248,-0.000927756947930902,-0.0471019670367241,0.021353280171752,-0.454563200473785,-0.0330683439970016,-0.0663327053189278
249,-0.0136755052953959,-0.0562373660504818,-0.00123134406749159,-0.5,-0.0419828183948994,-0.11639628559351
250,-0.0229535102844238,-0.0556484870612621,-0.0264677759259939,-0.5,-0.0477474816143513,-0.151159420609474
251,-0.0233671311289072,-0.0464104898273945,-0.0376959145069122,-0.5,-0.0389445126056671,-0.150667697191238
252,-0.014514627866447,-0.0343858003616333,-0.0258362162858248,-0.5,-0.0144708910956979,-0.111790880560875
253,-0.00577833456918597,-0.0282781776040792,-0.00427264906466007,-0.5,0.00925517827272415,-0.0582795478403568
254,-0.00853526219725609,-0.0311725251376629,0.0110271507874131,-0.5,0.0168774891644716,-0.0226887706667185
255,-0.022379657253623,-0.0405652746558189,0.0148414568975568,-0.5,0.00684879859909415,-0.0252871233969927
256,-0.0359957031905651,-0.053021278232336,0.00988177768886089,-0.5,-0.0116108730435371,-0.063969686627388
257,-0.0395085029304028,-0.0641089975833893,0.00497480481863022,-0.402835160493851,-0.0253799874335527,-0.117262840270996
258,-0.0318956971168518,-0.0682506561279297,0.0106779988855124,-0.308611661195755,-0.0252645406872034,-0.158157080411911
259,-0.0190260726958513,-0.0618489794433117,0.0314806737005711,-0.259593784809113,-0.0103119872510433,-0.167938932776451
260,-0.00834251660853624,-0.04767095297575,0.0607217215001583,-0.272559553384781,0.0115210991352797,-0.145058140158653
261,-0.00604600086808205,-0.0353151932358742,0.0850778296589851,-0.329438477754593,0.0273774825036526,-0.105096682906151
262,-0.0138160828500986,-0.0340125747025013,0.0941809639334679,-0.391860157251358,0.028475483879447,-0.0694418102502823
263,-0.0256141666322947,-0.0449124351143837,0.0855507776141167,-0.433667302131653,0.0162904094904661,-0.0531836599111557
264,-0.0321890041232109,-0.0614498220384121,0.0648247972130775,-0.452430725097656,0.000120282333227806,-0.0605180859565735
265,-0.0295089241117239,-0.0751220807433128,0.042025700211525,-0.4621542096138,-0.0108207752928138,-0.0844779536128044
266,-0.0199638586491346,-0.0792226195335388,0.0273725651204586,-0.473977386951447,-0.0116231758147478,-0.109421998262405
267,-0.0091809406876564,-0.0716529712080956,0.0273660030215979,-0.481265097856522,-0.00239726575091481,-0.119748003780842
268,-0.00337265897542238,-0.0566506907343864,0.0410419665277004,-0.481394201517105,0.0116868820041418,-0.10979276150465
269,-0.00611862959340215,-0.042127463966608,0.0602566860616207,-0.490770041942596,0.0228443183004856,-0.0854944363236427
270,-0.0161417685449123,-0.0351687110960484,0.0741553381085396,-0.5,0.0248495619744062,-0.0589796006679535
271,-0.0281017106026411,-0.0383763015270233,0.0749402940273285,-0.5,0.016330586746335,-0.0424670539796352
272,-0.035923857241869,-0.0487867817282677,0.0618262626230717,-0.5,0.00110727804712951,-0.043706551194191
273,-0.0359033569693565,-0.0598678141832352,0.0410909801721573,-0.5,-0.0137612828984857,-0.0622692555189133
274,-0.0289316400885582,-0.0646185800433159,0.0221266485750675,-0.5,-0.0220080465078354,-0.0881392806768417
275,-0.0202845241874456,-0.0590655878186226,0.0130421379581094,-0.5,-0.0217446684837341,-0.106046684086323
276,-0.0155649427324533,-0.0449523292481899,0.0171509720385075,-0.5,-0.0152138667181134,-0.105421863496304
277,-0.0173597522079945,-0.028622118756175,0.0306606199592352,-0.5,-0.00702047068625689,-0.0871456116437912
278,-0.0249639470130205,-0.0170096289366484,0.0450581908226013,-0.5,-0.00229430152103305,-0.0615096800029278
279,-0.0352398492395878,-0.014593793079257,0.0517539270222187,-0.5,-0.00448669726029038,-0.0423449724912643
280,-0.0440107770264149,-0.021207919344306,0.0456849411129951,-0.5,-0.0138743435963988,-0.0394833236932755
281,-0.0477816388010979,-0.0315704196691513,0.0285762548446655,-0.481820076704025,-0.0263556931167841,-0.0529425032436848
282,-0.0453278906643391,-0.0383911840617657,0.00908183958381414,-0.431381314992905,-0.0341082625091076,-0.0732885897159576
283,-0.0386875122785568,-0.0369228273630142,-0.00272896746173501,-0.374562293291092,-0.0318763703107834,-0.0876489356160164
284,-0.0321307852864265,-0.0276021044701338,-0.00175054033752531,-0.334191292524338,-0.021824924275279,-0.0875464528799057
285,-0.0298349875956774,-0.0152630396187305,0.00973796937614679,-0.33027645945549,-0.0105880247429013,-0.0731365010142326
286,-0.0336262881755829,-0.00588761642575264,0.0240047462284565,-0.372704952955246,-0.00462416792288423,-0.0516820251941681
287,-0.0417916476726532,-0.00332787027582526,0.0324973352253437,-0.450246572494507,-0.0073407213203609,-0.0327379927039146
288,-0.0502325817942619,-0.00792770180851221,0.0298748388886452,-0.5,-0.0177090410143137,-0.0244974922388792
289,-0.0545599535107613,-0.0163470283150673,0.0168546475470066,-0.5,-0.0302616264671087,-0.0305499844253063
290,-0.0528527088463306,-0.0234673675149679,-0.000209924124646932,-0.5,-0.0385473519563675,-0.0472747646272182
291,-0.047163300216198,-0.0250919107347727,-0.0134202474728227,-0.5,-0.0398929305374622,-0.064817026257515
292,-0.041119072586298,-0.0192399621009827,-0.0170153025537729,-0.471528500318527,-0.0350894294679165,-0.0725881084799767
293,-0.0375384502112865,-0.00755014503374696,-0.00995614193379879,-0.424110949039459,-0.0263143312186003,-0.0658574253320694
294,-0.0382378846406937,0.00471368664875627,0.00318251457065344,-0.392886161804199,-0.017546059563756,-0.0480648837983608
295,-0.0434273965656757,0.0119249410927296,0.0144853219389915,-0.365316271781921,-0.0137348426505923,-0.0278881322592497
296,-0.0505589991807938,0.0119786486029625,0.0172971617430449,-0.31780070066452,-0.0172727238386869,-0.014065919443965
297,-0.0556759983301163,0.00646755145862699,0.00969903636723757,-0.252147376537323,-0.0262526459991932,-0.012565596960485
298,-0.0562523566186428,-0.000834409962408245,-0.00466951634734869,-0.192363545298576,-0.0359773449599743,-0.0236692018806934
299,-0.0521333403885365,-0.00489721307530999,-0.0183953233063221,-0.161503821611404,-0.0413850694894791,-0.0402453728020191
300,-0.0456894561648369,-0.0027544314507395,-0.0246598459780216,-0.159691497683525,-0.0397667624056339,-0.0525929480791092
301,-0.0404480285942554,0.00466626230627298,-0.0206912998110056,-0.168096110224724,-0.0320730768144131,-0.0541379153728485
302,-0.0388662964105606,0.0141742965206504,-0.00939864665269852,-0.164696469902992,-0.0220713801681995,-0.0443406477570534
303,-0.0417647920548916,0.0214546844363213,0.00150527211371809,-0.13165657222271,-0.0151912569999695,-0.0287556424736977
304,-0.0471667237579823,0.0233565550297499,0.0052151526324451,-0.072564072906971,-0.0150421122089028,-0.0148047916591167
305,-0.0512979961931705,0.0200723223388195,2.75560105365003E-05,-0.0115752061828971,-0.020282069221139,-0.00786365102976561
306,-0.0520516932010651,0.0143299615010619,-0.0115700205788016,0.0322465561330318,-0.0264434330165386,-0.010239933617413
307,-0.0493422597646713,0.00998625904321671,-0.0242095720022917,0.0530674159526825,-0.0299010276794434,-0.0198495108634233
308,-0.0442046672105789,0.0101920757442713,-0.0317502468824387,0.0577158443629742,-0.0295869577676058,-0.0303423050791025
309,-0.039293073117733,0.0151613922789693,-0.030905656516552,0.0584264136850834,-0.0258007664233446,-0.0346133001148701
310,-0.0383018217980862,0.0221514441072941,-0.0232933443039656,0.0505940765142441,-0.0207208190113306,-0.0288829710334539
311,-0.042272575199604,0.0278222728520632,-0.0137000679969788,0.013467843644321,-0.0180858187377453,-0.015863724052906
312,-0.0485029444098473,0.0296901240944862,-0.00671958504244685,-0.0632121413946152,-0.0201335418969393,-0.00378876365721226
313,-0.0541458837687969,0.0262001622468233,-0.00579681340605021,-0.168765440583229,-0.0268721841275692,-0.000550429394934326
314,-0.0574056766927242,0.0185441840440035,-0.0123239234089851,-0.283988952636719,-0.0366828180849552,-0.00818767491728067
315,-0.0569766238331795,0.0113430768251419,-0.0235170871019363,-0.389836668968201,-0.0464760474860668,-0.0220441613346338
316,-0.0534534901380539,0.00886048283427954,-0.0336460284888744,-0.466563254594803,-0.0526810549199581,-0.0345806144177914
317,-0.0495380386710167,0.0118614081293345,-0.0379653610289097,-0.5,-0.0531993694603443,-0.039439931511879
318,-0.0469809509813786,0.0186797417700291,-0.0344609953463078,-0.5,-0.0476993471384048,-0.0338357761502266
319,-0.0450301952660084,0.0265827439725399,-0.0241869576275349,-0.5,-0.0369720458984375,-0.0203697085380554
320,-0.0428122766315937,0.0319874808192253,-0.0124864615499973,-0.5,-0.0242940504103899,-0.00608966499567032
321,-0.040528442710638,0.0324043817818165,-0.0065429825335741,-0.481783241033554,-0.0151325277984142,0.00139680993743241
322,-0.0383800454437733,0.0288897976279259,-0.00893536768853664,-0.431883037090302,-0.0127751771360636,-0.0020622715819627
323,-0.0368442609906197,0.0238604471087456,-0.017030468210578,-0.400545388460159,-0.0160749778151512,-0.0142761701717973
324,-0.0367954485118389,0.0183304399251938,-0.0266090556979179,-0.374559611082077,-0.021744592115283,-0.0276014525443316
325,-0.0374365895986557,0.0137999271973968,-0.0324217341840267,-0.346988648176193,-0.0254579726606607,-0.0343699604272842
326,-0.0355954468250275,0.0118175391107798,-0.0307251028716564,-0.345045417547226,-0.0231491047888994,-0.0318577848374844
327,-0.0295017790049315,0.0114540169015527,-0.0226303022354841,-0.391493529081345,-0.0149055495858192,-0.0224335622042418
328,-0.0223198123276234,0.011938382871449,-0.0128588983789086,-0.475782632827759,-0.00468190107494593,-0.0106533961370587
329,-0.0180127285420895,0.0137683767825365,-0.00700254831463099,-0.5,0.0046589351259172,-0.000477642664918676
330,-0.0132086900994182,0.0146870017051697,-0.00844935048371553,-0.5,0.0150081356987357,0.00529084214940667
331,-0.00139370583929121,0.0115861343219876,-0.0161945316940546,-0.5,0.0261975843459368,0.00538607500493526
332,0.0106126079335809,0.00458187144249678,-0.0254130139946938,-0.5,0.0305566433817148,0.00308926939032972
333,0.0105114700272679,-0.00309459795244038,-0.0297091864049435,-0.5,0.0275869611650705,0.00533109391108155
334,0.00461413897573948,-0.00473288167268038,-0.0235639177262783,-0.5,0.0287957619875669,0.0190279390662909
335,0.0062375427223742,0.00191355834249407,-0.00514476932585239,-0.484996467828751,0.0379475876688957,0.0452879332005978
336,0.015817990526557,0.00991657748818398,0.0239316336810589,-0.430849939584732,0.0536119565367699,0.0711484923958778
337,0.0241455566138029,0.015924409031868,0.0604109317064285,-0.372755944728851,0.0839412286877632,0.0828068628907204
338,0.0191864967346191,0.0236670114099979,0.0945658087730408,-0.317220658063889,0.122054226696491,0.0849297717213631
339,0.00323823746293783,0.0332113690674305,0.108639627695084,-0.287486702203751,0.135336637496948,0.0840160250663757
340,0.00365528021939099,0.0371313728392124,0.0931365191936493,-0.292553722858429,0.106229901313782,0.0718776136636734
341,0.0340460017323494,0.0274478998035192,0.0602029785513878,-0.315780252218246,0.051438320428133,0.0417954064905643
342,0.0582406222820282,0.00745620112866163,0.0223786029964685,-0.340538740158081,-0.0067035942338407,0.00316408183425665
343,0.0364453084766865,-0.00813918653875589,-0.0242212750017643,-0.349961936473846,-0.0633258074522018,-0.0267557706683874
344,-0.017168952152133,-0.00999700184911489,-0.076701432466507,-0.321735590696335,-0.118849985301495,-0.0399994812905788
345,-0.0598601475358009,-0.00105731922667474,-0.110641919076443,-0.249202206730843,-0.161026328802109,-0.0410295836627483
346,-0.0780404508113861,0.011207995004952,-0.108816832304001,-0.13826884329319,-0.173122480511665,-0.0378425382077694
347,-0.0879258140921593,0.0195322260260582,-0.0898959785699844,-0.0138063011690974,-0.155851259827614,-0.035935502499342
348,-0.0983304604887962,0.0219750721007586,-0.0807741209864616,0.0667776837944984,-0.126958817243576,-0.0336858183145523
349,-0.102777607738972,0.0283678770065308,-0.078180156648159,0.0498786568641663,-0.100752219557762,-0.0217850636690855
350,-0.0929246321320534,0.0503144152462482,-0.0643986538052559,-0.0683384984731674,-0.0814681798219681,0.00250612874515355
351,-0.0658528879284859,0.0799572020769119,-0.0423337519168854,-0.251311093568802,-0.0689176917076111,0.0276631154119968
352,-0.0275939926505089,0.0948479846119881,-0.0313483960926533,-0.455965220928192,-0.0612200871109962,0.0428423918783665
353,0.00179906550329179,0.0799351707100868,-0.0332344956696033,-0.5,-0.0555671826004982,0.0438288375735283
354,0.00747998990118504,0.0391602404415607,-0.0204707868397236,-0.5,-0.0472774505615234,0.0299430824816227
355,0.00407615397125483,-0.00587188126519322,0.0329072326421738,-0.5,-0.0296852476894856,0.00839637219905853
356,0.00395675469189882,-0.0364358574151993,0.103378467261791,-0.5,-0.000123041012557223,-0.00906668230891228
357,0.0019376699347049,-0.0447150468826294,0.127888366580009,-0.5,0.0316801406443119,-0.0127383312210441
358,0.00176365009974688,-0.0307976249605417,0.0818324983119965,-0.5,0.0456704795360565,-0.00371476239524782
359,0.0019320206483826,-0.00846931617707014,0.00361997005529702,-0.5,0.0301926676183939,0.00481138518080115
360,-0.0132372565567493,0.00779611803591251,-0.0648173987865448,-0.5,-0.009248954243958,0.00335291586816311
361,-0.0433124825358391,0.0151761574670672,-0.111090824007988,-0.5,-0.0576997399330139,-0.00777370110154152
362,-0.0687226951122284,0.0167719591408968,-0.135786071419716,-0.5,-0.0991843417286873,-0.0243147071450949
363,-0.0762116834521294,0.0161031764000654,-0.142755702137947,-0.5,-0.125483527779579,-0.0409932024776936
364,-0.0673008114099503,0.0144845629110932,-0.135442182421684,-0.5,-0.133551999926567,-0.0500130690634251
365,-0.0507950484752655,0.011347328312695,-0.115258529782295,-0.440268844366074,-0.121281534433365,-0.0475835092365742
366,-0.0368761457502842,0.00535700609907508,-0.0880843251943588,-0.350926488637924,-0.0962936952710152,-0.0418713688850403
367,-0.0303933098912239,-0.00282034371048212,-0.0595072843134403,-0.330250829458237,-0.0720906555652618,-0.0410506203770638
368,-0.0277979206293821,-0.00896132830530405,-0.0314540229737759,-0.392268389463425,-0.0523827597498894,-0.0424137189984322
369,-0.0243427101522684,-0.0100695975124836,-0.0104336142539978,-0.5,-0.0357109718024731,-0.0400143042206764
370,-0.0203580111265183,-0.00739606330171227,-0.00412756390869617,-0.5,-0.0259329304099083,-0.0318200811743736
371,-0.018434626981616,-0.00388323329389095,-0.0123988455161452,-0.5,-0.0270107705146074,-0.0199901144951582
372,-0.0191719643771648,-0.00167944107670337,-0.0275461915880442,-0.5,-0.0363144874572754,-0.0094506461173296
373,-0.0215900223702192,-0.00168077880516648,-0.0395918451249599,-0.5,-0.0463996268808842,-0.0046795466914773
374,-0.0240712128579617,-0.00313050323165953,-0.0411134772002697,-0.5,-0.049591351300478,-0.00618673721328378
375,-0.0251491889357567,-0.00434060022234917,-0.0300203897058964,-0.5,-0.0421907790005207,-0.00985326617956162
376,-0.0244665294885635,-0.00425623496994376,-0.0102131497114897,-0.5,-0.0264316257089376,-0.01076306309551
377,-0.0217817295342684,-0.00249944534152746,0.0103119863197207,-0.338652908802032,-0.008687156252563,-0.00699012260884047
378,-0.0171930082142353,0.00069018587237224,0.0231269039213657,-0.210895240306854,0.00364935025572777,0.00040623644599691
379,-0.0129936682060361,0.00364313810132444,0.0232922304421663,-0.128569468855858,0.00512177078053355,0.00826543290168047
380,-0.0114547749981284,0.00460290443152189,0.0126398429274559,-0.0748351663351059,-0.00399015750735998,0.013266927562654
381,-0.0120568042621017,0.00397370522841811,-0.0008654331904836,-0.0418653674423695,-0.0170480310916901,0.0153034087270498
382,-0.0133067797869444,0.0033793339971453,-0.00844483263790607,-0.0528852678835392,-0.0260363463312387,0.0166207049041986
383,-0.0143206138163805,0.00376056297682226,-0.00512641482055187,-0.125392958521843,-0.0258938241750002,0.0183184165507555
384,-0.0147885074838996,0.00460124900564551,0.00786180049180985,-0.232494443655014,-0.0167550835758448,0.0196692422032356
385,-0.0146639365702868,0.0051730964332819,0.0237751118838787,-0.329164952039719,-0.00365361757576466,0.0208870656788349
386,-0.014016299508512,0.00567032769322395,0.0342017076909542,-0.387198656797409,0.00643047038465738,0.0235347431153059
387,-0.013354585506022,0.00626483513042331,0.0336509123444557,-0.385426670312881,0.00781559385359287,0.0272484887391329
388,-0.0137761021032929,0.00625291839241982,0.0225579254329205,-0.307393074035645,-0.000818423519376665,0.0296401176601648
389,-0.0157568138092756,0.00476280320435762,0.00732362503185868,-0.170205160975456,-0.0147042870521545,0.028995843604207
390,-0.0179722178727388,0.00235862354747951,-0.00298523530364037,-0.0293993316590786,-0.025546208024025,0.0262826103717089
391,-0.0191906038671732,0.00023254586267285,-0.00283133797347546,0.0738659724593163,-0.0275401212275028,0.0236650817096233
392,-0.0193003546446562,-0.000815959530882537,0.00701846089214087,0.134790942072868,-0.020293215289712,0.0222683902829885
393,-0.0186205729842186,-0.000556457729544491,0.0213323440402746,0.144395351409912,-0.00834913738071918,0.0222179591655731
394,-0.0175903718918562,0.000496382301207632,0.0327962338924408,0.0866399705410004,0.0016931623686105,0.0234499201178551
395,-0.0167854148894548,0.00166333105880767,0.0348852314054966,-0.0283744111657143,0.00473589031025767,0.0258283689618111
396,-0.0168927330523729,0.0025296569801867,0.0256443433463573,-0.169904887676239,-0.00115025090053678,0.0284856129437685
397,-0.017900213599205,0.00322666950523853,0.00971981789916754,-0.307440489530563,-0.0132123827934265,0.0304507315158844
398,-0.0190842766314745,0.00406920723617077,-0.00441918987780809,-0.417138755321503,-0.0249938238412142,0.0315134972333908
399,-0.0195064228028059,0.00506277428939939,-0.00975403003394604,-0.486876964569092,-0.0302748177200556,0.0315214656293392
400,-0.0189141780138016,0.00524727907031775,-0.00495448615401983,-0.5,-0.0264976304024458,0.0290654208511114
401,-0.0178598128259182,0.00376064563170075,0.00526899984106421,-0.5,-0.0160716213285923,0.0235203243792057
402,-0.0166237130761147,0.00179024564567953,0.0138555467128754,-0.5,-0.00505878822878003,0.0184526108205318
403,-0.0151128005236387,0.00126304524019361,0.015692975372076,-0.5,0.000502432230859995,0.0189836546778679
404,-0.0133778024464846,0.0025580923538655,0.00998015701770782,-0.5,-0.00168773590121418,0.0259057953953743
405,-0.012159819714725,0.00413900753483176,-0.000425083882873878,-0.482122331857681,-0.00991860870271921,0.0345466919243336
406,-0.0124946963042021,0.0039077028632164,-0.0108832539990544,-0.446619212627411,-0.0202152170240879,0.0390357561409473
407,-0.0142550682649016,0.00123985472600907,-0.0164103526622057,-0.379731595516205,-0.0274322628974915,0.036978468298912
408,-0.0161233190447092,-0.00262618926353753,-0.0143739711493254,-0.262835204601288,-0.027804221957922,0.0302174091339111
409,-0.0166697837412357,-0.0060716662555933,-0.00614367239177227,-0.108382381498814,-0.0209187678992748,0.0218742825090885
410,-0.0150246797129512,-0.00841178838163614,0.00387858529575169,0.0470929816365242,-0.00987849943339825,0.0142512144520879
411,-0.0118317091837525,-0.00957664009183645,0.00965267885476351,0.159812584519386,-0.0009320605895482,0.00957433134317398
412,-0.00905711203813553,-0.00961897987872362,0.00707866717129946,0.187236815690994,0.000601770298089832,0.00892185512930155
413,-0.00757164228707552,-0.00875337980687618,-0.00221399124711752,0.118661478161812,-0.00515251932665706,0.0111180609092116
414,-0.00716607784852386,-0.0074125025421381,-0.012747029773891,0.00603679195046425,-0.0142152057960629,0.0146234892308712
415,-0.00851757172495127,-0.00669851340353489,-0.0199135039001703,-0.0701677724719048,-0.0227287225425243,0.017984701320529
416,-0.0111905466765165,-0.00694677978754044,-0.0209463536739349,-0.072596549987793,-0.0270116329193115,0.0201597828418016
417,-0.0132723338901997,-0.00753006245940924,-0.0155493468046188,-0.00743202492594719,-0.024608202278614,0.0206163749098778
418,-0.0135431410744786,-0.00844276789575815,-0.00712049892172217,0.106570228934288,-0.0167267639189959,0.0184163227677345
419,-0.0115988552570343,-0.00958870816975832,-0.000764950353186578,0.232042223215103,-0.00733570568263531,0.0140803791582584
420,-0.00824674870818853,-0.010136148892343,7.98136024968699E-05,0.321327060461044,-0.00116123573388904,0.0106578096747398
421,-0.00478356005623937,-0.00916781835258007,-0.0041126161813736,0.350631713867188,-0.000716695562005043,0.0101952338591218
422,-0.00255675031803548,-0.00743064796552062,-0.0105584794655442,0.335228532552719,-0.00514929136261344,0.010616734623909
423,-0.00267748860642314,-0.00658764969557524,-0.0162940304726362,0.294458359479904,-0.011682840064168,0.00943038146942854
424,-0.00466200755909085,-0.00671980297192931,-0.0186173394322395,0.231768444180489,-0.016948975622654,0.00745345186442137
425,-0.006631582044065,-0.00708730472251773,-0.0163365099579096,0.162548869848251,-0.0182697735726833,0.0061994781717658
426,-0.00728516513481736,-0.00758708408102393,-0.0113815749064088,0.112890601158142,-0.0155903613194823,0.00650316243991256
427,-0.00714245066046715,-0.0087775532156229,-0.00815731193870306,0.103448577225208,-0.011936554685235,0.00813479721546173
428,-0.00628266530111432,-0.0102353300899267,-0.00927430205047131,0.137546166777611,-0.00992218684405088,0.00971877202391624
429,-0.00449559418484569,-0.0107457935810089,-0.0143089527264237,0.198346242308617,-0.0107361488044262,0.010690881870687
430,-0.00349067500792444,-0.0106139844283462,-0.02170180529356,0.272922366857529,-0.0150930788367987,0.0111167030408978
431,-0.00391798140481114,-0.0104645816609263,-0.0277305021882057,0.351215839385986,-0.0204706862568855,0.011236259713769
432,-0.00418313220143318,-0.00984163116663694,-0.0278741754591465,0.41942623257637,-0.022059690207243,0.011987591162324
433,-0.00367818470112979,-0.00877785123884678,-0.0213709492236376,0.470351815223694,-0.0180744510143995,0.01413778308779
434,-0.00273881736211479,-0.00819746963679791,-0.0112291378900409,0.5,-0.010004916228354,0.0167621355503798
435,-0.00100727926474065,-0.00854402966797352,-0.00121008406858891,0.5,-0.000326718523865566,0.0182547345757484
436,0.00150666944682598,-0.00939431227743626,0.00551382126286626,0.5,0.00769425230100751,0.0188299510627985
437,0.00351418158970773,-0.00970944575965405,0.00695552909746766,0.5,0.0110435737296939,0.0205819196999073
438,0.00405449792742729,-0.00836693122982979,0.00360892992466688,0.5,0.00917835161089897,0.0252756830304861
439,0.00330652808770537,-0.00564620411023498,-0.00129345490131527,0.5,0.00447729416191578,0.0321399867534637
440,0.00145689921919256,-0.00341437757015228,-0.00389403500594199,0.5,0.00039351632585749,0.0385327190160751
441,-0.00138813734520227,-0.00323706422932446,-0.00248685921542346,0.5,-0.000879812578205019,0.0427180044353008
442,-0.00420698942616582,-0.00453371834009886,0.00190296967048198,0.5,0.00094001746037975,0.0451898723840714
443,-0.00526425195857883,-0.00564818549901247,0.00700403936207294,0.5,0.00502351531758904,0.0464753992855549
444,-0.00387995271012187,-0.00614262744784355,0.0103384628891945,0.5,0.00958534516394138,0.0456489101052284
445,-0.000473136722575873,-0.00539992144331336,0.010920312255621,0.5,0.013170225545764,0.0436961092054844
446,0.00364759704098105,-0.00281389825977385,0.0093726497143507,0.5,0.0151074063032866,0.0427822880446911
447,0.00631594751030207,0.00045568696805276,0.00673950975760818,0.5,0.0146662583574653,0.0431130602955818
448,0.00675930501893163,0.00345026794821024,0.00530978152528405,0.5,0.0126630812883377,0.044199962168932
449,0.00512906070798635,0.00517160957679152,0.00634839665144682,0.5,0.0105866240337491,0.0441490523517132
450,0.00181451113894582,0.00467059435322881,0.00842757802456617,0.5,0.008787558414042,0.0417432747781277
451,-0.00126106606330723,0.00329766422510147,0.0102183762937784,0.5,0.00765411090105772,0.0399698726832867
452,-0.00295140268281102,0.00236899545416236,0.0101753799244761,0.5,0.00677871657535434,0.0412974767386913
453,-0.00391497369855642,0.00170749786775559,0.00638746470212936,0.5,0.00479657202959061,0.0445473119616508
454,-0.00435783015564084,0.00187991885468364,-0.00044858903856948,0.5,0.00125543517060578,0.048582199960947
455,-0.00458404934033751,0.00346061238087714,-0.00767177389934659,0.5,-0.00376270129345357,0.0530627071857452
456,-0.00531078595668077,0.00521483831107616,-0.0129110533744097,0.5,-0.00937586277723312,0.0561908148229122
457,-0.00600378960371017,0.00582875730469823,-0.0146649405360222,0.5,-0.0132894422858953,0.0562430359423161
458,-0.00602075783535838,0.00523760635405779,-0.0132593447342515,0.5,-0.0142061905935407,0.0537511259317398
459,-0.00592608004808426,0.0039523271843791,-0.0104714902117848,0.5,-0.0128329424187541,0.0506248697638512
460,-0.00563194463029504,0.00278637697920203,-0.00775937596336007,0.5,-0.0100100487470627,0.0480370260775089
461,-0.00444069132208824,0.00217861984856427,-0.00626941816881299,0.5,-0.00699104741215706,0.0458038933575153
462,-0.00297538796439767,0.00198437995277345,-0.0070657255128026,0.5,-0.00569133087992668,0.0434748716652393
463,-0.00233995984308422,0.0019927816465497,-0.00993551407009363,0.5,-0.00654388312250376,0.040862925350666
464,-0.00203994777984917,0.00251268362626433,-0.0123332338407636,0.5,-0.00766304414719343,0.0384417399764061
465,-0.00132610986474901,0.00353270582854748,-0.0118162641301751,0.5,-0.00724119879305363,0.0365211367607117
466,-0.00129933888092637,0.00364472321234643,-0.00919950008392334,0.5,-0.00566245755180717,0.0347759127616882
467,-0.00226687267422676,0.0024062970187515,-0.006139250472188,0.5,-0.00373231340199709,0.0340553261339664
468,-0.00264481641352177,0.00128676183521748,-0.00290812319144607,0.5,-0.00144012505188584,0.0358688645064831
469,-0.00165184307843447,0.00126918032765388,-0.000170225976034999,0.5,0.000896640820428729,0.0396031178534031
470,0.000135035705170594,0.00184097234159708,0.000535456638317555,0.5,0.00204342533834279,0.0422832183539867
471,0.0018966329516843,0.00222367886453867,-0.00119898654520512,0.5,0.00110484124161303,0.0421250611543655
472,0.00334551697596908,0.00277119246311486,-0.00373405730351806,0.5,-0.00111330160871148,0.0415595062077045
473,0.00419250363484025,0.00374278705567122,-0.0053476644679904,0.5,-0.00334270298480988,0.0433790050446987
474,0.00355911022052169,0.00377898802980781,-0.00574032170698047,0.5,-0.00517595466226339,0.0460294894874096
475,0.00189785158727318,0.00218627532012761,-0.00467805983498693,0.5,-0.00605800561606884,0.0467616245150566
476,0.0012963762274012,0.000281306740362197,-0.00209347670897841,0.5,-0.00518682040274143,0.0450836308300495
477,0.00236787321045995,-0.00122615927830338,-7.79004858486587E-06,0.5,-0.00341772194951773,0.0414455980062485
478,0.00453526899218559,-0.00219131680205464,-0.000185478551429696,0.5,-0.00221738778054714,0.0372039936482906
479,0.00726355146616697,-0.00217355252243578,-0.0020821476355195,0.5,-0.00201476947404444,0.0336519330739975
480,0.0090338671579957,-0.00193213182501495,-0.00457201059907675,0.5,-0.0030667781829834,0.0301723461598158
481,0.00928197521716356,-0.00171281595248729,-0.0060992892831564,0.5,-0.00480219908058643,0.0275809802114964
482,0.0088840164244175,-0.000804439361672848,-0.00557158701121807,0.5,-0.00629225559532642,0.0280346740037203
483,0.00788916554301977,-2.99486941912619E-06,-0.00393323041498661,0.5,-0.00781764648854733,0.0303228963166475
484,0.00640507973730564,-0.000200351525563747,-0.00269998679868877,0.5,-0.00948868691921234,0.0317338891327381
485,0.0056035784073174,-0.000869944749865681,-0.00233274162746966,0.5,-0.0103532848879695,0.0318409502506256
486,0.00679478608071804,-0.00109512789640576,-0.00214707455597818,0.5,-0.00907696969807148,0.0312807224690914
487,0.0100012132897973,-0.000209486184758134,-0.00158486620057374,0.472909390926361,-0.0055797747336328,0.0306191351264715
488,0.0137076620012522,0.00183467357419431,-0.00105230079498142,0.353388875722885,-0.00167359272018075,0.0308683086186647
489,0.0162712093442678,0.00428316462785006,-0.00098262436222285,0.199601948261261,0.000936699856538326,0.0324585475027561
490,0.0165977962315083,0.00587939890101552,-0.00153218966443092,0.0666935294866562,0.00137206690851599,0.034198846668005
491,0.0147780925035477,0.00583107070997357,-0.00257849134504795,-0.00990492571145296,-0.000147018930874765,0.0346320495009422
492,0.0122871976345778,0.00443065073341131,-0.00379468523897231,-0.0208668932318687,-0.00221962668001652,0.0335064828395844
493,0.0105252880603075,0.00205060467123985,-0.00522348424419761,0.0364614091813564,-0.00373989157378674,0.0304450150579214
494,0.00996911711990833,-0.000527022813912481,-0.0066033024340868,0.152033627033234,-0.00445180805400014,0.0254973378032446
495,0.0102925756946206,-0.00153657875489444,-0.00722895050421357,0.302013218402863,-0.00474528502672911,0.0204590912908316
496,0.0105068199336529,-0.000452731619589031,-0.00698817288503051,0.464367389678955,-0.00548523152247071,0.0163746606558561
497,0.00998819712549448,0.00170415616594255,-0.00611656811088324,0.5,-0.00722667248919606,0.0133773926645517
498,0.00898978859186172,0.00420537404716015,-0.00499788578599691,0.5,-0.00957067683339119,0.0122903184965253
499,0.00754124671220779,0.00628605112433434,-0.00467899488285184,0.5,-0.0120252342894673,0.0136102773249149
500,0.0053894380107522,0.00685904361307621,-0.00622411305084825,0.5,-0.0151865016669035,0.0164750646799803
501,0.0036542909219861,0.00633005471900105,-0.00914442073553801,0.5,-0.0189977549016476,0.019648477435112
502,0.00384398642927408,0.00607567187398672,-0.0121466321870685,0.411759406328201,-0.0220750514417887,0.022248825058341
503,0.00531034218147397,0.00635733781382442,-0.0151285212486982,0.283981442451477,-0.0241883993148804,0.0233988761901855
504,0.00661742128431797,0.00685015460476279,-0.0178923364728689,0.177632510662079,-0.0255624987185001,0.022882804274559
505,0.00797972176223993,0.00798682309687138,-0.0184420887380838,0.0895503461360931,-0.024970680475235,0.0225343070924282
506,0.00957916676998138,0.00996722653508186,-0.0157833807170391,0.0134840290993452,-0.0220332052558661,0.0247332155704498
507,0.00978272967040539,0.0110057964920998,-0.0121759930625558,-0.0334335714578629,-0.0190554410219193,0.0284200664609671
508,0.008328877389431,0.0096311941742897,-0.0095663471147418,-0.0300496146082878,-0.0174654219299555,0.0302631463855505
509,0.00682168081402779,0.00650200387462974,-0.00825998466461897,0.0132224671542645,-0.0164625868201256,0.0285070389509201
510,0.00606427202001214,0.00303281890228391,-0.00846310704946518,0.0673307254910469,-0.015488893724978,0.0238719638437033
511,0.00659208884462714,0.000679542368743569,-0.00940893311053514,0.111958123743534,-0.0142250182107091,0.0186405945569277
512,0.00820083729922771,-0.000226668023969978,-0.0101573159918189,0.146047353744507,-0.0126326959580183,0.0140663906931877
513,0.00952727254480124,-0.000622702995315194,-0.0108572263270617,0.173326700925827,-0.0113702742382884,0.0102630909532309
514,0.00998951215296984,-0.00100789580028504,-0.0117539884522557,0.19234037399292,-0.0108794085681438,0.00842700060456991
515,0.00994738284498453,-0.00123806437477469,-0.0125506538897753,0.219884306192398,-0.0111443158239126,0.00923607684671879
516,0.00985754560679197,-0.000985533115454018,-0.0126120196655393,0.277300536632538,-0.0118722626939416,0.0116595737636089
517,0.010525063611567,0.000190771577763371,-0.0114266416057944,0.344452857971191,-0.0120796151459217,0.0145543655380607
518,0.0121165933087468,0.00189968361519277,-0.00964899826794863,0.375934213399887,-0.0110783241689205,0.0162622649222612
519,0.0138253159821033,0.00317532662302256,-0.00852864887565374,0.353984981775284,-0.00925291515886784,0.0153566673398018
520,0.0153973205015063,0.00338103645481169,-0.00816551502794027,0.300028711557388,-0.00679953303188086,0.0123639432713389
521,0.0166088584810495,0.00249555194750428,-0.00793272629380226,0.240681558847427,-0.00405245227739215,0.00935155618935823
522,0.0166666880249977,0.00120413524564356,-0.00741720478981733,0.187112390995026,-0.00178666494321078,0.00789863523095846
523,0.0156595800071955,0.000181020659510978,-0.00619371747598052,0.146805375814438,1.12278084998252E-05,0.00774008501321077
524,0.0145820891484618,-0.00030374270863831,-0.00435760570690036,0.128384336829185,0.00153556873556226,0.00838723592460155
525,0.0133854234591126,-0.000949831155594438,-0.00344038056209683,0.14079737663269,0.00164473778568208,0.00950863026082516
526,0.0117187490686774,-0.00270978454500437,-0.00438801944255829,0.184055000543594,-0.000244992814259604,0.00968699343502522
527,0.0105344718322158,-0.00495995068922639,-0.0058778440579772,0.238884270191193,-0.00225340621545911,0.00751097407191992
528,0.0106417136266828,-0.00605824077501893,-0.00670390017330647,0.274358332157135,-0.00281987898051739,0.00359356310218573
529,0.0120308976620436,-0.00505381030961871,-0.00660123722627759,0.269984275102615,-0.00189444713760167,0.000557877006940544
530,0.0145189594477415,-0.00243346323259175,-0.00476952688768506,0.239200696349144,0.000761691306252033,0.000971520261373371
531,0.0170015320181847,0.000517123902682215,-0.0013279301347211,0.20948626101017,0.00426381640136242,0.00555833708494902
532,0.0180567502975464,0.0026660228613764,0.0017773472936824,0.191917777061462,0.00634309509769082,0.0124719459563494
533,0.0180274993181229,0.00307836919091642,0.00358632765710354,0.187132760882378,0.00666479812934995,0.0172838028520346
534,0.0181244872510433,0.00135150796268135,0.00457372702658176,0.191701993346214,0.00661998195573688,0.0166321713477373
535,0.019055537879467,-0.00141812849324197,0.0049617113545537,0.203280255198479,0.00709242420271039,0.012047708965838
536,0.0212069731205702,-0.00305354665033519,0.00507179694250226,0.223722815513611,0.00854509044438601,0.00784312281757593
537,0.0241070482879877,-0.00244483724236488,0.00542917801067233,0.241246476769447,0.0110999159514904,0.00671933032572269
538,0.0265707578510046,-0.000236458174185827,0.0061889011412859,0.230057656764984,0.0140851167961955,0.00857893470674753
539,0.0275914464145899,0.00223771901801229,0.00686536682769656,0.18194904923439,0.016147255897522,0.0121719241142273
540,0.0270261894911528,0.00367585429921746,0.00696266535669565,0.118340879678726,0.0166273396462202,0.0157905109226704
541,0.0255648158490658,0.00344795733690262,0.00659972988069057,0.0692187398672104,0.0158927347511053,0.0180676076561213
542,0.0236945971846581,0.001848932239227,0.00551824690774083,0.0569788999855518,0.0142739620059729,0.0187806077301502
543,0.0217355508357286,3.72274480469059E-05,0.00341418595053256,0.0857373550534248,0.0121113602072001,0.0180081892758608
544,0.0203895699232817,-0.000806434429250658,0.000959669821895659,0.130498886108398,0.0101410178467631,0.015684574842453
545,0.020029878243804,-0.00085501978173852,-0.000909412279725075,0.160539776086807,0.0098033556714654,0.0119007183238864
546,0.0201487317681313,-0.000994508387520909,-0.0015380015829578,0.170577839016914,0.0121239060536027,0.00784281175583601
547,0.02028445340693,-0.00116174318827689,-0.000422926066676155,0.169030785560608,0.0163675881922245,0.00608297251164913
548,0.0203833971172571,-0.000788963865488768,0.00225288094952703,0.163641512393951,0.0207100305706263,0.00854117423295975
549,0.0201737135648727,-0.000386836938560009,0.00506229372695088,0.159251570701599,0.0230923723429441,0.0138506256043911
550,0.0192736983299255,-0.00122467218898237,0.00596314296126366,0.145144820213318,0.0225428566336632,0.0179327558726072
551,0.0174410976469517,-0.00361550156958401,0.00386956590227783,0.107630625367165,0.0199601463973522,0.0181419346481562
552,0.0154624162241817,-0.00629774900153279,0.000112508751044516,0.051434263586998,0.0169532299041748,0.0151994554325938
553,0.0152709316462278,-0.00794087443500757,-0.00309436488896608,-0.00541644357144833,0.0140901692211628,0.0107306623831391
554,0.0174276996403933,-0.00846363604068756,-0.00481759151443839,-0.0421075746417046,0.0114277014508843,0.00571449613198638
555,0.020724194124341,-0.00802707206457853,-0.00463165994733572,-0.0494003780186176,0.0107678221538663,0.00167480006348342
556,0.023791067302227,-0.0067551527172327,-0.00267624133266509,-0.0405872687697411,0.013036941178143,-0.000293135148240253
557,0.02550994977355,-0.00545057933777571,-0.000311054900521412,-0.0452862232923508,0.0156899467110634,-0.00106848054565489
558,0.0248259119689465,-0.00500971591100097,0.000809423043392599,-0.079855814576149,0.0158158037811518,-0.001694310689345
559,0.0215817131102085,-0.00509815849363804,0.000695392081979662,-0.131140545010567,0.0131515972316265,-0.00190411601215601
560,0.0177223030477762,-0.00497079873457551,0.000948205415625125,-0.173889860510826,0.0097165685147047,-0.00138585537206382
561,0.0155470687896013,-0.00509710563346744,0.00150667363777757,-0.18833202123642,0.00651637697592378,-0.000922855513636023
562,0.0154654625803232,-0.00540938787162304,0.00101020943839103,-0.180146396160126,0.0029671045485884,-0.00101292401086539
563,0.0161721054464579,-0.00436614919453859,-2.58972377196187E-05,-0.171161711215973,-0.00017126789316535,-0.000324862339766696
564,0.0159135982394218,-0.00160073989536613,-0.000495805230457336,-0.165184497833252,-0.0015024037566036,0.00249188346788287
565,0.0136743737384677,0.000884260982275009,-0.00100205559283495,-0.150683209300041,-0.00142662914004177,0.00612889416515827
566,0.0108297551050782,0.00191322097089142,-0.00169248564634472,-0.134183257818222,-0.00075129815377295,0.00912780873477459
567,0.0101462649181485,0.00240255589596927,-0.00142747652716935,-0.136191949248314,0.000798853230662644,0.011663724668324
568,0.0118405614048243,0.00255228322930634,-0.000600553234107792,-0.148686185479164,0.00317018991336226,0.0130733363330364
569,0.0137066869065166,0.00181534502189606,-0.000735532434191555,-0.136101990938187,0.00540606817230582,0.0128024742007256
570,0.014349871315062,0.000318993959808722,-0.0017447107238695,-0.0721087828278542,0.0072904578410089,0.0114125702530146
571,0.0147824101150036,-0.000656578224152327,-0.00145811727270484,0.0323754400014877,0.0107757896184921,0.0100300759077072
572,0.0168662164360285,8.22253423393704E-05,0.00184932991396636,0.141049712896347,0.0174537245184183,0.00969996768981218
573,0.0206720214337111,0.00155443046241999,0.00701856007799506,0.231239467859268,0.0251240767538548,0.00969666335731745
574,0.0242887102067471,0.00230303360149264,0.0111719910055399,0.297095090150833,0.0300975237041712,0.00959905982017517
575,0.0257778316736221,0.00198216363787651,0.012463815510273,0.339985340833664,0.0310961827635765,0.00985067803412676
576,0.0249076038599014,0.00067216478055343,0.0111860111355782,0.369023948907852,0.028941860422492,0.00957585871219635
577,0.0228074491024017,-0.000926835346035659,0.0086591225117445,0.38903334736824,0.0250659212470055,0.00819812342524529
578,0.0209858436137438,-0.00168944406323135,0.00593505660071969,0.390657275915146,0.0211568418890238,0.00609930558130145
579,0.0198314525187016,-0.00135656329803169,0.00338232167996466,0.366636753082275,0.0179781001061201,0.00376073969528079
580,0.0187518391758204,-0.000318823265843093,0.00146001880057156,0.335261553525925,0.0155514404177666,0.00281413877382874
581,0.0178332626819611,0.00125846837181598,0.000891331001184881,0.324935078620911,0.0142265120521188,0.00513624818995595
582,0.0171055197715759,0.00259655131958425,0.00127925653941929,0.342898577451706,0.0140371778979898,0.00933575816452503
583,0.0168664418160915,0.00265141343697906,0.00136031804140657,0.369361758232117,0.0152746075764298,0.0118125947192311
584,0.0178645644336939,0.00122028449550271,0.000137493247166276,0.372557103633881,0.0179268419742584,0.0107311503961682
585,0.0194110404700041,-0.00145042652729899,-0.00242061307653785,0.331920146942139,0.020235188305378,0.00637975987046957
586,0.0202418323606253,-0.00483765173703432,-0.00472351815551519,0.250696957111359,0.0215713009238243,0.000287919014226645
587,0.0201565828174353,-0.00827808305621147,-0.0046267518773675,0.152547061443329,0.0243052300065756,-0.00601673405617476
588,0.0199672095477581,-0.0108310552313924,-0.00136777607258409,0.0626376569271088,0.030287416651845,-0.0112496949732304
589,0.0202088207006454,-0.0117457117885351,0.00339723215438426,-0.00738959619775414,0.0368389673531055,-0.0138257686048746
590,0.0203109364956617,-0.0118702128529549,0.00655477913096547,-0.0539144650101662,0.0388612039387226,-0.0135356932878494
591,0.0200500134378672,-0.0127558270469308,0.00593465007841587,-0.0700805932283401,0.0336690470576286,-0.0116558978334069
592,0.0197851676493883,-0.0139840943738818,0.00220213527791202,-0.0519793145358562,0.0226811151951551,-0.00829256977885962
593,0.0189035926014185,-0.0133944563567638,-0.00182394089642912,-0.00429785577580333,0.0107228513807058,-0.00268698181025684
594,0.0169473923742771,-0.0100182183086872,-0.00357208424247801,0.064243771135807,0.00271999323740602,0.0037392326630652
595,0.0152130490168929,-0.00546913221478462,-0.00195846101269126,0.144900739192963,0.000572836259379983,0.00748762162402272
596,0.0149482330307364,-0.0020979770924896,0.00203437567688525,0.226870238780975,0.00348978373222053,0.00677549047395587
597,0.0157417394220829,-0.000468499900307506,0.00605624495074153,0.287860214710236,0.00899661332368851,0.00350953661836684
598,0.0164354685693979,-0.000120031050755642,0.00784758944064379,0.312832623720169,0.0133613990619779,9.78186653810553E-05
599,0.0174110438674688,-0.000893692311365157,0.00631461897864938,0.301803469657898,0.0138571206480265,-0.00246966001577675
600,0.0196618530899286,-0.00270076468586922,0.00164619239512831,0.256255805492401,0.00995955057442188,-0.00365825812332332
601,0.021719541400671,-0.00519293826073408,-0.00523836072534323,0.1849684715271,0.0028783599846065,-0.00412497296929359
602,0.0215892419219017,-0.00734158139675856,-0.0122047159820795,0.0946630835533142,-0.00418235640972853,-0.00507578998804092
603,0.019567584618926,-0.00771596794947982,-0.0162993166595697,-0.0128687769174576,-0.00769542111083865,-0.00594029575586319
604,0.0169307515025139,-0.00594111112877727,-0.0158359911292791,-0.111906252801418,-0.00665187137201428,-0.00533215189352632
605,0.0148341003805399,-0.00287270545959473,-0.0112741673365235,-0.162209540605545,-0.00234255846589804,-0.00258130393922329
606,0.013579118065536,0.000478424626635388,-0.00501865753903985,-0.155023738741875,0.00279179448261857,0.00222393195144832
607,0.0117849484086037,0.0025430943351239,-0.000672122754622251,-0.114384397864342,0.00572858471423388,0.00669981352984905
608,0.00912875775247812,0.00256317993625999,0.000133665584144183,-0.0694878846406937,0.00547379022464156,0.00832396652549505
609,0.00717059895396233,0.00142824265640229,-0.00134450942277908,-0.0414118319749832,0.00339023279957473,0.00725217815488577
610,0.00652299402281642,-0.000323592394124717,-0.00387138011865318,-0.0364582315087318,0.000659429875668138,0.0039270231500268
611,0.00650399783626199,-0.00222968100570142,-0.00715456437319517,-0.0523517690598965,-0.00215304200537503,-0.00104272132739425
612,0.00646064197644591,-0.00322212814353406,-0.0103184124454856,-0.0855814144015312,-0.00434011919423938,-0.00528415059670806
613,0.00702030910179019,-0.00218299869447947,-0.0108179282397032,-0.127314060926437,-0.00437818607315421,-0.00612476235255599
614,0.00897848140448332,0.000778867455665022,-0.007343839854002,-0.17562073469162,-0.0019060589838773,-0.00302454363554716
615,0.0109091550111771,0.00333790993317962,-0.00286895805038512,-0.235004082322121,0.000644662650302053,0.00142144039273262
616,0.0108924498781562,0.00371951097622514,-0.000819030683487654,-0.288500189781189,0.00264911376871169,0.00411254400387406
617,0.00948407687246799,0.00294112390838563,-0.00084917654749006,-0.310274302959442,0.00826813094317913,0.00463971542194486
618,0.0085528502240777,0.00248905248008668,-0.00086896657012403,-0.294345945119858,0.0200384967029095,0.00366753037087619
619,0.00897018518298864,0.0021102842874825,-0.000496057793498039,-0.247720658779144,0.0317887701094151,0.000290834199404344
620,0.0106671806424856,0.00105655577499419,-0.000673897273372859,-0.182414829730988,0.0345578081905842,-0.00561083061620593
621,0.012685508467257,0.000432843109592795,-0.00119109684601426,-0.114499382674694,0.0273544862866402,-0.010076105594635
622,0.013044586405158,0.0017924077110365,-0.00107474462129176,-0.0555259138345718,0.0155436564236879,-0.00771640939638019
623,0.0111845806241035,0.0047331266105175,-0.000293383636744693,-0.0186539795249701,0.00399196054786444,0.00255481619387865
624,0.00924423988908529,0.00785010401159525,0.000419311778387055,-0.022827060893178,-0.00370274623855948,0.0155932288616896
625,0.0105573572218418,0.00946163292974234,0.000635887729004025,-0.0745926946401596,-0.00188633508514613,0.0234762504696846
626,0.0166182201355696,0.00782557390630245,0.000813207065220922,-0.153642997145653,0.0126864491030574,0.0218378156423569
627,0.0239006821066141,0.00363102182745934,0.00150125089567155,-0.219610810279846,0.031755231320858,0.013400356285274
628,0.0280577298253775,0.000587729387916625,0.00323846866376698,-0.24995644390583,0.0434293001890183,0.0044879843480885
629,0.0292036030441523,0.000592054915614426,0.00681343162432313,-0.261305660009384,0.0466205775737762,-0.000168170605320483
630,0.0290018785744905,0.000631673086900264,0.0111224316060543,-0.278117686510086,0.0464151203632355,-0.000103203448816203
631,0.027323417365551,-0.002737543778494,0.0131690455600619,-0.309872925281525,0.0421998277306557,0.00158927461598068
632,0.0222613215446472,-0.00810789223760366,0.0126148546114564,-0.349203944206238,0.0321360565721989,0.00276322453282773
633,0.0128985587507486,-0.0118610141798854,0.0109231760725379,-0.3701111972332,0.0188354756683111,0.00374233955517411
634,0.00254173763096333,-0.0129630714654922,0.00729190744459629,-0.35837784409523,0.00484261428937316,0.00495033664628863
635,-0.00279701547697186,-0.0124336266890168,0.00195354013703763,-0.33063405752182,-0.00548579450696707,0.00497693568468094
636,0.000424715370172635,-0.0111680524423718,-0.00358945317566395,-0.296217560768127,-0.00745337083935738,0.00175095908343792
637,0.00882558338344097,-0.00863502267748117,-0.00970830116420984,-0.246576324105263,-0.00387765513733029,-0.00289550796151161
638,0.014075793325901,-0.00474401842802763,-0.0149331940338016,-0.18580824136734,-0.000972191046457738,-0.0039798179641366
639,0.0107070859521627,-0.00151267822366208,-0.0155081925913692,-0.124352246522903,-0.0012975656427443,0.000420366297475994
640,0.00211061118170619,0.000170324448845349,-0.010677264072001,-0.0642334446310997,-0.00422182772308588,0.00749653996899724
641,-0.00412869034335017,0.00125441269483417,-0.00425312854349613,-0.00705436477437615,-0.00951982941478491,0.0125468699261546
642,-0.00619003782048821,0.00221755751408637,-0.00165858340915293,0.0441623479127884,-0.0176137387752533,0.0114960409700871
643,-0.00711623765528202,0.00336448405869305,-0.00504910433664918,0.0735810250043869,-0.0265459790825844,0.00363863399252295
644,-0.00807932484894991,0.0048955581150949,-0.010974021628499,0.0536218322813511,-0.0325107984244823,-0.00695473840460181
645,-0.00812935456633568,0.00605617323890328,-0.01468719355762,-0.0120668103918433,-0.0319846458733082,-0.0155356144532561
646,-0.00691070919856429,0.0064665824174881,-0.0148790786042809,-0.0868517085909843,-0.024811152368784,-0.020333431661129
647,-0.00432080402970314,0.00632137386128306,-0.0128426607698202,-0.14851376414299,-0.0154772931709886,-0.0216402839869261
648,0.000589198200032115,0.00516045093536377,-0.00947222579270601,-0.201829567551613,-0.00752345658838749,-0.0206866711378098
649,0.00738672632724047,0.0036859402898699,-0.00477492017671466,-0.271958142518997,-0.00119064329192042,-0.0189356822520494
650,0.0136666493490338,0.00375439948402345,-0.000164741461048834,-0.374072521924973,0.00597307551652193,-0.0170807838439941
651,0.0202477928251028,0.00591622805222869,0.00203191000036895,-0.480671226978302,0.0195172484964132,-0.0124108390882611
652,0.0292667914181948,0.0100093353539705,0.00163466238882393,-0.5,0.0392573550343513,-0.000427935185143724
653,0.0377399437129498,0.0159103628247976,0.00185055390466005,-0.5,0.0550782270729542,0.0170323047786951
654,0.0435523353517056,0.0217913240194321,0.00641842093318701,-0.5,0.0596081800758839,0.0332941673696041
655,0.0499057956039906,0.0235004760324955,0.0169513057917356,-0.5,0.0557790249586105,0.0461057610809803
656,0.0555206835269928,0.0177652686834335,0.0331923142075539,-0.5,0.0502829365432262,0.0588321946561337
657,0.0534015893936157,0.00610124645754695,0.0471399128437042,-0.5,0.0441421344876289,0.0735427141189575
658,0.042050052434206,-0.00417639128863811,0.0485439375042915,-0.5,0.0332195870578289,0.0852901116013527
659,0.0259720236063004,-0.00729951914399862,0.0408717021346092,-0.5,0.0195308588445187,0.0859742909669876
660,0.0113433180376887,-0.0061984253115952,0.0331191644072533,-0.5,0.00976326502859592,0.074032761156559
661,0.00518936896696687,-0.00481996545568109,0.0261112619191408,-0.5,0.00376948108896613,0.0588941760361195
662,0.00799246318638325,-0.00285068876110017,0.0162051860243082,-0.5,-0.00489390175789595,0.0479984804987907
663,0.00892419554293156,-0.00071666156873107,0.00325720338150859,-0.5,-0.0210066419094801,0.0342457666993141
664,-0.000112577297841199,0.000112731926492415,-0.00890668854117393,-0.5,-0.0374179072678089,0.00726751983165741
665,-0.0121819823980331,-0.000727215316146612,-0.0196414012461901,-0.5,-0.0382939465343952,-0.0326177775859833
666,-0.0176435094326735,-0.00231612985953689,-0.0316975936293602,-0.5,-0.024416871368885,-0.0742363780736923
667,-0.0164952110499144,-0.00228818622417748,-0.04386817663908,-0.5,-0.0148604391142726,-0.103100776672363
668,-0.0133366258814931,0.000769314356148243,-0.0514171533286572,-0.5,-0.0186183638870716,-0.11144196242094
669,-0.0115728341042995,0.00495464308187366,-0.052006796002388,-0.5,-0.0297410078346729,-0.102138787508011
670,-0.0123194931074977,0.00753353536128998,-0.0466679148375988,-0.5,-0.0414928197860718,-0.0827814936637878
671,-0.0138773769140244,0.00871512480080128,-0.0379233919084072,-0.5,-0.0488066226243973,-0.0606243871152401
672,-0.013397354632616,0.0107198776677251,-0.0285223610699177,-0.5,-0.0490017384290695,-0.0416821166872978
673,-0.00923801586031914,0.0141843734309077,-0.0213295072317123,-0.5,-0.0449162796139717,-0.0277911238372326
674,-0.00245026987977326,0.0181409828364849,-0.018327247351408,-0.5,-0.040943518280983,-0.0161196831613779
675,0.00325198541395366,0.0215667933225632,-0.0183305870741606,-0.5,-0.036831934005022,-0.00350670795887709
676,0.00507968291640282,0.0229556914418936,-0.0182422809302807,-0.5,-0.0285573825240135,0.00905046798288822
677,0.00533563829958439,0.020849447697401,-0.0156809370964766,-0.5,-0.015064712613821,0.0172919388860464
678,0.00845046620815992,0.0161247849464417,-0.00934332143515348,-0.5,0.00166121462825686,0.0218119882047176
679,0.0136751960963011,0.0110999923199415,0.00200108904391527,-0.5,0.019694285467267,0.0290044937282801
680,0.0170809030532837,0.00667660683393478,0.0180580075830221,-0.5,0.03599988296628,0.0396710149943829
681,0.0208411496132612,0.00251984060741961,0.0319901593029499,-0.5,0.0469153076410294,0.0442267842590809
682,0.0296898707747459,9.61767582339235E-05,0.0357637107372284,-0.5,0.0487742200493813,0.0361844152212143
683,0.0392916388809681,-0.000171790714375675,0.0290366131812334,-0.5,0.0423373319208622,0.0230190139263868
684,0.0421488024294376,0.00325555936433375,0.0167108457535505,-0.5,0.0319372266530991,0.0211818087846041
685,0.0404319912195206,0.0228202920407057,0.00372437946498394,-0.5,0.02050806209445,0.04616928845644
686,0.0365968160331249,0.0567489489912987,-0.00764020113274455,-0.5,0.0130636924877763,0.097133494913578
687,0.0218855179846287,0.073719710111618,-0.015605072490871,-0.5,0.0105001050978899,0.154348015785217
688,-0.00620146375149488,0.0597398243844509,-0.0192096531391144,-0.5,0.00888424180448055,0.192528620362282
689,-0.0328415930271149,0.0395641028881073,-0.0196356661617756,-0.5,0.0141695458441973,0.191017434000969
690,-0.0444816537201405,0.0382012203335762,-0.0178746562451124,-0.5,0.0271866079419851,0.147478640079498
691,-0.0369506888091564,0.0481840036809444,-0.011694754473865,-0.5,0.0331113710999489,0.0809947103261948
692,-0.00990795344114304,0.0475238561630249,0.00851020682603121,-0.407152265310287,0.0288877226412296,0.0136082144454122
693,0.0241534542292356,0.036663856357336,0.0469050146639347,-0.176682636141777,0.0257303807884455,-0.0397087521851063
694,0.0439593829214573,0.0276073943823576,0.0854319483041763,0.0178089383989573,0.0338280275464058,-0.0632918477058411
695,0.0488187037408352,0.0208369269967079,0.106975920498371,0.161516055464745,0.0570115484297276,-0.0495505146682262
696,0.0639063343405724,0.0132117941975594,0.121324598789215,0.258210450410843,0.091179758310318,-0.0111294584348798
697,0.102156959474087,0.00520056392997503,0.135965600609779,0.31898894906044,0.126009956002235,0.0363651290535927
698,0.145697563886642,-0.00449230615049601,0.133660137653351,0.350813716650009,0.142232403159142,0.0772175714373589
699,0.16799084842205,-0.0131380651146173,0.099361278116703,0.348867118358612,0.131333619356155,0.0971714779734612
700,0.155069217085838,-0.00383067922666669,0.0446708053350449,0.316740453243256,0.11395026743412,0.116798028349876
701,0.120026864111423,0.02866698987782,0.00973568111658096,0.271403849124908,0.106484591960907,0.173885002732277
702,0.08060272783041,0.0648898854851723,0.0367328897118568,0.231502711772919,0.0970018208026886,0.262915909290314
703,0.0388851165771484,0.086472176015377,0.104036867618561,0.203325808048248,0.0603999309241772,0.328479081392288
704,0.00660746358335018,0.0807683244347572,0.126046255230904,0.164340898394585,-0.00981850270181894,0.319772154092789
705,-0.00266487523913383,0.0450202785432339,0.0695786103606224,0.0908195525407791,-0.0781861618161201,0.240691468119621
706,-0.00468474626541138,-0.00365286762826145,-0.00786061678081751,-0.0175464674830437,-0.109563946723938,0.135214433073998
707,-0.0211353525519371,-0.0477302856743336,-0.0505022332072258,-0.142895385622978,-0.105899840593338,0.044222317636013
708,-0.0408653952181339,-0.0749119073152542,-0.057062279433012,-0.241084367036819,-0.0795821323990822,-0.0127687230706215
709,-0.0388416908681393,-0.0714114829897881,-0.0552677065134048,-0.272903561592102,-0.0415251329541206,-0.0298741068691015
710,-0.00665645208209753,-0.0335026197135448,-0.0643423870205879,-0.239291280508041,-0.00781387556344271,0.00425594206899405
711,0.0468316152691841,0.0115623073652387,-0.0777564868330956,-0.169000968337059,0.0108497319743037,0.0814154967665672
712,0.0849392637610435,0.0230023078620434,-0.0687263011932373,-0.110088534653187,0.0297952573746443,0.162174016237259
713,0.0688862726092339,0.0262428633868694,-0.0135415624827147,-0.101118840277195,0.0794446766376495,0.227758854627609
714,0.00591240869835019,0.0828489288687706,0.0732344388961792,-0.136509716510773,0.146827563643456,0.266084998846054
715,-0.0639611780643463,0.16056901216507,0.135564506053925,-0.189789786934853,0.177606999874115,0.24221670627594
716,-0.101958185434341,0.169347986578941,0.126115635037422,-0.242502495646477,0.145084723830223,0.145982876420021
717,-0.0935863927006722,0.0976623147726059,0.0574968419969082,-0.277975112199783,0.0740944147109985,0.0132808638736606
718,-0.0576020553708076,0.00325788022018969,-0.0186395589262247,-0.301323264837265,0.0142713729292154,-0.111705653369427
719,-0.0270779766142368,-0.0721009746193886,-0.0714471861720085,-0.344648510217667,0.00410744547843933,-0.20442658662796
720,-0.0131968706846237,-0.109191589057446,-0.0885649025440216,-0.418985247612,0.036907784640789,-0.252671241760254
721,0.0171119719743729,-0.104887187480927,-0.0628520771861076,-0.493012994527817,0.0683303251862526,-0.242428421974182
722,0.0852270424365997,-0.0812857896089554,-0.0156324375420809,-0.5,0.0782217383384705,-0.176399037241936
723,0.145222917199135,-0.0522147417068481,0.0179434847086668,-0.5,0.0788633748888969,-0.0931723713874817
724,0.14682874083519,-0.0204426571726799,0.0228566192090511,-0.497450917959213,0.0653477311134338,-0.0326421298086643
725,0.0993218421936035,-0.00287143979221582,0.00688175763934851,-0.471841007471085,0.0191206354647875,-0.00687968451529741
726,0.0506036579608917,-0.00677465880289674,-0.0159051585942507,-0.430394500494003,-0.0499916262924671,-0.0157006271183491
727,0.0314570479094982,-0.0197071693837643,-0.0428097136318684,-0.365231186151505,-0.108889408409595,-0.0567632876336575
728,0.0276334006339312,-0.0287923831492662,-0.0733308270573616,-0.295006632804871,-0.139179483056068,-0.114439882338047
729,0.0130630843341351,-0.0310014076530933,-0.0977301225066185,-0.233053132891655,-0.141001403331757,-0.157518804073334
730,-0.00358012435026467,-0.0187146849930286,-0.101483896374702,-0.164614349603653,-0.110817939043045,-0.152882859110832
731,-0.00178002601023763,0.03697894141078,-0.0666408315300941,-0.0699814334511757,-0.0417206138372421,-0.0772670209407806
732,0.00469052651897073,0.133950814604759,0.018011661246419,0.0461617223918438,0.0462560690939426,0.0515126138925552
733,-0.00488307792693377,0.210653856396675,0.132115185260773,0.144009321928024,0.104928538203239,0.155402079224586
734,-0.0315083675086498,0.218194037675858,0.206681028008461,0.184076398611069,0.115937978029251,0.180160075426102
735,-0.0432088449597359,0.151812389492989,0.190935745835304,0.186357870697975,0.116628475487232,0.156063199043274
736,0.0210004914551973,0.0290405061095953,0.126486539840698,0.215741023421288,0.150421962141991,0.111700356006622
737,0.144040584564209,-0.0992757305502892,0.0939366444945335,0.293637096881866,0.221727952361107,0.0376097150146961
738,0.218258991837502,-0.164179533720016,0.117226012051106,0.368909001350403,0.288976758718491,-0.0299421641975641
739,0.188241526484489,-0.133261129260063,0.135399654507637,0.385872304439545,0.296685934066772,-0.0245640426874161
740,0.0844264328479767,-0.0468180701136589,0.09999680519104,0.348208844661713,0.239594578742981,0.0637119188904762
741,-0.032842893153429,0.0261614397168159,0.0503902100026608,0.314372062683105,0.173144310712814,0.195917353034019
742,-0.105081282556057,0.0604016818106174,0.0415308848023415,0.330871731042862,0.143174722790718,0.283153176307678
743,-0.121875680983067,0.0579637922346592,0.0637712404131889,0.363897651433945,0.130433946847916,0.204000279307365
744,-0.121330320835114,0.0350078158080578,0.0593614913523197,0.339673310518265,0.0862588509917259,-0.053443431854248
745,-0.120677642524242,0.0122359497472644,0.0326573923230171,0.254229068756104,0.020576223731041,-0.356620490550995
746,-0.0998724475502968,-0.0210339408367872,0.0546633340418339,0.176033288240433,-0.000857338774949312,-0.5
747,-0.044288694858551,-0.0619677528738976,0.113339312374592,0.153770714998245,0.0406590476632118,-0.5
748,0.0307607129216194,-0.06889858096838,0.122480392456055,0.182648971676826,0.0829377099871635,-0.5
749,0.103010550141335,-0.0372828543186188,0.0696614235639572,0.226406380534172,0.0707026273012161,-0.479729175567627
750,0.178429141640663,-0.0127424532547593,0.000804241048172116,0.238815158605576,0.0201763994991779,-0.293150186538696
751,0.245564699172974,-0.0151660116389394,-0.049378789961338,0.201831012964249,-0.0113744074478745,-0.173926427960396
752,0.244697481393814,-0.0166165791451931,-0.0379084795713425,0.150929510593414,0.0260109361261129,-0.135715410113335
753,0.180492773652077,-0.000982532626949251,0.0458484850823879,0.130125150084496,0.138545960187912,-0.125444337725639
754,0.136075153946877,0.0100785400718451,0.148748353123665,0.147970512509346,0.27883380651474,-0.0866351276636124
755,0.112389996647835,0.00294999033212662,0.229121133685112,0.209629222750664,0.373153775930405,0.0171925202012062
756,0.0474469661712646,-0.00802481267601252,0.280668407678604,0.332925409078598,0.363810509443283,0.185627430677414
757,-0.0499409884214401,0.00132548878900707,0.292163521051407,0.491207122802734,0.263551115989685,0.329014956951141
758,-0.136086031794548,0.0434709712862968,0.248977527022362,0.5,0.149989575147629,0.361741721630096
759,-0.185348838567734,0.105583213269711,0.168857365846634,0.5,0.0677273198962212,0.324421048164368
760,-0.180477097630501,0.148569092154503,0.0983772873878479,0.379349678754807,0.00559876253828406,0.243283659219742
761,-0.122528821229935,0.140243694186211,0.0563433542847633,0.183916956186295,-0.0263230782002211,0.0615484192967415
762,-0.0335699506103992,0.0744727551937103,0.0369362533092499,0.00313262944109738,-0.00524307228624821,-0.212289348244667
763,0.0575614981353283,-0.0423363260924816,0.0428910590708256,-0.138251915574074,0.0417782366275787,-0.486737847328186
764,0.12674517929554,-0.167958065867424,0.0571923442184925,-0.229474142193794,0.0655636414885521,-0.5
765,0.154364466667175,-0.238445192575455,0.0585820116102695,-0.26900839805603,0.0586747080087662,-0.5
766,0.137263625860214,-0.230725258588791,0.0653481185436249,-0.255823075771332,0.0619138441979885,-0.5
767,0.105713427066803,-0.176332667469978,0.110648840665817,-0.188403069972992,0.11489649862051,-0.5
768,0.0979104861617088,-0.130793482065201,0.201616376638412,-0.0844634771347046,0.199274152517319,-0.5
769,0.105874165892601,-0.116988398134708,0.291150569915771,-0.00516027584671974,0.246946215629578,-0.462113589048386
770,0.101632371544838,-0.107516944408417,0.309570103883743,-0.00567696336656809,0.220584511756897,-0.381939351558685
771,0.0983418077230453,-0.0880215689539909,0.245014071464539,-0.0538620948791504,0.15674951672554,-0.375649958848953
772,0.11135658621788,-0.0794268622994423,0.155906498432159,-0.0616992227733135,0.126221835613251,-0.387110561132431
773,0.126818746328354,-0.0890556871891022,0.125811606645584,0.022783737629652,0.182368904352188,-0.353317111730576
774,0.133314684033394,-0.10907518863678,0.192844524979591,0.166843667626381,0.317454010248184,-0.25214147567749
775,0.120647773146629,-0.14832678437233,0.314243137836456,0.29219251871109,0.480404227972031,-0.126907646656036
776,0.0703965872526169,-0.197261661291122,0.434927672147751,0.365168511867523,0.5,-0.0421550087630749
777,-0.00909778196364641,-0.218639552593231,0.5,0.393506467342377,0.5,-0.0226062647998333
778,-0.0597307980060577,-0.201969236135483,0.5,0.375077575445175,0.5,-0.072025291621685
779,-0.036775641143322,-0.160039409995079,0.5,0.325840592384338,0.5,-0.167986169457436
780,0.0296525675803423,-0.12175140529871,0.5,0.291491031646729,0.5,-0.249267190694809
781,0.0923263058066368,-0.13547757267952,0.5,0.288524389266968,0.5,-0.303802609443665
782,0.139679253101349,-0.206102177500725,0.5,0.29204073548317,0.5,-0.383095920085907
783,0.16478231549263,-0.265731692314148,0.5,0.291709810495377,0.440504729747772,-0.477201282978058
784,0.146861031651497,-0.238859504461288,0.454430937767029,0.325822174549103,0.337104946374893,-0.467577666044235
785,0.0731474161148071,-0.128361344337463,0.447431772947311,0.444271385669708,0.31303733587265,-0.289957106113434
786,-0.0221138652414083,-0.04343606159091,0.5,0.5,0.39654067158699,-0.0634296536445618
787,-0.0765333697199821,-0.0770562663674355,0.5,0.5,0.5,0.0487382858991623
788,-0.075952835381031,-0.184734091162682,0.5,0.5,0.5,0.0371637456119061
789,-0.0469772182404995,-0.272143959999084,0.5,0.5,0.5,5.26323105987103E-07
790,-0.00679205823689699,-0.310233056545258,0.5,0.5,0.5,-0.033702939748764
791,0.0254251267760992,-0.324322551488876,0.5,0.5,0.5,-0.0960147380828857
792,0.0439506657421589,-0.342536747455597,0.5,0.5,0.5,-0.178843423724175
793,0.0647022053599358,-0.360340595245361,0.5,0.5,0.5,-0.219531714916229
794,0.0781438648700714,-0.341338753700256,0.5,0.5,0.5,-0.150645524263382
795,0.0715630576014519,-0.276718229055405,0.5,0.5,0.5,0.0071505387313664
796,0.0485589616000652,-0.211610049009323,0.5,0.5,0.5,0.154439732432365
797,0.00126138865016401,-0.178761228919029,0.5,0.5,0.5,0.226913630962372
798,-0.0505391731858253,-0.16493134200573,0.5,0.5,0.5,0.228228911757469
799,-0.0713713616132736,-0.132614403963089,0.5,0.5,0.5,0.256010353565216
800,-0.0644448548555374,-0.0685640051960945,0.5,0.5,0.5,0.401513010263443
801,-0.0498427972197533,-0.0253329314291477,0.5,0.5,0.5,0.5
802,-0.0512825101613998,-0.0507051721215248,0.5,0.5,0.5,0.5
803,-0.0799394398927689,-0.128189414739609,0.5,0.5,0.5,0.5
804,-0.121660247445107,-0.202734395861626,0.5,0.5,0.5,0.400497496128082
805,-0.159804880619049,-0.224757567048073,0.5,0.5,0.5,0.326945692300797
806,-0.177001357078552,-0.203303515911102,0.5,0.5,0.5,0.315452545881271
807,-0.160143479704857,-0.182804390788078,0.5,0.5,0.5,0.345398008823395
808,-0.112292766571045,-0.182830840349197,0.5,0.5,0.5,0.368681758642197
809,-0.0397036001086235,-0.191195130348206,0.5,0.5,0.5,0.364102691411972
810,0.0243300832808018,-0.185945272445679,0.5,0.5,0.5,0.369716852903366
811,0.0178939010947943,-0.161824390292168,0.5,0.5,0.5,0.426917970180511
812,-0.065190277993679,-0.131387710571289,0.5,0.5,0.5,0.5
813,-0.158409684896469,-0.109725281596184,0.5,0.5,0.5,0.5
814,-0.198163986206055,-0.108320407569408,0.5,0.5,0.5,0.5
815,-0.17572708427906,-0.126787275075912,0.5,0.5,0.5,0.5
816,-0.127028152346611,-0.159750834107399,0.5,0.5,0.5,0.5
817,-0.104510679841042,-0.203231140971184,0.5,0.5,0.5,0.5
818,-0.137198552489281,-0.238817438483238,0.5,0.5,0.5,0.5
819,-0.201970651745796,-0.242686837911606,0.5,0.5,0.5,0.5
820,-0.260350078344345,-0.217646554112434,0.5,0.5,0.5,0.5
821,-0.294084548950195,-0.192435011267662,0.5,0.5,0.5,0.5
822,-0.299336761236191,-0.189993977546692,0.5,0.5,0.5,0.5
823,-0.27135843038559,-0.210718870162964,0.5,0.5,0.5,0.5
824,-0.202009901404381,-0.23956061899662,0.5,0.5,0.5,0.5
825,-0.108647763729095,-0.263114333152771,0.5,0.5,0.5,0.5
826,-0.046116080135107,-0.271935015916824,0.5,0.5,0.5,0.5
827,-0.0439031682908535,-0.262205332517624,0.5,0.5,0.5,0.5
828,-0.0776635780930519,-0.242981627583504,0.5,0.5,0.5,0.5
829,-0.120698161423206,-0.226404964923859,0.5,0.5,0.5,0.5
830,-0.164236843585968,-0.228991955518723,0.5,0.5,0.5,0.5
831,-0.199792414903641,-0.261641532182693,0.5,0.5,0.5,0.5
832,-0.215695261955261,-0.312961488962173,0.5,0.5,0.5,0.5
833,-0.210199624300003,-0.35696417093277,0.5,0.5,0.5,0.5
834,-0.191664561629295,-0.377961456775665,0.5,0.5,0.5,0.5
835,-0.171053200960159,-0.380419105291367,0.5,0.5,0.5,0.5
836,-0.162431299686432,-0.363693982362747,0.5,0.5,0.5,0.5
837,-0.173063561320305,-0.32205718755722,0.5,0.5,0.5,0.5
838,-0.194139987230301,-0.265845477581024,0.5,0.5,0.5,0.5
839,-0.213620707392693,-0.222888112068176,0.5,0.5,0.5,0.5
840,-0.232322707772255,-0.217850342392921,0.5,0.5,0.5,0.5
841,-0.253425508737564,-0.242740318179131,0.5,0.5,0.5,0.5
842,-0.271575272083282,-0.26172462105751,0.5,0.5,0.5,0.5
843,-0.284778743982315,-0.249897852540016,0.5,0.5,0.5,0.5
844,-0.297559946775436,-0.212951734662056,0.5,0.5,0.5,0.5
845,-0.312356501817703,-0.165802866220474,0.5,0.5,0.5,0.5
846,-0.327951401472092,-0.120967656373978,0.5,0.5,0.5,0.5
847,-0.345146536827087,-0.0947020500898361,0.5,0.5,0.5,0.5
848,-0.365024030208588,-0.0906978324055672,0.5,0.5,0.5,0.5
849,-0.381313145160675,-0.0963198989629745,0.5,0.5,0.5,0.5
850,-0.387419521808624,-0.0982058718800545,0.5,0.5,0.5,0.5
851,-0.388238310813904,-0.085980586707592,0.5,0.5,0.5,0.5
852,-0.396415293216705,-0.0491791963577271,0.5,0.5,0.5,0.5
853,-0.420283019542694,0.01283860206604,0.5,0.5,0.5,0.5
854,-0.454017519950867,0.0785074979066849,0.5,0.5,0.5,0.5
855,-0.481994837522507,0.121386773884296,0.5,0.5,0.5,0.5
856,-0.497430801391602,0.135868608951569,0.5,0.5,0.5,0.5
857,-0.5,0.133413285017014,0.5,0.5,0.5,0.5
858,-0.5,0.121472969651222,0.5,0.5,0.5,0.5
859,-0.5,0.106553062796593,0.5,0.5,0.5,0.5
860,-0.5,0.106018468737602,0.5,0.5,0.5,0.5
861,-0.5,0.133552849292755,0.5,0.5,0.5,0.5
862,-0.5,0.185344532132149,0.5,0.5,0.5,0.5
863,-0.5,0.246067091822624,0.5,0.5,0.5,0.5
864,-0.5,0.298678308725357,0.5,0.5,0.5,0.5
865,-0.5,0.332479178905487,0.5,0.5,0.5,0.5
866,-0.5,0.346882581710815,0.5,0.5,0.5,0.5
867,-0.5,0.348925620317459,0.5,0.5,0.5,0.5
868,-0.5,0.349970906972885,0.5,0.5,0.5,0.5
869,-0.5,0.361164212226868,0.5,0.5,0.5,0.5
870,-0.5,0.387272715568542,0.5,0.5,0.5,0.5
871,-0.5,0.423659592866898,0.5,0.5,0.5,0.5
872,-0.5,0.458863466978073,0.5,0.5,0.5,0.5
873,-0.5,0.481674939393997,0.5,0.5,0.5,0.5
874,-0.5,0.48845961689949,0.5,0.5,0.5,0.5
875,-0.5,0.484285950660706,0.5,0.5,0.5,0.5
876,-0.5,0.478697240352631,0.5,0.5,0.5,0.5
877,-0.5,0.481584489345551,0.5,0.3659887611866,0.5,0.5
878,-0.5,0.499446958303452,0.5,0.257046729326248,0.5,0.5
879,-0.5,0.5,0.5,0.272368371486664,0.5,0.5
880,-0.5,0.5,0.5,0.396375328302383,0.5,0.5
881,-0.5,0.5,0.5,0.5,0.5,0.5
882,-0.5,0.5,0.5,0.5,0.5,0.5
883,-0.5,0.5,0.5,0.5,0.5,0.5
884,-0.5,0.5,0.5,0.5,0.5,0.5
885,-0.5,0.5,0.5,0.5,0.5,0.5
886,-0.5,0.5,0.5,0.5,0.5,0.5
887,-0.5,0.5,0.5,0.5,0.5,0.5
888,-0.5,0.5,0.5,0.5,0.5,0.5
889,-0.5,0.5,0.5,0.5,0.5,0.5
890,-0.5,0.5,0.5,0.5,0.5,0.5
891,-0.5,0.5,0.5,0.5,0.5,0.5
892,-0.5,0.5,0.5,0.5,0.483097434043884,0.5
893,-0.5,0.5,0.478965133428574,0.5,0.431001484394073,0.498696774244308
894,-0.5,0.5,0.438717901706696,0.5,0.384683310985565,0.475853711366653
895,-0.5,0.5,0.397819399833679,0.5,0.344503790140152,0.457990527153015
896,-0.5,0.5,0.356665581464767,0.5,0.308389902114868,0.442665815353394
897,-0.5,0.5,0.318719655275345,0.5,0.272745013237,0.425103664398193
898,-0.5,0.5,0.28505951166153,0.5,0.235079526901245,0.405080646276474
899,-0.5,0.5,0.254632860422134,0.5,0.196998968720436,0.38566181063652
900,-0.5,0.5,0.224607989192009,0.5,0.162724271416664,0.366989970207214
901,-0.5,0.5,0.190212517976761,0.5,0.133997082710266,0.347356200218201
902,-0.5,0.5,0.151521638035774,0.5,0.111303947865963,0.327192276716232
903,-0.5,0.5,0.115124851465225,0.5,0.0947553440928459,0.308582842350006
904,-0.5,0.5,0.0840034559369087,0.5,0.0765270367264748,0.293434113264084
905,-0.5,0.5,0.0555583722889423,0.5,0.0439202673733234,0.278852164745331
906,-0.5,0.5,0.0278472136706114,0.5,-0.00353887677192688,0.258785545825958
907,-0.5,0.5,-2.22291291720467E-05,0.5,-0.0510798692703247,0.23531174659729
908,-0.5,0.5,-0.0285104140639305,0.5,-0.0856805294752121,0.216603383421898
909,-0.5,0.5,-0.0552292503416538,0.363229513168335,-0.107507824897766,0.20593149960041
910,-0.5,0.5,-0.0782048851251602,0.201832741498947,-0.125672429800034,0.200357049703598
911,-0.5,0.5,-0.101652324199677,0.0701634809374809,-0.150075629353523,0.194067150354385
912,-0.5,0.5,-0.129796177148819,-0.00973590649664402,-0.184562832117081,0.184248358011246
913,-0.5,0.5,-0.16008734703064,-0.0078351404517889,-0.224093690514565,0.173420786857605
914,-0.5,0.5,-0.188254311680794,0.0639846846461296,-0.25883212685585,0.163457408547401
915,-0.5,0.5,-0.214282602071762,0.158229529857636,-0.282406747341156,0.151728108525276
916,-0.5,0.5,-0.241645276546478,0.238208249211311,-0.296355456113815,0.134102836251259
917,-0.5,0.5,-0.272345662117004,0.287454277276993,-0.306884825229645,0.111041456460953
918,-0.5,0.5,-0.304698288440704,0.294142484664917,-0.320698946714401,0.0878798067569733
919,-0.5,0.5,-0.33473214507103,0.256076008081436,-0.342359632253647,0.0702922269701958
920,-0.5,0.5,-0.359055906534195,0.196384832262993,-0.370888948440552,0.0618223585188389
921,-0.5,0.5,-0.37925723195076,0.1487195789814,-0.400762557983398,0.0608659312129021
922,-0.5,0.5,-0.399978667497635,0.119532093405724,-0.426722586154938,0.061456024646759
923,-0.5,0.5,-0.423003733158112,0.0759851709008217,-0.448198616504669,0.0586253851652145
924,-0.5,0.5,-0.447576820850372,-0.0150586050003767,-0.470213085412979,0.0499258376657963
925,-0.5,0.5,-0.47258472442627,-0.136780276894569,-0.496819138526917,0.0346967503428459
926,-0.5,0.5,-0.497258216142654,-0.225420936942101,-0.5,0.0148786241188645
927,-0.5,0.5,-0.5,-0.240055441856384,-0.5,-0.00506333308294415
928,-0.5,0.489801347255707,-0.5,-0.194965034723282,-0.5,-0.0218240134418011
929,-0.5,0.482322990894318,-0.5,-0.120139345526695,-0.5,-0.0357716232538223
930,-0.5,0.479078441858292,-0.5,-0.0414666682481766,-0.5,-0.0488382466137409
931,-0.5,0.476908415555954,-0.5,0.0181390941143036,-0.5,-0.0613370053470135
932,-0.5,0.472900718450546,-0.5,0.0374170169234276,-0.5,-0.0721107125282288
933,-0.5,0.464927017688751,-0.5,-0.00212204176932573,-0.5,-0.0819354951381683
934,-0.5,0.452435582876205,-0.5,-0.0993953198194504,-0.5,-0.0925062522292137
935,-0.5,0.437590450048447,-0.5,-0.218722894787788,-0.5,-0.103196412324905
936,-0.5,0.423704504966736,-0.5,-0.30591157078743,-0.5,-0.113312005996704
937,-0.5,0.413791090250015,-0.5,-0.328104972839355,-0.5,-0.12336640805006
938,-0.5,0.409394204616547,-0.5,-0.294215470552444,-0.5,-0.132821574807167
939,-0.5,0.40818589925766,-0.5,-0.259010255336761,-0.5,-0.141773909330368
940,-0.5,0.40526807308197,-0.5,-0.288345217704773,-0.5,-0.153378248214722
941,-0.5,0.397526353597641,-0.5,-0.390036523342133,-0.5,-0.169559314846992
942,-0.5,0.385286241769791,-0.5,-0.5,-0.5,-0.18750636279583
943,-0.5,0.370453834533691,-0.5,-0.5,-0.5,-0.203965127468109
944,-0.5,0.355306267738342,-0.5,-0.5,-0.5,-0.217429518699646
945,-0.5,0.342641621828079,-0.5,-0.5,-0.5,-0.226959198713303
946,-0.5,0.334144175052643,-0.5,-0.5,-0.5,-0.233528777956963
947,-0.5,0.329250663518906,-0.5,-0.5,-0.5,-0.238788306713104
948,-0.5,0.325277775526047,-0.5,-0.5,-0.5,-0.243432492017746
949,-0.5,0.318869382143021,-0.5,-0.5,-0.5,-0.248661771416664
950,-0.5,0.308916538953781,-0.5,-0.5,-0.5,-0.255968928337097
951,-0.5,0.296189963817596,-0.5,-0.5,-0.5,-0.266430258750916
952,-0.5,0.282256722450256,-0.5,-0.5,-0.5,-0.279224693775177
953,-0.5,0.269739240407944,-0.5,-0.5,-0.5,-0.291102290153503
954,-0.5,0.260050386190414,-0.5,-0.5,-0.5,-0.300313413143158
955,-0.5,0.252611517906189,-0.5,-0.5,-0.5,-0.308312147855759
956,-0.5,0.246916010975838,-0.5,-0.5,-0.5,-0.317296057939529
957,-0.5,0.242374077439308,-0.5,-0.5,-0.5,-0.327932953834534
958,-0.5,0.237120479345322,-0.5,-0.5,-0.5,-0.340532451868057
959,-0.5,0.22907380759716,-0.5,-0.5,-0.5,-0.356195688247681
960,-0.5,0.217352688312531,-0.5,-0.5,-0.5,-0.373362004756927
961,-0.5,0.203856348991394,-0.5,-0.5,-0.5,-0.387009710073471
962,-0.5,0.192853301763535,-0.5,-0.5,-0.5,-0.394260108470917
963,-0.5,0.185320302844048,-0.5,-0.5,-0.5,-0.39790141582489
964,-0.5,0.178456753492355,-0.5,-0.5,-0.5,-0.402029991149902
965,-0.5,0.170653238892555,-0.5,-0.5,-0.5,-0.408338695764542
966,-0.5,0.162126898765564,-0.5,-0.5,-0.5,-0.417479872703552
967,-0.5,0.152940198779106,-0.5,-0.5,-0.5,-0.429253995418549
968,-0.5,0.141577377915382,-0.5,-0.5,-0.5,-0.441989779472351
969,-0.5,0.12716044485569,-0.5,-0.5,-0.5,-0.453579485416412
970,-0.5,0.111372701823711,-0.5,-0.5,-0.5,-0.463684797286987
971,-0.5,0.0968784168362617,-0.5,-0.5,-0.5,-0.473143011331558
972,-0.5,0.0856382623314857,-0.5,-0.5,-0.5,-0.481834262609482
973,-0.5,0.0779901668429375,-0.5,-0.5,-0.5,-0.488592267036438
974,-0.5,0.0726112127304077,-0.5,-0.5,-0.5,-0.492597103118896
975,-0.5,0.0673486888408661,-0.5,-0.5,-0.5,-0.495478391647339
976,-0.5,0.0607195124030113,-0.5,-0.5,-0.5,-0.499773442745209
977,-0.5,0.0523801520466805,-0.5,-0.5,-0.5,-0.5
978,-0.5,0.0437278263270855,-0.5,-0.5,-0.5,-0.5
979,-0.493958473205566,0.0367697551846504,-0.5,-0.5,-0.5,-0.5
980,-0.489206224679947,0.0319252461194992,-0.5,-0.5,-0.5,-0.5
981,-0.486446738243103,0.0286109745502472,-0.5,-0.5,-0.5,-0.5
982,-0.485244154930115,0.0251874439418316,-0.5,-0.5,-0.5,-0.5
983,-0.484566658735275,0.0199472103267908,-0.5,-0.5,-0.5,-0.5
984,-0.482578337192535,0.0124699966982007,-0.5,-0.5,-0.5,-0.5
985,-0.478369385004044,0.0028994579333812,-0.5,-0.5,-0.5,-0.5
986,-0.472072124481201,-0.00777822826057673,-0.5,-0.5,-0.5,-0.5
987,-0.464518308639526,-0.0178881790488958,-0.5,-0.5,-0.5,-0.5
988,-0.457208096981049,-0.0265704803168774,-0.5,-0.5,-0.5,-0.5
989,-0.451352328062058,-0.033961359411478,-0.5,-0.5,-0.5,-0.5
990,-0.446856141090393,-0.0399808324873447,-0.5,-0.5,-0.5,-0.5
991,-0.442208647727966,-0.0447922088205814,-0.5,-0.5,-0.5,-0.5
992,-0.435597896575928,-0.050224918872118,-0.5,-0.5,-0.5,-0.5
993,-0.427036345005035,-0.0582546629011631,-0.5,-0.5,-0.5,-0.5
994,-0.418991684913635,-0.0692134350538254,-0.5,-0.5,-0.5,-0.5
995,-0.411968111991882,-0.0816642120480537,-0.5,-0.5,-0.5,-0.5
996,-0.405245184898376,-0.0929973050951958,-0.5,-0.5,-0.5,-0.5
997,-0.40120068192482,-0.101445078849792,-0.5,-0.5,-0.5,-0.5
998,-0.400671452283859,-0.106306590139866,-0.5,-0.5,-0.5,-0.5
999,-0.401556670665741,-0.108039848506451,-0.5,-0.5,-0.5,-0.5
1000,-0.403509855270386,-0.108685493469238,-0.5,-0.5,-0.5,-0.5
1001,-0.407826215028763,-0.110967718064785,-0.5,-0.5,-0.5,-0.5
1002,-0.414255380630493,-0.117408625781536,-0.5,-0.5,-0.5,-0.5
1003,-0.420270681381226,-0.127005994319916,-0.5,-0.5,-0.5,-0.5
1004,-0.423065274953842,-0.136119335889816,-0.5,-0.5,-0.5,-0.5
1005,-0.420907348394394,-0.142932325601578,-0.5,-0.5,-0.5,-0.5
1006,-0.415961086750031,-0.146920099854469,-0.5,-0.5,-0.5,-0.5
1007,-0.413700044155121,-0.148115381598473,-0.5,-0.5,-0.5,-0.5
1008,-0.416165202856064,-0.147947490215302,-0.5,-0.5,-0.5,-0.5
1009,-0.419739603996277,-0.148530602455139,-0.5,-0.5,-0.5,-0.5
1010,-0.419066101312637,-0.151495084166527,-0.5,-0.5,-0.5,-0.5
1011,-0.412144422531128,-0.157744988799095,-0.5,-0.5,-0.5,-0.5
1012,-0.400812119245529,-0.166448622941971,-0.5,-0.5,-0.5,-0.5
1013,-0.386977434158325,-0.174853101372719,-0.5,-0.5,-0.5,-0.5
1014,-0.373351663351059,-0.180651322007179,-0.5,-0.5,-0.5,-0.5
1015,-0.364616602659225,-0.183388456702232,-0.5,-0.5,-0.5,-0.5
1016,-0.361656069755554,-0.183640867471695,-0.5,-0.5,-0.5,-0.5
1017,-0.359876900911331,-0.182511448860168,-0.5,-0.5,-0.5,-0.5
1018,-0.354593396186829,-0.181775346398354,-0.5,-0.5,-0.5,-0.5
1019,-0.344592779874802,-0.183747515082359,-0.5,-0.5,-0.5,-0.5
1020,-0.332934588193893,-0.190586760640144,-0.5,-0.5,-0.5,-0.5
1021,-0.323337912559509,-0.20105853676796,-0.5,-0.5,-0.5,-0.5
1022,-0.316874861717224,-0.209867864847183,-0.5,-0.5,-0.5,-0.5
1023,-0.313697755336761,-0.213351175189018,-0.5,-0.5,-0.5,-0.5
1024,-0.31294310092926,-0.212908551096916,-0.5,-0.5,-0.5,-0.5
1025,-0.312156766653061,-0.21242780983448,-0.5,-0.5,-0.5,-0.5
1026,-0.310533195734024,-0.214697286486626,-0.5,-0.5,-0.5,-0.5
1027,-0.308636039495468,-0.220145717263222,-0.5,-0.5,-0.5,-0.5
1028,-0.306221157312393,-0.2278673350811,-0.5,-0.5,-0.5,-0.5
1029,-0.303511172533035,-0.236529245972633,-0.5,-0.5,-0.5,-0.5
1030,-0.300386518239975,-0.244014531373978,-0.5,-0.5,-0.5,-0.5
1031,-0.29593700170517,-0.248349577188492,-0.5,-0.5,-0.5,-0.5
1032,-0.289968401193619,-0.249101728200912,-0.5,-0.5,-0.5,-0.5
1033,-0.282754391431808,-0.247142717242241,-0.5,-0.5,-0.5,-0.5
1034,-0.274012595415115,-0.244188219308853,-0.5,-0.5,-0.5,-0.5
1035,-0.262728452682495,-0.242134571075439,-0.5,-0.5,-0.5,-0.5
1036,-0.248076200485229,-0.241767600178719,-0.5,-0.5,-0.5,-0.5
1037,-0.23077355325222,-0.242908135056496,-0.5,-0.5,-0.5,-0.5
1038,-0.21380127966404,-0.245382398366928,-0.5,-0.5,-0.5,-0.5
1039,-0.200294747948647,-0.248787552118301,-0.5,-0.5,-0.5,-0.5
1040,-0.191556200385094,-0.252110004425049,-0.5,-0.5,-0.5,-0.5
1041,-0.187169507145882,-0.254326730966568,-0.5,-0.5,-0.5,-0.5
1042,-0.185420587658882,-0.255848973989487,-0.5,-0.5,-0.5,-0.5
1043,-0.184169933199883,-0.258490741252899,-0.5,-0.5,-0.5,-0.5
1044,-0.181118711829185,-0.263469278812408,-0.5,-0.5,-0.5,-0.5
1045,-0.175674632191658,-0.270421624183655,-0.5,-0.5,-0.5,-0.5
1046,-0.17109677195549,-0.277638524770737,-0.5,-0.5,-0.5,-0.5
1047,-0.170432388782501,-0.282323688268662,-0.5,-0.5,-0.5,-0.5
1048,-0.173067912459373,-0.282638847827911,-0.5,-0.5,-0.5,-0.5
1049,-0.176384091377258,-0.279242873191834,-0.5,-0.5,-0.5,-0.5
1050,-0.177372485399246,-0.274354219436646,-0.5,-0.5,-0.5,-0.5
1051,-0.174354895949364,-0.27077117562294,-0.5,-0.5,-0.5,-0.5
1052,-0.167356461286545,-0.270604163408279,-0.5,-0.5,-0.5,-0.5
1053,-0.157456651329994,-0.273812592029572,-0.5,-0.5,-0.5,-0.5
1054,-0.146918520331383,-0.278350174427032,-0.5,-0.5,-0.5,-0.5
1055,-0.137687906622887,-0.281445920467377,-0.5,-0.5,-0.5,-0.5
1056,-0.130073249340057,-0.281050533056259,-0.5,-0.5,-0.5,-0.5
1057,-0.124195322394371,-0.277680963277817,-0.5,-0.5,-0.5,-0.5
1058,-0.120455019176006,-0.274459272623062,-0.5,-0.5,-0.5,-0.5
1059,-0.117308184504509,-0.273976534605026,-0.5,-0.5,-0.5,-0.5
1060,-0.112871721386909,-0.277279913425446,-0.5,-0.5,-0.5,-0.5
1061,-0.106845669448376,-0.283889055252075,-0.5,-0.5,-0.5,-0.5
1062,-0.0991920903325081,-0.291306734085083,-0.5,-0.5,-0.5,-0.5
1063,-0.0914106220006943,-0.296998500823975,-0.5,-0.5,-0.5,-0.5
1064,-0.0857071503996849,-0.298934817314148,-0.5,-0.5,-0.5,-0.5
1065,-0.0824096202850342,-0.296781271696091,-0.5,-0.5,-0.5,-0.5
1066,-0.0810201093554497,-0.293117135763168,-0.5,-0.5,-0.5,-0.5
1067,-0.0799898579716682,-0.290002465248108,-0.5,-0.5,-0.5,-0.491871237754822
1068,-0.0764957293868065,-0.287721395492554,-0.5,-0.5,-0.5,-0.48480886220932
1069,-0.0699031427502632,-0.287182599306107,-0.5,-0.5,-0.5,-0.483049690723419
1070,-0.0617556124925613,-0.288997620344162,-0.5,-0.5,-0.5,-0.486348867416382
1071,-0.0533621869981289,-0.291924059391022,-0.5,-0.5,-0.5,-0.491922616958618
1072,-0.0467248931527138,-0.294236063957214,-0.5,-0.5,-0.5,-0.496212989091873
1073,-0.0437620095908642,-0.294541031122208,-0.5,-0.5,-0.5,-0.495275586843491
1074,-0.0442586429417133,-0.292284071445465,-0.5,-0.5,-0.5,-0.486580073833466
1075,-0.0464629121124744,-0.288472652435303,-0.5,-0.5,-0.5,-0.472006499767303
1076,-0.0479050353169441,-0.285319060087204,-0.5,-0.5,-0.5,-0.457629561424255
1077,-0.0468299128115177,-0.285140067338943,-0.5,-0.5,-0.5,-0.449472844600677
1078,-0.0433778204023838,-0.288232535123825,-0.5,-0.5,-0.5,-0.44816929101944
1079,-0.038568276911974,-0.292468458414078,-0.5,-0.5,-0.5,-0.449079751968384
1080,-0.033214159309864,-0.295469790697098,-0.5,-0.5,-0.5,-0.447222977876663
1081,-0.028343690559268,-0.296078711748123,-0.5,-0.5,-0.5,-0.440639495849609
1082,-0.0253327786922455,-0.294567853212357,-0.5,-0.5,-0.5,-0.431410998106003
1083,-0.0235836170613766,-0.291470557451248,-0.5,-0.5,-0.5,-0.423047035932541
1084,-0.0204110853374004,-0.287295371294022,-0.5,-0.5,-0.5,-0.417172402143478
1085,-0.0152510106563568,-0.284193426370621,-0.5,-0.5,-0.5,-0.414334863424301
1086,-0.00953921489417553,-0.284073948860168,-0.5,-0.5,-0.5,-0.413634866476059
1087,-0.00358522264286876,-0.286166667938232,-0.5,-0.5,-0.5,-0.412362515926361
1088,0.00242271134629846,-0.288691937923431,-0.5,-0.5,-0.5,-0.409422546625137
1089,0.00788530707359314,-0.289877414703369,-0.5,-0.5,-0.5,-0.405589878559113
1090,0.0129467900842428,-0.288515150547028,-0.5,-0.5,-0.5,-0.401213139295578
1091,0.0179653465747833,-0.284547299146652,-0.5,-0.5,-0.5,-0.395722240209579
1092,0.022650733590126,-0.279117852449417,-0.5,-0.5,-0.5,-0.389021754264832
1093,0.0272876657545567,-0.274393856525421,-0.5,-0.5,-0.5,-0.382791638374329
1094,0.0328418463468552,-0.272495985031128,-0.5,-0.5,-0.5,-0.37896254658699
1095,0.0392430871725082,-0.274284869432449,-0.5,-0.5,-0.5,-0.377880573272705
1096,0.0455922037363052,-0.278273582458496,-0.5,-0.5,-0.5,-0.377280503511429
1097,0.0509615987539291,-0.28145432472229,-0.5,-0.5,-0.5,-0.373777985572815
1098,0.0555156357586384,-0.281202852725983,-0.5,-0.5,-0.5,-0.365878939628601
1099,0.0605190061032772,-0.27706378698349,-0.5,-0.5,-0.5,-0.355125576257706
1100,0.0657656416296959,-0.271675050258636,-0.5,-0.5,-0.5,-0.345961928367615
1101,0.0701378509402275,-0.268175482749939,-0.5,-0.5,-0.5,-0.342080116271973
1102,0.073860190808773,-0.267992496490479,-0.5,-0.5,-0.5,-0.343440413475037
1103,0.0775806680321693,-0.270968675613403,-0.5,-0.5,-0.5,-0.347236275672913
1104,0.0824740156531334,-0.27505823969841,-0.5,-0.5,-0.5,-0.349649757146835
1105,0.0896117761731148,-0.277590185403824,-0.5,-0.5,-0.5,-0.348565995693207
1106,0.0967637151479721,-0.277559131383896,-0.5,-0.5,-0.5,-0.344315767288208
1107,0.10061426460743,-0.275510907173157,-0.5,-0.5,-0.5,-0.337528049945831
1108,0.102397628128529,-0.27157986164093,-0.5,-0.5,-0.5,-0.328650027513504
1109,0.105947807431221,-0.266130357980728,-0.5,-0.5,-0.5,-0.320044070482254
1110,0.112204276025295,-0.261233657598495,-0.5,-0.485308647155762,-0.5,-0.314864248037338
1111,0.119664944708347,-0.259203284978867,-0.5,-0.5,-0.5,-0.313835591077805
1112,0.126881450414658,-0.260914325714111,-0.5,-0.5,-0.5,-0.315094172954559
1113,0.132415279746056,-0.265068024396896,-0.5,-0.5,-0.5,-0.315472632646561
1114,0.135575011372566,-0.268653392791748,-0.5,-0.5,-0.5,-0.312469601631165
1115,0.137195095419884,-0.269153296947479,-0.5,-0.5,-0.5,-0.305880725383759
1116,0.138386160135269,-0.266385585069656,-0.5,-0.5,-0.5,-0.29788863658905
1117,0.140374317765236,-0.261868268251419,-0.5,-0.418881833553314,-0.5,-0.291121393442154
1118,0.144354730844498,-0.257287979125977,-0.5,-0.345049560070038,-0.5,-0.286852300167084
1119,0.15041571855545,-0.253935098648071,-0.5,-0.325031667947769,-0.5,-0.284907639026642
1120,0.157278567552567,-0.25230672955513,-0.5,-0.383200526237488,-0.5,-0.283277124166489
1121,0.163347691297531,-0.251517474651337,-0.5,-0.497423022985458,-0.5,-0.279040336608887
1122,0.167827174067497,-0.249706119298935,-0.5,-0.5,-0.5,-0.270684987306595
1123,0.17070797085762,-0.245296061038971,-0.5,-0.5,-0.5,-0.258988469839096
1124,0.172381609678268,-0.238279610872269,-0.5,-0.5,-0.49874210357666,-0.246588677167892
1125,0.17347925901413,-0.230607852339745,-0.5,-0.5,-0.490816056728363,-0.236295014619827
1126,0.175091251730919,-0.225138172507286,-0.5,-0.5,-0.482434689998627,-0.229856759309769
1127,0.178000077605248,-0.223923727869987,-0.5,-0.5,-0.473932325839996,-0.228084459900856
1128,0.181837543845177,-0.226692780852318,-0.5,-0.5,-0.466072082519531,-0.229838982224464
1129,0.185453474521637,-0.231335118412972,-0.498366475105286,-0.5,-0.459116578102112,-0.231985092163086
1130,0.188438087701797,-0.234969958662987,-0.491353094577789,-0.5,-0.452278584241867,-0.231345266103745
1131,0.190967410802841,-0.235468178987503,-0.483544111251831,-0.5,-0.445367127656937,-0.227173045277596
1132,0.192259550094604,-0.233147665858269,-0.47541269659996,-0.5,-0.439398556947708,-0.221260249614716
1133,0.192387416958809,-0.229072630405426,-0.467674165964127,-0.5,-0.433619141578674,-0.214819952845573
1134,0.192344665527344,-0.224359437823296,-0.459376811981201,-0.5,-0.425684809684753,-0.20849047601223
1135,0.191865980625153,-0.220369383692741,-0.449517160654068,-0.5,-0.415207028388977,-0.20311039686203
1136,0.191296964883804,-0.217138379812241,-0.437830716371536,-0.5,-0.402812421321869,-0.197104722261429
1137,0.192470446228981,-0.215054303407669,-0.42422941327095,-0.5,-0.387277811765671,-0.188426241278648
1138,0.196107506752014,-0.215668097138405,-0.409829169511795,-0.5,-0.367991149425507,-0.180074438452721
1139,0.201366454362869,-0.218253701925278,-0.397191941738129,-0.5,-0.348199963569641,-0.176310241222382
1140,0.206294566392899,-0.220065578818321,-0.388767033815384,-0.5,-0.333618372678757,-0.175855576992035
1141,0.209063604474068,-0.218967735767365,-0.383646160364151,-0.5,-0.32767254114151,-0.17397628724575
1142,0.209730938076973,-0.214458048343658,-0.377359181642532,-0.5,-0.328037470579147,-0.168020904064178
1143,0.209664791822433,-0.208194613456726,-0.367563933134079,-0.5,-0.329631447792053,-0.15989750623703
1144,0.210210874676704,-0.202661141753197,-0.356265991926193,-0.5,-0.329178273677826,-0.153601497411728
1145,0.211181297898293,-0.199859037995338,-0.346556425094604,-0.5,-0.325904369354248,-0.151405975222588
1146,0.212221518158913,-0.199641168117523,-0.339002519845963,-0.5,-0.318854719400406,-0.151585176587105
1147,0.213651865720749,-0.1996119171381,-0.331543773412704,-0.5,-0.307534158229828,-0.149782821536064
1148,0.214758858084679,-0.197809532284737,-0.322971910238266,-0.441023409366608,-0.296189159154892,-0.143698826432228
1149,0.214725181460381,-0.194628015160561,-0.314085006713867,-0.379884660243988,-0.289553910493851,-0.135678678750992
1150,0.213636249303818,-0.191118910908699,-0.305616796016693,-0.347396582365036,-0.286090761423111,-0.129397436976433
1151,0.212543904781342,-0.186288774013519,-0.297097980976105,-0.354080468416214,-0.281047314405441,-0.124220162630081
1152,0.212989687919617,-0.180461972951889,-0.287910491228104,-0.398167014122009,-0.27275276184082,-0.117604672908783
1153,0.215795114636421,-0.176283732056618,-0.277714729309082,-0.461211651563644,-0.262955397367477,-0.10947073996067
1154,0.220394566655159,-0.174817308783531,-0.266431570053101,-0.5,-0.252913624048233,-0.101291909813881
1155,0.224966913461685,-0.175571575760841,-0.255260854959488,-0.5,-0.242955207824707,-0.0952510982751846
1156,0.227731510996819,-0.177249580621719,-0.246083483099937,-0.5,-0.234461426734924,-0.0921811759471893
1157,0.228836536407471,-0.176661804318428,-0.238421753048897,-0.5,-0.227343454957008,-0.0893758982419968
1158,0.230645090341568,-0.17164720594883,-0.22980572283268,-0.5,-0.218948990106583,-0.0836076363921165
1159,0.234601646661758,-0.165696337819099,-0.219616547226906,-0.436987519264221,-0.207333013415337,-0.075612984597683
1160,0.238778620958328,-0.164084389805794,-0.209314778447151,-0.360492497682571,-0.191137507557869,-0.0686111524701118
1161,0.241104304790497,-0.166597276926041,-0.200023666024208,-0.259648352861404,-0.169222310185432,-0.0638036131858826
1162,0.24199678003788,-0.16943721473217,-0.191988244652748,-0.143307104706764,-0.14565572142601,-0.0611942820250988
1163,0.241869762539864,-0.170728594064713,-0.185268670320511,-0.0308510288596153,-0.13061748445034,-0.0613224841654301
1164,0.240673080086708,-0.169286519289017,-0.17916813492775,0.071368619799614,-0.130250334739685,-0.0621935948729515
1165,0.238739535212517,-0.16444981098175,-0.173122197389603,0.159658625721931,-0.141066700220108,-0.0603379756212235
1166,0.236266627907753,-0.158681496977806,-0.167626187205315,0.227281421422958,-0.155026063323021,-0.055646289139986
1167,0.23514848947525,-0.154962226748466,-0.162572413682938,0.256670296192169,-0.164357244968414,-0.0514939501881599
1168,0.237717747688293,-0.154106050729752,-0.157263234257698,0.245506450533867,-0.165245160460472,-0.0508186109364033
1169,0.241971209645271,-0.15558123588562,-0.151247650384903,0.233780741691589,-0.159509524703026,-0.0529664009809494
1170,0.244187161326408,-0.157829418778419,-0.143833547830582,0.252948015928268,-0.151331931352615,-0.0548976585268974
1171,0.243745431303978,-0.159190565347672,-0.134943187236786,0.2779700756073,-0.143415912985802,-0.0538925528526306
1172,0.241972163319588,-0.158935233950615,-0.125517576932907,0.270915389060974,-0.13562336564064,-0.0483810640871525
1173,0.239578187465668,-0.156810715794563,-0.116269782185555,0.235231459140778,-0.126443758606911,-0.0386706031858921
1174,0.236153349280357,-0.153195574879646,-0.108317695558071,0.198951363563538,-0.116648703813553,-0.0277786739170551
1175,0.232131034135818,-0.148561283946037,-0.102753013372421,0.163601949810982,-0.108969442546368,-0.0192511193454266
1176,0.229446291923523,-0.14333587884903,-0.0984992757439613,0.108046673238277,-0.103347443044186,-0.0147789707407355
1177,0.229643434286118,-0.138621225953102,-0.092992976307869,0.0393675938248634,-0.0958407297730446,-0.0140670891851187
1178,0.233280792832375,-0.135588690638542,-0.084710381925106,-0.0210094749927521,-0.0823719277977943,-0.0152977770194411
1179,0.239480182528496,-0.134615451097488,-0.0746064633131027,-0.0742748528718948,-0.0637791007757187,-0.0166647024452686
