,AF3,AF4,Fp1,Fp2,AF7,AF8
0,-0.00371560268104076,0.00144607352558523,-0.00829926319420338,-0.5,-0.0125748431310058,0.0127866202965379
1,-0.00279752118512988,0.00161250669043511,-0.00859224889427423,-0.5,-0.0127864480018616,0.0112803634256125
2,-0.00167627586051822,0.0022999478969723,-0.00931754894554615,-0.5,-0.0129532320424914,0.00963961705565453
3,-0.00190262391697615,0.00213099829852581,-0.0110062966123223,-0.5,-0.01425985340029,0.00702457362785935
4,-0.00340844271704555,0.00102753273677081,-0.0126081788912416,-0.5,-0.0163041837513447,0.00404067523777485
5,-0.00529177719727159,-0.000292551529128104,-0.0134374154731631,-0.5,-0.018294058740139,0.00167644175235182
6,-0.00627193041145802,-0.000742783478926867,-0.0132898017764091,-0.5,-0.0193680562078953,0.000644366431515664
7,-0.00552535289898515,-7.20911993994378E-05,-0.0121467728167772,-0.5,-0.0188009440898895,0.000492441060487181
8,-0.0036768838763237,0.000726153084542602,-0.0104079702869058,-0.5,-0.0170025713741779,9.71542249317281E-05
9,-0.00136353098787367,0.00160542328376323,-0.00811603385955095,-0.5,-0.0143540855497122,0.000176504006958567
10,0.00107324740383774,0.00309082516469061,-0.00545580685138702,-0.5,-0.0109520396217704,0.00169339636340737
11,0.00258479197509587,0.0042901816777885,-0.00344923697412014,-0.395782470703125,-0.00779250636696815,0.003113899147138
12,0.00245224637910724,0.00427185138687491,-0.00276650954037905,-0.19748891890049,-0.00614133337512612,0.00298792938701808
13,0.000927143322769552,0.00332513358443975,-0.00313612003810704,0.0398701392114162,-0.00641309469938278,0.00179540691897273
14,-0.000915201788302511,0.00239943969063461,-0.00340495095588267,0.216185882687569,-0.00748087838292122,0.000838590261992067
15,-0.00180907943286002,0.00246378406882286,-0.00246903486549854,0.225224480032921,-0.00775024108588696,0.00159314286429435
16,-0.00108420802280307,0.00418707681819797,-3.40523656632286E-05,-0.00114321627188474,-0.00648587290197611,0.0054271062836051
17,0.00141954678110778,0.00760421343147755,0.00370830646716058,-0.498210191726685,-0.00369708286598325,0.012718747369945
18,0.00456618145108223,0.011013207025826,0.00716462871059775,-0.5,-0.000756909372285008,0.0206815879791975
19,0.00590546429157257,0.0118951955810189,0.00784456357359886,-0.5,-0.00013585839769803,0.0249975528568029
20,0.00421002926304936,0.00975771062076092,0.00513159856200218,-0.5,-0.00269648595713079,0.0243703275918961
21,0.00117289531044662,0.00661624642089009,0.00119658978655934,-0.5,-0.00616639666259289,0.0208275970071554
22,-0.000844435999169946,0.00468551274389029,-0.00143598951399326,-0.5,-0.00807621795684099,0.0170767288655043
23,-0.00153566128574312,0.00449690455570817,-0.00251031317748129,-0.5,-0.00862815510481596,0.0145461419597268
24,-0.00154896487947553,0.00553860887885094,-0.00280489679425955,-0.5,-0.00884004961699247,0.0132990851998329
25,-0.00117031042464077,0.00693454965949059,-0.00246099033392966,-0.5,-0.00879953429102898,0.0127991978079081
26,-0.000931517453864217,0.00757573777809739,-0.00189602002501488,-0.5,-0.00887784268707037,0.0123504567891359
27,-0.00108276703394949,0.00738447811454535,-0.00153779936954379,-0.5,-0.00957665219902992,0.0117264371365309
28,-0.00100499554537237,0.00712122535333037,-0.00106603524181992,-0.5,-0.0102780554443598,0.0112257758155465
29,-0.000340099242748693,0.00712163280695677,-0.000111289373307955,-0.5,-0.0100173773244023,0.011186869814992
30,0.000535581260919571,0.00724071078002453,0.00108040776103735,-0.5,-0.00870468374341726,0.0116457678377628
31,0.00104956491850317,0.00684857508167624,0.00165780342649668,-0.5,-0.00707448646426201,0.0119300000369549
32,0.000877419952303171,0.00536981737241149,0.00123328005429357,-0.5,-0.0056921225041151,0.0111202942207456
33,0.000248912256211042,0.00335540063679218,0.000504449475556612,-0.5,-0.00471604196354747,0.00925591867417097
34,-0.000286153459455818,0.00193667912390083,0.000302236905554309,-0.5,-0.00411515450105071,0.00723579013720155
35,-0.000227405253099278,0.00156309886369854,0.000850017182528973,-0.5,-0.00329850101843476,0.0058831456117332
36,0.000443887547589839,0.00190892675891519,0.00188162154518068,-0.5,-0.00196168106049299,0.00542875658720732
37,0.00125118880532682,0.00237279944121838,0.00296724401414394,-0.5,-0.000815777166280895,0.00563594605773687
38,0.00186435237992555,0.00268778554163873,0.00376739702187479,-0.5,-0.000395686482079327,0.00629573874175549
39,0.00213709753006697,0.00300136883743107,0.00418182834982872,-0.5,-0.000374692695913836,0.00718196434900165
40,0.00203639641404152,0.00329986866563559,0.00445251353085041,-0.5,-0.000214130021049641,0.0077039604075253
41,0.00186835217755288,0.00320386607199907,0.0047484734095633,-0.5,0.000224578892812133,0.00697894115000963
42,0.0017565181478858,0.00246811658143997,0.00472269486635923,-0.5,0.000372519541997463,0.00488322973251343
43,0.00191242049913853,0.00177387346047908,0.00429426226764917,-0.5,-4.44491306552663E-05,0.00276598264463246
44,0.00292592658661306,0.00234087067656219,0.00401524314656854,-0.5,-0.000432612549047917,0.00251999055035412
45,0.00415248516947031,0.00408984953537583,0.00390532147139311,-0.5,-0.000716667156666517,0.00497713545337319
46,0.00477627059444785,0.00576011370867491,0.00395673932507634,-0.5,-0.000581142492592335,0.00912555959075689
47,0.00527462270110846,0.00664805248379707,0.00446733925491571,-0.5,0.000665544765070081,0.0128493644297123
48,0.00551416771486402,0.00644057709723711,0.00452903611585498,-0.5,0.00204131775535643,0.0143740065395832
49,0.00472269440069795,0.00483867013826966,0.00319206551648676,-0.5,0.00214636093005538,0.0130703346803784
50,0.00330470455810428,0.00253178784623742,0.00132429227232933,-0.5,0.00119084923062474,0.00987181626260281
51,0.00193217827472836,0.000407909305067733,-6.6267530201003E-05,-0.5,-0.000212409009691328,0.00618153251707554
52,0.000539818254765123,-0.00163802050519735,-0.00122864567674696,-0.5,-0.0018445699242875,0.00246412376873195
53,-0.000352235278114676,-0.0035015600733459,-0.00209900154732168,-0.5,-0.00282505853101611,-0.000731241656467319
54,0.00010655501682777,-0.00450447434559464,-0.00166506040841341,-0.5,-0.00221863877959549,-0.00243291351944208
55,0.00172540126368403,-0.00440330617129803,0.000317108439048752,-0.5,-0.000421419041231275,-0.00225714175030589
56,0.00377972447313368,-0.00335418898612261,0.0026619138661772,-0.5,0.00150263449177146,-0.000821273715700954
57,0.00612255884334445,-0.00152823911048472,0.0045421258546412,-0.5,0.00338411936536431,0.000772069208323956
58,0.00793571677058935,-0.000241980364080518,0.00548242684453726,-0.5,0.00468300562351942,0.00143521185964346
59,0.00824445858597755,-0.000705329410266131,0.00501991109922528,-0.5,0.00426143733784556,0.000920925929676741
60,0.00813404563814402,-0.00190952105913311,0.00408011395484209,-0.5,0.00301202549599111,0.000127826162497513
61,0.00859955791383982,-0.0028777418192476,0.00360618578270078,-0.5,0.00235391268506646,-0.000407539278967306
62,0.00957258231937885,-0.00329863419756293,0.00362599943764508,-0.5,0.00250808265991509,-0.000206917116884142
63,0.0110984668135643,-0.00273832213133574,0.00421926006674767,-0.5,0.00355161214247346,0.00129900360479951
64,0.0121611142531037,-0.0020507094450295,0.0047398223541677,-0.5,0.0046747219748795,0.00299122580327094
65,0.011510543525219,-0.00240758946165442,0.00431202445179224,-0.5,0.00466554192826152,0.00335231842473149
66,0.00976379401981831,-0.00321770296432078,0.00349526479840279,-0.5,0.00385067402385175,0.00288881594315171
67,0.00837619509547949,-0.00308910454623401,0.00335778319276869,-0.5,0.00341758714057505,0.00300781382247806
68,0.00751863699406385,-0.00198776950128376,0.00390789564698935,-0.5,0.00372543418779969,0.00359042570926249
69,0.00649614864960313,-0.000770073034800589,0.00449794856831431,-0.5,0.00442452169954777,0.0036483583971858
70,0.00535105355083942,0.000532663601916283,0.00469033420085907,-0.5,0.00521992007270455,0.00336220604367554
71,0.00428971089422703,0.00213140132836998,0.00427387049421668,-0.5,0.00572047056630254,0.00355999357998371
72,0.00378198781982064,0.00415075104683638,0.00405976874753833,-0.5,0.00636054016649723,0.00453384267166257
73,0.00483337277546525,0.00665838457643986,0.0051626181229949,-0.5,0.00831448007375002,0.00572220608592033
74,0.00690146768465638,0.00856875162571669,0.00662056636065245,-0.5,0.0110150994732976,0.00589615991339087
75,0.00773061346262693,0.00862130150198936,0.00652115605771542,-0.5,0.0123543906956911,0.00423998339101672
76,0.00600475864484906,0.00695315562188625,0.00438068574294448,-0.5,0.0111623387783766,0.00145427871029824
77,0.00294620334170759,0.00479569565504789,0.0012533845147118,-0.5,0.00835652649402618,-0.000460564915556461
78,0.000989570864476264,0.00373446685262024,-0.00112524593714625,-0.5,0.00603952212259173,-0.000102882178907748
79,0.00117518426850438,0.00434232223778963,-0.00167829124256969,-0.5,0.0054929256439209,0.00159397488459945
80,0.00222721439786255,0.00524935312569141,-0.00132405140902847,-0.5,0.00615537259727716,0.00229084072634578
81,0.00222025043331087,0.00470383698120713,-0.00212818779982626,-0.5,0.00630318652838469,0.000553110439796001
82,0.0008175986004062,0.00287389801815152,-0.00461536273360252,-0.5,0.00476256292313337,-0.00307572400197387
83,-0.000892572512384504,0.00149466656148434,-0.00726035702973604,-0.5,0.00194021768402308,-0.00665907794609666
84,-0.00221940991468728,0.00154311582446098,-0.00864969566464424,-0.5,-0.000748121936339885,-0.00874648056924343
85,-0.00338305928744376,0.00219461182132363,-0.00906849652528763,-0.5,-0.00243757711723447,-0.00978675112128258
86,-0.00428085960447788,0.00247580627910793,-0.00942086894065142,-0.5,-0.00322156143374741,-0.0106197651475668
87,-0.00469717057421803,0.00245238188654184,-0.0101381475105882,-0.5,-0.00379472831264138,-0.0111160790547729
88,-0.00560615165159106,0.00195250974502414,-0.0116600356996059,-0.5,-0.00544266682118177,-0.011659188196063
89,-0.00720129581168294,0.00103154918178916,-0.0134504893794656,-0.5,-0.00799107830971479,-0.0122969960793853
90,-0.0080077676102519,0.00062248605536297,-0.0140123078599572,-0.5,-0.00965670961886644,-0.0118975602090359
91,-0.00756755750626326,0.000768929079640657,-0.0131416162475944,-0.5,-0.00994966831058264,-0.0108229955658317
92,-0.00666719768196344,0.000875491939950734,-0.011773525737226,-0.5,-0.00962035171687603,-0.0104311276227236
93,-0.00572396069765091,0.00103087781462818,-0.0104435971006751,-0.5,-0.00916026160120964,-0.0106509029865265
94,-0.0044944891706109,0.00169251812621951,-0.00911487080156803,-0.5,-0.00846836436539888,-0.0107846669852734
95,-0.00299452338367701,0.00299890269525349,-0.00780210178345442,-0.5,-0.00758233945816755,-0.0107962507754564
96,-0.00219682324677706,0.00411155726760626,-0.00696835899725556,-0.5,-0.00726556684821844,-0.0110886441543698
97,-0.00277568306773901,0.00409165676683187,-0.00696962280198932,-0.5,-0.008016686886549,-0.011889336630702
98,-0.00400408124551177,0.00344224274158478,-0.00757401064038277,-0.5,-0.00948094762861729,-0.0126498490571976
99,-0.00472517078742385,0.00343833863735199,-0.00808974076062441,-0.5,-0.0108056208118796,-0.0125144366174936
100,-0.00478688627481461,0.00431268895044923,-0.00794216152280569,-0.5,-0.0111595783382654,-0.0116716204211116
101,-0.00470666447654366,0.00553297670558095,-0.00692484714090824,-0.5,-0.0100648021325469,-0.0106840217486024
102,-0.00471191294491291,0.00685120327398181,-0.0052086771465838,-0.5,-0.00767082115635276,-0.00973458588123322
103,-0.00480635929852724,0.00766380177810788,-0.00356541504152119,-0.5,-0.00476311100646853,-0.00967823155224323
104,-0.00499396771192551,0.00729406392201781,-0.00283157895319164,-0.5,-0.00242298096418381,-0.0113344769924879
105,-0.00520402006804943,0.00631098914891481,-0.00310675660148263,-0.5,-0.0015235897153616,-0.0137597545981407
106,-0.00526083633303642,0.00569537142291665,-0.00378163275308907,-0.5,-0.00216088746674359,-0.015297363512218
107,-0.00533795915544033,0.00535876769572496,-0.0044421274214983,-0.5,-0.00421257177367806,-0.015741229057312
108,-0.00551562570035458,0.00505742244422436,-0.00510109821334481,-0.5,-0.00712582841515541,-0.0158126056194305
109,-0.00598879670724273,0.00462062377482653,-0.00620517740026116,-0.5,-0.0101065384224057,-0.0161804053932428
110,-0.00717773707583547,0.00374724622815847,-0.00792697537690401,-0.5,-0.0129116578027606,-0.0171964913606644
111,-0.008841622620821,0.00267410208471119,-0.00962105579674244,-0.5,-0.0153620867058635,-0.0182467494159937
112,-0.0108289625495672,0.00151219358667731,-0.0110408822074533,-0.5,-0.0174518246203661,-0.0188602861016989
113,-0.012842046096921,0.000375504809198901,-0.0121319135650992,-0.5,-0.018820021301508,-0.0193480364978313
114,-0.014114785939455,-0.000349715061020106,-0.0126894926652312,-0.5,-0.0188986845314503,-0.019563490524888
115,-0.0139862196519971,-0.000325526081724092,-0.012459434568882,-0.5,-0.0176139995455742,-0.0187945328652859
116,-0.0124807776883245,0.000419893214711919,-0.0113888485357165,-0.5,-0.0153803359717131,-0.0169313345104456
117,-0.0108010778203607,0.000932516995817423,-0.0104918805882335,-0.5,-0.0134607879444957,-0.0150893917307258
118,-0.00945062842220068,0.000770303246099502,-0.0102205779403448,-0.5,-0.0122761251404881,-0.0144233498722315
119,-0.0079009672626853,0.000322425534250215,-0.009790631942451,-0.5,-0.0109486468136311,-0.0151771958917379
120,-0.00609628623351455,-0.000439015246229246,-0.00864315871149302,-0.5,-0.00903626810759306,-0.0166787058115005
121,-0.0039904355071485,-0.00103536597453058,-0.00652771815657616,-0.5,-0.00659730704501271,-0.0172672085464001
122,-0.00202112505212426,-0.00112062052357942,-0.0043558175675571,-0.5,-0.00467099575325847,-0.0164935644716024
123,-0.000822421861812472,-0.0012512777466327,-0.0033683858346194,-0.5,-0.00405924068763852,-0.0155166508629918
124,9.20900274650194E-05,-0.00135962408967316,-0.00299530173651874,-0.5,-0.00360878184437752,-0.0141212539747357
125,0.00107818387914449,-0.00102970143780112,-0.0023137447424233,-0.5,-0.0022599408403039,-0.0115270987153053
126,0.00189849047455937,-0.000532611855305731,-0.00140132138039917,-0.5,-0.000135394715471193,-0.00882180687040091
127,0.00242125522345304,-0.000876348232850432,-0.000720306066796184,-0.5,0.00218911934643984,-0.00810561049729586
128,0.00235460791736841,-0.00271161459386349,-0.000673137721605599,-0.5,0.0038079631049186,-0.0101453699171543
129,0.00192072184290737,-0.00497197778895497,-0.000923160230740905,-0.5,0.00452905194833875,-0.0134509867057204
130,0.00142139953095466,-0.00658831186592579,-0.000971093191765249,-0.5,0.00477551436051726,-0.0163170024752617
131,0.000240690904320218,-0.00796101894229651,-0.00106909265741706,-0.5,0.00469838967546821,-0.0182300303131342
132,-0.00144511950202286,-0.00910904444754124,-0.000891758885700256,-0.5,0.00508735841140151,-0.0185040198266506
133,-0.00307526928372681,-0.00995536893606186,-0.000218025234062225,-0.5,0.0060418788343668,-0.0172324944287539
134,-0.00497626466676593,-0.0112942066043615,-0.000410898763220757,-0.5,0.00606529414653778,-0.0164469014853239
135,-0.0071261958219111,-0.0133674200624228,-0.00262025417760015,-0.5,0.00444512767717242,-0.0178727451711893
136,-0.0085583683103323,-0.015297575853765,-0.00582794332876801,0.053184125572443,0.00237319595180452,-0.0211268533021212
137,-0.00823277793824673,-0.0160315111279488,-0.00776228355243802,0.5,0.00155876658391207,-0.024186884984374
138,-0.00596660887822509,-0.0151181807741523,-0.00727661093696952,0.5,0.00265027862042189,-0.0250100363045931
139,-0.00288771349005401,-0.0131313884630799,-0.00532036600634456,0.5,0.00479508144780993,-0.0231775902211666
140,-0.000608669768553227,-0.011372234672308,-0.00355750531889498,0.5,0.00639794673770666,-0.0198364667594433
141,0.00041641341522336,-0.010665150359273,-0.00257121748290956,0.5,0.0066869743168354,-0.0165295321494341
142,0.000843522197101265,-0.0107984039932489,-0.00189682655036449,0.5,0.00668009044602513,-0.0143520915880799
143,0.0020408749114722,-0.0103574963286519,-0.000174798580701463,0.5,0.00851076282560825,-0.0123886046931148
144,0.00479013659060001,-0.00841083191335201,0.0034854793921113,0.5,0.0125824948772788,-0.00924396608024836
145,0.00787827838212252,-0.00596449756994843,0.00781784206628799,0.5,0.0170225482434034,-0.00563011085614562
146,0.0095883309841156,-0.00427466118708253,0.0109817050397396,0.5,0.0199534017592669,-0.00295581109821796
147,0.00941313523799181,-0.0037561992648989,0.0124163562431932,0.5,0.0206315275281668,-0.00221040705218911
148,0.00784685742110014,-0.00440614810213447,0.0124290315434337,0.193464249372482,0.019579017534852,-0.00425943499431014
149,0.0057363947853446,-0.00572385638952255,0.0115032531321049,0.0309689827263355,0.0179294571280479,-0.00860577449202538
150,0.00410966807976365,-0.00675150798633695,0.0103968428447843,0.104713179171085,0.0167443435639143,-0.0125290425494313
151,0.0037562414072454,-0.00675182091072202,0.00994811579585075,0.259940683841705,0.0165395904332399,-0.0129149742424488
152,0.0047168331220746,-0.00561252096667886,0.0104876440018415,0.28469517827034,0.0171784516423941,-0.00883436109870672
153,0.00610888097435236,-0.00398329738527536,0.0116726364940405,0.112796284258366,0.0181756429374218,-0.00237432797439396
154,0.00642650714144111,-0.00298221921548247,0.0125920856371522,-0.127200186252594,0.0184668377041817,0.00308615737594664
155,0.00500386999920011,-0.00292307371273637,0.0125942565500736,-0.270630657672882,0.0174709521234035,0.00589088862761855
156,0.00274845887906849,-0.0028574678581208,0.0121206529438496,-0.258968621492386,0.0161999706178904,0.00689824717119336
157,0.000607430119998753,-0.00229825126007199,0.0115918116644025,-0.140334978699684,0.0153033556416631,0.00702284695580602
158,-0.0012810438638553,-0.00182680005673319,0.0106580452993512,0.0240883100777864,0.014332102611661,0.00605580629780889
159,-0.00269627501256764,-0.00162349874153733,0.00923506915569305,0.210454910993576,0.0135605968534946,0.00418654549866915
160,-0.00337275792844594,-0.00148816232103854,0.00782306585460901,0.394483029842377,0.0137827936559916,0.00214422005228698
161,-0.00319898873567581,-0.00129907380323857,0.00715176621451974,0.5,0.0151170277968049,0.000226881747948937
162,-0.00248044333420694,-0.00125314015895128,0.0072142812423408,0.5,0.0165389683097601,-0.00184735772199929
163,-0.00195431406609714,-0.00170457572676241,0.00727124651893973,0.5,0.016900360584259,-0.00439113518223166
164,-0.00142195459920913,-0.00199399748817086,0.00727427704259753,0.5,0.0164924059063196,-0.00667994329705834
165,-0.000537842104677111,-0.00155914318747818,0.00726909749209881,0.5,0.0159881878644228,-0.00782275944948196
166,0.000553092046175152,-0.000622728781308979,0.00724581489339471,0.5,0.0159413386136293,-0.00777337606996298
167,0.00179916550405324,0.000681996869388968,0.00763403903692961,0.5,0.0167829487472773,-0.00693278014659882
168,0.00326258479617536,0.0023830602876842,0.00874444283545017,0.5,0.0182688757777214,-0.0056985286064446
169,0.00462143216282129,0.00409895600751042,0.00995890703052282,0.5,0.0194511655718088,-0.0044966135174036
170,0.00481209857389331,0.00455902516841888,0.00989624764770269,0.5,0.0191857162863016,-0.00420170044526458
171,0.00352712394669652,0.00300808157771826,0.00812041107565165,0.490054845809937,0.0173942744731903,-0.00510359602048993
172,0.00146362406667322,0.000350361486198381,0.00537241203710437,0.375733017921448,0.0147409103810787,-0.00624740216881037
173,-0.000586298177950084,-0.00181142275687307,0.00263261771760881,0.476778477430344,0.0118234660476446,-0.00653067324310541
174,-0.00191496207844466,-0.00241075619123876,0.000581655825953931,0.5,0.00908821355551481,-0.00543745420873165
175,-0.0018531457753852,-0.00121343065984547,-0.000230854770052247,0.5,0.00709797721356153,-0.00293712224811316
176,-0.000786099175456911,0.000776536238845438,2.07895718631335E-05,0.5,0.00604226626455784,-0.000407400715630502
177,-0.00043636976624839,0.00194370991084725,1.18367393042718E-06,0.432726681232452,0.00506850657984614,1.116946896218E-05
178,-0.0011375795584172,0.00211161351762712,-0.000764709606301039,0.187980160117149,0.00376596441492438,-0.00163076561875641
179,-0.00199666758999228,0.00169557332992554,-0.00207430776208639,0.11248791962862,0.00225349306128919,-0.00442465022206306
180,-0.00297479331493378,0.000558434170670807,-0.00427973689511418,0.251426607370377,0.000246006151428446,-0.00832712277770042
181,-0.00449392478913069,-0.00113088800571859,-0.00734480749815702,0.5,-0.00230254279449582,-0.0127189885824919
182,-0.00592255312949419,-0.00249127205461264,-0.0100643439218402,0.5,-0.0042837648652494,-0.0159048400819302
183,-0.00535282492637634,-0.00227728765457869,-0.0107533019036055,0.5,-0.00402664626017213,-0.0157768186181784
184,-0.00326807238161564,-0.00103325652889907,-0.0098802587017417,0.5,-0.00251686898991466,-0.0128457294777036
185,-0.00244193733669817,-0.000632008595857769,-0.00932882726192474,0.5,-0.00260744686238468,-0.0102544287219644
186,-0.00316618685610592,-0.00102284015156329,-0.0092791710048914,0.5,-0.00460253888741136,-0.00940756220370531
187,-0.00352130527608097,-0.000631622562650591,-0.00882805045694113,0.5,-0.00649873726069927,-0.00913916248828173
188,-0.00305309379473329,0.000807263655588031,-0.0079258494079113,0.5,-0.00741545064374805,-0.00839504599571228
189,-0.00283783068880439,0.00216285977512598,-0.00709200045093894,0.5,-0.00792085658758879,-0.0076694255694747
190,-0.00261629046872258,0.00321053620427847,-0.00573612749576569,0.5,-0.00751351378858089,-0.00747620454058051
191,-0.00130858540069312,0.00470638321712613,-0.00332042435184121,0.5,-0.00558170909062028,-0.00733810104429722
192,0.000602156738750637,0.00672440556809306,-0.0010189792374149,0.5,-0.00335210072807968,-0.0068779238499701
193,0.0017464947886765,0.00821109116077423,-3.81896279577632E-05,0.5,-0.00219474034383893,-0.00654179183766246
194,0.00151025329250842,0.0079988706856966,-0.000347779918229207,0.4276123046875,-0.00230942969210446,-0.00700818561017513
195,0.000548519659787416,0.00633729575201869,-0.00119221012573689,0.238779753446579,-0.00294774980284274,-0.00782173313200474
196,-4.84641204820946E-05,0.0045246509835124,-0.00202342006377876,0.171064987778664,-0.00329253566451371,-0.00767164118587971
197,1.99711248569656E-05,0.00324030127376318,-0.00274846260435879,0.123349986970425,-0.00307903322391212,-0.00635253032669425
198,0.000370557652786374,0.00242721382528543,-0.00325418682768941,0.0755482465028763,-0.00223646638914943,-0.00485940324142575
199,0.000414819631259888,0.00155747181270272,-0.00353517872281373,0.0618469789624214,-0.00120096176397055,-0.00421144440770149
200,-6.81657256791368E-05,8.46634138724767E-05,-0.00372125185094774,0.105523154139519,-0.000646069005597383,-0.0048898309469223
201,-0.000733148248400539,-0.00182163051795214,-0.00382360187359154,0.232814058661461,-0.000642309838440269,-0.00675978930667043
202,-0.00111388403456658,-0.00349753280170262,-0.00360010447911918,0.482476860284805,-0.000745314522646368,-0.00950898602604866
203,-0.000751060375478119,-0.00432559382170439,-0.00270876381546259,0.5,-0.000428422557888553,-0.0123674245551229
204,0.000140698190080002,-0.00472365878522396,-0.00133759493473917,0.5,0.000279798172414303,-0.0144277112558484
205,0.000632916402537376,-0.0056039672344923,-7.68489044276066E-05,0.5,0.000829230877570808,-0.0155286071822047
206,0.000992318033240736,-0.0061238519847393,0.00125713599845767,0.5,0.00167864665854722,-0.0152364997193217
207,0.00199750647880137,-0.00526062631979585,0.00288862572051585,0.5,0.00352540658786893,-0.0134396757930517
208,0.00323153636418283,-0.00377472979016602,0.00440052943304181,0.5,0.00586875062435865,-0.0113629531115294
209,0.00443585403263569,-0.00247136526741087,0.00609055114910007,0.5,0.00860360357910395,-0.0101719321683049
210,0.00497478153556585,-0.00219205743633211,0.00753004662692547,0.5,0.0110483150929213,-0.0111186606809497
211,0.00461112009361386,-0.00293448637239635,0.00800414010882378,0.5,0.0123539371415973,-0.0140833193436265
212,0.00444292416796088,-0.00323705608025193,0.00836131349205971,0.5,0.0132548436522484,-0.01642313785851
213,0.00441804900765419,-0.00266523170284927,0.00925621390342712,0.5,0.0139971924945712,-0.0160166434943676
214,0.00406928360462189,-0.0017314845463261,0.0107913995161653,0.5,0.0144237373024225,-0.012834177352488
215,0.00347563647665083,-0.000919345940928906,0.0125916879624128,0.5,0.0146539099514484,-0.0084372702986002
216,0.00285759451799095,-0.000421112432377413,0.013936422765255,0.5,0.0147821586579084,-0.00438286643475294
217,0.00260345009155571,-0.000310591596644372,0.0145299425348639,0.5,0.0151021899655461,-0.00149656180292368
218,0.00258797290734947,-0.00100371148437262,0.0144953709095716,0.5,0.0156560931354761,-0.000444651115685701
219,0.00270554795861244,-0.00214278628118336,0.014435694552958,0.5,0.0162965934723616,-0.000718190975021571
220,0.00315297278575599,-0.00270698824897408,0.0148403160274029,0.5,0.0169717445969582,-0.000909093418158591
221,0.00351635063998401,-0.00264903926290572,0.0152806276455522,0.5,0.0172341912984848,-0.000610289804171771
222,0.00354522000998259,-0.00221802433952689,0.0151409590616822,0.5,0.0167017839848995,0.000244474882492796
223,0.00385851552709937,-0.0012335164938122,0.0148155363276601,0.5,0.0159207880496979,0.00179984513670206
224,0.00446621002629399,-0.000102262070868164,0.0146914888173342,0.5,0.0152918333187699,0.00316495285369456
225,0.0040931417606771,0.000173805819940753,0.0139789320528507,0.5,0.0138427503407002,0.00310666067525744
226,0.00232242280617356,-0.000318229373078793,0.0124505748972297,0.5,0.0109515320509672,0.00209526182152331
227,0.000272595905698836,-0.000528594246134162,0.011073799803853,0.5,0.00770143698900938,0.00153988250531256
228,-0.000793506042100489,-3.51749258697964E-05,0.0108737768605351,0.5,0.00560816284269094,0.00197703717276454
229,-7.47182129998691E-05,0.00107357872184366,0.0122163305059075,0.5,0.00530390441417694,0.00362670561298728
230,0.00164625374600291,0.00207404722459614,0.0140447225421667,0.5,0.00586054241284728,0.00555407535284758
231,0.00278014503419399,0.00187588727567345,0.0150666013360024,0.5,0.00612244615331292,0.00562314921990037
232,0.00308069097809494,0.000560875632800162,0.0150878028944135,0.5,0.00621839007362723,0.00334221590310335
233,0.00331034348346293,-0.000742802338209003,0.0146237751469016,0.5,0.00693204067647457,0.000469958991743624
234,0.00361214461736381,-0.00153616699390113,0.0141072031110525,0.5,0.00827030465006828,-0.00170901813544333
235,0.00358978426083922,-0.00171551969833672,0.0136270187795162,0.5,0.00949114188551903,-0.00300392578355968
236,0.00347824231721461,-0.00102218321990222,0.0131475608795881,0.5,0.0104039553552866,-0.00335593009367585
237,0.00362945673987269,0.000104164188087452,0.0124664157629013,0.5,0.011062940582633,-0.00340390275232494
238,0.00410976121202111,0.00110023026354611,0.0117391375824809,0.5,0.0113613000139594,-0.00337718590162694
239,0.00525217968970537,0.00237265625037253,0.0117187919095159,0.5,0.0116355763748288,-0.00213688798248768
240,0.00689936382696033,0.00408648839220405,0.0122362850233912,0.5,0.0119111388921738,0.000528155302163213
241,0.00787957478314638,0.00506087951362133,0.0118881165981293,0.5,0.0111267250031233,0.00279749231413007
242,0.00769355380907655,0.00478940643370152,0.0104581490159035,0.5,0.00895573291927576,0.00337513978593051
243,0.00720930425450206,0.00427795154973865,0.00913887750357389,0.5,0.00693586561828852,0.00289188139140606
244,0.00676886364817619,0.00391195807605982,0.00830705184489489,0.5,0.00617963867262006,0.0019221177790314
245,0.0062041119672358,0.0034542796202004,0.00790167413651943,0.5,0.00642921589314938,0.000487591634737328
246,0.00577397830784321,0.00305542955175042,0.00760797504335642,0.5,0.00675516808405519,-0.00113538978621364
247,0.00521918013691902,0.00246819108724594,0.00621902104467154,0.5,0.00589796807616949,-0.00300794560462236
248,0.00399508839473128,0.00121403753291816,0.00363716715946794,0.5,0.00358757423236966,-0.00480405380949378
249,0.00257928064092994,-0.000252088124398142,0.00152419903315604,0.5,0.00121475628111511,-0.00523338140919805
250,0.0019764075987041,-0.000706948747392744,0.00113783671986312,0.5,0.000337845354806632,-0.00367295346222818
251,0.00184327596798539,6.43702660454437E-05,0.00176057836506516,0.5,0.000602989108301699,-0.00148250942584127
252,0.00103485875297338,0.000929082336369902,0.00188970821909606,0.5,0.000534977822098881,-0.000390105880796909
253,-5.18840643053409E-05,0.00125595310237259,0.00142646976746619,0.5,-7.06021819496527E-05,-0.000373342365492135
254,0.000331736344378442,0.00139120582025498,0.00155871105380356,0.5,7.97061147750355E-05,-0.000841466651763767
255,0.00286643556319177,0.00175888394005597,0.00295036542229354,0.5,0.00179074495099485,-0.00171899260021746
256,0.0062167732976377,0.00224101333878934,0.0047932043671608,0.5,0.0040430286899209,-0.00285978568717837
257,0.00870970450341702,0.00219053565524518,0.00609928974881768,0.5,0.00565743679180741,-0.00420356122776866
258,0.00997025053948164,0.00160305202007294,0.00700647849589586,0.5,0.00686960853636265,-0.00544997537508607
259,0.0104657607153058,0.0012545648496598,0.00779413757845759,0.5,0.00822683703154325,-0.00594057934358716
260,0.00992986466735601,0.000986734637990594,0.00756143033504486,0.5,0.0090230880305171,-0.00584808690473437
261,0.00800243206322193,0.000310286035528407,0.00557367457076907,0.5,0.00821424182504416,-0.00570561457425356
262,0.00574394920840859,-0.000233891085372306,0.00304655637592077,0.5,0.00650528771802783,-0.00563866412267089
263,0.00417466089129448,-0.000307450129184872,0.00140710058622062,0.5,0.00504072988405824,-0.00607336731627584
264,0.00287919212132692,-0.000325568194966763,0.00031433065305464,0.5,0.00324457208625972,-0.00730189960449934
265,0.00123871676623821,-0.000709736545104533,-0.000939204765018076,0.5,0.000517005915753543,-0.00876495614647865
266,-0.000466382974991575,-0.00146303325891495,-0.00199901987798512,0.5,-0.00217809225432575,-0.00960803870111704
267,-0.00134500721469522,-0.00187447061762214,-0.00195284059736878,0.5,-0.00356147880665958,-0.00905411783605814
268,-0.000205325632123277,-0.00115783151704818,0.000317903031827882,0.5,-0.00252086599357426,-0.00669939024373889
269,0.00324472598731518,0.000526277406606823,0.00486999098211527,0.5,0.00107740121893585,-0.00307676615193486
270,0.00719842780381441,0.0022615825291723,0.00977743230760098,0.5,0.00528417387977242,0.000678786425851285
271,0.00957792997360229,0.00301282084546983,0.0130011746659875,0.5,0.00813005864620209,0.00330029777251184
272,0.00994639191776514,0.00226710154674947,0.0137965129688382,0.5,0.0091113643720746,0.00362154794856906
273,0.00910933129489422,0.000603810476604849,0.01274149492383,0.5,0.00849689170718193,0.00145296298433095
274,0.00797756109386683,-0.00136038789059967,0.0105584291741252,0.5,0.00672534015029669,-0.00288179260678589
275,0.00701103173196316,-0.00375707587227225,0.00736212404444814,0.5,0.00422793533653021,-0.00898561254143715
276,0.00624904362484813,-0.00606260495260358,0.00396694708615541,0.5,0.00147938379086554,-0.0142326941713691
277,0.00523308012634516,-0.00745764467865229,0.00152519287075847,0.5,-0.00118332810234278,-0.0154956821352243
278,0.00396416848525405,-0.0084691233932972,0.000511866237502545,0.5,-0.00280320667661726,-0.0137617597356439
279,0.00331815960817039,-0.00958741921931505,0.00113403575960547,0.5,-0.00218294095247984,-0.0116482693701983
280,0.00359675055369735,-0.010037531144917,0.00311877345666289,0.5,0.000164945609867573,-0.00945257488638163
281,0.00436883186921477,-0.00915010366588831,0.00563400611281395,0.5,0.00268685538321733,-0.00675941677764058
282,0.00498378789052367,-0.00774297351017594,0.00753174861893058,0.5,0.00436057383194566,-0.00442462880164385
283,0.00460933893918991,-0.00762270763516426,0.00797229632735252,0.5,0.00487760826945305,-0.00420998828485608
284,0.00364863313734531,-0.00893721450120211,0.00779335014522076,0.5,0.00490961456671357,-0.00627245241776109
285,0.00333236320875585,-0.00997716281563044,0.00811353698372841,0.5,0.00501123443245888,-0.00855327025055885
286,0.00355714070610702,-0.0100814094766974,0.00822854228317738,0.5,0.00485685234889388,-0.0099994232878089
287,0.00346713094040751,-0.0102336863055825,0.00707651022821665,0.5,0.00451092561706901,-0.0115935886278749
288,0.00314307119697332,-0.0108904233202338,0.00518882554024458,0.5,0.00426930375397205,-0.0137415174394846
289,0.00350964302197099,-0.0112200044095516,0.00442484812811017,0.5,0.00436271075159311,-0.0154531840234995
290,0.00469641387462616,-0.0109126660972834,0.00555855128914118,0.5,0.00475458102300763,-0.0165185090154409
291,0.00584692135453224,-0.0106294546276331,0.00743862008675933,0.181523203849792,0.00493582943454385,-0.0178926568478346
292,0.00632633501663804,-0.0108684580773115,0.00892682839184999,-0.330206692218781,0.00483152642846107,-0.0196646023541689
293,0.0058579919859767,-0.0113998912274837,0.00952247343957424,-0.5,0.00450746668502688,-0.0205557253211737
294,0.00469846930354834,-0.0115035530179739,0.00923928897827864,-0.5,0.00402074865996838,-0.0197697207331657
295,0.00358919380232692,-0.0108692878857255,0.00877629965543747,-0.5,0.0038512262981385,-0.0176731217652559
296,0.00272446451708674,-0.0100396517664194,0.00869309343397617,-0.5,0.00415444886311889,-0.0147921433672309
297,0.00214675115421414,-0.0091404402628541,0.00908261258155108,-0.5,0.00475244969129562,-0.011260325089097
298,0.00224184081889689,-0.00707963202148676,0.00989852100610733,-0.5,0.00555860856547952,-0.00676791882142425
299,0.00323460670188069,-0.00326914782635868,0.0114072067663074,-0.5,0.00681198108941317,-0.00115518516395241
300,0.00504184095188975,0.00100963632576168,0.0139991277828813,-0.5,0.00883631315082312,0.00460249790921807
301,0.00637060357257724,0.00326598528772593,0.0162961389869452,-0.5,0.0102195302024484,0.00826928857713938
302,0.00560353510081768,0.0023181838914752,0.0163664743304253,-0.5,0.00897444412112236,0.00837513897567987
303,0.00328271021135151,-0.000141754979267716,0.014773566275835,-0.5,0.00581442285329103,0.00631008949130774
304,0.000970133114606142,-0.00214589852839708,0.0129815200343728,-0.5,0.00288717728108168,0.00406791595742106
305,-0.000567717826925218,-0.00338282738812268,0.0115358261391521,-0.5,0.00138679973315448,0.00186500267591327
306,-0.00139179301913828,-0.00442255800589919,0.0103670274838805,-0.5,0.00105479138437659,-0.00069140293635428
307,-0.00269493414089084,-0.00642192829400301,0.00851261802017689,-0.5,6.05138229730073E-05,-0.00419321749359369
308,-0.00536061264574528,-0.00974363926798105,0.00548826716840267,-0.5,-0.00262090866453946,-0.00875984225422144
309,-0.00796930957585573,-0.0126889981329441,0.0027238829061389,-0.5,-0.0053889979608357,-0.012860250659287
310,-0.00864425022155046,-0.0136562250554562,0.00148621900007129,-0.5,-0.00658679567277431,-0.0150034409016371
311,-0.00763669004663825,-0.0129530131816864,0.00135925901122391,-0.5,-0.00632387399673462,-0.0151548702269793
312,-0.00607647513970733,-0.0115945758298039,0.00169872667174786,-0.5,-0.00522820837795734,-0.0135460700839758
313,-0.0049580279737711,-0.0108096338808537,0.00200751191005111,-0.275548249483109,-0.00417881784960628,-0.0110286250710487
314,-0.00479385070502758,-0.0113397622480989,0.00206318567506969,0.481655418872833,-0.00384578993543983,-0.00943315494805574
315,-0.00520936539396644,-0.012540171854198,0.00207431660965085,0.5,-0.00403203489258885,-0.00932353176176548
316,-0.00569941662251949,-0.0134074240922928,0.00211987132206559,0.5,-0.00414562597870827,-0.00926049053668976
317,-0.00527178589254618,-0.0129904607310891,0.00270553468726575,0.5,-0.00330266077071428,-0.00769422529265285
318,-0.00358871766366065,-0.0111979050561786,0.00377059308812022,0.5,-0.00174259417690337,-0.00488189607858658
319,-0.00211547128856182,-0.00928637944161892,0.0039678355678916,0.5,-0.00122798525262624,-0.0023431156296283
320,-0.00193741917610168,-0.00797292031347752,0.00283406465314329,0.5,-0.00256804586388171,-0.000562004977837205
321,-0.00249487860128284,-0.00665790122002363,0.00159040070138872,0.5,-0.00469795148819685,0.00129795540124178
322,-0.0032076898496598,-0.00508797541260719,0.000990960979834199,0.5,-0.00657072616741061,0.00331349670886993
323,-0.0041579813696444,-0.00390754779800773,0.000564319430850446,0.5,-0.00789347290992737,0.00442522624507546
324,-0.00521093094721437,-0.00344818574376404,0.000134324916871265,0.5,-0.00865581259131432,0.00411720341071486
325,-0.00616030395030975,-0.00331546692177653,-0.000376251700799912,0.5,-0.00962215382605791,0.00303094554692507
326,-0.0071949977427721,-0.00305509963072836,-0.00160218018572778,0.5,-0.0117102209478617,0.00189571303781122
327,-0.00882511306554079,-0.00299548241309822,-0.00417973008006811,0.5,-0.0152359353378415,0.0005926140001975
328,-0.0102924006059766,-0.0030503838788718,-0.0070907580666244,0.5,-0.0186997037380934,-0.000383449718356133
329,-0.00990221742540598,-0.00218093069270253,-0.00801785755902529,0.5,-0.019329484552145,0.000204567186301574
330,-0.00817552395164967,-0.000659323937725276,-0.00709715718403459,0.5,-0.0174402687698603,0.00191155320499092
331,-0.00666568987071514,0.000560586166102439,-0.0061495122499764,0.5,-0.0154740950092673,0.00353497662581503
332,-0.00545944459736347,0.00139990460593253,-0.00566123984754086,0.5,-0.0142332771793008,0.00454082759097219
333,-0.00437427964061499,0.00174056296236813,-0.00572812091559172,0.5,-0.0138733480125666,0.00419659167528152
334,-0.00395145872607827,0.00128408055752516,-0.00659892661496997,0.5,-0.0147273615002632,0.00244974042288959
335,-0.00462772930040956,0.000238169173826464,-0.00801291409879923,0.5,-0.0165863670408726,0.000769160513300449
336,-0.00614601839333773,-0.000797645072452724,-0.00955722201615572,0.5,-0.018941355869174,0.000259299209574237
337,-0.00760585069656372,-0.0011418143985793,-0.0109020872041583,0.5,-0.0211618430912495,0.000716338458005339
338,-0.00828508846461773,-0.00048358307685703,-0.0121292779222131,0.5,-0.0227431654930115,0.00148951075971127
339,-0.00833022687584162,0.000958951422944665,-0.0135770868510008,0.5,-0.0236706826835871,0.00188393646385521
340,-0.0078842407092452,0.00302777369506657,-0.0144987208768725,0.5,-0.0238233786076307,0.00178639544174075
341,-0.0069365119561553,0.00518981879577041,-0.0136479400098324,0.5,-0.022855669260025,0.00134815799538046
342,-0.00629626074805856,0.00623725494369864,-0.0113210063427687,0.5,-0.0213510822504759,0.000215751555515453
343,-0.0066921366378665,0.00583382742479444,-0.00889738835394382,0.5,-0.0204956606030464,-0.00150507700163871
344,-0.00781599991023541,0.00464570196345448,-0.00736494641751051,0.5,-0.0206852909177542,-0.00325944786891341
345,-0.00962788518518209,0.00273094489239156,-0.00735810305923224,0.5,-0.0217650067061186,-0.00493149086833
346,-0.0121919298544526,-2.99094317597337E-05,-0.00889652594923973,0.5,-0.0232552085071802,-0.00595246721059084
347,-0.014153434894979,-0.00262817880138755,-0.0106499921530485,0.5,-0.0237956065684557,-0.00535814184695482
348,-0.0141367288306355,-0.004045270383358,-0.0111907860264182,0.5,-0.0223158206790686,-0.00337634095922112
349,-0.0124867800623178,-0.00419122213497758,-0.0105152949690819,0.5,-0.0193952899426222,-0.000614229531493038
350,-0.0101253194734454,-0.00325658405199647,-0.00920565146952868,0.5,-0.0162019897252321,0.00291089108213782
351,-0.00753555353730917,-0.00174877641256899,-0.00746670505031943,0.5,-0.0134581895545125,0.00668334728106856
352,-0.00485547306016088,-0.000269143434707075,-0.00550175458192825,0.5,-0.0114234443753958,0.00934011023491621
353,-0.00228693918325007,0.000721625634469092,-0.00382595299743116,0.5,-0.0099889924749732,0.00921861547976732
354,-0.000400355726014823,0.00100099632982165,-0.00268481322564185,0.5,-0.0087411105632782,0.00616219639778137
355,0.000434322690125555,0.000851693912409246,-0.00208507268689573,0.5,-0.00744779082015157,0.00221136771142483
356,0.000795417057815939,0.000909813737962395,-0.0017995797097683,0.5,-0.00607111817225814,-0.000551821838598698
357,0.00147998984903097,0.00162231386639178,-0.00103704968933016,0.5,-0.00439884746447206,-0.00142278079874814
358,0.00269351410679519,0.00294807110913098,0.000687523162923753,0.5,-0.00248726666904986,-0.000489912345074117
359,0.00409572711214423,0.00432267785072327,0.00278818514198065,0.5,-0.000975161150563508,0.00162148708477616
360,0.00509115401655436,0.00517461635172367,0.00457600923255086,0.5,-0.000277789717074484,0.00393270934000611
361,0.00572472997009754,0.0057063358835876,0.00621706945821643,0.5,0.000256237661233172,0.00602892367169261
362,0.00640023872256279,0.0062015512958169,0.00773783959448338,0.5,0.00106974400114268,0.0075838090851903
363,0.00709534576162696,0.00648562330752611,0.00868822261691093,0.5,0.00170108256861568,0.00804863404482603
364,0.00740361725911498,0.0062255160883069,0.00890871323645115,0.5,0.00175821175798774,0.0071014603599906
365,0.00718399230390787,0.00533993355929852,0.00829856842756271,0.5,0.00131441710982472,0.00455169845372438
366,0.00639783404767513,0.00380217283964157,0.00607353076338768,0.5,0.000231908430578187,0.000418648909544572
367,0.00488669145852327,0.00160566321574152,0.00200812495313585,0.5,-0.00181651918683201,-0.00419141910970211
368,0.00381471635773778,4.05236896767747E-05,-0.00170158769469708,0.5,-0.00367744476534426,-0.00672433385625482
369,0.00419390015304089,0.000229082957957871,-0.00298043061047792,0.5,-0.00404645269736648,-0.0059272600337863
370,0.00491795083507895,0.00130957504734397,-0.00248846434988081,0.5,-0.00364175834693015,-0.00328913889825344
371,0.00474279560148716,0.00218754983507097,-0.00171086227055639,0.5,-0.0035739466547966,-0.000674765731673688
372,0.00330446753650904,0.00224989792332053,-0.00164803676307201,0.457060068845749,-0.00417997082695365,0.000565760768949986
373,0.00112937414087355,0.00144316034857184,-0.002479751361534,0.399928241968155,-0.00503233354538679,-8.28236225061119E-05
374,-0.000606557412538677,0.000574506353586912,-0.00310213631018996,0.36708265542984,-0.00521068787202239,-0.00169710395857692
375,-0.00136135402135551,0.000235983985476196,-0.00252935593016446,0.263555765151978,-0.00434016110375524,-0.00324467476457357
376,-0.00104674068279564,0.000366344902431592,-0.000830961391329765,0.0882338657975197,-0.00267711188644171,-0.00442421436309814
377,7.62723211664706E-05,0.000520818051882088,0.00103143416345119,-0.142453908920288,-0.00107213540468365,-0.00562665425240994
378,0.00142697175033391,0.000366856867913157,0.0020425848197192,-0.461902618408203,-0.000166811732924543,-0.00747221522033215
379,0.00275193946436048,-0.000114987371489406,0.00205580866895616,-0.5,0.000458059279480949,-0.00978783052414656
380,0.00354121043346822,-0.00104363693390042,0.0012918176362291,-0.5,0.00101099477615207,-0.0119070010259748
381,0.00285983458161354,-0.00260669738054276,-0.000210389349376783,-0.5,0.000788907869718969,-0.0136657143011689
382,0.000750714389141649,-0.00444651022553444,-0.00214356323704124,-0.5,-0.000540233624633402,-0.0149144819006324
383,-0.00176733161788434,-0.00589030561968684,-0.00404190318658948,-0.5,-0.00255283480510116,-0.0152852674946189
384,-0.00398920942097902,-0.00669723143801093,-0.00593254854902625,-0.452158540487289,-0.00479648075997829,-0.0148134622722864
385,-0.00516197923570871,-0.00662785675376654,-0.00752177648246288,0.0714203789830208,-0.00650057988241315,-0.0136725278571248
386,-0.00478134863078594,-0.00556150311604142,-0.00816665962338448,0.36861652135849,-0.0069620362482965,-0.0122186420485377
387,-0.00327355298213661,-0.00369449518620968,-0.00781163107603788,0.38775309920311,-0.00621043145656586,-0.0106273042038083
388,-0.00129342009313405,-0.00112536735832691,-0.00667675863951445,0.198397576808929,-0.00439574988558888,-0.00889867637306452
389,0.00063613970996812,0.00161522661801428,-0.00493934098631144,-0.0510756820440292,-0.00178633187897503,-0.00783232785761356
390,0.00217175506986678,0.00357160693965852,-0.00291531626135111,-0.20422799885273,0.000864309375174344,-0.00826735701411963
391,0.00292107765562832,0.00409621698781848,-0.0011996969114989,-0.151540845632553,0.0028306741733104,-0.0100420098751783
392,0.00244511966593564,0.0031282976269722,-0.000146319536725059,0.176648318767548,0.00395201332867146,-0.0117285456508398
393,0.00112877646461129,0.00160033232532442,0.000613483774941415,0.5,0.00458613410592079,-0.0115265343338251
394,0.00010788696090458,0.000783510855399072,0.00130867992993444,0.5,0.00515909539535642,-0.00962329935282469
395,0.000503879971802235,0.00132593035232276,0.00216940976679325,0.5,0.00627572135999799,-0.00734231015667319
396,0.00192895333748311,0.00265624211169779,0.00300517282448709,0.5,0.0073973136022687,-0.00532035995274782
397,0.00240917271003127,0.00323140318505466,0.00251245894469321,0.5,0.0066136228851974,-0.00397344306111336
398,0.00210945797152817,0.00307352724485099,0.00137765926774591,0.5,0.00481446832418442,-0.00247987639158964
399,0.00273143965750933,0.0033251594286412,0.00148030614946038,0.5,0.00450605619698763,0.000293337681796402
400,0.00455110892653465,0.00448184134438634,0.00267272023484111,0.5,0.00576992752030492,0.00423057517036796
401,0.00677691400051117,0.00632695900276303,0.00376134365797043,0.5,0.00734604569151998,0.00839320104569197
402,0.00781151419505477,0.00749459816142917,0.00346863293088973,0.5,0.0078911641612649,0.0105252340435982
403,0.00749863684177399,0.00755542144179344,0.00202631554566324,0.5,0.00757951149716973,0.0095374034717679
404,0.00717269163578749,0.00712713692337275,0.000742168631404638,0.5,0.00764731038361788,0.00685025006532669
405,0.00711336545646191,0.00613151211291552,-3.03881952277152E-05,0.5,0.00833836663514376,0.00390081666409969
406,0.00748898135498166,0.0052874512039125,3.41197519446723E-05,0.351176559925079,0.00969697535037994,0.00192280998453498
407,0.0081046475097537,0.00499014323577285,0.000514939601998776,0.107021659612656,0.0110349003225565,0.00099094572942704
408,0.00767451524734497,0.00400035735219717,5.66120179428253E-05,-0.134018003940582,0.0111220208927989,-0.000720870099030435
409,0.0061814826913178,0.00236716819927096,-0.00107330793980509,-0.340413331985474,0.0102658653631806,-0.00354756484739482
410,0.00472381198778749,0.00119241781067103,-0.00194723228923976,-0.463153809309006,0.00925520341843367,-0.00596953881904483
411,0.00327828759327531,0.000121606695756782,-0.00279286503791809,-0.448979258537292,0.00797010958194733,-0.00765872793272138
412,0.00174240802880377,-0.00130787212401628,-0.00345833320170641,-0.272222191095352,0.00652941642329097,-0.0087876794859767
413,0.000942553509958088,-0.00253774039447308,-0.00320584909059107,0.00396892055869102,0.00557498773559928,-0.00889226701110601
414,0.00122056214604527,-0.00356848398223519,-0.00228484417311847,0.249422356486321,0.0053472900763154,-0.00835959613323212
415,0.0020261665340513,-0.00486793136224151,-0.00175548554398119,0.405685693025589,0.00545762851834297,-0.00818678736686707
416,0.00265113171190023,-0.00634264433756471,-0.00249151047319174,0.5,0.00498982006683946,-0.00852189213037491
417,0.00296339788474143,-0.0074020940810442,-0.00401072623208165,0.5,0.0037437523715198,-0.00855979509651661
418,0.00371451210230589,-0.00715587334707379,-0.00457018706947565,0.5,0.00293463538400829,-0.00760792940855026
419,0.00542385410517454,-0.00548456842079759,-0.00341853615827858,0.5,0.00343343359418213,-0.00633308244869113
420,0.00713087199255824,-0.00375236733816564,-0.00166958663612604,0.5,0.004634496755898,-0.00601376313716173
421,0.00750915892422199,-0.00341079593636096,-0.000605021836236119,0.5,0.00536959758028388,-0.00696564372628927
422,0.00693307770416141,-0.00434134854003787,7.01475291862153E-05,0.5,0.00556152733042836,-0.00830808468163013
423,0.00692826602607965,-0.00542612699791789,0.00134215271100402,0.5,0.00624979985877872,-0.00883721094578505
424,0.00796828512102365,-0.00609697494655848,0.00292506720870733,0.5,0.00764475297182798,-0.00827076565474272
425,0.00941086746752262,-0.00645565940067172,0.00408390769734979,0.5,0.009221944026649,-0.00737889017909765
426,0.0107352025806904,-0.00672153057530522,0.00490390788763762,0.5,0.0109236054122448,-0.00686943670734763
427,0.0115521149709821,-0.00684279156848788,0.00562984449788928,0.5,0.0123990559950471,-0.00662818644195795
428,0.0115590905770659,-0.00640272675082088,0.00616471469402313,0.5,0.0129185551777482,-0.00596702937036753
429,0.010857155546546,-0.00541812740266323,0.00610734755173326,0.5,0.0123056247830391,-0.0047031189315021
430,0.00958227552473545,-0.0048036016523838,0.0049624415114522,0.5,0.01070811226964,-0.00400382187217474
431,0.00760345859453082,-0.0053753643296659,0.0026260232552886,0.35004061460495,0.0080888457596302,-0.00505262659862638
432,0.00544537790119648,-0.00658315699547529,0.000207586650503799,0.0210221726447344,0.00520086102187634,-0.00685537559911609
433,0.00408208416774869,-0.00727116828784347,-0.000832792604342103,-0.281943261623383,0.00332903582602739,-0.00744260335341096
434,0.0038128299638629,-0.00689564505591989,-0.000593977805692703,-0.5,0.00257647782564163,-0.0064350813627243
435,0.00445678411051631,-0.00568361254408956,-0.000234610051847994,-0.5,0.00238551385700703,-0.00541664427146316
436,0.00547837978228927,-0.00467482535168529,-0.000503617397043854,-0.5,0.00249130139127374,-0.00614962261170149
437,0.00589849567040801,-0.00478233536705375,-0.00160192453768104,-0.5,0.00242451904341578,-0.0083435932174325
438,0.00508800148963928,-0.00582689046859741,-0.00317472196184099,-0.5,0.00178882735781372,-0.0102096991613507
439,0.00367789319716394,-0.00663063023239374,-0.00403707148507237,-0.5,0.00109989976044744,-0.0100517785176635
440,0.00274664396420121,-0.00612455140799284,-0.00307080522179604,-0.5,0.00106769427657127,-0.00731512252241373
441,0.00208849576301873,-0.00489977281540632,-0.000835722719784826,-0.5,0.00137684552464634,-0.00332573335617781
442,0.00062184315174818,-0.00454189674928784,0.000769469188526273,-0.5,0.000961057317908853,-0.000143005163408816
443,-0.00124872731976211,-0.00497027253732085,0.00102807010989636,-0.5,-0.000188339094165713,0.00152052729390562
444,-0.00235034013167024,-0.00521411886438727,0.000443922006525099,-0.5,-0.00126972119323909,0.00169063464272767
445,-0.00261690584011376,-0.00542661314830184,-0.000553058926016092,-0.5,-0.00205123005434871,0.0001280709693674
446,-0.00207713386043906,-0.00564844440668821,-0.00112823746167123,-0.5,-0.00220864126458764,-0.0024396893568337
447,-0.000842845998704433,-0.00581541145220399,-0.000778060755692422,-0.5,-0.00153260538354516,-0.00503966631367803
448,0.000835801707580686,-0.0061882920563221,0.000380522396881133,-0.5,0.00026886077830568,-0.007201480679214
449,0.00326486560516059,-0.00631413795053959,0.00268780998885632,-0.5,0.00396737642586231,-0.00835051108151674
450,0.00555856665596366,-0.00621964875608683,0.00540527747943997,-0.5,0.00834906939417124,-0.00874556042253971
451,0.00662422413006425,-0.00600753491744399,0.00724889757111669,-0.5,0.0115416757762432,-0.00824519991874695
452,0.0071147084236145,-0.00516606587916613,0.00853658374398947,-0.5,0.0136542795225978,-0.00602842960506678
453,0.00711539946496487,-0.00457010325044394,0.00923909433186054,-0.5,0.0145394150167704,-0.0030748441349715
454,0.00596683286130428,-0.00519519252702594,0.00866643059998751,-0.5,0.0135883865877986,-0.0010817889124155
455,0.00365833635441959,-0.00683949934318662,0.00703822402283549,-0.5,0.0109998630359769,-0.00127753557171673
456,0.000709353596903384,-0.00903704948723316,0.00503223622217774,-0.5,0.00737613253295422,-0.00425002025440335
457,-0.00162831018678844,-0.0108524225652218,0.00322790583595634,-0.5,0.00385709758847952,-0.00887791346758604
458,-0.00208901637233794,-0.0109902042895556,0.00199497165158391,-0.5,0.00165096705313772,-0.0127469273284078
459,-0.00116647477261722,-0.00915283802896738,0.000973089074250311,-0.5,0.000619869388174266,-0.0140756284818053
460,-0.00041101235547103,-0.00625037727877498,-0.000415263144532219,-0.5,-0.000139977011713199,-0.0126689542084932
461,-0.000478175934404135,-0.00345115317031741,-0.00190163869410753,-0.5,-0.000787433295045048,-0.00965670123696327
462,-0.00122263038065284,-0.00175059749744833,-0.00255996128544211,-0.5,-0.000915027805604041,-0.00677100522443652
463,-0.00210524536669254,-0.00107733823824674,-0.00166212290059775,-0.5,-0.000146826685522683,-0.00467880023643374
464,-0.00262958463281393,-0.000533242768142372,5.10865647811443E-05,-0.5,0.00111987721174955,-0.00296879024244845
465,-0.00240262248553336,0.000471237843157724,0.00153575104195625,-0.5,0.00244552013464272,-0.0013417947338894
466,-0.00144369469489902,0.00144853175152093,0.00299457809887826,-0.5,0.00393130071461201,-0.000165932011441328
467,-0.000765986798796803,0.00108428089879453,0.0043435487896204,-0.5,0.00500249397009611,-0.000218358996789902
468,-0.00101971230469644,-0.000993645400740206,0.00493188388645649,-0.5,0.00501700257882476,-0.00169099075719714
469,-0.0015651376452297,-0.00365936593152583,0.0048032090999186,-0.5,0.00439334893599153,-0.0038531725294888
470,-0.00126008503139019,-0.00524451164528728,0.00502821197733283,-0.5,0.00454086158424616,-0.00540570355951786
471,-7.33971100999042E-05,-0.00525169540196657,0.00612250342965126,-0.5,0.00580242788419127,-0.00597205106168985
472,0.000638989557046443,-0.00470468774437904,0.00694103445857763,-0.5,0.00654271617531776,-0.00649154558777809
473,-9.81291232164949E-05,-0.00453502219170332,0.006400465965271,-0.5,0.00596609152853489,-0.00758153852075338
474,-0.00223642564378679,-0.00514991441741586,0.00441670743748546,-0.5,0.00460806582123041,-0.00907985959202051
475,-0.00483669107779861,-0.00653639622032642,0.00171861972194165,-0.5,0.00307807303033769,-0.0103634288534522
476,-0.00678191939368844,-0.00828047096729279,-0.00070542620960623,-0.5,0.00176522717811167,-0.0109523758292198
477,-0.00763760646805167,-0.00979849044233561,-0.00213234731927514,-0.5,0.000871660420671105,-0.0108363917097449
478,-0.00767650455236435,-0.0107400910928845,-0.00236056675203145,-0.5,0.00041630951454863,-0.0101889064535499
479,-0.00754328304901719,-0.0110474387183785,-0.00201409729197621,-0.5,-0.000143034703796729,-0.00914004351943731
480,-0.00713375909253955,-0.0101506914943457,-0.00150242715608329,-0.5,-0.000924648251384497,-0.00733473291620612
481,-0.0063717276789248,-0.00827881973236799,-0.00126874633133411,-0.5,-0.00200960226356983,-0.00520985806360841
482,-0.0059931562282145,-0.00676961895078421,-0.00194543472025543,-0.5,-0.00353600969538093,-0.0040353792719543
483,-0.00626552570611238,-0.00609100284054875,-0.00322794844396412,-0.5,-0.00473415059968829,-0.00404796050861478
484,-0.00678475620225072,-0.00607769470661879,-0.00425178464502096,-0.5,-0.00541446497663856,-0.00483377743512392
485,-0.00710538867861032,-0.00646388251334429,-0.00423194421455264,-0.5,-0.00593535276129842,-0.00594009691849351
486,-0.007231580093503,-0.00710228784009814,-0.0031916294246912,-0.5,-0.00626753689721227,-0.00736799696460366
487,-0.00738330790773034,-0.00819940585643053,-0.00182522367686033,-0.5,-0.00620690966024995,-0.00977078266441822
488,-0.00775507465004921,-0.00968933664262295,-0.000608219241257757,-0.5,-0.00548973400145769,-0.0129867475479841
489,-0.00822732597589493,-0.0105333980172873,0.000543439004104584,-0.291619837284088,-0.00410567037761211,-0.015373719856143
490,-0.00821747165173292,-0.00945991929620504,0.00174367323052138,0.0555964708328247,-0.00258572981692851,-0.0151641331613064
491,-0.00744469882920384,-0.00649037957191467,0.00241390615701675,0.317661374807358,-0.00154383946210146,-0.0118774883449078
492,-0.00629083625972271,-0.00286708842031658,0.00192007585428655,0.4082270860672,-0.00116544542834163,-0.00711224135011435
493,-0.00553986337035894,-0.000217623863136396,0.000368703214917332,0.340754806995392,-0.00141598994378001,-0.00371207226999104
494,-0.0053483908995986,0.000846910406835377,-0.00128025677986443,0.223639473319054,-0.00186659197788686,-0.00266925361938775
495,-0.00534703535959125,0.000915912794880569,-0.00238300557248294,0.173446625471115,-0.00235617766156793,-0.00286045484244823
496,-0.00540397968143225,0.000543417234439403,-0.00323541020043194,0.246168658137321,-0.00331786321476102,-0.00348670943640172
497,-0.00535827735438943,2.94233159365831E-05,-0.00423266319558024,0.419953405857086,-0.0047728163190186,-0.0044251075014472
498,-0.00507484655827284,-0.000458101829281077,-0.00565948104485869,0.5,-0.00660807872191072,-0.00528305396437645
499,-0.00473167607560754,-0.000955964555032551,-0.007563934661448,0.5,-0.00890287384390831,-0.00569347804412246
500,-0.00472829956561327,-0.00179110979661345,-0.00949393957853317,0.5,-0.011429007165134,-0.00597228575497866
501,-0.0050812279805541,-0.00300286058336496,-0.0105854589492083,0.5,-0.0135970879346132,-0.00637370347976685
502,-0.00538141513243318,-0.00406521931290627,-0.00992278940975666,0.5,-0.0147570380941033,-0.00644774921238422
503,-0.00541567476466298,-0.00448179338127375,-0.0074453498236835,0.5,-0.0147454608231783,-0.00539886392652988
504,-0.00531250890344381,-0.00421735178679228,-0.00434570340439677,0.374615758657455,-0.0140657294541597,-0.00307109975256026
505,-0.00484835496172309,-0.00336111709475517,-0.0016178380465135,0.015766330063343,-0.0127992741763592,0.00021672023285646
506,-0.00379250408150256,-0.00203424575738609,0.000685756676830351,-0.463183909654617,-0.0107685653492808,0.00426736054942012
507,-0.00314984447322786,-0.00109755608718842,0.00216345535591245,-0.5,-0.00889302138239145,0.00797914527356625
508,-0.00408709887415171,-0.00137914007063955,0.00197677174583077,-0.5,-0.00828604307025671,0.0100022396072745
509,-0.00554281007498503,-0.00199517630971968,0.000722971104551107,-0.5,-0.0084106307476759,0.0110667236149311
510,-0.00566103076562285,-0.00167093321215361,-0.000121400058560539,-0.5,-0.00815086904913187,0.0125766610726714
511,-0.00472720758989453,-0.000818481203168631,-0.000380724406568334,-0.5,-0.00784844066947699,0.0140217207372189
512,-0.00401231413707137,-0.00029752915725112,-0.000667518645059317,-0.5,-0.00837877113372087,0.0143616665154696
513,-0.00398144405335188,4.1152503399644E-05,-0.0011124120792374,-0.5,-0.00967342313379049,0.0138610173016787
514,-0.00459737470373511,0.000392855348763987,-0.00163369812071323,-0.5,-0.011157694272697,0.0130162080749869
515,-0.00574636226519942,0.000258454791037366,-0.00258803158067167,-0.5,-0.0128359906375408,0.0115021942183375
516,-0.00701290322467685,-0.000439766066847369,-0.00425956724211574,-0.5,-0.0149136856198311,0.00933659449219704
517,-0.0080015491694212,-0.00112854968756437,-0.00631285691633821,-0.5,-0.0167914740741253,0.00699132261797786
518,-0.00856615975499153,-0.00108124536927789,-0.00792339257895947,-0.5,-0.0174435712397099,0.00498788757249713
519,-0.00901578180491924,-0.000344516796758398,-0.00885919574648142,-0.5,-0.0170494168996811,0.00348128727637231
520,-0.00988546665757895,0.000102515157777816,-0.00987845007330179,-0.5,-0.0167985185980797,0.00164879718795419
521,-0.0108645390719175,0.000275079510174692,-0.0110537931323051,-0.5,-0.0169115737080574,7.89499827078544E-05
522,-0.0110299605876207,0.000948416476603597,-0.0112908948212862,-0.5,-0.0167122501879931,0.000666433479636908
523,-0.00966572947800159,0.0021051624789834,-0.00977236870676279,-0.5,-0.0156531799584627,0.00290289218537509
524,-0.00724374921992421,0.00309556606225669,-0.00722747575491667,-0.5,-0.0140472603961825,0.00448478246107697
525,-0.00516206072643399,0.00351442000828683,-0.00539116840809584,-0.5,-0.0129470601677895,0.00429741851985455
526,-0.00417608628049493,0.00329952337779105,-0.00519913854077458,-0.5,-0.0127674601972103,0.00267683016136289
527,-0.00402378104627132,0.0025058554019779,-0.0061106258071959,-0.5,-0.0130359958857298,0.000433570705354214
528,-0.00394902005791664,0.00177224318031222,-0.00722719542682171,-0.5,-0.0133597375825047,-0.00151431525591761
529,-0.00326980068348348,0.00187208608258516,-0.00806445628404617,-0.5,-0.0133225377649069,-0.00251625711098313
530,-0.00223265122622252,0.00265552336350083,-0.0084916977211833,-0.5,-0.0128269474953413,-0.00243848166428506
531,-0.00140890874899924,0.00417105341330171,-0.00827294867485762,-0.5,-0.0121743772178888,-0.000764277647249401
532,-0.000743079872336239,0.00667811837047338,-0.00725055858492851,-0.5,-0.0112204812467098,0.00252858526073396
533,-0.000972232723142952,0.00843136850744486,-0.00632450636476278,-0.5,-0.0105260824784637,0.00510452268645167
534,-0.00252085272222757,0.00803051237016916,-0.00581313436850905,-0.5,-0.0108143659308553,0.00530404737219214
535,-0.00378808635286987,0.00710663897916675,-0.00470901699736714,-0.5,-0.011405129916966,0.0046198763884604
536,-0.00378388701938093,0.00716333743184805,-0.00315834092907608,-0.5,-0.0115149943158031,0.00464425794780254
537,-0.00303036370314658,0.00806142948567867,-0.00230271462351084,-0.5,-0.0110592097043991,0.0057962890714407
538,-0.00225145323202014,0.00917728710919619,-0.00248854281380773,-0.5,-0.0105557404458523,0.00782516319304705
539,-0.00182881730142981,0.00993217714130878,-0.00302480231039226,-0.5,-0.0106432065367699,0.00997707713395357
540,-0.00191401701886207,0.0100283343344927,-0.00349696585908532,-0.5,-0.0115200728178024,0.0113950334489346
541,-0.00260245776735246,0.00942419376224279,-0.00434227380901575,-0.5,-0.0129697006195784,0.0112278144806623
542,-0.00282540894113481,0.00925963371992111,-0.00492374459281564,-0.5,-0.0138893015682697,0.0100641828030348
543,-0.00179360713809729,0.0102260792627931,-0.00450624665245414,-0.5,-0.0136342840269208,0.00862920470535755
544,-0.000749402679502964,0.0111060403287411,-0.00393198430538177,-0.5,-0.013153980486095,0.00643135933205485
545,-0.00120088167022914,0.0107510928064585,-0.00426699826493859,-0.5,-0.0136851109564304,0.00350837945006788
546,-0.00283224740996957,0.00980574917048216,-0.00572091992944479,-0.5,-0.0155469086021185,0.0012111309915781
547,-0.00366198993287981,0.0101025011390448,-0.00729516474530101,-0.5,-0.0176801327615976,0.00123820197768509
548,-0.00263589271344244,0.0116140395402908,-0.00783316511660814,-0.5,-0.0181961879134178,0.00293748406693339
549,-0.00048570177750662,0.0126427598297596,-0.00684810895472765,-0.5,-0.0159039031714201,0.00389076163992286
550,0.00136027543339878,0.0125364018604159,-0.00478407228365541,-0.5,-0.012039864435792,0.0030285210814327
551,0.00198573037050664,0.0117595521733165,-0.00276825111359358,-0.5,-0.00881453603506088,0.000827714742626995
552,0.00164530915208161,0.0108204558491707,-0.00110249652061611,-0.5,-0.00657010497525334,-0.00158310553524643
553,0.000542081717867404,0.00976305827498436,0.00017890524759423,-0.5,-0.00501709105446935,-0.00295799132436514
554,-0.000881703046616167,0.00885215308517218,0.000789192738011479,-0.5,-0.0041792425327003,-0.00197159661911428
555,-0.00148905988316983,0.00840309914201498,0.000928944733459502,-0.5,-0.00330957979895175,0.00120270415209234
556,-0.000936150318011642,0.00820453744381666,0.00103416945785284,-0.5,-0.00183391477912664,0.00441230973228812
557,0.000198697336600162,0.00815424602478743,0.00125416333321482,-0.5,-0.00051104708109051,0.00625155540183187
558,0.00132294814102352,0.00814463477581739,0.00160821038298309,-0.5,-6.79382865200751E-05,0.00680964486673474
559,0.00198186375200748,0.00787232909351587,0.00218474329449236,-0.5,0.000127752573462203,0.00663212686777115
560,0.00140083092264831,0.00711502134799957,0.00229738838970661,-0.5,9.51067777350545E-05,0.00602221442386508
561,-0.000598914513830096,0.00586992409080267,0.00144989916589111,-0.5,-0.00104634510353208,0.00500626815482974
562,-0.00290144677273929,0.00432841340079904,0.000218260698602535,-0.5,-0.00283337966538966,0.00354685471393168
563,-0.00445574196055532,0.00299032172188163,-0.000919221842195839,-0.5,-0.00425369804725051,0.00208846479654312
564,-0.00482317619025707,0.00254105194471776,-0.00140003173146397,-0.5,-0.00482848705723882,0.00159846909809858
565,-0.00426653120666742,0.00295180827379227,-0.000956448377110064,-0.5,-0.00481371954083443,0.00201367912814021
566,-0.00369505234993994,0.00365571049042046,-0.000302489526802674,-0.5,-0.00513170287013054,0.00235242559574544
567,-0.00360148493200541,0.00421176571398973,0.000139630326884799,-0.5,-0.00559603376314044,0.00214434042572975
568,-0.00349094066768885,0.0045840791426599,0.000472091778647155,-0.5,-0.00499091390520334,0.00172893377020955
569,-0.00232278998009861,0.00558709865435958,0.00066370377317071,-0.5,-0.00297212135046721,0.00205690367147326
570,4.54762903245864E-06,0.00750509928911924,0.000771099468693137,-0.5,-0.000277192739304155,0.00328914308920503
571,0.00261214911006391,0.00926911551505327,0.00115147209726274,-0.5,0.00256442651152611,0.00409359764307737
572,0.00479791080579162,0.0102764256298542,0.00195082672871649,-0.5,0.00518586253747344,0.00365527835674584
573,0.00602680444717407,0.010896036401391,0.00251202355138958,-0.5,0.00651755463331938,0.00287903542630374
574,0.00626459764316678,0.0111133921891451,0.0024694106541574,-0.5,0.00651789084076881,0.00257654371671379
575,0.00630348920822144,0.0108843017369509,0.00283425790257752,-0.5,0.00691394601017237,0.00287451478652656
576,0.00674384273588657,0.01050123013556,0.00450102193281055,-0.5,0.0087163457646966,0.00379429035820067
577,0.00737922452390194,0.00958151742815971,0.00668054539710283,-0.5,0.011083154939115,0.00447808392345905
578,0.00801085960119963,0.00798115879297256,0.00808652676641941,-0.5,0.012945624999702,0.00387431005947292
579,0.00811662152409554,0.00618732627481222,0.00814534723758698,-0.5,0.0137588391080499,0.00141315418295562
580,0.0069517595693469,0.00438093394041061,0.00680591072887182,-0.5,0.0131391249597073,-0.00329302600584924
581,0.00511314813047647,0.00281134503893554,0.00471691135317087,-0.5,0.01158725656569,-0.00971511472016573
582,0.0039114011451602,0.00203164853155613,0.00293914135545492,-0.5,0.0100783193483949,-0.0156371127814054
583,0.00358137371949852,0.00208563078194857,0.00171902670990676,-0.5,0.00871241744607687,-0.018208310008049
584,0.00380818592384458,0.00257778470404446,0.000908094050828367,-0.5,0.00775809912011027,-0.0159622840583324
585,0.00491731893271208,0.00361243425868452,0.00121700065210462,-0.5,0.00842631608247757,-0.00978781189769506
586,0.00673897145316005,0.00522569101303816,0.00281589990481734,-0.5,0.0105209862813354,-0.00238875765353441
587,0.0084212776273489,0.00699053378775716,0.00460848165675998,-0.5,0.0123414387926459,0.00370039301924407
588,0.00931105576455593,0.00826386082917452,0.00526530481874943,-0.5,0.0127177136018872,0.00673645548522472
589,0.0093326773494482,0.00875151064246893,0.00441424082964659,-0.5,0.0113516934216022,0.00621274067088962
590,0.00944117736071348,0.00918629020452499,0.00359414401464164,-0.5,0.00917033758014441,0.00405863998457789
591,0.00992351770401001,0.00929213315248489,0.00395192625001073,-0.5,0.00731030898168683,0.00186596531420946
592,0.00972842797636986,0.00769814010709524,0.0046246200799942,-0.5,0.00577377621084452,-0.000695947324857116
593,0.0084666209295392,0.00467333989217877,0.00469964370131493,-0.5,0.00432236259803176,-0.00314492196775973
594,0.00705408025532961,0.00198489031754434,0.00450698612257838,-0.5,0.00334442569874227,-0.00371572934091091
595,0.00677807256579399,0.00127723335754126,0.00507648289203644,-0.5,0.00386108970269561,-0.00134708569385111
596,0.00772178079932928,0.00231681833975017,0.00656660459935665,-0.5,0.00602025119587779,0.00275492435321212
597,0.00907219387590885,0.00352982152253389,0.00796023290604353,-0.5,0.00857315398752689,0.00643490068614483
598,0.0108276400715113,0.00446494529023767,0.00858718901872635,-0.5,0.0107287066057324,0.00904551055282354
599,0.0124930245801806,0.00496101984754205,0.00830260291695595,-0.5,0.0121792024001479,0.010305636562407
600,0.0129035105928779,0.00435278192162514,0.00728968251496553,-0.5,0.0128586292266846,0.00916107557713985
601,0.0121106533333659,0.00282955658622086,0.00636949250474572,-0.5,0.0132980942726135,0.00565581303089857
602,0.0107387164607644,0.00106584769673646,0.00597813399508595,-0.5,0.0135543802753091,0.00136405089870095
603,0.00912337657064199,-0.000719593721441925,0.0058093499392271,-0.5,0.0132531858980656,-0.00257713091559708
604,0.00780325196683407,-0.00204555713571608,0.00603728787973523,-0.5,0.0130136404186487,-0.00543150864541531
605,0.00726669048890471,-0.00228102179244161,0.00703464122489095,-0.5,0.0137263024225831,-0.00629092054441571
606,0.00687490357086062,-0.00188001047354192,0.00811092555522919,-0.5,0.0147061701864004,-0.00556504027917981
607,0.00557830277830362,-0.0017871861346066,0.00834859628230333,-0.5,0.0146552352234721,-0.00461109122261405
608,0.00380758964456618,-0.00198854715563357,0.00806099642068148,-0.5,0.013915934599936,-0.00412306841462851
609,0.00279155722819269,-0.00184586155228317,0.0080156596377492,-0.5,0.013861739076674,-0.00422349898144603
610,0.00265731802210212,-0.00144412112422287,0.00811973866075277,-0.5,0.0145956054329872,-0.00476430263370276
611,0.00265945005230606,-0.00143740850035101,0.00824292656034231,-0.5,0.0149848591536283,-0.00539007084444165
612,0.00254316767677665,-0.00187037559226155,0.00922077707946301,-0.5,0.0147316576912999,-0.00540959089994431
613,0.00267752632498741,-0.0023799987975508,0.0112906573340297,-0.5,0.0146119007840753,-0.00383412465453148
614,0.00304852961562574,-0.00300307641737163,0.0129593713209033,-0.5,0.0146370604634285,-0.00115553673822433
615,0.00354257994331419,-0.00354692712426186,0.0131441438570619,-0.5,0.0145190786570311,0.000911273644305766
616,0.00448064832016826,-0.00342614762485027,0.0127255329862237,-0.5,0.0150103745982051,0.00200722110457718
617,0.00576122524216771,-0.00270383688621223,0.0127989631146193,-0.5,0.0161722898483276,0.00277768750675023
618,0.00700403423979878,-0.00171742949169129,0.0132494363933802,-0.5,0.01686005666852,0.00355662102811038
619,0.0084987198933959,-0.000373902614228427,0.0136763378977776,-0.5,0.0172267779707909,0.00436245370656252
620,0.0102097140625119,0.000878233229741454,0.0136233028024435,-0.5,0.0180781967937946,0.00504834204912186
621,0.0108266854658723,0.00108418148010969,0.0124404123052955,-0.5,0.0186411403119564,0.00549850566312671
622,0.00943928118795156,5.62565328436904E-05,0.0105969682335854,-0.5,0.0183433052152395,0.00536922831088305
623,0.00712145725265145,-0.00125153572298586,0.00963707640767097,-0.5,0.0184777807444334,0.00425084913149476
624,0.00546412961557508,-0.00143921840935946,0.0100075276568532,-0.5,0.0198058541864157,0.00248003238812089
625,0.0041363937780261,-0.000749268278013915,0.00993755739182234,-0.5,0.0203962828963995,0.000103321566712111
626,0.00226949364878237,-0.000586831418331712,0.00763460295274854,-0.5,0.0183394458144903,-0.00357228145003319
627,0.00113835500087589,-0.000589739647693932,0.00415549613535404,-0.5,0.0151859242469072,-0.00767299300059676
628,0.00205717957578599,4.32755768997595E-05,0.00181000027805567,-0.5,0.0133703406900167,-0.0102194286882877
629,0.00358145171776414,0.000365351035725325,0.00090920744696632,-0.5,0.0125773446634412,-0.0110838348045945
630,0.00378514872863889,-0.000511081248987466,0.00030758316279389,-0.5,0.0115433977916837,-0.0114332158118486
631,0.00314552313648164,-0.00188938330393285,-0.000236191728617996,-0.5,0.0105316620320082,-0.0113986944779754
632,0.00323453568853438,-0.00257479911670089,3.48719950125087E-05,-0.5,0.0106590036302805,-0.0104214791208506
633,0.00427026208490133,-0.00245834630914032,0.000912298972252756,-0.5,0.012023133225739,-0.00899497698992491
634,0.00547139020636678,-0.00226034387014806,0.00141153193544596,-0.5,0.0133405867964029,-0.00831631198525429
635,0.00665424717590213,-0.00255047227256,0.00160252070054412,-0.5,0.0139133017510176,-0.0089668408036232
636,0.00844990834593773,-0.00325378333218396,0.00240113912150264,-0.5,0.0146255185827613,-0.0108174402266741
637,0.0110613405704498,-0.00381544162519276,0.00404557818546891,-0.5,0.0160496793687344,-0.0133230593055487
638,0.0134858228266239,-0.00420871470123529,0.00593547429889441,-0.5,0.0174420718103647,-0.0156186753883958
639,0.0143718859180808,-0.0050220456905663,0.00745617970824242,-0.5,0.0177110750228167,-0.0168401934206486
640,0.0134594598785043,-0.00612808065488935,0.00803575199097395,-0.5,0.016330324113369,-0.0162048973143101
641,0.0119748366996646,-0.00658500660210848,0.00750449253246188,-0.5,0.0141349621117115,-0.0136148734018207
642,0.0109834456816316,-0.0064649130217731,0.00624554278329015,-0.5,0.0122497882694006,-0.0104346368461847
643,0.0100490367040038,-0.00668427720665932,0.0043812608346343,-0.5,0.01043801009655,-0.00788075383752584
644,0.00855386815965176,-0.00731906341388822,0.00229008682072163,-0.5,0.00839382689446211,-0.00586146861314774
645,0.00696546118706465,-0.00774765061214566,0.000948330096434802,-0.5,0.00674821576103568,-0.0041372599080205
646,0.00574385793879628,-0.008091751486063,0.000283207918982953,-0.5,0.00561288883909583,-0.00344679853878915
647,0.00487899174913764,-0.00914798956364393,-0.000427761144237593,-0.5,0.0047354381531477,-0.0048371353186667
648,0.00420687207952142,-0.011201361194253,-0.00110712670721114,-0.5,0.00441373139619827,-0.00801984872668982
649,0.00369746144860983,-0.0133291995152831,-0.00095464923651889,-0.5,0.00498756440356374,-0.0109311593696475
650,0.00356156309135258,-0.0141891296952963,0.000311396870529279,-0.5,0.00584362493827939,-0.0116918869316578
651,0.0032671457156539,-0.0138713391497731,0.00145242945291102,-0.5,0.00554041145369411,-0.0107449349015951
652,0.00201768474653363,-0.0135801453143358,0.0014831229345873,-0.5,0.00381540786474943,-0.00987870339304209
653,0.000153258602949791,-0.0139660369604826,0.000535221421159804,-0.5,0.00187300459947437,-0.0105353966355324
654,-0.00110175530426204,-0.0144754284992814,-0.00106988498009741,-0.392671763896942,0.000878769264090806,-0.0128589645028114
655,-0.000927550194319338,-0.0144081683829427,-0.00248424033634365,0.0561299994587898,0.00159261433873326,-0.0158065482974052
656,0.000820392626337707,-0.0136393681168556,-0.00219704722985625,0.345119655132294,0.00451432447880507,-0.017899451777339
657,0.00388357718475163,-0.012248944491148,0.000142469129059464,0.488728284835815,0.00890034530311823,-0.0179584287106991
658,0.00691030453890562,-0.0108907371759415,0.00256684049963951,0.5,0.0123238684609532,-0.0168591849505901
659,0.0084253242239356,-0.0101734092459083,0.00323779881000519,0.5,0.0131900208070874,-0.0163006316870451
660,0.00831413548439741,-0.0100036403164268,0.00225067767314613,0.5,0.0120684532448649,-0.0162124745547771
661,0.00720460573211312,-0.0102498447522521,0.000367501634173095,0.5,0.0100419754162431,-0.0161423180252314
662,0.00613242667168379,-0.0105826472863555,-0.00158167874906212,0.5,0.00807801261544228,-0.0164538528770208
663,0.00587161350995302,-0.0106472158804536,-0.00276825856417418,0.5,0.0069608292542398,-0.0174983590841293
664,0.00643244758248329,-0.0102437241002917,-0.0026692682877183,0.5,0.0070646870881319,-0.0187830086797476
665,0.00718214083462954,-0.00933415815234184,-0.00135144428350031,0.5,0.00808681733906269,-0.0194306299090385
666,0.00742033869028091,-0.00809620134532452,0.000495150161441416,0.5,0.00944300182163715,-0.0189654752612114
667,0.0079500824213028,-0.00575338443741202,0.0028188182041049,0.5,0.0114644067361951,-0.0160238109529018
668,0.00937525741755962,-0.00197446648962796,0.00546117266640067,0.5,0.0139458701014519,-0.0101806446909904
669,0.0101874936372042,0.0014044523704797,0.00697037158533931,0.5,0.0152483135461807,-0.00438953377306461
670,0.00940494239330292,0.00308528845198452,0.00671898713335395,0.5,0.0145012103021145,-0.000991595443338156
671,0.00800092983990908,0.00374831329099834,0.00554689113050699,0.430658519268036,0.012303976342082,0.000767487799748778
672,0.0069819875061512,0.00423721969127655,0.00447981618344784,-0.116921149194241,0.00979265384376049,0.00232199323363602
673,0.00625361548736691,0.00477661425247788,0.00411345157772303,-0.49965038895607,0.00799557194113731,0.00398055836558342
674,0.00510240625590086,0.00505981780588627,0.00397782493382692,-0.5,0.00704955961555243,0.00485575711354613
675,0.00305959465913475,0.00454819947481155,0.00330943032167852,-0.5,0.00637570442631841,0.00436142785474658
676,0.000492949387989938,0.00344914454035461,0.00257931160740554,-0.481154054403305,0.00583202345296741,0.00331965275108814
677,-0.00143174384720623,0.00267221336252987,0.00314784562215209,-0.333649337291718,0.00596518628299236,0.00274678994901478
678,-0.00186974578537047,0.00259618437848985,0.00533578265458345,-0.277299582958221,0.00708473287522793,0.00257207360118628
679,-0.00097032863413915,0.00301022222265601,0.00807945244014263,-0.352982193231583,0.00862046517431736,0.00248688622377813
680,0.000182275645784102,0.00320722372271121,0.00996417179703712,-0.5,0.0092703104019165,0.00245131691917777
681,0.000414040026953444,0.00231938646174967,0.0102187097072601,-0.5,0.00815041642636061,0.00225143157877028
682,0.000198175534023903,0.000541513261850923,0.00979473162442446,-0.5,0.00658865785226226,0.00163715949747711
683,0.000579109298996627,-0.00144241470843554,0.00970166828483343,-0.5,0.00648272642865777,0.000268702628090978
684,0.00149583502206951,-0.00291925109922886,0.00955075211822987,-0.5,0.00743176229298115,-0.00135106325615197
685,0.00160243001300842,-0.00368075701408088,0.00831769779324532,-0.422835767269135,0.0071806157939136,-0.00235399906523526
686,0.000208856916287914,-0.00397620862349868,0.00598248839378357,-0.237493515014648,0.00505018187686801,-0.00263245054520667
687,-0.000760308001190424,-0.00288726133294404,0.00461850222200155,-0.158195808529854,0.00351631129160523,-0.00165083433967084
688,-0.000328096590237692,-0.000210799320484512,0.00523985363543034,-0.261926054954529,0.00387377408333123,0.00056916376342997
689,8.41497821966186E-05,0.00248405174352229,0.00664434721693397,-0.466008216142654,0.0047435462474823,0.00281964521855116
690,-0.000172590225702152,0.00413029687479138,0.00823235046118498,-0.5,0.00541157554835081,0.00424929708242416
691,-0.000653684430290014,0.00471022352576256,0.00993541441857815,-0.5,0.00595370680093765,0.00470554688945413
692,-0.00132972875144333,0.00447615887969732,0.0109024848788977,-0.5,0.00584871554747224,0.00447175651788712
693,-0.00272808014415205,0.00326387118548155,0.010314904153347,-0.5,0.00463216658681631,0.00342864682897925
694,-0.00467497343197465,0.00146971317008138,0.00865083839744329,-0.5,0.00274096941575408,0.00172642082907259
695,-0.00573899364098907,0.000619612459558994,0.00728546874597669,-0.5,0.00136303051840514,0.00052099343156442
696,-0.00516149215400219,0.00115526781883091,0.00665822066366673,-0.5,0.001015410060063,2.12715003726771E-05
697,-0.00394003372639418,0.00190306664444506,0.00594082893803716,-0.5,0.000737339374609292,-0.000654163013678044
698,-0.00287235947325826,0.0021202857606113,0.00499242683872581,-0.5,4.32384013038245E-06,-0.00163071986753494
699,-0.00222385581582785,0.00177313305903226,0.00440569687634707,-0.5,-0.000635385338682681,-0.00251308339647949
700,-0.00231082295067608,0.000814303290098906,0.0043886317871511,-0.5,-0.000855127524118871,-0.00305470777675509
701,-0.00242836610414088,-0.000292981247184798,0.00531605072319508,-0.5,-0.000215743610169739,-0.00274138082750142
702,-0.00234521389938891,-0.00142726849298924,0.0067105614580214,-0.5,0.00105479918420315,-0.00199412298388779
703,-0.00303904199972749,-0.00309958774596453,0.00717837549746037,-0.5,0.00158899137750268,-0.00215210719034076
704,-0.0041747591458261,-0.00446284748613834,0.00693949917331338,-0.5,0.00133769796229899,-0.0021492016967386
705,-0.0051677324809134,-0.00457653123885393,0.00665859086439013,-0.5,0.000925868283957243,9.77733143372461E-05
706,-0.00690835760906339,-0.00458504259586334,0.00536219123750925,-0.5,-0.000289819901809096,0.0030974040273577
707,-0.00930957123637199,-0.00532627105712891,0.00291710067540407,-0.5,-0.00221073837019503,0.00441472651436925
708,-0.010329132899642,-0.00533509161323309,0.00134106492623687,-0.215850248932838,-0.00307231722399592,0.00490155955776572
709,-0.00892251543700695,-0.00349215301685035,0.00192040042020381,0.163286432623863,-0.00201011332683265,0.00606957590207458
710,-0.0061561232432723,-0.000693320529535413,0.00437939399853349,0.330329716205597,0.000353255454683676,0.00783426593989134
711,-0.00345938815735281,0.00159461761359125,0.00771054718643427,0.330823332071304,0.00312554114498198,0.00932503305375576
712,-0.00138206139672548,0.00281062116846442,0.010782084427774,0.231619447469711,0.00558021804317832,0.00982989929616451
713,0.000107069135992788,0.00301645160652697,0.0129490680992603,0.0522343032062054,0.00723997037857771,0.00913632102310658
714,0.000761654344387352,0.00205438048578799,0.0135466186329722,-0.185521766543388,0.00799748115241528,0.00673582125455141
715,0.000500368420034647,0.000572763790842146,0.0123890955001116,-0.398975282907486,0.00803322158753872,0.00291544478386641
716,-0.000340617727488279,-0.000563137175049633,0.0102457040920854,-0.479095607995987,0.00741088343784213,-0.0011141219874844
717,-0.00147025939077139,-0.00169788172934204,0.00809688400477171,-0.38321653008461,0.00628637010231614,-0.00520363170653582
718,-0.00235611665993929,-0.00289641623385251,0.00671190489083529,-0.15557873249054,0.00526299327611923,-0.00926465168595314
719,-0.00241252244450152,-0.00346253276802599,0.0065735075622797,0.126071766018867,0.00525837996974587,-0.0121790003031492
720,-0.00222068396396935,-0.00361633952707052,0.00726378476247191,0.395295083522797,0.0057964981533587,-0.0131565574556589
721,-0.00265928311273456,-0.00395068898797035,0.00767250405624509,0.5,0.00528864189982414,-0.0121378246694803
722,-0.00344569399021566,-0.00429643178358674,0.00761607009917498,0.5,0.00357101578265429,-0.00994650553911924
723,-0.00424114335328341,-0.00450007943436503,0.00743884826079011,0.5,0.00110955710988492,-0.00784794613718987
724,-0.00518612191081047,-0.00477960333228111,0.00692078610882163,0.5,-0.001826933468692,-0.00619233120232821
725,-0.00603657029569149,-0.00528772827237844,0.00611946359276772,0.5,-0.00415244372561574,-0.00501944590359926
726,-0.00652242312207818,-0.00594039401039481,0.00545373186469078,0.5,-0.00492706149816513,-0.00463707838207483
727,-0.00679501472041011,-0.0063112722709775,0.00504368264228106,0.5,-0.00472785765305161,-0.00473804492503405
728,-0.00693840254098177,-0.00611122604459524,0.00476075801998377,0.5,-0.00470179226249456,-0.00489844894036651
729,-0.00680196471512318,-0.00574644515290856,0.00458614714443684,0.5,-0.00487887300550938,-0.00554237747564912
730,-0.00646467786282301,-0.00590146007016301,0.00419332971796393,0.5,-0.00504827918484807,-0.00743926409631968
731,-0.00626818044111133,-0.00656829588115215,0.00314486003480852,0.5,-0.00576151022687554,-0.0103945909067988
732,-0.00642312737181783,-0.00702045066282153,0.00175956089515239,0.5,-0.00733230356127024,-0.0132328784093261
733,-0.00673123868182302,-0.00667898450046778,0.000738614588044584,0.5,-0.00925523228943348,-0.0150059564039111
734,-0.00663558300584555,-0.0054242666810751,0.000593021279200912,0.5,-0.0104617327451706,-0.0152226826176047
735,-0.0059985532425344,-0.00365463132038713,0.00100595084950328,0.5,-0.0103734983131289,-0.0140455979853868
736,-0.00526276230812073,-0.00221575354225934,0.000943947467021644,0.5,-0.00939708203077316,-0.0121520664542913
737,-0.00469027180224657,-0.00177609152160585,0.000121637254778761,0.5,-0.00796724949032068,-0.00950310472398996
738,-0.0042776744812727,-0.00236681289970875,-0.000643804669380188,0.5,-0.00630612624809146,-0.00612516282126307
739,-0.00405992474406958,-0.00357330241240561,-0.000462752766907215,0.5,-0.00481053674593568,-0.00330813159234822
740,-0.00381028093397617,-0.00468071503564715,0.000987625680863857,0.5,-0.00362095283344388,-0.00182804791256785
741,-0.00333802867680788,-0.00519268773496151,0.00284136435948312,0.5,-0.00293791224248707,-0.00136085948906839
742,-0.00278487731702626,-0.00515124341472983,0.00393761973828077,0.5,-0.00307225319556892,-0.00133064854890108
743,-0.00214965944178402,-0.00487274816259742,0.00436416314914823,0.5,-0.00342305959202349,-0.0012579751200974
744,-0.00129191367886961,-0.00445780251175165,0.00464973226189613,0.5,-0.00316318823024631,-0.00109663174953312
745,-0.000657681317534298,-0.0038643185980618,0.00476287258788943,0.5,-0.00302435480989516,-0.00101711449678987
746,-0.00133054226171225,-0.00350725161843002,0.0043604476377368,0.5,-0.00475697638466954,-0.00140428601298481
747,-0.00367274833843112,-0.00343059631995857,0.00348651176318526,0.5,-0.00868624355643988,-0.00239401194266975
748,-0.00674556009471416,-0.00294568319804966,0.00294478330761194,0.5,-0.0131150064989924,-0.00314802024513483
749,-0.00890387315303087,-0.0014805638929829,0.00364357093349099,0.5,-0.0158759783953428,-0.00213191518560052
750,-0.00866389833390713,0.00116176402661949,0.00583794293925166,0.5,-0.0158640798181295,0.00128147611394525
751,-0.00660812761634588,0.00423080334439874,0.00871826615184546,0.5,-0.0140502154827118,0.00523865036666393
752,-0.00496360659599304,0.00658334884792566,0.0108294291421771,0.5,-0.0122607927769423,0.00742921838536859
753,-0.00436918204650283,0.00835012923926115,0.0116948438808322,0.5,-0.0108365006744862,0.00804997701197863
754,-0.00363003392703831,0.0104380557313561,0.0124840829521418,0.5,-0.00893309526145458,0.00872249063104391
755,-0.00264695938676596,0.0124218193814158,0.0136780748143792,0.5,-0.00693082483485341,0.00979802012443542
756,-0.00260360259562731,0.0130667807534337,0.0141903683543205,0.5,-0.00618846900761127,0.0114132398739457
757,-0.00362161663360894,0.0123970033600926,0.0136592388153076,0.5,-0.00666141510009766,0.0146455764770508
758,-0.00477933418005705,0.0112290531396866,0.0125426482409239,0.5,-0.00746736442670226,0.0190508421510458
759,-0.00533203594386578,0.0103424238041043,0.0112173520028591,0.5,-0.00809816457331181,0.0230394136160612
760,-0.00518408231437206,0.0100096864625812,0.00999504793435335,0.5,-0.00850057601928711,0.0258123930543661
761,-0.00412437133491039,0.0101402997970581,0.00942501332610846,0.5,-0.00830801203846931,0.027270782738924
762,-0.00151776184793562,0.0111373653635383,0.0104340054094791,0.5,-0.00638183671981096,0.0279865264892578
763,0.00196558656170964,0.0131313176825643,0.0128496885299683,0.5,-0.00299601652659476,0.0286347772926092
764,0.00406970316544175,0.0147751439362764,0.0146215939894319,0.5,-0.000571255513932556,0.0288705863058567
765,0.00389357074163854,0.0148682845756412,0.014535647816956,0.5,-8.93772303243168E-05,0.0280028078705072
766,0.00287483283318579,0.0138917965814471,0.0138030722737312,0.5,8.95240154932253E-05,0.0260489154607058
767,0.00184629519935697,0.0121988393366337,0.0131485052406788,0.5,0.0006660774233751,0.0230764634907246
768,0.000237300628214143,0.00962483882904053,0.011530177667737,0.5,0.000523134658578783,0.0192935969680548
769,-0.00175165105611086,0.006967359688133,0.00881840381771326,0.5,-0.000629721209406853,0.0157107654958963
770,-0.00298733776435256,0.00518379081040621,0.00658743409439921,0.5,-0.00175043812487274,0.0130039546638727
771,-0.00301798875443637,0.00419180514290929,0.00598512636497617,0.5,-0.0021733520552516,0.0108676655218005
772,-0.00223372085019946,0.00365456682629883,0.00692820409312844,0.5,-0.00204293942078948,0.0092190857976675
773,-0.00156466581393033,0.00311075057834387,0.00833342783153057,0.5,-0.00194792274851352,0.00795573554933071
774,-0.00176269689109176,0.00188223761506379,0.00882337521761656,0.5,-0.00240086577832699,0.0065165595151484
775,-0.0020207311026752,0.000440104427980259,0.00860636308789253,0.5,-0.00249654264189303,0.00503362575545907
776,-0.00124534487258643,-0.000114607340947259,0.00910196173936129,0.5,-0.00074606278212741,0.00457762228325009
777,0.000177025343873538,0.000329550501191989,0.01059340685606,0.5,0.00257045449689031,0.00619344785809517
778,0.0014335245359689,0.00139531528111547,0.0121627086773515,0.5,0.00598478456959128,0.00961987674236298
779,0.00208445079624653,0.00241462769918144,0.0128734614700079,0.5,0.0084390826523304,0.0124137429520488
780,0.00216637598350644,0.00271359318867326,0.0126286931335926,0.5,0.00975549779832363,0.0121627887710929
781,0.00216550333425403,0.00275192293338478,0.0118215130642056,0.5,0.0100873354822397,0.00976389925926924
782,0.00222686561755836,0.00356476590968668,0.0102661643177271,0.5,0.00894642248749733,0.00828264281153679
783,0.00211903639137745,0.00505512440577149,0.00797997787594795,0.5,0.00614497810602188,0.00873298011720181
784,0.00160135887563229,0.00567580154165626,0.00554748112335801,0.5,0.00273541756905615,0.00910049956291914
785,0.000699357653502375,0.00471740355715156,0.00341975665651262,0.5,-4.63912738268846E-06,0.00824347976595163
786,-0.000396809075027704,0.00299812341108918,0.00150202261283994,0.5,-0.00168169185053557,0.00706472247838974
787,-0.0011875475756824,0.00141018477734178,-0.000189473270438612,0.5,-0.00194783823098987,0.00637919642031193
788,-0.000776489032432437,0.000649178226012737,-0.000784031581133604,0.5,-2.33478272093635E-06,0.00642024585977197
789,0.00035921239759773,0.000565151276532561,-0.000793180719483644,0.5,0.00285166129469872,0.00636115530505776
790,0.000836224586237222,0.000296242360491306,-0.00200842623598874,0.5,0.00382182002067566,0.00502965552732348
791,0.00103194825351238,-4.32190245192032E-05,-0.00390317430719733,0.5,0.00280447397381067,0.00284679676406085
792,0.00170527305454016,3.64519983122591E-05,-0.00490506319329143,0.5,0.00144277093932033,0.000795307802036405
793,0.00245311530306935,0.000243575937929563,-0.00505022658035159,0.5,0.00049472221871838,-0.0009835782693699
794,0.00326386978849769,0.000295839330647141,-0.00455008819699287,0.5,0.000341897568432614,-0.00226393435150385
795,0.00414426904171705,-1.53717683133436E-05,-0.00325910840183496,0.5,0.000653733499348164,-0.00263388990424573
796,0.00463786069303751,-0.000731383974198252,-0.00131736195180565,0.5,0.000751783489249647,-0.00202823500148952
797,0.00474830809980631,-0.00155473919585347,0.000824425544124097,0.5,0.000580402091145515,-0.00101994583383203
798,0.00439601298421621,-0.0024415475782007,0.00174469244666398,0.5,-0.000566552684176713,-0.000953522976487875
799,0.00362510653212667,-0.00326986447907984,0.000288929411908612,0.5,-0.00328604318201542,-0.00291706458665431
800,0.00306275533512235,-0.00384573242627084,-0.00239650602452457,0.5,-0.00619711168110371,-0.00668464135378599
801,0.00304669165052474,-0.00391126750037074,-0.00427987845614553,0.5,-0.00771152647212148,-0.0104631325230002
802,0.00308741186745465,-0.00356856267899275,-0.00513524888083339,0.5,-0.00821235217154026,-0.0126961562782526
803,0.00252940156497061,-0.00386130064725876,-0.00596070429310203,0.5,-0.00882415194064379,-0.013995879329741
804,0.00201345863752067,-0.00487454514950514,-0.00663399510085583,0.5,-0.00909756124019623,-0.0152551867067814
805,0.0023115009535104,-0.005849523935467,-0.00672077992931008,0.5,-0.00813983846455812,-0.0161870867013931
806,0.00325248250737786,-0.0065259519033134,-0.00638262741267681,0.5,-0.00606196047738194,-0.0156400520354509
807,0.00470150448381901,-0.00674119777977467,-0.00577163137495518,0.5,-0.00346758030354977,-0.0130634056404233
808,0.00614817207679152,-0.00660694157704711,-0.00541262701153755,0.5,-0.00167666166089475,-0.00992964208126068
809,0.0069955880753696,-0.00617311103269458,-0.00558696407824755,0.5,-0.00146434258203954,-0.00793201010674238
810,0.00690515525639057,-0.00602150103077292,-0.00638338457792997,0.464730203151703,-0.00254309014417231,-0.00829035043716431
811,0.0058334362693131,-0.00684803957119584,-0.00790856871753931,0.486077338457108,-0.00431066565215588,-0.0113559579476714
812,0.00466371979564428,-0.00751148723065853,-0.0093868300318718,0.5,-0.00566065544262528,-0.0150046572089195
813,0.00401122402399778,-0.00689796870574355,-0.0101618599146605,0.5,-0.00605723168700933,-0.0166467260569334
814,0.00387269514612854,-0.00549394031986594,-0.0100879538804293,0.5,-0.00537072261795402,-0.0161105003207922
815,0.00398603035137057,-0.00428274786099792,-0.00925815105438232,0.448854774236679,-0.00359003595076501,-0.0148280765861273
816,0.00360987754538655,-0.0038328196387738,-0.0079949451610446,0.189903885126114,-0.0013505257666111,-0.0135188978165388
817,0.00264280382543802,-0.00362958339974284,-0.00578725477680564,-0.131105855107307,0.000960396253503859,-0.0108956024050713
818,0.00155788531992584,-0.00291055231355131,-0.00192238867748529,-0.441662639379501,0.00335627538152039,-0.00521481828764081
819,-0.000207787961699069,-0.00215164572000504,0.00285276444628835,-0.5,0.00547412363812327,0.00272576813586056
820,-0.00368471629917622,-0.00238889106549323,0.0070589198730886,-0.5,0.00702693406492472,0.0102856503799558
821,-0.00841720588505268,-0.00355057651177049,0.00992780458182096,-0.5,0.00800544675439596,0.015646904706955
822,-0.0128272036090493,-0.0046252990141511,0.0111819114536047,-0.5,0.00740094482898712,0.0182438921183348
823,-0.0154580632224679,-0.00483615789562464,0.0107395937666297,-0.5,0.00439546816051006,0.0181562714278698
824,-0.0159330107271671,-0.00451209209859371,0.00862499978393316,-0.5,-0.000164853161550127,0.0152821484953165
825,-0.0150551404803991,-0.00425736047327518,0.00526763964444399,-0.5,-0.00502646341919899,0.0101239457726479
826,-0.0135689629241824,-0.0035948627628386,0.0016143957618624,-0.5,-0.00948350131511688,0.00511717004701495
827,-0.0122193703427911,-0.00236058118753135,-0.00169023755006492,-0.5,-0.0134770115837455,0.00219336897134781
828,-0.0121820485219359,-0.00195017084479332,-0.00426851585507393,-0.5,-0.017244866117835,0.000760778901167214
829,-0.0137665849179029,-0.00304113910533488,-0.0054470794275403,-0.41490250825882,-0.0199865680187941,0.00011547079338925
830,-0.0158378332853317,-0.00437717419117689,-0.00478572631254792,0.19401927292347,-0.0201599691063166,0.000979128177277744
831,-0.0170854106545448,-0.00480795046314597,-0.00235928175970912,0.5,-0.0174785144627094,0.00415411125868559
832,-0.0167619902640581,-0.00410940404981375,0.00187136651948094,0.5,-0.0127307362854481,0.0101376809179783
833,-0.0149272689595819,-0.00224048341624439,0.0074912584386766,0.5,-0.00693159317597747,0.0193629488348961
834,-0.0125179486349225,0.000511982827447355,0.013182389549911,0.5,-0.00134709582198411,0.030480470508337
835,-0.0108394771814346,0.00300582591444254,0.0176430065184832,0.5,0.00270627113059163,0.0396337397396564
836,-0.0107112489640713,0.00418619811534882,0.01984678581357,0.5,0.00421965820714831,0.0440654754638672
837,-0.011820918880403,0.00418837415054441,0.0192419271916151,0.5,0.00328183127567172,0.0443833544850349
838,-0.0134019013494253,0.00391598837450147,0.0167891345918179,0.5,0.00113344879355282,0.0430724322795868
839,-0.014846502803266,0.00410634186118841,0.0148031320422888,0.5,-0.000621930928900838,0.0430631265044212
840,-0.0155133344233036,0.00493433512747288,0.0152203449979424,0.5,-0.00014908604498487,0.0458613000810146
841,-0.0153766004368663,0.00597388437017798,0.0178429055958986,0.5,0.00312679167836905,0.050114531069994
842,-0.015188223682344,0.00662989681586623,0.0208613723516464,0.5,0.00724555738270283,0.053350854665041
843,-0.0151217319071293,0.0069400048814714,0.0229795128107071,0.5,0.0101242950186133,0.0543767549097538
844,-0.0149472821503878,0.00731524778530002,0.0239186305552721,0.5,0.0118493055924773,0.0539718307554722
845,-0.0150561546906829,0.00788441766053438,0.0237942803651094,0.5,0.013578413054347,0.0543350614607334
846,-0.0151038281619549,0.00890532787889242,0.0232331044971943,0.267850071191788,0.0154652632772923,0.057099100202322
847,-0.0140372170135379,0.0105998618528247,0.0231812410056591,-0.128110140562058,0.0163256451487541,0.061767615377903
848,-0.0122070331126451,0.0120582412928343,0.0240601636469364,-0.5,0.0155966831371188,0.0660206153988838
849,-0.0110988551750779,0.0121076432988048,0.0257664620876312,-0.5,0.0145036950707436,0.0680196061730385
850,-0.0113832326605916,0.0108215268701315,0.02783771045506,-0.5,0.0142782228067517,0.0681564137339592
851,-0.0118389800190926,0.00916770566254854,0.0295989140868187,-0.322003841400146,0.0149802677333355,0.0675293803215027
852,-0.011521085165441,0.00783664546906948,0.0304671172052622,0.00693424139171839,0.0158578902482986,0.066526859998703
853,-0.0109366849064827,0.007048558909446,0.0307160168886185,0.208032444119453,0.016462167724967,0.065693773329258
854,-0.0101037295535207,0.00682375766336918,0.0314558632671833,0.292125463485718,0.0174992326647043,0.0659464374184608
855,-0.0090193897485733,0.00683250790461898,0.032747246325016,0.35842826962471,0.0192582886666059,0.0676233097910881
856,-0.00833843089640141,0.00661974446848035,0.0336131565272808,0.468184858560562,0.0209021735936403,0.0700213089585304
857,-0.00817804224789143,0.00583157688379288,0.0337636470794678,0.5,0.0224273670464754,0.0715369433164597
858,-0.00785325188189745,0.00495266821235418,0.0336942598223686,0.5,0.0244664326310158,0.0719128251075745
859,-0.00737077603116632,0.00438915751874447,0.0338014513254166,0.5,0.0262751933187246,0.0724007859826088
860,-0.00717184599488974,0.00346033065579832,0.0347252227365971,0.5,0.0275723543018103,0.0730469077825546
861,-0.00653025927022099,0.00232024909928441,0.0369533784687519,0.5,0.0295003298670053,0.0732138305902481
862,-0.00503197591751814,0.00178259320091456,0.0389956757426262,0.5,0.0316664688289166,0.0723459348082542
863,-0.00295684905722737,0.00199298956431448,0.0395395457744598,0.5,0.0333495587110519,0.0700760334730148
864,-0.000565850059501827,0.0025667380541563,0.0392873212695122,0.5,0.0353613160550594,0.0672308504581451
865,0.00137240928597748,0.00284693483263254,0.0388319380581379,0.5,0.0380507595837116,0.0654613152146339
866,0.00252604577690363,0.00257089897058904,0.0383606366813183,0.5,0.0409777425229549,0.0655862390995026
867,0.00341088604182005,0.00204804190434515,0.0382864773273468,0.485976666212082,0.0438382178544998,0.0664975270628929
868,0.00461508240550756,0.00182600691914558,0.0391008220613003,0.421789407730103,0.0468459762632847,0.0665928795933723
869,0.00615466479212046,0.00206004222854972,0.0410051010549068,0.335669249296188,0.0509372130036354,0.0655916854739189
870,0.00712173944339156,0.00189711479470134,0.0431692488491535,0.244165644049644,0.0557393729686737,0.0637461617588997
871,0.00692986650392413,0.000794050341937691,0.0446526445448399,0.173862874507904,0.0587698705494404,0.0613360330462456
872,0.00641241855919361,-0.000265923095867038,0.0457461215555668,0.157917991280556,0.058773972094059,0.0593828596174717
873,0.00646969396620989,-0.000473081396194175,0.0468107461929321,0.219817295670509,0.0567436590790749,0.0584848150610924
874,0.00681153405457735,-0.000437475420767441,0.0473268553614616,0.357678890228271,0.0541904680430889,0.0577285587787628
875,0.00701470440253615,-0.000904267304576933,0.0468361265957356,0.5,0.0525970719754696,0.0561551935970783
876,0.00676418794319034,-0.00217988807708025,0.0455960817635059,0.5,0.0527965910732746,0.0541313178837299
877,0.00566695909947157,-0.00424079457297921,0.0445713549852371,0.5,0.0544674135744572,0.0527135729789734
878,0.00440921075642109,-0.00641721719875932,0.0448527634143829,0.5,0.0569337420165539,0.0522776916623116
879,0.0043912255205214,-0.0076305870898068,0.0468080714344978,0.5,0.0602414794266224,0.0527516975998878
880,0.00607223762199283,-0.00757912639528513,0.049405612051487,0.5,0.0644640699028969,0.0534427873790264
881,0.00849613174796104,-0.00738292513415217,0.0507952757179737,0.5,0.0685267075896263,0.0523536093533039
882,0.0107050109654665,-0.00774575397372246,0.0504670441150665,0.5,0.0714803636074066,0.0486556328833103
883,0.0123505210503936,-0.0081921610981226,0.0491982474923134,0.5,0.0733116790652275,0.0436144582927227
884,0.0130043681710958,-0.00845258310437202,0.0472800806164742,0.491605043411255,0.0738661661744118,0.039091169834137
885,0.0127312308177352,-0.00867129117250443,0.0452482216060162,0.320577353239059,0.0732563510537148,0.0367969237267971
886,0.0124321775510907,-0.00883947405964136,0.044576745480299,0.255451023578644,0.0726488307118416,0.0371207669377327
887,0.012516557238996,-0.00898453406989574,0.0457225069403648,0.252394527196884,0.0731523409485817,0.0388789214193821
888,0.0127108097076416,-0.00954488757997751,0.0477603115141392,0.24980117380619,0.075163722038269,0.0405443124473095
889,0.0132643515244126,-0.0106601696461439,0.0501490086317062,0.234342262148857,0.0788642019033432,0.0414907671511173
890,0.0144230872392654,-0.011953997425735,0.0525200329720974,0.264159798622131,0.0837009847164154,0.041773721575737
891,0.0153501685708761,-0.0136474091559649,0.0538331978023052,0.403012454509735,0.0879282280802727,0.0411880575120449
892,0.0153786120936275,-0.0159971658140421,0.0536416582763195,0.5,0.0903156921267509,0.0397193655371666
893,0.0151102021336555,-0.01841732673347,0.0526794493198395,0.5,0.0911625176668167,0.0377269983291626
894,0.0157253965735435,-0.0197908282279968,0.0521545261144638,0.5,0.0914346948266029,0.0357452742755413
895,0.0175375957041979,-0.0196837075054646,0.0530342124402523,0.5,0.0918789654970169,0.0340990610420704
896,0.0190567802637815,-0.0193275157362223,0.0547446422278881,0.5,0.0922128930687904,0.0321652963757515
897,0.0192235987633467,-0.0193243324756622,0.0561212003231049,0.5,0.0921532139182091,0.0301510225981474
898,0.0189810581505299,-0.0187764968723059,0.0572429746389389,0.5,0.0925685241818428,0.0297950729727745
899,0.0193938706070185,-0.0171933174133301,0.0591152608394623,0.5,0.0944837182760239,0.031807579100132
900,0.020788136869669,-0.0147606385871768,0.0623366832733154,0.5,0.0979443266987801,0.0349324904382229
901,0.0231027342379093,-0.011781751178205,0.0660380199551582,0.5,0.101878151297569,0.0378912016749382
902,0.0256602969020605,-0.00879598874598742,0.0688901618123055,0.5,0.105043232440948,0.040391594171524
903,0.02745096758008,-0.00672516692429781,0.0703142285346985,-0.0133714796975255,0.106987170875072,0.0419093891978264
904,0.0280541926622391,-0.00613480061292648,0.0707808434963226,-0.5,0.108121238648891,0.0419066771864891
905,0.0272877141833305,-0.00725471321493387,0.0708798170089722,-0.5,0.108397334814072,0.040376216173172
906,0.0250728204846382,-0.00983702205121517,0.0705683901906013,-0.5,0.107602849602699,0.0378849357366562
907,0.0226249005645514,-0.0124048972502351,0.0707744210958481,-0.5,0.107279524207115,0.0363195240497589
908,0.0214685797691345,-0.0136893382295966,0.0724497810006142,-0.5,0.108691394329071,0.0372245199978352
909,0.0217781402170658,-0.0138689605519176,0.0746309012174606,-0.5,0.110811226069927,0.0395642630755901
910,0.0226430892944336,-0.0138443810865283,0.0758318230509758,-0.5,0.111822657287121,0.0410024151206017
911,0.0233074314892292,-0.0140197593718767,0.0756457671523094,-0.5,0.110836826264858,0.0406524464488029
912,0.0240220781415701,-0.0138793662190437,0.0747906342148781,-0.5,0.109031021595001,0.0395172089338303
913,0.0247596837580204,-0.0134071158245206,0.0738942697644234,-0.5,0.10805980861187,0.0383901819586754
914,0.0246622785925865,-0.0134330689907074,0.0729930400848389,-0.5,0.107944451272488,0.0369628556072712
915,0.0236131455749273,-0.0140519198030233,0.0722067058086395,-0.5,0.108289815485477,0.0350222587585449
916,0.0221422854810953,-0.0147961648181081,0.0716804638504982,-0.5,0.108902834355831,0.0327529162168503
917,0.0203312076628208,-0.0158700123429298,0.071230910718441,-0.5,0.108946427702904,0.0302082281559706
918,0.01815440133214,-0.0176658947020769,0.0706454887986183,-0.5,0.107730038464069,0.027895875275135
919,0.0163087751716375,-0.0194416549056768,0.0700410902500153,-0.5,0.105635292828083,0.0267821662127972
920,0.0158046279102564,-0.0199768096208572,0.0694743767380714,-0.5,0.103418655693531,0.0268724076449871
921,0.0165235381573439,-0.0196962803602219,0.0686063542962074,-0.5,0.10151843726635,0.0270437337458134
922,0.017819145694375,-0.0196316260844469,0.0676559060811996,-0.5,0.100460194051266,0.0266487766057253
923,0.0197248477488756,-0.0193213615566492,0.067545548081398,-0.5,0.10069801658392,0.0262357704341412
924,0.0216563157737255,-0.0186912715435028,0.0681910589337349,-0.5,0.101607911288738,0.0258600730448961
925,0.0224982053041458,-0.0186796355992556,0.068544939160347,-0.5,0.101922124624252,0.0247388910502195
926,0.0221076719462872,-0.0194038152694702,0.0681214332580566,-0.5,0.101050853729248,0.0225830059498549
927,0.0210123937577009,-0.0206194836646318,0.0668960586190224,-0.5,0.0990575700998306,0.0197364632040262
928,0.0198690723627806,-0.0218693017959595,0.0648016482591629,-0.5,0.0961634442210197,0.0174754001200199
929,0.0192450750619173,-0.0222040582448244,0.0621030479669571,-0.5,0.0935984924435616,0.0169934537261724
930,0.0198114383965731,-0.0209654588252306,0.0596604980528355,-0.5,0.0935923531651497,0.0180171933025122
931,0.0213580802083015,-0.018984355032444,0.0579194016754627,-0.5,0.0957315787672997,0.0188815556466579
932,0.022470984607935,-0.0180639121681452,0.0565176419913769,-0.5,0.0963252410292625,0.017528124153614
933,0.0227959845215082,-0.0182442981749773,0.0553760007023811,-0.5,0.0935166552662849,0.0140284970402718
934,0.0229552779346704,-0.0182736720889807,0.0546143464744091,-0.5,0.0888111740350723,0.0104413097724319
935,0.0231733657419682,-0.0178138334304094,0.0536834187805653,-0.5,0.0837356448173523,0.00833902414888144
936,0.0230336096137762,-0.0175035409629345,0.051462285220623,-0.5,0.0780888497829437,0.00799790862947702
937,0.0222440734505653,-0.0178811121731997,0.0477432534098625,-0.5,0.0718768015503883,0.00853129383176565
938,0.0213389582931995,-0.0188251975923777,0.0437903180718422,-0.5,0.0666065812110901,0.00846448633819819
939,0.0208312068134546,-0.0199570823460817,0.0411763377487659,-0.5,0.0637483075261116,0.00729551864787936
940,0.0200690422207117,-0.0210618507117033,0.0398792326450348,-0.5,0.0626605525612831,0.00555215496569872
941,0.0182859525084496,-0.0218085460364819,0.0383111424744129,-0.498657077550888,0.0613296553492546,0.00367596209980547
942,0.0162989273667336,-0.0216636285185814,0.0360891334712505,-0.152625143527985,0.0594152919948101,0.00209629419259727
943,0.0147213404998183,-0.020927345380187,0.0339259281754494,0.187390014529228,0.0573848150670528,0.000909971771761775
944,0.0132825346663594,-0.0203132145106792,0.032157052308321,0.5,0.0550858378410339,3.61964921467006E-05
945,0.0124430265277624,-0.0199085380882025,0.0309074483811855,0.5,0.052787434309721,-0.000672754307743162
946,0.012451758608222,-0.0197510849684477,0.0296898707747459,0.5,0.0506668090820313,-0.00176557782106102
947,0.0125527642667294,-0.0199267957359552,0.0279209073632956,0.5,0.0484250299632549,-0.00362087413668633
948,0.0124069871380925,-0.0198294091969728,0.0259342864155769,0.5,0.0460464581847191,-0.00554555049166083
949,0.012273395434022,-0.0189323108643293,0.0243133157491684,0.5,0.0439436845481396,-0.00622238079085946
950,0.0120184766128659,-0.0178757626563311,0.0234229229390621,0.5,0.0427410863339901,-0.00574373826384544
951,0.011499859392643,-0.0172998439520597,0.0236118864268065,0.5,0.0426340512931347,-0.00510327843949199
952,0.0108865201473236,-0.0169513653963804,0.0246687196195126,0.5,0.0425899811089039,-0.00424254592508078
953,0.0103433262556791,-0.016683142632246,0.0259200260043144,0.5,0.0414394475519657,-0.00306657189503312
954,0.0104083139449358,-0.0164967365562916,0.0271725580096245,0.5,0.039540596306324,-0.00241563399322331
955,0.0117120677605271,-0.0160685107111931,0.0282491054385901,0.5,0.0379314422607422,-0.00328926160000265
956,0.0136900134384632,-0.0154512524604797,0.0277177877724171,0.5,0.0361655950546265,-0.00655112043023109
957,0.0151483388617635,-0.0146801648661494,0.024074474349618,0.5,0.0330874621868134,-0.0110570592805743
958,0.0157126132398844,-0.0134420143440366,0.0179405249655247,0.5,0.0290008615702391,-0.0137247759848833
959,0.0155336866155267,-0.0117628360167146,0.0115936072543263,0.5,0.0250701513141394,-0.0135875511914492
960,0.0151527626439929,-0.00984118971973658,0.00718809431418777,0.5,0.0223550964146852,-0.0123816635459661
961,0.0150885917246342,-0.00818517804145813,0.0050736702978611,0.5,0.0209396984428167,-0.0120598040521145
962,0.0148039236664772,-0.00738773867487907,0.00387220410630107,0.5,0.019456971436739,-0.0131978262215853
963,0.0138257388025522,-0.00707779498770833,0.00297845783643425,0.5,0.017448665574193,-0.0145550919696689
964,0.0124169383198023,-0.00690593710169196,0.00251460238359869,0.5,0.0161287263035774,-0.0154577661305666
965,0.0109172808006406,-0.00772084761410952,0.00193302740808576,0.5,0.0163082685321569,-0.0171080697327852
966,0.010281179100275,-0.00943955779075623,0.00168484181631356,0.5,0.0180864129215479,-0.0195343028753996
967,0.0109300604090095,-0.0107405353337526,0.00258192699402571,0.5,0.0204247813671827,-0.0214528646320105
968,0.0118118999525905,-0.0113053414970636,0.00398248387500644,0.5,0.0214694626629353,-0.0227418430149555
969,0.0122965164482594,-0.011379542760551,0.0048867417499423,0.5,0.0208620764315128,-0.0241002831608057
970,0.012368181720376,-0.0112589094787836,0.00438374932855368,0.5,0.0191833972930908,-0.0260917749255896
971,0.0117114931344986,-0.0114022688940167,0.00224011414684355,0.5,0.0166308488696814,-0.0286152847111225
972,0.0105726337060332,-0.0113505925983191,-0.000173130712937564,0.457108199596405,0.0137605648487806,-0.0302013121545315
973,0.00980278383940458,-0.0102615859359503,-0.00113010604400188,0.370521545410156,0.0115973288193345,-0.0293798390775919
974,0.00876825954765081,-0.00884632859379053,-0.00129120470955968,0.366315245628357,0.00954687874764204,-0.0271210987120867
975,0.00669033639132977,-0.00798932183533907,-0.00231595779769123,0.441836208105087,0.00641113612800837,-0.0253921411931515
976,0.00465247593820095,-0.00747021613642573,-0.00382768246345222,0.5,0.0032636821269989,-0.0253664962947369
977,0.00344995479099453,-0.00736058317124844,-0.00485112844035029,0.5,0.00153968622907996,-0.027246929705143
978,0.00263358186930418,-0.00774905178695917,-0.00554157746955752,0.5,0.000768060970585793,-0.0296040419489145
979,0.00149811175651848,-0.00821909867227077,-0.00677176285535097,0.5,-0.000626584689598531,-0.0307981055229902
980,0.00018376468506176,-0.00831769499927759,-0.00881760753691196,0.5,-0.00313516147434711,-0.0299164410680532
981,-7.28525774320588E-05,-0.00768066523596644,-0.0106888003647327,0.5,-0.00521649513393641,-0.0267418306320906
982,0.00145921879447997,-0.00612674001604319,-0.0112815760076046,0.5,-0.00540054822340608,-0.0226916279643774
983,0.00325847673229873,-0.00462902011349797,-0.0111787859350443,0.5,-0.00466316752135754,-0.0203460920602083
984,0.00395997334271669,-0.0039869099855423,-0.0113698858767748,0.5,-0.00451951567083597,-0.020619148388505
985,0.00465283822268248,-0.0030973139218986,-0.0117413634434342,0.163983777165413,-0.00491833407431841,-0.0217339582741261
986,0.00593265704810619,-0.00129375525284559,-0.0123788500204682,-0.250494241714478,-0.00582143245264888,-0.0218147113919258
987,0.00697821285575628,0.000671143818181008,-0.013301121070981,-0.5,-0.00727799767628312,-0.0207184106111526
988,0.00731475884094834,0.00202184659428895,-0.0141438180580735,-0.5,-0.00868893414735794,-0.0196011457592249
989,0.00719157140702009,0.00276525155641139,-0.0148462196812034,-0.5,-0.00947331916540861,-0.0188741032034159
990,0.00711105111986399,0.00339468149468303,-0.0151514932513237,-0.5,-0.00933346059173346,-0.0179442558437586
991,0.00701204733923078,0.00358735374175012,-0.0148257622495294,-0.5,-0.00869125593453646,-0.0174723863601685
992,0.00616023223847151,0.00229149498045444,-0.0144888889044523,-0.5,-0.00851387344300747,-0.0188598018139601
993,0.00414771260693669,-0.000729098974261433,-0.0150668593123555,-0.5,-0.0092270765453577,-0.0221723951399326
994,0.00188790436368436,-0.00417121592909098,-0.0165513753890991,-0.5,-0.0103198532015085,-0.0260593630373478
995,0.000432139175245538,-0.00639737769961357,-0.0180631503462791,-0.271211683750153,-0.0110567947849631,-0.0289926081895828
996,-0.000463216390926391,-0.00702975038439035,-0.0189767051488161,0.148567542433739,-0.0115564167499542,-0.0305852349847555
997,-0.00144190096762031,-0.00661896634846926,-0.0193273015320301,0.404849320650101,-0.0124271204695106,-0.031448308378458
998,-0.00242558680474758,-0.00545034930109978,-0.0192633513361216,0.5,-0.0135360592976213,-0.0322795882821083
999,-0.00298823486082256,-0.00384114100597799,-0.0189031828194857,0.5,-0.0137352515012026,-0.033564668148756
1000,-0.00347468233667314,-0.0027326256968081,-0.018800862133503,0.5,-0.0126623474061489,-0.0352914556860924
1001,-0.00432525435462594,-0.00258921482600272,-0.0190958417952061,0.5,-0.0117192780598998,-0.0360730662941933
1002,-0.00517562124878168,-0.00288128154352307,-0.0191758442670107,0.5,-0.0120066646486521,-0.0340157374739647
1003,-0.00589954480528831,-0.0031516645103693,-0.0190491061657667,0.5,-0.0135298613458872,-0.0296565797179937
1004,-0.00609375303611159,-0.00276919407770038,-0.0185677967965603,0.5,-0.0150826554745436,-0.0246623642742634
1005,-0.00486485194414854,-0.00120681896805763,-0.0164701696485281,0.5,-0.0144896414130926,-0.0193289499729872
1006,-0.00299827731214464,0.000111303277662955,-0.0120031284168363,0.5,-0.0109664937481284,-0.0142918648198247
1007,-0.00234994268976152,-0.000733468099497259,-0.00605781562626362,0.5,-0.00622246647253633,-0.010800457559526
1008,-0.00289987539872527,-0.00282473675906658,-0.00145595986396074,0.5,-0.00338396662846208,-0.009489631280303
1009,-0.00291387992911041,-0.00359317334368825,-0.00128691550344229,0.347938120365143,-0.00438640080392361,-0.0106795532628894
1010,-0.00154203991405666,-0.00238988408818841,-0.00566822104156017,0.17035336792469,-0.00820070970803499,-0.0142706641927361
1011,0.000446346413809806,-0.000465754012111574,-0.0121749099344015,-0.0604422837495804,-0.0128178875893354,-0.0190739501267672
1012,0.00188070372678339,0.000843543908558786,-0.0186046008020639,-0.31508082151413,-0.0169499646872282,-0.0238185785710812
1013,0.00242227432318032,0.00109109713230282,-0.0236898399889469,-0.5,-0.0197192672640085,-0.0282695405185223
1014,0.00246711424551904,0.00116666604299098,-0.0270957555621862,-0.5,-0.0214100852608681,-0.03161596134305
1015,0.00200501573272049,0.0019323006272316,-0.0295548643916845,-0.5,-0.0232270061969757,-0.0326085202395916
1016,0.000842114794068038,0.00333208381198347,-0.0314742252230644,-0.5,-0.0256166346371174,-0.0313340052962303
1017,-0.000498530222103,0.00506006227806211,-0.0320534110069275,-0.5,-0.0278873816132545,-0.0287781450897455
1018,-0.00128009147010744,0.00645900703966618,-0.0310335420072079,-0.5,-0.0290858093649149,-0.0268217995762825
1019,-0.00126260984688997,0.00701661221683025,-0.0297452472150326,-0.5,-0.0293843373656273,-0.0272990930825472
1020,-0.00111425551585853,0.00668092537671328,-0.0298087112605572,-0.5,-0.0308132339268923,-0.0299106258898973
1021,-0.00172608764842153,0.00566230528056622,-0.031546663492918,-0.5,-0.0349080227315426,-0.033003568649292
1022,-0.00286561367101967,0.00451838038861752,-0.0337085500359535,-0.303638935089111,-0.0399558767676353,-0.0356154218316078
1023,-0.00352926598861814,0.00384668144397438,-0.0347345508635044,-0.153643354773521,-0.0429492145776749,-0.0371083542704582
1024,-0.00326072750613093,0.00408682180568576,-0.0344800427556038,-0.0563876889646053,-0.0432407073676586,-0.0362172648310661
1025,-0.00284197716973722,0.00515346368774772,-0.0344137400388718,0.0062392195686698,-0.0427466817200184,-0.0324848666787148
1026,-0.00328394817188382,0.00634471932426095,-0.0354722253978252,0.0347408317029476,-0.0431209281086922,-0.0277305915951729
1027,-0.00426995428279042,0.00719677936285734,-0.0366561375558376,0.0565452575683594,-0.0438400618731976,-0.0243095830082893
1028,-0.00493728462606668,0.00785443279892206,-0.0366759933531284,0.0970206186175346,-0.0435654893517494,-0.0225375536829233
1029,-0.00541953044012189,0.00829384475946426,-0.0359493494033813,0.13007453083992,-0.0423860177397728,-0.0214021429419518
1030,-0.0061135902069509,0.00835762731730938,-0.035490307956934,0.137008145451546,-0.0413264781236649,-0.0204783603549004
1031,-0.00711701437830925,0.00796785671263933,-0.0355812683701515,0.128435596823692,-0.0412463285028934,-0.0202615540474653
1032,-0.00838140398263931,0.00734690064564347,-0.0361399687826633,0.0951197221875191,-0.0422230549156666,-0.0208591539412737
1033,-0.00919465534389019,0.00740122701972723,-0.0363870859146118,-0.00378734245896339,-0.0427532084286213,-0.0211311876773834
1034,-0.00918181892484427,0.00824025180190802,-0.0356563627719879,-0.183685049414635,-0.041706807911396,-0.0206887181848288
1035,-0.00902448501437902,0.00878001749515533,-0.0345416888594627,-0.400640219449997,-0.0398864485323429,-0.0207644775509834
1036,-0.00951435882598162,0.00824734661728144,-0.0339123159646988,-0.5,-0.0383575670421124,-0.0224132407456636
1037,-0.0108793321996927,0.00683238869532943,-0.0339648425579071,-0.5,-0.0375195778906345,-0.0253958646208048
1038,-0.0124961556866765,0.00539215886965394,-0.0344466306269169,-0.5,-0.0376923084259033,-0.0284947510808706
1039,-0.01335852406919,0.00484547624364495,-0.0347919911146164,-0.5,-0.038939293473959,-0.0305643938481808
1040,-0.0131100248545408,0.00542873330414295,-0.0344234853982925,-0.5,-0.0406217314302921,-0.031441256403923
1041,-0.0120894061401486,0.00633732322603464,-0.0334135107696056,-0.5,-0.0418749414384365,-0.0318737477064133
1042,-0.010701360180974,0.00688065448775887,-0.0319961830973625,-0.5,-0.0423401333391666,-0.0319273844361305
1043,-0.00901753734797239,0.00723298685625196,-0.0298963785171509,-0.5,-0.0418019779026508,-0.0306806601583958
1044,-0.0067635765299201,0.0079358508810401,-0.0271178111433983,-0.5,-0.039933443069458,-0.0276825372129679
1045,-0.00489386729896069,0.00866571068763733,-0.0251692682504654,-0.5,-0.0375529602169991,-0.0238296538591385
1046,-0.00483240932226181,0.00860974099487066,-0.0253243092447519,-0.5,-0.0359496846795082,-0.0203367285430431
1047,-0.00585174420848489,0.00803259387612343,-0.0264334455132484,-0.5,-0.0354097187519073,-0.0178591422736645
1048,-0.00691092386841774,0.00699703628197312,-0.027325302362442,-0.5,-0.036513976752758,-0.0173127707093954
1049,-0.00801294390112162,0.0051506794989109,-0.0282794889062643,-0.5,-0.0398089401423931,-0.0187805611640215
1050,-0.00866400636732578,0.0032221230212599,-0.0287585873156786,-0.5,-0.0435381010174751,-0.0209943540394306
1051,-0.00844358932226896,0.00229665148071945,-0.0274854190647602,-0.5,-0.0452387966215611,-0.0226928014308214
1052,-0.00773074803873897,0.00266319932416081,-0.0247999131679535,-0.5,-0.0447640903294086,-0.023031935095787
1053,-0.00717251980677247,0.00358717772178352,-0.022647961974144,-0.422828942537308,-0.0437320396304131,-0.0224296562373638
1054,-0.00698048621416092,0.00435044057667255,-0.022140396758914,-0.404578059911728,-0.043080635368824,-0.0217018723487854
1055,-0.00617540534585714,0.00564340641722083,-0.0220682360231876,-0.472337037324905,-0.0420569144189358,-0.019726537168026
1056,-0.00449907220900059,0.00775340152904391,-0.0213143099099398,-0.5,-0.0403398312628269,-0.0158851202577353
1057,-0.0030501305591315,0.00949005037546158,-0.0205410867929459,-0.5,-0.0389447137713432,-0.0123972250148654
1058,-0.00190207816194743,0.010646678507328,-0.0202105715870857,-0.5,-0.038102850317955,-0.0107357837259769
1059,-0.00106338888872415,0.011680037714541,-0.0205222070217133,-0.5,-0.0380118675529957,-0.0102292094379663
1060,-0.000853803765494376,0.0124328788369894,-0.0212411396205425,-0.5,-0.0388878807425499,-0.0102407038211823
1061,-0.000723891251254827,0.012778109870851,-0.0208812020719051,-0.5,-0.0392108596861362,-0.0108262673020363
1062,-0.000632058014161885,0.012590991333127,-0.0193742103874683,-0.5,-0.0382344648241997,-0.0123934857547283
1063,-0.0010416756849736,0.0122465435415506,-0.0182826798409224,-0.5,-0.0371560454368591,-0.0146243870258331
1064,-0.00162489910144359,0.0125465430319309,-0.0177984666079283,-0.5,-0.0364083275198936,-0.0159219987690449
1065,-0.0017384928651154,0.0136693613603711,-0.0173288881778717,-0.5,-0.0353928655385971,-0.0144559275358915
1066,-0.00189695262815803,0.0147031331434846,-0.0175863616168499,-0.5,-0.0344481319189072,-0.0107948742806911
1067,-0.00332647887989879,0.0141235925257206,-0.01955128274858,-0.5,-0.0348503887653351,-0.00835144519805908
1068,-0.00586710125207901,0.0119165098294616,-0.0225695930421352,-0.5,-0.0368035137653351,-0.008716088719666
1069,-0.00813216343522072,0.00988713279366493,-0.0248836372047663,-0.5,-0.0389339700341225,-0.00939794816076756
1070,-0.00882143992930651,0.00952687859535217,-0.0246503278613091,-0.5,-0.0392186157405376,-0.00741308461874723
1071,-0.00707715423777699,0.0113414013758302,-0.0204272363334894,-0.5,-0.0358654223382473,-0.00195642979815602
1072,-0.004211510065943,0.014077358879149,-0.0138373393565416,-0.363723605871201,-0.0303798764944077,0.00473241601139307
