,AF3,AF4,Fp1,Fp2,AF7,AF8
0,0.043498620390892,0.00552430003881454,-0.0387415215373039,-0.00047677694237791,-0.0334528274834156,-0.0081783588975668
1,0.0462401658296585,0.0020725941285491,-0.0357150658965111,-0.000483715441077948,-0.0300719626247883,-0.0101557681336999
2,0.0457463003695011,-0.0017763163195923,-0.0354627594351768,-0.00049720355309546,-0.0317621044814587,-0.0143285086378455
3,0.0425104647874832,-0.00510901538655162,-0.0382237955927849,-0.000512218335643411,-0.0364728420972824,-0.0211042333394289
4,0.0378486514091492,-0.00678558181971312,-0.0422515720129013,-0.000523012829944491,-0.0421308241784573,-0.0285264011472464
5,0.0321032889187336,-0.00802244897931814,-0.0461020097136498,-0.000526189862284809,-0.0470481552183628,-0.0348789840936661
6,0.0271318256855011,-0.00850802194327116,-0.0479681864380836,-0.000522423768416047,-0.0480677373707294,-0.0370651632547379
7,0.0238383058458567,-0.00710117630660534,-0.046742856502533,-0.000515962776262313,-0.0457784160971642,-0.0333066247403622
8,0.0202647764235735,-0.00450152065604925,-0.04299546033144,-0.000512254016939551,-0.0442917421460152,-0.0261991955339909
9,0.0165832787752151,-0.00083085655933246,-0.0370560064911842,-0.000515016261488199,-0.044072363525629,-0.0185608901083469
10,0.0143485171720386,0.00329044717364013,-0.029931366443634,-0.000524332281202078,-0.0430787466466427,-0.0122578134760261
11,0.0118486452847719,0.00425865082070231,-0.0251552946865559,-0.000536736741196364,-0.0423013716936111,-0.0111138839274645
12,0.00809744279831648,0.000212180893868208,-0.0251196436583996,-0.000547180126886815,-0.0431535542011261,-0.016475535929203
13,0.00378023344092071,-0.00771576073020697,-0.0294630080461502,-0.000551760196685791,-0.0452261604368687,-0.0258309636265039
14,-0.000470079568913206,-0.0161935426294804,-0.035764567553997,-0.00054974592057988,-0.0469133704900742,-0.0352506637573242
15,-0.00281538092531264,-0.0208193305879831,-0.0403492450714111,-0.000543847214430571,-0.0461786352097988,-0.0405144616961479
16,-0.000920793390832841,-0.0204562172293663,-0.0402938090264797,-0.000538654217962176,-0.0419663973152637,-0.0402434058487415
17,0.00589934270828962,-0.0168442204594612,-0.0352727770805359,-0.000538140127900988,-0.0346233732998371,-0.0355040952563286
18,0.0150114335119724,-0.0123483976349235,-0.0281886253505945,-0.000543585803825408,-0.0265008248388767,-0.0283606294542551
19,0.0231560934334993,-0.00855363812297583,-0.0220143366605043,-0.000553008052520454,-0.0203526690602303,-0.0211169943213463
20,0.0282969996333122,-0.00646341219544411,-0.0183339435607195,-0.000562334782443941,-0.017865989357233,-0.0160305518656969
21,0.0307986214756966,-0.00615727622061968,-0.0171956084668636,-0.000567638489883393,-0.0185027383267879,-0.0138627560809255
22,0.0331353954970837,-0.00689226575195789,-0.0171005912125111,-0.000567204435355961,-0.0207316540181637,-0.0129499696195126
23,0.0356024391949177,-0.00934681762009859,-0.0175526756793261,-0.000562348053790629,-0.0257198214530945,-0.012556261382997
24,0.0358656607568264,-0.0146352304145694,-0.0198440626263618,-0.000556599348783493,-0.0357242114841938,-0.0141032543033361
25,0.0329429022967815,-0.021117378026247,-0.0239797532558441,-0.000553752295672894,-0.0485652536153793,-0.0170201044529676
26,0.029063954949379,-0.0247872341424227,-0.0272843390703201,-0.000555855047423393,-0.0577367283403873,-0.01824089884758
27,0.0251401793211699,-0.0248266402631998,-0.028315357863903,-0.000562204804737121,-0.0606801956892014,-0.0181675981730223
28,0.01969232596457,-0.0240901876240969,-0.0280074402689934,-0.000569834548514336,-0.0605935044586658,-0.0200535468757153
29,0.0133962575346231,-0.0236656963825226,-0.0271103512495756,-0.000575172365643084,-0.0599408373236656,-0.0244312155991793
30,0.00818015541881323,-0.0222674049437046,-0.0260345749557018,-0.000575947866309434,-0.0591995678842068,-0.0290840230882168
31,0.00491004064679146,-0.018852423876524,-0.0252271797508001,-0.00057233078405261,-0.0584017336368561,-0.0303099751472473
32,0.00336068752221763,-0.01498007401824,-0.0255496092140675,-0.000566735165193677,-0.0570014305412769,-0.0256451740860939
33,0.00200108136050403,-0.014270300976932,-0.028238408267498,-0.000562452478334308,-0.0555827431380749,-0.0182170327752829
34,0.000913012656383216,-0.0164431091398001,-0.0317860916256905,-0.000561884080525488,-0.0545013174414635,-0.0114173972979188
35,0.00133201025892049,-0.0180849693715572,-0.0335099995136261,-0.000565322232432663,-0.0522394925355911,-0.00600056443363428
36,0.00266815116629004,-0.0175942983478308,-0.033647645264864,-0.000570894568227232,-0.0484270416200161,-0.0039182803593576
37,0.00399955222383142,-0.0150308879092336,-0.0339448191225529,-0.000575647398363799,-0.0454863682389259,-0.00629808288067579
38,0.00472315587103367,-0.0120738856494427,-0.0360979959368706,-0.000577145372517407,-0.0456089936196804,-0.0120164006948471
39,0.00435796054080129,-0.0110295014455915,-0.0411223992705345,-0.000574723002500832,-0.0480597391724586,-0.0194584578275681
40,0.00308171031065285,-0.0129019562155008,-0.0478348694741726,-0.000569748634006828,-0.0504302158951759,-0.0279261227697134
41,0.00186752923764288,-0.0160377696156502,-0.0525462105870247,-0.000564810296054929,-0.0502115376293659,-0.0355708599090576
42,0.00144793034996837,-0.0180480629205704,-0.0525378324091434,-0.000562303466722369,-0.0472060777246952,-0.0396352037787437
43,0.000980369979515672,-0.0187914054840803,-0.0493376068770885,-0.00056319049326703,-0.0446315556764603,-0.0401406809687614
44,-0.00121640146244317,-0.0195247922092676,-0.0468040741980076,-0.00056657160166651,-0.0462726429104805,-0.0387376546859741
45,-0.00404361030086875,-0.020087257027626,-0.0457545928657055,-0.000570250849705189,-0.0517881475389004,-0.0349618643522263
46,-0.00446540210396051,-0.0190011337399483,-0.0435805469751358,-0.000571948534343392,-0.0571689903736115,-0.0278135016560555
47,-0.00300708971917629,-0.0171156451106071,-0.0397039465606213,-0.000570493342820555,-0.0602677129209042,-0.0208730511367321
48,-0.00205654767341912,-0.0156107656657696,-0.0349841006100178,-0.0005663734045811,-0.0611462891101837,-0.0180693473666906
49,-0.00178663025144488,-0.012755979783833,-0.0293600279837847,-0.000561393157113343,-0.0604048259556293,-0.0167974904179573
50,-0.00200426508672535,-0.00826039630919695,-0.0245914999395609,-0.000557664956431836,-0.0594280771911144,-0.0138536440208554
51,-0.00360390311107039,-0.00612533604726195,-0.0230700094252825,-0.000556497136130929,-0.0587546043097973,-0.0113420253619552
52,-0.00678355479612947,-0.00966927595436573,-0.0245778076350689,-0.000557762163225561,-0.0578439794480801,-0.0112499911338091
53,-0.0103065930306911,-0.0171871222555637,-0.0273164883255959,-0.000560046231839806,-0.0558152496814728,-0.0121699254959822
54,-0.0126986876130104,-0.0254816170781851,-0.0296085756272078,-0.000561455613933504,-0.0517537146806717,-0.0134086227044463
55,-0.0138037540018559,-0.0330394729971886,-0.0304059591144323,-0.000560623768251389,-0.0472168996930122,-0.0162966921925545
56,-0.0149342259392142,-0.0386512577533722,-0.0295546669512987,-0.000557384511921555,-0.0450208634138107,-0.0211580898612738
57,-0.0174834206700325,-0.0417639538645744,-0.0280106477439404,-0.000552785350009799,-0.0460450313985348,-0.0262264143675566
58,-0.0221170466393232,-0.043450765311718,-0.0275392904877663,-0.000548473850358278,-0.0498038902878761,-0.0296254102140665
59,-0.0282377190887928,-0.0445517338812351,-0.0289110336452723,-0.000545815157238394,-0.0547700934112072,-0.0301050171256065
60,-0.0336078852415085,-0.0438252165913582,-0.0306517630815506,-0.000545211078133434,-0.0585324317216873,-0.0265781600028276
61,-0.0356878153979778,-0.0398168414831162,-0.0307852458208799,-0.000545958231668919,-0.0589228346943855,-0.02031016536057
62,-0.0344827584922314,-0.0339794903993607,-0.0291461255401373,-0.000546681345440447,-0.0555814877152443,-0.0156112993136048
63,-0.0322406552731991,-0.0288586020469666,-0.0267215557396412,-0.000546079885680228,-0.0498499497771263,-0.0149807762354612
64,-0.0297370199114084,-0.0241276994347572,-0.0233771856874228,-0.000543584930710495,-0.0422772243618965,-0.0162456873804331
65,-0.0271438974887133,-0.0195598881691694,-0.0192978754639626,-0.000539597182068974,-0.0340886786580086,-0.0179710667580366
66,-0.0249101538211107,-0.0168129242956638,-0.0161033123731613,-0.000535215658601373,-0.0279557723551989,-0.0209108218550682
67,-0.0221166145056486,-0.0156206265091896,-0.0143982479348779,-0.00053163303527981,-0.0243896562606096,-0.0233169309794903
68,-0.0190479103475809,-0.0151237277314067,-0.0139358676970005,-0.000529529177583754,-0.0228611696511507,-0.0235751122236252
69,-0.0166439078748226,-0.0155336186289787,-0.0141777219250798,-0.000528769101947546,-0.0229858122766018,-0.0232694074511528
70,-0.0143764559179544,-0.0164930559694767,-0.013859030790627,-0.00052853359375149,-0.0234723202884197,-0.0239453073590994
71,-0.0124173006042838,-0.0173410922288895,-0.0128264622762799,-0.000527781608980149,-0.0236900020390749,-0.0249670520424843
72,-0.0124455662444234,-0.0188661348074675,-0.0132284285500646,-0.000525785144418478,-0.0245035737752914,-0.02629030123353
73,-0.015398177318275,-0.0216568168252707,-0.0162911955267191,-0.00052246474660933,-0.0264331065118313,-0.0286514982581139
74,-0.019643809646368,-0.0239354185760021,-0.020061194896698,-0.00051837571663782,-0.02851178124547,-0.0311052706092596
75,-0.0234207026660442,-0.025768680498004,-0.0234015360474586,-0.000514383718837053,-0.0309832487255335,-0.0341119430959225
76,-0.0268590617924929,-0.029295964166522,-0.0277574583888054,-0.000511216698214412,-0.0354970544576645,-0.0397685430943966
77,-0.0305415466427803,-0.0343387238681316,-0.0334191881120205,-0.000509124365635216,-0.0414032563567162,-0.0477095283567905
78,-0.0334205143153667,-0.037493746727705,-0.0376570783555508,-0.000507800257764757,-0.0458550415933132,-0.0534862726926804
79,-0.034545760601759,-0.0361474603414536,-0.0390284061431885,-0.000506577838677913,-0.0484385043382645,-0.0541034415364265
80,-0.0350016355514526,-0.0330439768731594,-0.0393821969628334,-0.000504780327901244,-0.0510019920766354,-0.0524502284824848
81,-0.0342941768467426,-0.030945410951972,-0.0388987623155117,-0.000502041599247605,-0.0524449981749058,-0.0504297614097595
82,-0.0306223351508379,-0.0288868080824614,-0.0363616421818733,-0.000498450535815209,-0.051056232303381,-0.0479441285133362
83,-0.0245699156075716,-0.026318633928895,-0.0326516963541508,-0.000494469655677676,-0.0492531023919582,-0.0470994785428047
84,-0.0177308395504951,-0.0236415043473244,-0.0291634649038315,-0.000490689184516668,-0.0495177358388901,-0.0488499291241169
85,-0.0113188391551375,-0.0208076070994139,-0.0268365722149611,-0.000487547105876729,-0.0511554330587387,-0.0505587458610535
86,-0.00619352562353015,-0.0177624206990004,-0.0261155236512423,-0.00048514420632273,-0.0522511824965477,-0.0495415702462196
87,-0.00182692531961948,-0.0151848373934627,-0.0260598715394735,-0.000483226642245427,-0.0512884519994259,-0.0465760231018066
88,0.0026289694942534,-0.0138554600998759,-0.0254147369414568,-0.000481326715089381,-0.0477735660970211,-0.0438656806945801
89,0.00524620385840535,-0.0141792502254248,-0.0242540389299393,-0.000478984817164019,-0.0428018793463707,-0.0419553108513355
90,0.00356436381116509,-0.0160795971751213,-0.0234357975423336,-0.000475950946565717,-0.0389027968049049,-0.0400842055678368
91,-4.01552570110653E-05,-0.01843605004251,-0.0230133254081011,-0.00047228203038685,-0.0376125909388065,-0.0370368286967278
92,-0.00154743483290076,-0.0205875020474195,-0.022715087980032,-0.00046830321662128,-0.038624282926321,-0.0320889465510845
93,8.2403130363673E-06,-0.0231660809367895,-0.0230210609734058,-0.000464456825284287,-0.0408997237682343,-0.0263707507401705
94,0.00312277488410473,-0.0266999118030071,-0.0249388851225376,-0.0004611071490217,-0.0432105734944344,-0.0222386978566647
95,0.0052977055311203,-0.0309936478734016,-0.0287826918065548,-0.000458382710348815,-0.0445992387831211,-0.0215533953160048
96,0.00520211411640048,-0.0350509732961655,-0.0337302759289742,-0.000456120644230396,-0.0454366505146027,-0.0246181022375822
97,0.00355719891376793,-0.0370616987347603,-0.0385414026677608,-0.000453937478596345,-0.0466466695070267,-0.0294884219765663
98,0.00179910007864237,-0.0362593233585358,-0.0425021909177303,-0.000451398082077503,-0.0481952838599682,-0.0337190218269825
99,0.00101339526008815,-0.034323625266552,-0.0455648638308048,-0.000448213395429775,-0.0493859797716141,-0.0367619208991528
100,0.00170952046755701,-0.0326356180012226,-0.0464872010052204,-0.000444379460532218,-0.0489291585981846,-0.0384365133941174
101,0.0031621519010514,-0.0308499354869127,-0.0444920025765896,-0.000440192059613764,-0.0471715740859509,-0.0381672009825706
102,0.00446553295478225,-0.0292120706290007,-0.0418894961476326,-0.000436120782978833,-0.0463660918176174,-0.0368608087301254
103,0.00665722135454416,-0.0275022014975548,-0.040189903229475,-0.000432592554716393,-0.0465830080211163,-0.0345539674162865
104,0.0110145509243011,-0.0248247105628252,-0.0382951311767101,-0.000429781735874712,-0.0464428775012493,-0.0303064621984959
105,0.0164753645658493,-0.0228575598448515,-0.0358949899673462,-0.00042750989086926,-0.0460387654602528,-0.0262331794947386
106,0.0209429766982794,-0.0237214211374521,-0.0336880646646023,-0.000425314152380452,-0.0457923784852028,-0.0246770344674587
107,0.0244689583778381,-0.0259123351424932,-0.031227620318532,-0.000422662851633504,-0.0443558767437935,-0.0236708708107471
108,0.0283854901790619,-0.0262031760066748,-0.0279639288783073,-0.000419220916228369,-0.0405107289552689,-0.0202502738684416
109,0.032680980861187,-0.0235534701496363,-0.0245620254427195,-0.000415032816817984,-0.0354127734899521,-0.0153529243543744
110,0.0375140085816383,-0.0191668421030045,-0.021180996671319,-0.000410522421589121,-0.0291781947016716,-0.0117630288004875
111,0.0433330349624157,-0.0151648316532373,-0.0174348726868629,-0.000406296661822125,-0.0203411467373371,-0.010379932820797
112,0.0489274486899376,-0.0140880849212408,-0.0131842847913504,-0.000402841513277963,-0.0092564458027482,-0.0103334737941623
113,0.0526126734912395,-0.0171480141580105,-0.00819522235542536,-0.000400262419134378,0.00196962035261095,-0.0107717122882605
114,0.0531809628009796,-0.0220323633402586,-0.0043298420496285,-0.000398208998376504,0.00922167114913464,-0.011272095143795
115,0.0503840893507004,-0.0238476749509573,-0.00561190024018288,-0.000396035466110334,0.00795983243733644,-0.0108836805447936
116,0.0461260825395584,-0.0195195488631725,-0.0130551783367991,-0.000393125897971913,-0.00146935880184174,-0.00915483944118023
117,0.0427049286663532,-0.0105033721774817,-0.0222916509956121,-0.000389221357181668,-0.0131780821830034,-0.00707020470872521
118,0.0405606403946877,-0.00138237874489278,-0.0280464421957731,-0.000384574173949659,-0.02121826633811,-0.00665145786479115
119,0.0398273207247257,0.00522508099675179,-0.0272504072636366,-0.000379838049411774,-0.0228623636066914,-0.00835807621479034
120,0.0410275422036648,0.0109954653307796,-0.0197864007204771,-0.000375738716684282,-0.0189287252724171,-0.00883546471595764
121,0.0431993342936039,0.0168032757937908,-0.010554002597928,-0.000372691138181835,-0.0137292500585318,-0.0058560254983604
122,0.0450688377022743,0.0202173069119453,-0.00536926835775375,-0.000370565743651241,-0.0109683368355036,-0.00160350312944502
123,0.0466166734695435,0.018949281424284,-0.00525919534265995,-0.000368736044038087,-0.0113696483895183,0.00159306172281504
124,0.0479211769998074,0.0140818785876036,-0.00721535179764032,-0.000366394815500826,-0.0138208074495196,0.00427692988887429
125,0.0483359843492508,0.00898367259651423,-0.00824219919741154,-0.000362979510100558,-0.0167658962309361,0.00772954197600484
126,0.047398891299963,0.00626537157222629,-0.00862313155084848,-0.000358482677256688,-0.0205914750695229,0.0112918931990862
127,0.044526606798172,0.00610079569742084,-0.0111091211438179,-0.000353475334122777,-0.0271511189639568,0.0123968403786421
128,0.0397288240492344,0.00759120984002948,-0.0161036271601915,-0.000348820147337392,-0.0352998115122318,0.0102337403222919
129,0.0340220518410206,0.0101178232580423,-0.020847475156188,-0.000345217908034101,-0.041605643928051,0.00636349897831678
130,0.0282199010252953,0.0129810580983758,-0.0238942485302687,-0.00034282638807781,-0.0451311990618706,0.00221025198698044
131,0.0237229485064745,0.0155728757381439,-0.0264401417225599,-0.000341159728122875,-0.0472521744668484,-0.00132676120847464
132,0.0214208569377661,0.0163226425647736,-0.0292595531791449,-0.000339331629220396,-0.0487491674721241,-0.0045920112170279
133,0.0209070984274149,0.0141516784206033,-0.0309080239385366,-0.000336521392455325,-0.0483088232576847,-0.00639600958675146
134,0.0216469187289476,0.0103613203391433,-0.0302799493074417,-0.000332417577737942,-0.0446256846189499,-0.00438649905845523
135,0.0234793163836002,0.00719515047967434,-0.0283700861036778,-0.000327398942317814,-0.0388851128518581,0.000636557640973479
136,0.0252557154744864,0.00561516918241978,-0.0274382121860981,-0.00032234750688076,-0.0344397276639938,0.00624603033065796
137,0.0254209656268358,0.005151083227247,-0.0285142138600349,-0.000318185600917786,-0.0331972353160381,0.0110657615587115
138,0.0243875347077847,0.00483416253700852,-0.0303564239293337,-0.000315379904350266,-0.0345696434378624,0.0144991725683212
139,0.0238092914223671,0.00339405471459031,-0.0308278147131205,-0.000313680386170745,-0.0366135351359844,0.0158228483051062
140,0.025335930287838,0.000592710275668651,-0.0279919877648354,-0.000312240299535915,-0.0352470092475414,0.0144357681274414
141,0.0289805475622416,-0.00293598836287856,-0.0230034869164228,-0.000310060975607485,-0.0294491425156593,0.00982723757624626
142,0.0330575592815876,-0.00673349294811487,-0.0198436342179775,-0.000306527566863224,-0.0232474487274885,0.00192967604380101
143,0.0367175452411175,-0.00921575631946325,-0.0197652485221624,-0.000301748048514128,-0.0191303621977568,-0.00697890669107437
144,0.0400309674441814,-0.00901929847896099,-0.0209245625883341,-0.000296507903840393,-0.0165067091584206,-0.0145408790558577
145,0.0424267947673798,-0.00746125867590308,-0.022643068805337,-0.000291858275886625,-0.0142306797206402,-0.0212479829788208
146,0.0428601689636707,-0.00650445325300097,-0.0254304483532906,-0.00028855333221145,-0.0120283048599958,-0.0273551139980555
147,0.0412238091230392,-0.00653315195813775,-0.0288478322327137,-0.000286639056866989,-0.0107190702110529,-0.0309859979897738
148,0.0392385274171829,-0.00612522149458528,-0.0309618823230267,-0.000285417947452515,-0.00987891480326653,-0.0305681265890598
149,0.038177452981472,-0.0045724930241704,-0.0309330243617296,-0.00028381499578245,-0.00871544983237982,-0.0281321536749601
150,0.0364936701953411,-0.00364063424058259,-0.031090946868062,-0.000280952692264691,-0.00860652886331081,-0.0285787116736174
151,0.0329999998211861,-0.00388361979275942,-0.033159751445055,-0.000276627339189872,-0.00961942598223686,-0.0330971404910088
152,0.0291959010064602,-0.0035960606765002,-0.0358506962656975,-0.000271427561528981,-0.00964923482388258,-0.03776965290308
153,0.0269839055836201,-0.00181864120531827,-0.0374034382402897,-0.000266426242887974,-0.00773212779313326,-0.0393357314169407
154,0.0263237934559584,0.000528272998053581,-0.0380619652569294,-0.000262607296463102,-0.00541063398122787,-0.0380132757127285
155,0.0254235658794641,0.00139363238122314,-0.0391667112708092,-0.000260333792539313,-0.00478795729577541,-0.0361765772104263
156,0.0246083494275808,0.00023255732958205,-0.0399607829749584,-0.000259145977906883,-0.00429160846397281,-0.0354026146233082
157,0.0263518802821636,-0.00124411599244922,-0.0382273308932781,-0.00025800138246268,-0.00159097136929631,-0.0348802320659161
158,0.0306223444640636,-0.00182887841947377,-0.0335730947554111,-0.00025583224487491,0.00201246491633356,-0.0337460674345493
159,0.0343393608927727,-0.00192918756511062,-0.0281265340745449,-0.000252121477387846,0.00409332336857915,-0.0323420017957687
160,0.0353178158402443,-0.00108268775511533,-0.0231821518391371,-0.000247186573687941,0.00398061983287334,-0.029503658413887
161,0.0344180576503277,0.00211459212005138,-0.0178329143673182,-0.000242014750256203,0.00238273316062987,-0.0240143928676844
162,0.032821100205183,0.00659932708367705,-0.0125416656956077,-0.000237735395785421,-0.000723852543160319,-0.0186303537338972
163,0.0307872630655766,0.0101774241775274,-0.00884249154478312,-0.00023501183022745,-0.00504502234980464,-0.0165546145290136
164,0.028296671807766,0.0119264433160424,-0.00772161595523357,-0.000233680533710867,-0.00910460669547319,-0.0183677319437265
165,0.0247530173510313,0.0117548815906048,-0.0093373442068696,-0.00023283448535949,-0.0116706229746342,-0.0245027635246515
166,0.0211614668369293,0.0116535238921642,-0.0109754474833608,-0.000231308556976728,-0.0113362837582827,-0.0330940745770931
167,0.0192754119634628,0.0132413683459163,-0.0105531346052885,-0.000228306787903421,-0.00817675143480301,-0.0395739562809467
168,0.017395781353116,0.0144361210986972,-0.0103832678869367,-0.000223833674681373,-0.0056672366335988,-0.0425157658755779
169,0.0128253363072872,0.0135113829746842,-0.0123476954177022,-0.000218695335206576,-0.00689681293442845,-0.0426505468785763
170,0.00702473986893892,0.0119823114946485,-0.0144594796001911,-0.000214068029890768,-0.00976493768393993,-0.0395681671798229
171,0.00329300994053483,0.0115804895758629,-0.0142454262822866,-0.000210865138797089,-0.00998902600258589,-0.0343730412423611
172,0.0018811693880707,0.0127911157906055,-0.0121659673750401,-0.000209243808058091,-0.00759106175974011,-0.0290510021150112
173,0.00146703026257455,0.0159762538969517,-0.0106024714186788,-0.000208518104045652,-0.005254867952317,-0.0233156159520149
174,0.00128058122936636,0.0190278366208076,-0.0117902224883437,-0.000207526914891787,-0.00499316258355975,-0.0184402205049992
175,0.00133789505343884,0.0183955691754818,-0.0159910339862108,-0.000205259144422598,-0.00768650183454156,-0.0175168719142675
176,0.00329260714352131,0.0148866334930062,-0.0206024423241615,-0.00020139929256402,-0.0118777081370354,-0.0192865747958422
177,0.00823061540722847,0.0123136471956968,-0.0224746260792017,-0.000196498658624478,-0.0153448544442654,-0.0193474311381578
178,0.0145555222406983,0.0118660591542721,-0.0202193148434162,-0.000191679253475741,-0.0173389576375484,-0.0153536330908537
179,0.0188241321593523,0.0104119284078479,-0.0164416879415512,-0.000188029414857738,-0.0193827301263809,-0.00956690032035112
180,0.0188096575438976,0.00525927543640137,-0.015531680546701,-0.000186017146916129,-0.0228437632322311,-0.00633920030668378
181,0.0153682958334684,-0.0022807065397501,-0.0181159991770983,-0.000185237789992243,-0.0263712611049414,-0.00816915836185217
182,0.0100550139322877,-0.00903617404401302,-0.0216279067099094,-0.000184632299351506,-0.0289170201867819,-0.0140777518972754
183,0.00398418167605996,-0.0122484182938933,-0.0236664321273565,-0.000183058422408067,-0.0309418477118015,-0.0197577439248562
184,-0.00265605328604579,-0.0126619469374418,-0.0243083145469427,-0.000179906433913857,-0.0333905257284641,-0.0237367171794176
185,-0.00987832900136709,-0.0131006874144077,-0.0243277922272682,-0.00017542731075082,-0.0365692786872387,-0.0280335508286953
186,-0.0166893843561411,-0.0149235865101218,-0.023178530856967,-0.000170596351381391,-0.0390093363821507,-0.0328362360596657
187,-0.0223319139331579,-0.0182083901017904,-0.0213957726955414,-0.000166586687555537,-0.039813581854105,-0.0357259288430214
188,-0.0260182172060013,-0.0207435674965382,-0.0200631506741047,-0.000164136712555774,-0.0391866639256477,-0.0335177034139633
189,-0.0268740486353636,-0.0198115427047014,-0.0188968796283007,-0.000163153323228471,-0.0369059555232525,-0.0274465903639793
190,-0.0244985856115818,-0.0150558166205883,-0.016684228554368,-0.000162764074048027,-0.0325854271650314,-0.0223305076360703
191,-0.02032370865345,-0.00891015212982893,-0.0130670806393027,-0.000161789314006455,-0.0277340840548277,-0.0206913277506828
192,-0.016579058021307,-0.00523894233629107,-0.00922357756644487,-0.000159378556418233,-0.0250962320715189,-0.0218995474278927
193,-0.0144128929823637,-0.00688634067773819,-0.00696009397506714,-0.000155467656441033,-0.0258327089250088,-0.0241587348282337
194,-0.0143525702878833,-0.0134477838873863,-0.007518928963691,-0.000150810650666244,-0.0289637967944145,-0.0259288474917412
195,-0.0146704744547606,-0.0196910351514816,-0.00995401944965124,-0.000146570702781901,-0.0310573875904083,-0.0253051146864891
196,-0.0141579518094659,-0.0213091615587473,-0.01297827064991,-0.00014369205746334,-0.0299803446978331,-0.0225968789309263
197,-0.0155293522402644,-0.0196544211357832,-0.016491299495101,-0.000142392600537278,-0.0285477377474308,-0.0203309822827578
198,-0.019398458302021,-0.016276940703392,-0.018349576741457,-0.000142049699206837,-0.0281073600053787,-0.0172287076711655
199,-0.0224366765469313,-0.011534252204001,-0.0163430627435446,-0.000141539407195523,-0.0257551856338978,-0.0110828848555684
200,-0.0245499107986689,-0.00838203821331263,-0.0135069731622934,-0.000139844123623334,-0.0222856607288122,-0.00512847490608692
201,-0.0279789064079523,-0.00951765943318605,-0.0138061009347439,-0.000136599861434661,-0.0212930478155613,-0.00390325370244682
202,-0.0323914103209972,-0.0146484524011612,-0.0166050996631384,-0.000132288740132935,-0.0225822478532791,-0.00821176636964083
203,-0.0359643846750259,-0.0217013359069824,-0.0185899995267391,-0.000127974737551995,-0.0230895709246397,-0.0148112960159779
204,-0.0370592400431633,-0.0271685440093279,-0.0173004120588303,-0.000124727666843683,-0.0200143251568079,-0.0185983665287495
205,-0.035899244248867,-0.0280340518802404,-0.0128551330417395,-0.000123047342640348,-0.0133991651237011,-0.0182191897183657
206,-0.0348533689975739,-0.0244822464883327,-0.00726752122864127,-0.000122598168672994,-0.00639167707413435,-0.0165701787918806
207,-0.0352490730583668,-0.0188766065984964,-0.002094357740134,-0.000122395184007473,-0.00148711923975497,-0.0153459431603551
208,-0.0358064696192741,-0.0126855382695794,0.0024636157322675,-0.000121338358439971,0.00173252809327096,-0.0129948798567057
209,-0.0363337807357311,-0.00728847831487656,0.00605967408046126,-0.000118805372039787,0.00418895296752453,-0.00774536048993468
210,-0.038884237408638,-0.0037543186917901,0.00829356536269188,-0.000114983013190795,0.00564217148348689,0.000812181911896914
211,-0.0438175871968269,-0.000994643080048263,0.00938988849520683,-0.000110760767711326,0.00585957756265998,0.0119230886921287
212,-0.0484777726233006,0.00222971104085445,0.0100845107808709,-0.000107247062260285,0.0063345986418426,0.0222022216767073
213,-0.0497368089854717,0.00636897701770067,0.0121091427281499,-0.000105171304312535,0.00965834408998489,0.0275398977100849
214,-0.0479257069528103,0.0108949886634946,0.0163793154060841,-0.000104494538391009,0.0160476099699736,0.0273974593728781
215,-0.0459549129009247,0.0145039083436131,0.0222003925591707,-0.000104436658148188,0.023619718849659,0.0254780165851116
216,-0.0455415025353432,0.0165553875267506,0.0288922395557165,-0.000103902100818232,0.0309063997119665,0.02569280564785
217,-0.0468970276415348,0.016564417630434,0.0342875793576241,-0.000102071717265062,0.035849466919899,0.027232026681304
218,-0.0484935641288757,0.0141796683892608,0.0346827693283558,-9.88408210105263E-05,0.0362109690904617,0.0251516662538052
219,-0.0473799556493759,0.011437188833952,0.0288670193403959,-9.48691522353329E-05,0.0321059487760067,0.0164994299411774
220,-0.0429456196725369,0.0110672246664763,0.017845107242465,-9.12191389943473E-05,0.0243061576038599,0.0034911367110908
221,-0.038893286138773,0.0112712197005749,0.00288445269688964,-8.87810019776225E-05,0.013110313564539,-0.0094597302377224
222,-0.0382856279611588,0.0087287612259388,-0.0115191405639052,-8.77957718330435E-05,0.00189877161756158,-0.0179863851517439
223,-0.0395571067929268,0.00508078327402473,-0.0187908131629229,-8.77319762366824E-05,-0.00443925522267818,-0.0192528087645769
224,-0.0391253270208836,0.00401209853589535,-0.0169322732836008,-8.75789119163528E-05,-0.00421345932409167,-0.0149601316079497
225,-0.0359776727855206,0.00603325944393873,-0.00990564562380314,-8.63946552271955E-05,0.000584714347496629,-0.00938558205962181
226,-0.033243004232645,0.00873413123190403,-0.00369744305498898,-8.38115665828809E-05,0.00554617401212454,-0.00509674428030849
227,-0.0329361446201801,0.0094779459759593,-0.00123896554578096,-8.02279100753367E-05,0.00819606892764568,-0.00322210742160678
228,-0.0327924080193043,0.00714551517739892,-0.00145616056397557,-7.65856893849559E-05,0.00946107041090727,-0.00419285707175732
229,-0.0309744197875261,0.00229113735258579,-0.00326975760981441,-7.38586386432871E-05,0.00921481661498547,-0.00702069606631994
230,-0.0289012547582388,-0.00371728930622339,-0.00706150056794286,-7.25286372471601E-05,0.00570767652243376,-0.0103856986388564
231,-0.0283597316592932,-0.00950067583471537,-0.0122933201491833,-7.23322882549837E-05,-0.000602701911702752,-0.012779239565134
232,-0.0282601490616798,-0.0135073624551296,-0.0158603843301535,-7.24107521818951E-05,-0.00576357450336218,-0.0116374623030424
233,-0.0268536731600761,-0.0150092942640185,-0.0154535174369812,-7.1777896664571E-05,-0.00681599043309689,-0.00704531231895089
234,-0.0258139353245497,-0.0160430539399385,-0.0139834219589829,-6.98514704708941E-05,-0.00617693271487951,-0.0050887861289084
235,-0.028071777895093,-0.0190367959439754,-0.0158902797847986,-6.67610074742697E-05,-0.00749513227492571,-0.0105781117454171
236,-0.0330756343901157,-0.0233053229749203,-0.0201892834156752,-6.32697556284256E-05,-0.00984396785497665,-0.0183282066136599
237,-0.0380903221666813,-0.0278214011341333,-0.0223670527338982,-6.03570297244005E-05,-0.0107923028990626,-0.0199072454124689
238,-0.0417582578957081,-0.0334101244807243,-0.0217249169945717,-5.86896676395554E-05,-0.0113399242982268,-0.014700660482049
239,-0.0431896708905697,-0.0388403981924057,-0.0218896511942148,-5.82678076170851E-05,-0.0134363751858473,-0.00828809570521116
240,-0.0415576323866844,-0.0408222675323486,-0.0245237313210964,-5.84331901336554E-05,-0.0161160621792078,-0.0051158806309104
241,-0.0372981317341328,-0.038898378610611,-0.0270553771406412,-5.8230958529748E-05,-0.0169200282543898,-0.00640625460073352
242,-0.0317218154668808,-0.034941703081131,-0.0271493047475815,-5.69260664633475E-05,-0.0148646235466003,-0.0106149287894368
243,-0.0270645096898079,-0.0300886258482933,-0.02518648840487,-5.43949499842711E-05,-0.0114655969664454,-0.0145675111562014
244,-0.0240608621388674,-0.023794386535883,-0.0211442597210407,-5.1183673349442E-05,-0.00758063234388828,-0.0162034332752228
245,-0.0217653773725033,-0.0158021412789822,-0.0149622252210975,-4.82058130728547E-05,-0.00304092792794108,-0.0158419888466597
246,-0.0199723597615957,-0.00706538651138544,-0.00797077920287848,-4.62470889033284E-05,0.000293949793558568,-0.0137408040463924
247,-0.0177265126258135,0.00190257746726274,-0.00105689268093556,-4.55454355687834E-05,0.00166643271222711,-0.00911164376884699
248,-0.0140842217952013,0.00977221317589283,0.00469118217006326,-4.5670891267946E-05,0.00336783938109875,-0.00330276996828616
249,-0.00985618960112333,0.0146462908014655,0.00712046679109335,-4.57656860817224E-05,0.0063353069126606,0.000842993031255901
250,-0.00609580148011446,0.0173671506345272,0.0048376340419054,-4.50105035270099E-05,0.00913298595696688,0.00320959859527648
251,-0.00363263511098921,0.0202946122735739,-0.000674501759931445,-4.30634572694544E-05,0.0114167602732778,0.00567571679130197
252,-0.00274244043976069,0.0234377086162567,-0.00597250694409013,-4.02364967158064E-05,0.0140365036204457,0.00874425377696753
253,-0.00222753779962659,0.024969607591629,-0.00811607763171196,-3.7318401155062E-05,0.0171033330261707,0.0115657299757004
254,-0.00174409023020417,0.0238024834543467,-0.00660434318706393,-3.51445451087784E-05,0.0192248001694679,0.012572530657053
255,-0.00139764742925763,0.0214894972741604,-0.00271854712627828,-3.41481063514948E-05,0.0193210262805223,0.0116182444617152
256,-0.000845699338242412,0.0200486853718758,0.00129824737086892,-3.41337981808465E-05,0.0165057461708784,0.00994712114334106
257,-0.000240273497183807,0.019461078569293,0.00250967242754996,-3.43922038155142E-05,0.00997492298483849,0.00837366841733456
258,0.000782234012149274,0.0189882330596447,-0.000307683745631948,-3.40880869771354E-05,0.00207843142561615,0.00836575776338577
259,0.00136063923127949,0.0174509678035975,-0.00624928623437881,-3.27101624861825E-05,-0.00471088802441955,0.00965334754437208
260,0.000878000108059496,0.0146497804671526,-0.0125504983589053,-3.03400411212351E-05,-0.00924764946103096,0.00936623569577932
261,0.00108642561826855,0.0120762018486857,-0.0162634626030922,-2.75989732472226E-05,-0.0106512624770403,0.00658964971080422
262,0.00272436626255512,0.0106728607788682,-0.0168293938040733,-2.53060479735723E-05,-0.0104891946539283,0.00441221194341779
263,0.00469683296978474,0.0095234252512455,-0.0148418880999088,-2.40358785958961E-05,-0.0105827720835805,0.00535480212420225
264,0.00524972099810839,0.00723652262240648,-0.0116124348714948,-2.38145767070819E-05,-0.0111817447468638,0.0079357111826539
265,0.00384186813607812,0.00467676669359207,-0.00885456707328558,-2.41147954511689E-05,-0.0116638960316777,0.0104892533272505
266,0.0015901984879747,0.00292094657197595,-0.0075222565792501,-2.41475390794221E-05,-0.0116420742124319,0.0126715814694762
267,-0.00154858711175621,0.00112048233859241,-0.00818610470741987,-2.3289325326914E-05,-0.0121142473071814,0.0139051834121346
268,-0.00535190384835005,0.000574039295315742,-0.0100912814959884,-2.14133779081749E-05,-0.0132915182039142,0.0136949345469475
269,-0.00858093146234751,0.00307310908101499,-0.0122425770387053,-1.89489637705265E-05,-0.0151120480149984,0.0110161285847425
270,-0.0106886122375727,0.00672181462869048,-0.0149690601974726,-1.6641708498355E-05,-0.0182946920394897,0.00576279498636723
271,-0.0105308778584003,0.00909119937568903,-0.0177594423294067,-1.51485819515074E-05,-0.0217563230544329,0.000539535656571388
272,-0.00713726598769426,0.00870188791304827,-0.0192214101552963,-1.46874926940654E-05,-0.0235016457736492,-0.00222206697799265
273,-0.00217361026443541,0.00422037253156304,-0.0198504626750946,-1.49283323480631E-05,-0.0240159295499325,-0.00448159594088793
274,0.00202182098291814,-0.00225726119242609,-0.0208935514092445,-1.51795502461027E-05,-0.0251251887530088,-0.00949813146144152
275,0.00573436496779323,-0.00550497556105256,-0.0210782773792744,-1.47649816426565E-05,-0.0261332038789988,-0.0154852401465178
276,0.00934221222996712,-0.00404318794608116,-0.0188139285892248,-1.33855874082656E-05,-0.0255172606557608,-0.0194478314369917
277,0.011168728582561,-0.000841687142383307,-0.015021332539618,-1.12725647340994E-05,-0.0245705749839544,-0.0219033136963844
278,0.0108904140070081,0.00239244918338954,-0.0108020948246121,-9.0536623247317E-06,-0.0240644719451666,-0.0237159039825201
279,0.0104167172685266,0.00741247972473502,-0.0067206583917141,-7.40963378120796E-06,-0.0233297869563103,-0.0234839208424091
280,0.0108239455148578,0.0151023361831903,-0.00419868854805827,-6.70876261210651E-06,-0.0238871183246374,-0.0206456556916237
281,0.0119371991604567,0.0224336888641119,-0.00390206812880933,-6.81561505189165E-06,-0.0269031934440136,-0.0171716157346964
282,0.0140245109796524,0.0269497837871313,-0.00413847342133522,-7.17312786946422E-06,-0.0313205309212208,-0.0131150642409921
283,0.0173554513603449,0.0293709468096495,-0.00226210872642696,-7.10881977283861E-06,-0.0356634631752968,-0.00613569607958198
284,0.0201488509774208,0.0304355025291443,0.00174464948941022,-6.19684715275071E-06,-0.0391773283481598,0.00336771691218019
285,0.019676435738802,0.0307643860578537,0.00467547401785851,-4.48095715910313E-06,-0.0424378477036953,0.0128072872757912
286,0.0159584041684866,0.0317481458187103,0.00478776730597019,-2.44172883867577E-06,-0.0455510504543781,0.0203675013035536
287,0.0130336647853255,0.0343598015606403,0.00406262278556824,-7.30692192973947E-07,-0.0464391522109509,0.0248386412858963
288,0.0138827292248607,0.0382141508162022,0.00345711340196431,1.81702915824644E-07,-0.0444779694080353,0.0268120411783457
289,0.0159554295241833,0.0407872498035431,0.000642059312667698,2.54122369369725E-07,-0.0428520329296589,0.0280373767018318
290,0.0160707756876946,0.0396922565996647,-0.0052038636058569,-1.12241380634259E-07,-0.0431678667664528,0.0281608942896128
291,0.0138900764286518,0.0345236398279667,-0.0121848667040467,-2.97267177984395E-07,-0.0441262759268284,0.0249590259045362
292,0.0109727047383785,0.026983268558979,-0.017748661339283,2.02008109795315E-07,-0.0447611585259438,0.0187836028635502
293,0.010223750025034,0.0204704031348228,-0.0190697107464075,1.50496146034129E-06,-0.0436401516199112,0.0130812004208565
294,0.0125795407220721,0.0168605055660009,-0.0158414430916309,3.29169051838107E-06,-0.0400430150330067,0.00896846409887075
295,0.0157571509480476,0.0151256965473294,-0.011413854546845,4.98340978083434E-06,-0.03609524294734,0.00449251011013985
296,0.0177969112992287,0.0142363095656037,-0.00867210142314434,6.05743434789474E-06,-0.0338811539113522,-0.00112191378138959
297,0.019859341904521,0.0152291664853692,-0.00708727445453405,6.32541514278273E-06,-0.0323814563453197,-0.00543200876563787
298,0.0239990316331387,0.0189987830817699,-0.00513061694800854,6.02681984673836E-06,-0.0303081125020981,-0.0052449400536716
299,0.0280746873468161,0.0236110351979733,-0.00399354193359613,5.69168196307146E-06,-0.0298142228275537,-0.0019862256012857
300,0.0292336419224739,0.0275316704064608,-0.00516054173931479,5.85104817218962E-06,-0.0318167470395565,0.00211751577444375
301,0.028622156009078,0.031119441613555,-0.00789815746247768,6.75327919452684E-06,-0.033706933259964,0.00825895927846432
302,0.0273259375244379,0.0331825949251652,-0.0112681314349175,8.23773643787717E-06,-0.0347320474684238,0.0156432092189789
303,0.026336744427681,0.0330153815448284,-0.0138745373114944,9.82985056907637E-06,-0.0348166264593601,0.0216526370495558
304,0.027261134237051,0.031864557415247,-0.014423456043005,1.10017790575512E-05,-0.0318711698055267,0.024082001298666
305,0.0283234063535929,0.0301297679543495,-0.0133597608655691,1.14556005428312E-05,-0.02668372169137,0.021530345082283
306,0.0259567927569151,0.0271843243390322,-0.011814477853477,1.12771913336474E-05,-0.0241515319794416,0.0146589754149318
307,0.0206792578101158,0.0230333469808102,-0.00919494591653347,1.08815547719132E-05,-0.0257635898888111,0.00691371038556099
308,0.0163553170859814,0.0187562685459852,-0.0035561085678637,1.07836312963627E-05,-0.0281480625271797,0.00324339186772704
309,0.0145286042243242,0.0151346707716584,0.0040147970430553,1.13211099233013E-05,-0.0292128268629313,0.00378619995899498
310,0.01364207547158,0.0122643262147903,0.0095352977514267,1.2478415555961E-05,-0.0296078864485025,0.00305886100977659
311,0.0123791638761759,0.0101035004481673,0.0111932652071118,1.39035018946743E-05,-0.0306323301047087,-0.00196187640540302
312,0.0115935066714883,0.00909162871539593,0.0110820317640901,1.51038611875265E-05,-0.031252309679985,-0.00677932566031814
313,0.0118505284190178,0.00987120717763901,0.011487596668303,1.5712799722678E-05,-0.0288604833185673,-0.00496529554948211
314,0.0114325946196914,0.0119730494916439,0.0117091769352555,1.5682098819525E-05,-0.0239819064736366,0.00193749484606087
315,0.0101398462429643,0.0153773287311196,0.0104162208735943,1.52999928104691E-05,-0.0186054445803165,0.00697443913668394
316,0.0100486911833286,0.0205911006778479,0.00781694147735834,1.50291753016063E-05,-0.0134588629007339,0.00712035875767469
317,0.0110018467530608,0.0255117993801832,0.00408865883946419,1.52557277033338E-05,-0.0102055910974741,0.00348113151267171
318,0.0105487750843167,0.0269793663173914,-0.000714254158083349,1.6085192328319E-05,-0.0105552515015006,-0.000912608287762851
319,0.00755149498581886,0.0242813229560852,-0.0048071276396513,1.72934214788256E-05,-0.0132305296137929,-0.00329109118320048
320,0.00257171876728535,0.0183286480605602,-0.00645148288458586,1.84545242518652E-05,-0.0158829614520073,-0.00480568502098322
321,-0.00259852269664407,0.0112827373668551,-0.00618623476475477,1.91731433005771E-05,-0.0182118266820908,-0.00679819379001856
322,-0.00450502196326852,0.00660852482542396,-0.00515956431627274,1.92944771697512E-05,-0.0193596612662077,-0.00748480530455709
323,-0.00212200870737433,0.00546535151079297,-0.0045648249797523,1.89806123671588E-05,-0.0178091637790203,-0.00636339141055942
324,0.00089150108397007,0.00522957323119044,-0.00606132484972477,1.86159268196207E-05,-0.0155981061980128,-0.00556100998073816
325,0.00196235533803701,0.0040392205119133,-0.00907742697745562,1.85964818228967E-05,-0.0152125125750899,-0.00514371646568179
326,0.00172713224310428,0.00314759649336338,-0.0101877553388476,1.91187500604428E-05,-0.0158012863248587,-0.000447237223852426
327,0.000288932700641453,0.00398846156895161,-0.00800522230565548,2.00803424377227E-05,-0.0161894150078297,0.00997486617416143
328,-0.00245133624412119,0.00852079875767231,-0.00499830115586519,2.11426322493935E-05,-0.016882399097085,0.0191090684384108
329,-0.00538324797526002,0.0172639936208725,-0.00460239313542843,2.19175562961027E-05,-0.0196207389235497,0.0211680214852095
330,-0.00771945342421532,0.0250028111040592,-0.00822057109326124,2.21756654354976E-05,-0.0256836544722319,0.0181580372154713
331,-0.00962948240339756,0.0266778338700533,-0.0136944744735956,2.19639914575964E-05,-0.0332839041948318,0.0140166459605098
332,-0.0108421500772238,0.0230007413774729,-0.0165960602462292,2.15734253288247E-05,-0.0383134074509144,0.00869959313422441
333,-0.010257407091558,0.0175033956766129,-0.0142546957358718,2.13771400012774E-05,-0.038794256746769,0.000394847069401294
334,-0.00811124127358198,0.013383412733674,-0.00905084982514381,2.16297448787373E-05,-0.0371247567236423,-0.0101596182212234
335,-0.0073581887409091,0.0104056112468243,-0.00632760347798467,2.23352108150721E-05,-0.0377575904130936,-0.020932000130415
336,-0.0104718310758471,0.00556185422465205,-0.00860005058348179,2.32519487326499E-05,-0.0425378754734993,-0.0303527992218733
337,-0.016419680789113,-0.000710501743014902,-0.0141939362511039,2.40284334722674E-05,-0.0492303259670734,-0.0355200134217739
338,-0.0235625710338354,-0.00522265676409006,-0.021220063790679,2.43933900492266E-05,-0.0549469776451588,-0.0350919514894485
339,-0.0312524102628231,-0.00682344846427441,-0.0290064755827188,2.42977821471868E-05,-0.0581026971340179,-0.0330393351614475
340,-0.0374837182462215,-0.00638758484274149,-0.0364817604422569,2.39344190049451E-05,-0.0578700676560402,-0.0343723557889462
341,-0.0396186634898186,-0.00451483065262437,-0.0411569140851498,2.36283703998197E-05,-0.0528309643268585,-0.0390458516776562
342,-0.0371323339641094,-0.000497067230753601,-0.0407491959631443,2.36603082157671E-05,-0.0422626733779907,-0.0422828793525696
343,-0.0313906893134117,0.00514059094712138,-0.0353060811758041,2.41187335632276E-05,-0.0291147772222757,-0.0416589938104153
344,-0.0247977282851934,0.00960209034383297,-0.0272663105279207,2.48588148679119E-05,-0.0183275006711483,-0.0399109981954098
345,-0.01888258010149,0.0114276176318526,-0.0193758681416512,2.55864852078957E-05,-0.0120532661676407,-0.0387949496507645
346,-0.0122342314571142,0.0120302997529507,-0.012175421230495,2.60192628047662E-05,-0.00910676643252373,-0.0366484522819519
347,-0.00407291296869516,0.013302106410265,-0.00548386434093118,2.60359611274907E-05,-0.00845768768340349,-0.0326215028762817
348,0.00239918613806367,0.0147090498358011,-0.00143769732676446,2.57360552495811E-05,-0.0109945368021727,-0.029134152457118
349,0.00419050175696611,0.0139403389766812,-0.00212273630313575,2.53800135396887E-05,-0.0165970362722874,-0.0282058697193861
350,0.00224473280832171,0.0107827205210924,-0.00593639025464654,2.52460195042659E-05,-0.0221278481185436,-0.028123751282692
351,-0.00101478258147836,0.00781626719981432,-0.0104203028604388,2.5481844204478E-05,-0.0260576512664557,-0.0276656933128834
352,-0.0030883583240211,0.0077933045104146,-0.014569167047739,2.60306987911463E-05,-0.0290443729609251,-0.0277815572917461
353,-0.00283018918707967,0.0102682327851653,-0.0172697845846415,2.6668019927456E-05,-0.0307232104241848,-0.0294183902442455
354,-0.00114302604924887,0.0123659269884229,-0.0176911875605583,2.71260905719828E-05,-0.0302537921816111,-0.0322713367640972
355,0.00160914508160204,0.0130008449777961,-0.0167688969522715,2.7237436370342E-05,-0.0275680236518383,-0.033881813287735
356,0.00509302085265517,0.0128106232732534,-0.0168242119252682,2.70203381660394E-05,-0.0251939091831446,-0.0325328819453716
357,0.00713109457865357,0.0119701353833079,-0.0196018274873495,2.666297586984E-05,-0.0263233091682196,-0.0297082718461752
358,0.005661700386554,0.00979679357260466,-0.0246049985289574,2.64180671365466E-05,-0.0300396978855133,-0.0291314404457808
359,0.00261777499690652,0.00616164924576879,-0.0291442088782787,2.64668578893179E-05,-0.0327293761074543,-0.0323731303215027
360,0.00134363013785332,0.00151148298755288,-0.031400952488184,2.68256371782627E-05,-0.0339501239359379,-0.0381655022501946
361,0.00231876177713275,-0.00326891196891665,-0.0317906178534031,2.73428631771822E-05,-0.0358659960329533,-0.0445062071084976
362,0.00366623071022332,-0.00657560303807259,-0.0314844623208046,2.77852559520397E-05,-0.0387701764702797,-0.047776035964489
363,0.0041711344383657,-0.00753243872895837,-0.0302659850567579,2.79641681117937E-05,-0.0401168540120125,-0.0454111881554127
364,0.00359824113547802,-0.00700674578547478,-0.0272138752043247,2.78338357020402E-05,-0.0380953960120678,-0.0391286835074425
365,0.000367552245734259,-0.00614174269139767,-0.0239615440368652,2.75105412583798E-05,-0.0354213789105415,-0.0321781747043133
366,-0.00407542707398534,-0.00405195122584701,-0.0209997594356537,2.72053348453483E-05,-0.0339305140078068,-0.0244329441338778
367,-0.00598893500864506,-0.0017401478253305,-0.0182936545461416,2.71090975729749E-05,-0.033319815993309,-0.017283683642745
368,-0.00515040615573525,-0.00230582826770842,-0.0186712816357613,2.72924517048523E-05,-0.0349912159144878,-0.014940950088203
369,-0.00422305427491665,-0.00615162122994661,-0.0226503573358059,2.76729588222224E-05,-0.0386969000101089,-0.0155038377270103
370,-0.00681635783985257,-0.0129554802551866,-0.0288328733295202,2.80643998848973E-05,-0.0432087257504463,-0.0165049247443676
371,-0.0129801835864782,-0.0217795055359602,-0.0362339988350868,2.82790333585581E-05,-0.047811396420002,-0.0213340427726507
372,-0.0191682148724794,-0.0297270156443119,-0.0428680442273617,2.82267810689518E-05,-0.0509876273572445,-0.0305500198155642
373,-0.0237005408853292,-0.0342721045017242,-0.0466944202780724,2.79590440186439E-05,-0.0518834851682186,-0.0394970290362835
374,-0.0257737599313259,-0.0340100936591625,-0.0462705232203007,2.76361806754721E-05,-0.0498569793999195,-0.0439492464065552
375,-0.0253537595272064,-0.0302085466682911,-0.0428489521145821,2.74387512035901E-05,-0.0456547923386097,-0.0433443933725357
376,-0.0247903075069189,-0.0264618247747421,-0.0403846204280853,2.74716185231227E-05,-0.0425729230046272,-0.041069533675909
377,-0.0251311678439379,-0.023180291056633,-0.0396481938660145,2.77117615041789E-05,-0.0412297770380974,-0.0400165542960167
378,-0.0244829766452312,-0.0170924197882414,-0.037204947322607,2.80255717370892E-05,-0.0376616008579731,-0.0386443883180618
379,-0.0222102366387844,-0.00754128582775593,-0.0320145301520824,2.824371222232E-05,-0.0303771421313286,-0.0357498116791248
380,-0.0205250009894371,0.00139076740015298,-0.0269071664661169,2.8251708499738E-05,-0.022258996963501,-0.034533079713583
381,-0.0187424682080746,0.00651494506746531,-0.0227371156215668,2.80479362118058E-05,-0.0145101062953472,-0.0362271852791309
382,-0.0135023957118392,0.0096881790086627,-0.0175012517720461,2.77397975878557E-05,-0.00769544811919332,-0.0370246469974518
383,-0.00470006698742509,0.0154657587409019,-0.010609732940793,2.74827361863572E-05,-0.00390229234471917,-0.032174251973629
384,0.00481891585513949,0.0259914007037878,-0.0035848100669682,2.73965888482053E-05,-0.00319283083081245,-0.0205393694341183
385,0.0122495414689183,0.0381410233676434,0.00294796470552683,2.75042602879694E-05,-0.00225825700908899,-0.00687124719843268
386,0.0175396502017975,0.0476611740887165,0.0109208403155208,2.77239541901508E-05,0.00300963874906302,0.00552557455375791
387,0.0226523019373417,0.0541264824569225,0.0217576529830694,2.79167161352234E-05,0.0118548050522804,0.019453801214695
388,0.0286276955157518,0.0590622052550316,0.0329960472881794,2.79618288914207E-05,0.0195741914212704,0.0344322584569454
389,0.0348531827330589,0.0627280324697495,0.0400005765259266,2.78192746918648E-05,0.0245858859270811,0.0439494177699089
390,0.0408600084483624,0.0643648058176041,0.0410167165100574,2.75470501946984E-05,0.0294430591166019,0.0451404973864555
391,0.0464276783168316,0.0629468113183975,0.0378961265087128,2.72663673968054E-05,0.0350209511816502,0.0406640507280827
392,0.0506223924458027,0.0598120577633381,0.0335202626883984,2.70953805738827E-05,0.0389772914350033,0.0346929654479027
393,0.0536083690822124,0.0591180026531219,0.0304968226701021,2.70876316790236E-05,0.0410430617630482,0.0302774719893932
394,0.0557456351816654,0.0624227933585644,0.0297378413379192,2.72072029474657E-05,0.0429823882877827,0.0277868062257767
395,0.0564389862120152,0.0676108375191689,0.0310655813664198,2.73517871391959E-05,0.0453509315848351,0.028282854706049
396,0.054974690079689,0.0720871910452843,0.033475287258625,2.74092981271679E-05,0.046761266887188,0.0328570008277893
397,0.0510672107338905,0.0750774145126343,0.0356888249516487,2.73167752311565E-05,0.0449472181499004,0.0382355563342571
398,0.0467030815780163,0.0768450945615768,0.0384214520454407,2.70907530648401E-05,0.0406520627439022,0.0402960106730461
399,0.0446737073361874,0.0760649368166924,0.0424136035144329,2.68146868620534E-05,0.0368410795927048,0.0382068865001202
400,0.0440303087234497,0.0719570368528366,0.0453507751226425,2.65922044491163E-05,0.0336286276578903,0.0327270068228245
401,0.0417031869292259,0.0661441013216972,0.0443538725376129,2.64923000941053E-05,0.0296180490404367,0.0249163173139095
402,0.0379196889698505,0.0612997114658356,0.0399796068668365,2.65153921645833E-05,0.0250549763441086,0.0174471866339445
403,0.0364018194377422,0.0595587864518166,0.034586314111948,2.65967719315086E-05,0.0207006502896547,0.0133526232093573
404,0.0396343469619751,0.0606061108410358,0.0292734857648611,2.66436272795545E-05,0.016197444871068,0.0127698993310332
405,0.0468442589044571,0.062845803797245,0.0259769801050425,2.65845974354306E-05,0.0129496231675148,0.0149684213101864
406,0.0541626513004303,0.0638386309146881,0.0264188647270203,2.64054688159376E-05,0.013362230733037,0.0194718241691589
407,0.0574725270271301,0.0621077381074429,0.0286325830966234,2.61533550656168E-05,0.0154320262372494,0.0255213622003794
408,0.0564262606203556,0.0591129548847675,0.029115142300725,2.5908981115208E-05,0.0159526783972979,0.0320049449801445
409,0.0532770119607449,0.0561610907316208,0.026500454172492,2.57432602666086E-05,0.0156747661530972,0.0371081940829754
410,0.0502737686038017,0.05360371991992,0.0224828589707613,2.56814564636443E-05,0.0168422888964415,0.0396121144294739
411,0.0470799580216408,0.0511664040386677,0.0181992556899786,2.56929542956641E-05,0.0176002066582441,0.0380831398069859
412,0.0434831157326698,0.0489796176552773,0.0136626958847046,2.57103074545739E-05,0.014420410618186,0.033247098326683
413,0.0405706912279129,0.0463717952370644,0.0095324432477355,2.56659932347247E-05,0.00679842988029122,0.0268240571022034
414,0.0368708707392216,0.0408429652452469,0.00634175119921565,2.55269096669508E-05,-0.00395052274689078,0.018824178725481
415,0.0312337372452021,0.0327002480626106,0.00566057162359357,2.53091257036431E-05,-0.0140184098854661,0.0122892158105969
416,0.0250157061964273,0.0256002228707075,0.00825152918696404,2.50666234933306E-05,-0.0190721936523914,0.0113124763593078
417,0.02025399915874,0.0235706679522991,0.0116801960393786,2.48615033342503E-05,-0.0181785020977259,0.0154549917206168
418,0.0190329942852259,0.0287505909800529,0.0133954240009189,2.47320367634529E-05,-0.0120332026854157,0.0205941945314407
419,0.0227243583649397,0.0393331572413445,0.0139240259304643,2.4674931410118E-05,-0.00164268910884857,0.0236143823713064
420,0.0296466704457998,0.0497233830392361,0.0147228837013245,2.46498002525186E-05,0.00896747130900621,0.0239624734967947
421,0.0355506427586079,0.0553969778120518,0.0155961094424129,2.46020026679616E-05,0.0149149810895324,0.0231213942170143
422,0.0368451587855816,0.0558862686157227,0.0152534386143088,2.44910424953559E-05,0.0147276967763901,0.0226412154734135
423,0.0328359752893448,0.052818451076746,0.0124595174565911,2.43098420469323E-05,0.0095897177234292,0.0217134281992912
424,0.0254747774451971,0.0483105257153511,0.00730540603399277,2.40859426412499E-05,0.00185262993909419,0.018811559304595
425,0.0170683600008488,0.0430694594979286,0.000273262208793312,2.38653774431441E-05,-0.00593828596174717,0.0116789108142257
426,0.0104833552613854,0.0371092297136784,-0.00703221512958407,2.36885862250347E-05,-0.0106350323185325,0.000946660642512143
427,0.00795354507863522,0.0314287208020687,-0.0113659938797355,2.35709103435511E-05,-0.0103388223797083,-0.00739035755395889
428,0.00903082359582186,0.027454374358058,-0.0114584760740399,2.34969284065301E-05,-0.00674492260441184,-0.00880990084260702
429,0.0125929694622755,0.026771541684866,-0.00795694161206484,2.34303006436676E-05,-0.00164682848844677,-0.00316104176454246
430,0.0188801791518927,0.0301046129316092,-0.00132549100089818,2.3333048375207E-05,0.00506120733916759,0.00767818000167608
431,0.027838010340929,0.0358566641807556,0.00715124467387795,2.31841022468871E-05,0.0130095705389977,0.0199885964393616
432,0.03703248873353,0.0411383472383022,0.0151466112583876,2.29882134590298E-05,0.0208268538117409,0.0304779373109341
433,0.0431418716907501,0.044242650270462,0.0207738056778908,2.27717664529337E-05,0.0274125207215548,0.0406796969473362
434,0.0451347306370735,0.0458989217877388,0.023416543379426,2.25685907935258E-05,0.0323080904781818,0.0538448467850685
435,0.0436572693288326,0.0470951907336712,0.0223725419491529,2.24033719860017E-05,0.0342505387961864,0.0669944658875465
436,0.0396093055605888,0.0483172535896301,0.0178061537444592,2.22806884266902E-05,0.0327588245272636,0.0740413069725037
437,0.0352646522223949,0.0505008026957512,0.0129407597705722,2.21843183680903E-05,0.0305400956422091,0.0730029493570328
438,0.0319108851253986,0.052377562969923,0.0103190010413527,2.2086278477218E-05,0.0289432648569345,0.0640041679143906
439,0.0284534525126219,0.0520130842924118,0.00940211303532124,2.19606299651787E-05,0.0259549450129271,0.0489171370863914
440,0.0250512901693583,0.051486324518919,0.0095180431380868,2.17953420360573E-05,0.0206208359450102,0.0332197546958923
441,0.0233285129070282,0.05268444865942,0.011022855527699,2.15970048884628E-05,0.0148108722642064,0.0225181616842747
442,0.0242388881742954,0.0536416471004486,0.0142042990773916,2.13867733691586E-05,0.0120588932186365,0.0198529716581106
443,0.0271932538598776,0.052473034709692,0.0177069418132305,2.11899841815466E-05,0.0138942478224635,0.0245077703148127
444,0.0302373170852661,0.0479057542979717,0.0188738107681274,2.10244525078451E-05,0.0173523053526878,0.0312189068645239
445,0.0332946442067623,0.0402688607573509,0.0185108296573162,2.08926885534311E-05,0.0205730143934488,0.0357752852141857
446,0.0365622192621231,0.0319075211882591,0.019909406080842,2.07812936423579E-05,0.023834515362978,0.0372889563441277
447,0.0370342396199703,0.0242561027407646,0.0223221275955439,2.06674903893145E-05,0.0253787972033024,0.0351693592965603
448,0.0336034260690212,0.0190108828246593,0.0228181984275579,2.05297128559323E-05,0.0252528265118599,0.0311572402715683
449,0.0300889201462269,0.0177102815359831,0.0207579415291548,2.03574818442576E-05,0.0254484228789806,0.0285083688795567
450,0.0300841182470322,0.0192903559654951,0.0169318933039904,2.01561942958506E-05,0.0252649858593941,0.0287709981203079
451,0.0318207554519176,0.0205880645662546,0.0120438896119595,1.99446621991228E-05,0.022975992411375,0.0320682600140572
452,0.0302367769181728,0.018815640360117,0.00625893427059054,1.97464833036065E-05,0.018059179186821,0.0371736660599709
453,0.0232217311859131,0.0133240157738328,-0.000271610624622554,1.95790289581055E-05,0.0113487355411053,0.0416224673390388
454,0.0140732089057565,0.00617167958989739,-0.00575410388410091,1.94450985873118E-05,0.0053012971766293,0.043944276869297
455,0.00730704516172409,0.000230250007007271,-0.00789895933121443,1.9331235307618E-05,0.00277835899032652,0.0446843579411507
456,0.00301193073391914,-0.00387191283516586,-0.00769796315580606,1.9213746782043E-05,0.00330603145994246,0.0447749309241772
457,-0.000868125993292779,-0.00628697779029608,-0.00748995877802372,1.90698974620318E-05,0.00321443285793066,0.0441891103982925
458,-0.00423671957105398,-0.00640423875302076,-0.00670087430626154,1.8889097191277E-05,0.00100725260563195,0.0417087636888027
459,-0.00580901699140668,-0.00451506534591317,-0.00427167257294059,1.86786164704245E-05,-0.00281498045660555,0.0359417349100113
460,-0.00545734819024801,-0.00267092208378017,-0.000678682758007199,1.84607033588691E-05,-0.00717587675899267,0.0268003791570663
461,-0.00402165949344635,-0.00203436682932079,0.00376240373589098,1.82620751729701E-05,-0.00895383954048157,0.0176117606461048
462,-0.00218187691643834,-0.00175778404809535,0.00803785584867001,1.81006616912782E-05,-0.00662837876006961,0.0128432242199779
463,-0.00157127762213349,-0.00200563692487776,0.00980520248413086,1.79761445906479E-05,-0.0034048764500767,0.0126271666958928
464,-0.00461436761543155,-0.00487652979791164,0.00815500132739544,1.78693480847869E-05,-0.00364930368959904,0.0133441295474768
465,-0.0106872534379363,-0.0112154828384519,0.00534099200740457,1.77512538357405E-05,-0.00834528729319572,0.0127010978758335
466,-0.0152025995776057,-0.0185737013816834,0.00483839306980371,1.75975346792256E-05,-0.0144470781087875,0.0115673514083028
467,-0.0152265131473541,-0.0239438526332378,0.00758943241089582,1.74013293872122E-05,-0.0182454530149698,0.0108058210462332
468,-0.0116456588730216,-0.0252007935196161,0.0116269960999489,1.71775591297774E-05,-0.0169232729822397,0.0107909124344587
469,-0.00604570610448718,-0.0211688708513975,0.0155868530273438,1.6956071704044E-05,-0.00905133690685034,0.0125376740470529
470,-0.00115977809764445,-0.0141083113849163,0.0178354419767857,1.67666785273468E-05,0.00114359881263226,0.016606479883194
471,9.61335099418648E-05,-0.00848130229860544,0.0162125807255507,1.66235549841076E-05,0.00784267764538527,0.0233308393508196
472,-0.00192848453298211,-0.0065771103836596,0.0123931365087628,1.65172077686293E-05,0.0110877910628915,0.0305562354624271
473,-0.00368988048285246,-0.0067496420815587,0.0107408436015248,1.64185894391267E-05,0.0145381465554237,0.03362637758255
474,-0.00110774266067892,-0.00605227658525109,0.013024527579546,1.62936976266792E-05,0.0209076702594757,0.0326102674007416
475,0.00496460683643818,-0.0034780572168529,0.0167542509734631,1.61213774845237E-05,0.0279192999005318,0.0326633602380753
476,0.0103554194793105,0.000225361727643758,0.0195574276149273,1.59049741341732E-05,0.0315883904695511,0.0353481285274029
477,0.0142303397879004,0.00252069556154311,0.02246955037117,1.56714049808215E-05,0.0325487554073334,0.0364284180104733
478,0.0171167049556971,0.00102848582901061,0.0261422321200371,1.54576464410638E-05,0.0320598669350147,0.0318231545388699
479,0.0182053558528423,-0.00456788018345833,0.0281887240707874,1.52914271893678E-05,0.0285697765648365,0.0216075256466866
480,0.0176006965339184,-0.0128670856356621,0.0268441960215569,1.5176188753685E-05,0.0223580338060856,0.00828128959983587
481,0.0167601518332958,-0.019678482785821,0.0234436821192503,1.50885416587698E-05,0.0163800437003374,-0.0052361823618412
482,0.0154266832396388,-0.0215330757200718,0.0202353056520224,1.49899797179387E-05,0.0133299930021167,-0.0143182491883636
483,0.0121186245232821,-0.0192092824727297,0.0185898616909981,1.48470098793041E-05,0.0147036910057068,-0.0153712751343846
484,0.00812328793108463,-0.0153064141049981,0.0188954994082451,1.46491947816685E-05,0.0192882474511862,-0.0105502605438232
485,0.00609339820221066,-0.0128091033548117,0.0203362591564655,1.4415338227991E-05,0.0242797583341599,-0.00480576511472464
486,0.00637656869366765,-0.0141837289556861,0.0213189143687487,1.41841774166096E-05,0.0281608663499355,-0.000209199817618355
487,0.00671065784990788,-0.0199255757033825,0.0201817527413368,1.39941366796847E-05,0.0307209305465221,0.00337273487821221
488,0.0052027516067028,-0.028518071398139,0.0162519440054893,1.38627592605189E-05,0.0328063368797302,0.00583074893802404
489,0.00245352857746184,-0.0368692390620708,0.0108893439173698,1.37768383865478E-05,0.034764152020216,0.00754475966095924
490,-0.00133905466645956,-0.0421154461801052,0.00576895382255316,1.36988401209237E-05,0.0343635678291321,0.00899662543088198
491,-0.00569053646177053,-0.0424466840922832,0.00237967469729483,1.35865293486859E-05,0.0311690792441368,0.0102971838787198
492,-0.00887506827712059,-0.0391177497804165,0.00231655943207443,1.34155434352579E-05,0.0275830756872892,0.00926817953586578
493,-0.0120851127430797,-0.0380328670144081,0.00435236655175686,1.31928245536983E-05,0.0229173433035612,0.0026038559153676
494,-0.01724673807621,-0.042024876922369,0.00485500413924456,1.29534882944427E-05,0.014830319210887,-0.00625471724197268
495,-0.0226497612893581,-0.0468939058482647,0.00224661896936595,1.27424809761578E-05,0.0058464827015996,-0.0101046403869987
496,-0.0256058983504772,-0.0498482622206211,-0.00189910084009171,1.25906117318664E-05,0.00281427055597305,-0.00940545834600925
497,-0.0259796548634768,-0.0525255315005779,-0.00563562288880348,1.24977696032147E-05,0.00777956703677773,-0.00970980618149042
498,-0.0254980083554983,-0.0558387748897076,-0.00892641860991716,1.24324969874579E-05,0.014126637019217,-0.012706296518445
499,-0.0258171837776899,-0.0590865686535835,-0.0120699014514685,1.23484269352048E-05,0.0155282001942396,-0.0176238622516394
500,-0.0270938836038113,-0.0611162781715393,-0.0131382429972291,1.22089977594442E-05,0.0129216052591801,-0.0231022927910089
501,-0.0286443624645472,-0.0613195486366749,-0.011199246160686,1.20072645586333E-05,0.00987772457301617,-0.0260936748236418
502,-0.0305711347609758,-0.0605075061321259,-0.00907813105732203,1.17700392365805E-05,0.00766665488481522,-0.0247799940407276
503,-0.032746933400631,-0.0588884837925434,-0.00917498581111431,1.15439115688787E-05,0.00634016096591949,-0.0198536440730095
504,-0.0353622324764729,-0.0570083260536194,-0.0111081302165985,1.13704363684519E-05,0.00538597768172622,-0.0133615350350738
505,-0.039355143904686,-0.0567191913723946,-0.0133436461910605,1.12637198981247E-05,0.00445206556469202,-0.00733741233125329
506,-0.0444513820111752,-0.0580469220876694,-0.0148686189204454,1.12025245471159E-05,0.00414012093096972,-0.00169697194360197
507,-0.0508472993969917,-0.0598554536700249,-0.0166918728500605,1.11413255581283E-05,0.00366987171582878,0.00288689113222063
508,-0.0589975900948048,-0.0619312450289726,-0.0203897822648287,1.10345699795289E-05,0.00175894366111606,0.00341343320906162
509,-0.0669072642922401,-0.0657710731029511,-0.0255704987794161,1.08611993709928E-05,-0.000269037846010178,-0.00158902653492987
510,-0.0726440697908401,-0.0726252272725105,-0.0308347456157207,1.06362194856047E-05,-0.00156945770140737,-0.0109798787161708
511,-0.0754110291600227,-0.0788831189274788,-0.034602977335453,1.04029422800522E-05,-0.00363650871440768,-0.0200197957456112
512,-0.0737941265106201,-0.0790770947933197,-0.034784734249115,1.02099093055585E-05,-0.00687840674072504,-0.0229323673993349
513,-0.0676237046718597,-0.0724362283945084,-0.0306329280138016,1.00848055808456E-05,-0.00889473408460617,-0.0205644946545362
514,-0.0598208084702492,-0.0632676184177399,-0.0243826750665903,1.00194047263358E-05,-0.00828798767179251,-0.01887989602983
515,-0.0532483756542206,-0.0556270591914654,-0.0185809098184109,9.97375082079088E-06,-0.00739662209525704,-0.0195759870111942
516,-0.0474036410450935,-0.0501957684755325,-0.01278355717659,9.89747331914259E-06,-0.00717078289017081,-0.0194959938526154
517,-0.0411099009215832,-0.047251645475626,-0.00686041265726089,9.75684270088095E-06,-0.00609880220144987,-0.0168573018163443
518,-0.0349245145916939,-0.0469885729253292,-0.00284235435537994,9.55303585215006E-06,-0.00365845952183008,-0.011481954716146
519,-0.0307506863027811,-0.0490255802869797,-0.00191172410268337,9.32168677536538E-06,-0.000681847217492759,-0.004413275513798
520,-0.0297575853765011,-0.0522254779934883,-0.00379488058388233,9.11387451196788E-06,0.00187746260780841,0.00152935471851379
521,-0.0297930315136909,-0.0539307929575443,-0.00699555268511176,8.96869278221857E-06,0.00446413876488805,0.00360640836879611
522,-0.0287842322140932,-0.0530508048832417,-0.00976250972598791,8.89215516508557E-06,0.00782557763159275,0.000813753111287951
523,-0.0281877815723419,-0.0501104295253754,-0.011031549423933,8.85383542481577E-06,0.0113583989441395,-0.00398566806688905
524,-0.0298176631331444,-0.0455964878201485,-0.0102542098611593,8.80313200468663E-06,0.0144510371610522,-0.00660359859466553
525,-0.0330486930906773,-0.0415075495839119,-0.00857624784111977,8.69645100465277E-06,0.0171416383236647,-0.00569764710962772
526,-0.0367027595639229,-0.0400792248547077,-0.00893487595021725,8.52070388646098E-06,0.0172219220548868,-0.00255468743853271
527,-0.0392727181315422,-0.0392614454030991,-0.0109530733898282,8.30042699817568E-06,0.0142457420006394,0.0015964824706316
528,-0.038864616304636,-0.0349630564451218,-0.0111162513494492,8.08464756119065E-06,0.0126399397850037,0.00568190636113286
529,-0.0371500328183174,-0.0289132483303547,-0.0104566477239132,7.92053288023453E-06,0.0135533986613154,0.00552211329340935
530,-0.0378292575478554,-0.0267311986535788,-0.0126629946753383,7.82799725129735E-06,0.0146436225622892,-0.00308747845701873
531,-0.0418987311422825,-0.0306222513318062,-0.0181506294757128,7.78895719122374E-06,0.0146953137591481,-0.0182597357779741
532,-0.048369400203228,-0.0399746708571911,-0.0253608487546444,7.75703756517032E-06,0.0123286405578256,-0.0339070707559586
533,-0.0551998913288116,-0.0521340072154999,-0.0322140976786613,7.68253448768519E-06,0.00715586030855775,-0.0454441756010056
534,-0.0598377659916878,-0.0603393018245697,-0.0363260060548782,7.53916583562386E-06,0.000440297095337883,-0.0499295964837074
535,-0.0619556084275246,-0.0598123818635941,-0.0370963923633099,7.3382188929827E-06,-0.00588061707094312,-0.0465255603194237
536,-0.0625613927841187,-0.0528874583542347,-0.0352463163435459,7.12245810063905E-06,-0.00809079874306917,-0.0379033870995045
537,-0.061041496694088,-0.0448338612914085,-0.031034380197525,6.94308073434513E-06,-0.00398367969319224,-0.0278857387602329
538,-0.0575791820883751,-0.0398925915360451,-0.025770291686058,6.8321560320328E-06,0.00312963896431029,-0.0215137433260679
539,-0.054038044065237,-0.0381401069462299,-0.0214264653623104,6.78539208820439E-06,0.00892036687582731,-0.0222784131765366
540,-0.0510116890072823,-0.0374761112034321,-0.0189311802387238,6.76450736136758E-06,0.0119187720119953,-0.0293287057429552
541,-0.0485906377434731,-0.0385995246469975,-0.018267510458827,6.71789985062787E-06,0.0117341885343194,-0.0399230495095253
542,-0.0472123548388481,-0.0422803126275539,-0.0189219135791063,6.60844352751155E-06,0.00907852314412594,-0.0479797013103962
543,-0.0457674451172352,-0.0464876107871532,-0.0199845749884844,6.43343446427025E-06,0.00678502069786191,-0.0466119013726711
544,-0.0423705168068409,-0.0483465194702148,-0.0199092235416174,6.22595189270214E-06,0.00712380930781364,-0.0356137491762638
545,-0.0373775959014893,-0.0475073270499706,-0.0186237934976816,6.03695298195817E-06,0.00954337883740664,-0.0217787548899651
546,-0.0341680459678173,-0.0463602878153324,-0.0179243516176939,5.90779973208555E-06,0.0118728894740343,-0.0127581348642707
547,-0.0353541746735573,-0.0441533662378788,-0.0180877186357975,5.84804092795821E-06,0.0124421818181872,-0.00820049364119768
548,-0.0390829592943192,-0.0377874709665775,-0.0168425403535366,5.83039263801766E-06,0.013560957275331,-0.000872545584570616
549,-0.0426743663847446,-0.0288707725703716,-0.013211035169661,5.80556388740661E-06,0.0186020899564028,0.0111567238345742
550,-0.0458730421960354,-0.0224359724670649,-0.0097733223810792,5.72886438021669E-06,0.0257838629186153,0.0216729007661343
551,-0.048860240727663,-0.0216148160398006,-0.0081920363008976,5.58422379981494E-06,0.0313081033527851,0.0246895309537649
552,-0.0518350265920162,-0.0252624973654747,-0.00727782025933266,5.39270013177884E-06,0.0332064554095268,0.018833689391613
553,-0.055153738707304,-0.0297226123511791,-0.00604949053376913,5.20097182743484E-06,0.0314383879303932,0.00633828993886709
554,-0.0592812672257423,-0.0330192781984806,-0.00473233172670007,5.05610159962089E-06,0.0270546954125166,-0.00838105566799641
555,-0.0641814917325974,-0.0341037102043629,-0.00395137770101428,4.98022382089403E-06,0.0212304200977087,-0.0203083641827106
556,-0.0684286430478096,-0.0316207073628902,-0.00423477357253432,4.95878157380503E-06,0.016100388020277,-0.0247898064553738
557,-0.0705346241593361,-0.0267543122172356,-0.00568586075678468,4.94856840305147E-06,0.0137861017137766,-0.0203206147998571
558,-0.0705597549676895,-0.0227755885571241,-0.00808378309011459,4.9011318878911E-06,0.0137222865596414,-0.011090918444097
559,-0.071003794670105,-0.0223499201238155,-0.0112744914367795,4.78885976917809E-06,0.0129768205806613,-0.00351678556762636
560,-0.0743846967816353,-0.0256825089454651,-0.0141213843598962,4.61968647869071E-06,0.00925458315759897,-0.00104790925979614
561,-0.0792738124728203,-0.0302253700792789,-0.0146103734150529,4.43259204985225E-06,0.00359720643609762,-0.00374762085266411
562,-0.0829097181558609,-0.0341770686209202,-0.0127010475844145,4.27643135481048E-06,0.000399532378651202,-0.00954426638782024
563,-0.0845924615859985,-0.0368040278553963,-0.00992086622864008,4.18360150433728E-06,0.00349616608582437,-0.0141348894685507
564,-0.0835509821772575,-0.035532608628273,-0.00657114759087563,4.15274689657963E-06,0.0126591213047504,-0.0136382887139916
565,-0.079073004424572,-0.0285832993686199,-0.00292170071043074,4.14974238083232E-06,0.0230011753737926,-0.00827097240835428
566,-0.0730247870087624,-0.0183067508041859,-0.00107956386636943,4.12628378398949E-06,0.0269893705844879,-0.00240274798125029
567,-0.0699996650218964,-0.00949082057923079,-0.00242580519989133,4.04596039516036E-06,0.0205842442810535,-0.00148516881745309
568,-0.0735897421836853,-0.00529539026319981,-0.00515274284407496,3.90372269976069E-06,0.00709792692214251,-0.00616038171574473
569,-0.0828225612640381,-0.00592656945809722,-0.0066961501725018,3.72833596884448E-06,-0.0072676669806242,-0.0109952874481678
570,-0.0950121730566025,-0.0104130059480667,-0.00667873490601778,3.56663304046378E-06,-0.019835764542222,-0.0123825529590249
571,-0.108130767941475,-0.0162862259894609,-0.00675414782017469,3.4581948966661E-06,-0.0311243236064911,-0.0112139070406556
572,-0.119250044226646,-0.02059181407094,-0.00860141590237617,3.41414738613821E-06,-0.040297906845808,-0.0088025126606226
573,-0.125151127576828,-0.022788405418396,-0.0112803094089031,3.41144141202676E-06,-0.0439229682087898,-0.00776368845254183
574,-0.124842591583729,-0.0237304512411356,-0.0122698908671737,3.40554925060133E-06,-0.0394414775073528,-0.0109574114903808
575,-0.120486438274384,-0.0240591410547495,-0.0116529073566198,3.35458571498748E-06,-0.0291466154158115,-0.0178090557456017
576,-0.115202881395817,-0.0237108524888754,-0.0113649517297745,3.24177790389513E-06,-0.0182216204702854,-0.0254859924316406
577,-0.110542960464954,-0.0212942752987146,-0.0112522086128592,3.08422636408068E-06,-0.0097270430997014,-0.0308736134320498
578,-0.106598399579525,-0.0156041942536831,-0.0102533958852291,2.92338108920376E-06,-0.00414742529392242,-0.031437449157238
579,-0.103089429438114,-0.00908692926168442,-0.00960334949195385,2.80253107121098E-06,-0.00136500597000122,-0.0266449619084597
580,-0.100159622728825,-0.00666730245575309,-0.0116694616153836,2.74353828899621E-06,-0.00114066828973591,-0.0188334826380014
581,-0.0985012874007225,-0.00940177869051695,-0.0177087020128965,2.73532168648671E-06,-0.00347924884408712,-0.0115470821037889
582,-0.0973790511488914,-0.0133664030581713,-0.0257593411952257,2.74015883405809E-06,-0.00677616288885474,-0.00682989554479718
583,-0.0954337939620018,-0.0142954662442207,-0.0313754677772522,2.71422595687909E-06,-0.00827968493103981,-0.00471778819337487
584,-0.0933398082852364,-0.0115140844136477,-0.0323476307094097,2.63119136434398E-06,-0.00833649002015591,-0.00433316733688116
585,-0.0926538184285164,-0.00877473037689924,-0.0297778099775314,2.49615322900354E-06,-0.00933593604713678,-0.006402179133147
586,-0.093250036239624,-0.0084010036662221,-0.0251557566225529,2.3425413928635E-06,-0.0107143707573414,-0.0116967186331749
587,-0.0931369885802269,-0.00768911698833108,-0.0196589026600122,2.21384493670485E-06,-0.00956487189978361,-0.0164574440568686
588,-0.0904545709490776,-0.00466339103877544,-0.0148480422794819,2.14014880839386E-06,-0.00525951152667403,-0.0164126101881266
589,-0.0844827145338058,-0.000138251096359454,-0.0106972334906459,2.12214604289329E-06,0.0016637685475871,-0.0122312102466822
590,-0.0770468711853027,0.00421165488660336,-0.00626078108325601,2.13111820812628E-06,0.0103381127119064,-0.00759819336235523
591,-0.0714976042509079,0.00604730611667037,-0.0023061940446496,2.1247042241157E-06,0.0186165701597929,-0.00496816262602806
592,-0.0690844058990479,0.00389528181403875,-0.000163041753694415,2.06979757422232E-06,0.0248112417757511,-0.00423393212258816
593,-0.0685435459017754,-0.000941680802498013,0.000402313948143274,1.96019095710653E-06,0.0287695098668337,-0.00473310751840472
594,-0.068292610347271,-0.00582507811486721,0.000513067352585495,1.81956158940011E-06,0.0309588350355625,-0.00620437320321798
595,-0.0676125138998032,-0.00908621121197939,0.000391593872336671,1.68838118952408E-06,0.0311526861041784,-0.00805942434817553
596,-0.065734937787056,-0.00890769623219967,0.000437407928984612,1.60198339926865E-06,0.0306470207870007,-0.00962016731500626
597,-0.062598243355751,-0.0046300939284265,0.00160664168652147,1.57167596626095E-06,0.0321513637900352,-0.0116020627319813
598,-0.0593577921390533,0.00116463378071785,0.00436443462967873,1.57899455643928E-06,0.03586146235466,-0.0150010036304593
599,-0.0574898235499859,0.00486630713567138,0.00743564171716571,1.58600676058995E-06,0.0385870859026909,-0.0183077622205019
600,-0.0578711777925491,0.00478948699310422,0.00815796107053757,1.55591953898693E-06,0.0374951735138893,-0.0187743101269007
601,-0.0591545961797237,0.00207242136821151,0.00615101447328925,1.47279115481069E-06,0.0338723063468933,-0.0159351639449596
602,-0.0591401606798172,-0.00100590358488262,0.00317827169783413,1.34978495225369E-06,0.0298277195543051,-0.0114012183621526
603,-0.0570579618215561,-0.00290758162736893,0.00096627400489524,1.22169592486898E-06,0.0255420990288258,-0.00611452432349324
604,-0.0538627095520496,-0.00345901027321815,0.000719296862371266,1.12598240775696E-06,0.0201754234731197,-0.00140940956771374
605,-0.0509396754205227,-0.0029456305783242,0.00235393806360662,1.08264316622808E-06,0.0127934347838163,0.00136252865195274
606,-0.0485061481595039,-0.00205755396746099,0.00425104051828384,1.08374911178544E-06,0.00530526833608747,0.00530635006725788
607,-0.04643389955163,-0.00359448441304266,0.00392176769673824,1.09810491721873E-06,0.0013372196117416,0.0126035492867231
608,-0.0440684482455254,-0.00903694517910481,0.00119325786363333,1.08831477518834E-06,0.00271049863658845,0.0170130245387554
609,-0.0405314043164253,-0.0155950067564845,-0.00107444345485419,1.03091633718577E-06,0.00781805068254471,0.0113890105858445
610,-0.0371912159025669,-0.0213888753205538,-0.000752803927753121,9.28738700167742E-07,0.0124313654378057,-0.00404277257621288
611,-0.0350299961864948,-0.0262445602566004,0.00278950459323823,8.08978313671105E-07,0.0143969040364027,-0.0219809841364622
612,-0.0327203162014484,-0.0293060764670372,0.00894935708492994,7.08243419467181E-07,0.0150865241885185,-0.0338931009173393
613,-0.0295912381261587,-0.0289769638329744,0.0161671154201031,6.52788060051535E-07,0.0162302479147911,-0.037018995732069
614,-0.0253799725323915,-0.0229625198990107,0.0240969080477953,6.44607951016951E-07,0.0192952323704958,-0.032832570374012
615,-0.0204933155328035,-0.0140953185036778,0.0315078981220722,6.60757223158726E-07,0.0245673079043627,-0.02423488907516
616,-0.0170641783624887,-0.0101481396704912,0.0351083092391491,6.66041330532607E-07,0.0288752876222134,-0.0158223006874323
617,-0.0148749053478241,-0.014104618690908,0.034340612590313,6.32066019079502E-07,0.0304965991526842,-0.0113753033801913
618,-0.0114232283085585,-0.0222441852092743,0.0316573567688465,5.52330732261908E-07,0.0315850824117661,-0.0118400156497955
619,-0.00512271467596293,-0.028730683028698,0.0293980222195387,4.45342635657653E-07,0.0328165665268898,-0.0148651851341128
620,0.00493367156013846,-0.0297686103731394,0.0284006837755442,3.4428231288075E-07,0.0330001227557659,-0.0167854204773903
621,0.016991525888443,-0.026574956253171,0.0281641986221075,2.78984458645937E-07,0.0325848795473576,-0.0156017830595374
622,0.0273287147283554,-0.0230430606752634,0.0287722330540419,2.600170603273E-07,0.0332398042082787,-0.0120327323675156
623,0.0336039997637272,-0.0207352098077536,0.0301929730921984,2.73352611657174E-07,0.0347262583673,-0.00837852712720633
624,0.0349060073494911,-0.0193802509456873,0.0309004262089729,2.88302999251755E-07,0.034809023141861,-0.0059118801727891
625,0.032300166785717,-0.019042668864131,0.0295348167419434,2.74237095254648E-07,0.031922172755003,-0.00370326521806419
626,0.029225904494524,-0.0182800870388746,0.0276728235185146,2.16973219835381E-07,0.0273224599659443,0.000799772213213146
627,0.0280712731182575,-0.0153390467166901,0.0283113121986389,1.26072919215403E-07,0.0235404968261719,0.0072235451079905
628,0.0281815677881241,-0.0107856038957834,0.0310473684221506,2.92930781853329E-08,0.0216259807348251,0.0113770868629217
629,0.0280710533261299,-0.0070430813357234,0.0318089388310909,-4.26018509358528E-08,0.0211308524012566,0.010070227086544
630,0.0278840996325016,-0.00653414614498615,0.0285082012414932,-7.23604003383116E-08,0.0208139680325985,0.00348541093990207
631,0.0296188164502382,-0.00792321935296059,0.0244614016264677,-6.52284128932479E-08,0.0196555443108082,-0.00416129967197776
632,0.0331167541444302,-0.00843972992151976,0.0225139204412699,-4.57267113063153E-08,0.0160967521369457,-0.00971950404345989
633,0.0365301221609116,-0.00704999687150121,0.0223442204296589,-4.41742535883805E-08,0.0110532585531473,-0.0132938260212541
634,0.0391672514379025,-0.00338565884158015,0.0235915444791317,-8.03627173695531E-08,0.00947574898600578,-0.0149580920115113
635,0.0404574424028397,0.000557400053367019,0.0253151375800371,-1.53173886019431E-07,0.0138190221041441,-0.0161805991083384
636,0.0418023653328419,0.00301659828983247,0.0273904372006655,-2.41582711169031E-07,0.0225896127521992,-0.0174442902207375
637,0.0446979850530624,0.00470953993499279,0.030626006424427,-3.16290254431806E-07,0.0321215316653252,-0.0167740564793348
638,0.0480518154799938,0.00682996585965157,0.0340135097503662,-3.55556181830252E-07,0.038039430975914,-0.0108344294130802
639,0.0504027344286442,0.00982690136879683,0.0367621928453445,-3.56677901436342E-07,0.0392864346504211,0.00213989242911339
640,0.0505397692322731,0.0121358977630734,0.0396774895489216,-3.37060896526964E-07,0.0384679362177849,0.0152319297194481
641,0.049156092107296,0.0139615461230278,0.043370682746172,-3.24514928706776E-07,0.0380377098917961,0.0202988255769014
642,0.0480815321207047,0.0178524684160948,0.0469068326056004,-3.4218112432427E-07,0.0386473499238491,0.0169918611645699
643,0.0475749373435974,0.0233414992690086,0.0487388297915459,-3.96260418256134E-07,0.0410413630306721,0.00944586843252182
644,0.0477667301893234,0.0274515487253666,0.0486989244818687,-4.73048743288018E-07,0.0458946451544762,0.00238341605290771
645,0.0495520010590553,0.0294061135500669,0.0475627183914185,-5.46674016277393E-07,0.0512108094990253,-0.00228428421542048
646,0.0532601587474346,0.0313764959573746,0.0465682148933411,-5.9317710565665E-07,0.054260615259409,-0.00497414357960224
647,0.0563154816627502,0.033403217792511,0.0458513386547565,-6.03277044319839E-07,0.0536935105919838,-0.00656489934772253
648,0.0552293211221695,0.0329475626349449,0.0437026247382164,-5.87023237130779E-07,0.0494397804141045,-0.00842669233679771
649,0.0509841442108154,0.0301613248884678,0.0402023307979107,-5.68019629554328E-07,0.0439908169209957,-0.011824656277895
650,0.0477416254580021,0.0279695559293032,0.0384878255426884,-5.7052892543652E-07,0.0403291061520576,-0.0165516994893551
651,0.0478282235562801,0.0285051558166742,0.0403858236968517,-6.06502624123095E-07,0.0388006195425987,-0.019744036719203
652,0.0498786866664886,0.0303850099444389,0.0435048192739487,-6.69468079195212E-07,0.0372049808502197,-0.0194894094020128
653,0.0505797676742077,0.0288373995572329,0.044493991881609,-7.38390951937618E-07,0.032869964838028,-0.0190820414572954
654,0.0485117845237255,0.0221189968287945,0.0423555672168732,-7.89230512054928E-07,0.024805411696434,-0.0217026583850384
655,0.0450483374297619,0.015078148804605,0.0377056822180748,-8.0784485589902E-07,0.013939798809588,-0.0252323318272829
656,0.042921144515276,0.0135699389502406,0.0325882621109486,-7.97322456946858E-07,0.00372790778055787,-0.0255667939782143
657,0.0444208271801472,0.0180003009736538,0.0298503506928682,-7.759490472381E-07,-0.00103337841574103,-0.0201547499746084
658,0.0479544252157211,0.0224001258611679,0.029907526448369,-7.67106200783019E-07,0.000339171034283936,-0.0110865961760283
659,0.0511138699948788,0.0220619160681963,0.0319681353867054,-7.86679379416455E-07,0.00537386815994978,-0.00239471695385873
660,0.0555665269494057,0.0185554530471563,0.0366698168218136,-8.34756463063968E-07,0.013522993773222,0.00521053094416857
661,0.0632889792323112,0.0144766829907894,0.0433963984251022,-8.95949256118911E-07,0.0241743121296167,0.00969485379755497
662,0.0743106976151466,0.0107149332761765,0.0497876890003681,-9.47967180309206E-07,0.0349079854786396,0.00695498380810022
663,0.0862930715084076,0.00713387783616781,0.0521471053361893,-9.7367342277721E-07,0.0404160544276237,-0.00259515433572233
664,0.0942466109991074,0.00259865750558674,0.0465922690927982,-9.70106839304208E-07,0.0350736156105995,-0.0142623949795961
665,0.0955741554498672,-0.00318731809966266,0.0347863808274269,-9.49726711496623E-07,0.0206415113061666,-0.0242723412811756
666,0.0925982668995857,-0.00824188441038132,0.0225932952016592,-9.33401793190569E-07,0.0047074044123292,-0.0320040732622147
667,0.0887765884399414,-0.00989046040922403,0.0119135268032551,-9.39082326567586E-07,-0.00709609314799309,-0.0390640646219254
668,0.0845688581466675,-0.00809697434306145,-0.00100877310615033,-9.7230372375634E-07,-0.0157674122601748,-0.0464932546019554
669,0.0789243131875992,-0.00476107746362686,-0.0178311560302973,-1.02354226783064E-06,-0.0250073559582233,-0.0518401190638542
670,0.0727821737527847,-0.00159713451284915,-0.0333903580904007,-1.07366622614791E-06,-0.033561248332262,-0.0528093613684177
671,0.0677537024021149,-0.000655817915685475,-0.0421266481280327,-1.1043736094507E-06,-0.0388631895184517,-0.0517785549163818
672,0.0640336126089096,-0.00293496018275619,-0.0445603132247925,-1.10792768737156E-06,-0.041761327534914,-0.0520613230764866
673,0.0622790604829788,-0.00613903859630227,-0.0453113466501236,-1.0910159744526E-06,-0.0421597026288509,-0.0538543611764908
674,0.0635869801044464,-0.00762737588956952,-0.0483667328953743,-1.07082462363906E-06,-0.0395051464438438,-0.0568215847015381
675,0.0663140341639519,-0.00893792789429426,-0.055493276566267,-1.06561776647141E-06,-0.0367574840784073,-0.0623890869319439
676,0.0676344484090805,-0.012578365392983,-0.0659780576825142,-1.08498454665096E-06,-0.0378395207226276,-0.0705614238977432
677,0.0661867409944534,-0.0173701867461205,-0.0778425633907318,-1.12495979465166E-06,-0.044476579874754,-0.0786019340157509
678,0.0614321827888489,-0.021156020462513,-0.089278943836689,-1.17049194159335E-06,-0.0553480014204979,-0.0846851021051407
679,0.0556752905249596,-0.0224021300673485,-0.0972070917487144,-1.20375034384779E-06,-0.0651116371154785,-0.0877622812986374
680,0.052796334028244,-0.0215297639369965,-0.100330494344234,-1.21369430416962E-06,-0.0700018405914307,-0.0886167734861374
681,0.0527336895465851,-0.0218598041683435,-0.101841263473034,-1.20177116968989E-06,-0.0731912553310394,-0.0911220014095306
682,0.0541102364659309,-0.0228475257754326,-0.103455692529678,-1.18081391065061E-06,-0.0774723067879677,-0.0954632461071014
683,0.0563442222774029,-0.021245576441288,-0.104264870285988,-1.16790749871143E-06,-0.0817143023014069,-0.0993897020816803
684,0.0576574802398682,-0.0181009694933891,-0.104677475988865,-1.17518595743604E-06,-0.0856859236955643,-0.103856399655342
685,0.0578211024403572,-0.0158609971404076,-0.106285534799099,-1.20351558052789E-06,-0.0892411395907402,-0.109980352222919
686,0.0580620542168617,-0.0148261394351721,-0.110651835799217,-1.24234782106214E-06,-0.0912829861044884,-0.116712354123592
687,0.0573843009769917,-0.0149009693413973,-0.118263557553291,-1.27564931062807E-06,-0.0924663841724396,-0.12300680577755
688,0.0544865652918816,-0.0164366587996483,-0.127380087971687,-1.29058275888383E-06,-0.0946895405650139,-0.129175379872322
689,0.0514246374368668,-0.0185582581907511,-0.134146168828011,-1.28424505874136E-06,-0.0977212563157082,-0.134891912341118
690,0.0496392622590065,-0.021125691011548,-0.136760413646698,-1.26493057450716E-06,-0.101240269839764,-0.13965979218483
691,0.0482953190803528,-0.0245627146214247,-0.136956930160522,-1.24740540741186E-06,-0.106130167841911,-0.142808929085732
692,0.0486624166369438,-0.026840902864933,-0.136476814746857,-1.24487701214093E-06,-0.111044824123383,-0.14221453666687
693,0.051344346255064,-0.0272404477000237,-0.137108683586121,-1.26202530736919E-06,-0.11455200612545,-0.13843335211277
694,0.0546609796583653,-0.0271637793630362,-0.139439910650253,-1.29276804727851E-06,-0.116354323923588,-0.134716525673866
695,0.0573355928063393,-0.0272672548890114,-0.142144963145256,-1.32381069306575E-06,-0.116341024637222,-0.132984399795532
696,0.0567085742950439,-0.029252402484417,-0.146360397338867,-1.34192225687002E-06,-0.117041006684303,-0.134721964597702
697,0.0515569485723972,-0.0335658490657806,-0.153242245316505,-1.34096057990973E-06,-0.119897425174713,-0.139381289482117
698,0.0448068045079708,-0.037445567548275,-0.159768357872963,-1.32492175453081E-06,-0.121925845742226,-0.143397748470306
699,0.0385515429079533,-0.039775799959898,-0.163761809468269,-1.30551438815019E-06,-0.122128248214722,-0.146092802286148
700,0.0339868813753128,-0.0406454205513,-0.165696933865547,-1.29571401430439E-06,-0.121377140283585,-0.14984929561615
701,0.0315048359334469,-0.0408081375062466,-0.166553288698196,-1.30284263377689E-06,-0.118637792766094,-0.156544551253319
702,0.0298185590654612,-0.0417441837489605,-0.167617112398148,-1.32486275106203E-06,-0.11470777541399,-0.165174141526222
703,0.0290378145873547,-0.0426394194364548,-0.169072061777115,-1.35175253035413E-06,-0.112148553133011,-0.171923294663429
704,0.0296698678284884,-0.0426292009651661,-0.170315131545067,-1.37107303999073E-06,-0.111176826059818,-0.175050482153893
705,0.0308773312717676,-0.0425872206687927,-0.171053498983383,-1.37464064664528E-06,-0.110384099185467,-0.175596311688423
706,0.0315244384109974,-0.0432273410260677,-0.171045526862144,-1.36273069983872E-06,-0.109031558036804,-0.175106003880501
707,0.0311575569212437,-0.0434692353010178,-0.169652462005615,-1.34366121073981E-06,-0.10626357793808,-0.173654168844223
708,0.0307146031409502,-0.0411555394530296,-0.165822073817253,-1.32912816752651E-06,-0.100523553788662,-0.169494584202766
709,0.0310463700443506,-0.0366420410573483,-0.16019532084465,-1.32790319185006E-06,-0.0921933278441429,-0.162527933716774
710,0.030791437253356,-0.0332707799971104,-0.155253648757935,-1.34128754325502E-06,-0.0848878100514412,-0.154504761099815
711,0.0294554922729731,-0.0319191440939903,-0.151162400841713,-1.36267419748037E-06,-0.0809707641601563,-0.144996330142021
712,0.0286696720868349,-0.0302597805857658,-0.1462262570858,-1.38131144922227E-06,-0.0794294625520706,-0.133238106966019
713,0.0293001960963011,-0.0262009296566248,-0.139572992920876,-1.38813300054608E-06,-0.078466609120369,-0.120767183601856
714,0.0313773229718208,-0.0188981983810663,-0.130867257714272,-1.38049881570623E-06,-0.0766529440879822,-0.109726816415787
715,0.0344332903623581,-0.0108022047206759,-0.120967194437981,-1.3633725757245E-06,-0.0733831226825714,-0.103499136865139
716,0.0378286838531494,-0.00484466692432761,-0.111462011933327,-1.34643687488278E-06,-0.0688236206769943,-0.103138454258442
717,0.0422624535858631,0.000126533661386929,-0.102751225233078,-1.33881337660569E-06,-0.0633530020713806,-0.104443699121475
718,0.0485385097563267,0.00536398263648152,-0.0941760167479515,-1.34426534259546E-06,-0.0572077743709087,-0.104732967913151
719,0.0546610243618488,0.00868310499936342,-0.0853747949004173,-1.35940183554339E-06,-0.0504483431577683,-0.105248183012009
720,0.0585393160581589,0.00911878421902657,-0.0752392634749413,-1.37572646963235E-06,-0.0421692915260792,-0.105859220027924
721,0.0610536932945251,0.00935240462422371,-0.0621721297502518,-1.38430823426461E-06,-0.0312850773334503,-0.104455813765526
722,0.0621578618884087,0.0107670705765486,-0.0479897893965244,-1.38051279918727E-06,-0.0199781190603971,-0.100887842476368
723,0.06032944470644,0.0108668897300959,-0.0372382067143917,-1.36629125790932E-06,-0.0122071895748377,-0.098749153316021
724,0.0580373778939247,0.00917195528745651,-0.0311415027827024,-1.34890967729007E-06,-0.00768642779439688,-0.0991629809141159
725,0.0576177500188351,0.00837517157196999,-0.0281828306615353,-1.33692242343386E-06,-0.00406475365161896,-0.0973818004131317
726,0.0573430098593235,0.00958368368446827,-0.027603093534708,-1.33561741222366E-06,-0.000266639020992443,-0.0906493812799454
727,0.057244498282671,0.0127323716878891,-0.0271826442331076,-1.34435663312615E-06,0.00604888470843434,-0.0811678320169449
728,0.0583407022058964,0.0160067845135927,-0.0239953007549047,-1.35714083171479E-06,0.0160582568496466,-0.0728961378335953
729,0.0601630881428719,0.0171963889151812,-0.0177002195268869,-1.36597702748986E-06,0.0277001094073057,-0.068147212266922
730,0.062126848846674,0.0162138789892197,-0.0106582446023822,-1.36516337079229E-06,0.0376656614243984,-0.0661922544240952
731,0.0640861615538597,0.0140374610200524,-0.00521798525005579,-1.35420032165712E-06,0.0439940057694912,-0.0645855143666267
732,0.065677709877491,0.0114920241758227,-0.00160065409727395,-1.33784874378762E-06,0.0464090965688229,-0.0617700405418873
733,0.0662474781274796,0.00871292129158974,0.00173361378256232,-1.32341870084929E-06,0.0452142544090748,-0.0589875131845474
734,0.0647101625800133,0.00473792105913162,0.00489893369376659,-1.31682827486657E-06,0.0409413352608681,-0.0583943501114845
735,0.0595625415444374,-0.00082771701272577,0.00585075840353966,-1.31955482629564E-06,0.034680787473917,-0.0594561919569969
736,0.0519638322293758,-0.00543719856068492,0.00516346329823136,-1.32804439090251E-06,0.0283019803464413,-0.0580047629773617
737,0.0444615222513676,-0.0074126748368144,0.00549067044630647,-1.33578703298554E-06,0.0224434118717909,-0.0514661408960819
738,0.0379795469343662,-0.00841057300567627,0.00778572866693139,-1.33685648506798E-06,0.0177888236939907,-0.0427311733365059
739,0.0328630730509758,-0.00957434996962547,0.0116406744346023,-1.3289916296344E-06,0.0152847655117512,-0.0360565520823002
740,0.0296783149242401,-0.00971523299813271,0.0166456084698439,-1.31462593344622E-06,0.0143749499693513,-0.0317373089492321
741,0.028388449922204,-0.00835596397519112,0.0224777981638908,-1.29941224713548E-06,0.0155705623328686,-0.0280566345900297
742,0.0287523102015257,-0.00627662567421794,0.0291317161172628,-1.28912631680578E-06,0.0210633184760809,-0.0248134713619947
743,0.030678128823638,-0.00295825256034732,0.0366158410906792,-1.28664362364361E-06,0.0302358027547598,-0.0218350756913424
744,0.0325673036277294,0.00193610100541264,0.0434515401721001,-1.29056797959493E-06,0.0385009571909904,-0.0184186547994614
745,0.0316521748900414,0.00587748410180211,0.0465638376772404,-1.29615477817424E-06,0.0417840965092182,-0.0150305619463325
746,0.0263632200658321,0.00569146405905485,0.043612364679575,-1.2979403436475E-06,0.0390121340751648,-0.0129328537732363
747,0.0185592118650675,0.0013188001466915,0.036919392645359,-1.29262616610504E-06,0.0333662740886211,-0.0128621822223067
748,0.0136295156553388,-0.00367280351929367,0.0321895964443684,-1.28069791571761E-06,0.0306369885802269,-0.0126182492822409
749,0.0151886055245996,-0.00546367652714252,0.032281618565321,-1.26599672967131E-06,0.0325512774288654,-0.00758327171206474
750,0.0217314064502716,-0.00336285145021975,0.0364825911819935,-1.25356245916919E-06,0.0371220372617245,0.00377962249331176
751,0.0293334797024727,0.000231338039156981,0.0423956140875816,-1.24695816339226E-06,0.0426478534936905,0.0178844127804041
752,0.0347198955714703,0.00259235315024853,0.047713465988636,-1.24649181998393E-06,0.0477756783366203,0.0294148363173008
753,0.0377833545207977,0.00406292779371142,0.0530521534383297,-1.24921859878668E-06,0.0520729273557663,0.0363833568990231
754,0.0396976880729198,0.00566092319786549,0.0587546080350876,-1.25063058931119E-06,0.0546195134520531,0.0392753332853317
755,0.0402006544172764,0.00676387688145041,0.0630589723587036,-1.24707150916947E-06,0.0543690100312233,0.0383442938327789
756,0.0391897819936275,0.0077056479640305,0.0662705898284912,-1.23758741210622E-06,0.052461288869381,0.0354342944920063
757,0.0377170704305172,0.00994237419217825,0.0707450434565544,-1.22428207305347E-06,0.0513575300574303,0.0341991148889065
758,0.0363716632127762,0.0140819037333131,0.0772038176655769,-1.21107257200492E-06,0.0528591983020306,0.0367062017321587
759,0.0357685536146164,0.0198579952120781,0.0843561589717865,-1.20157551464217E-06,0.0567472688853741,0.042645338922739
760,0.0372541025280952,0.0259677395224571,0.0907193049788475,-1.19726075809012E-06,0.0608601793646812,0.0513054803013802
761,0.0393638573586941,0.0295141562819481,0.0949466377496719,-1.19681226351531E-06,0.0623234026134014,0.0606387183070183
762,0.0403402112424374,0.0304713826626539,0.0978721678256989,-1.19695755529392E-06,0.0617950782179832,0.0697479918599129
763,0.0423361659049988,0.0329259634017944,0.10170903801918,-1.19425612865598E-06,0.0633565336465836,0.0800472125411034
764,0.0459726974368095,0.0378442779183388,0.105413638055325,-1.1868731917275E-06,0.067911297082901,0.0894294306635857
765,0.0478179231286049,0.0415661074221134,0.105881385505199,-1.17542879252142E-06,0.0719730108976364,0.0930362641811371
766,0.0459863133728504,0.042447742074728,0.102487809956074,-1.16254227577883E-06,0.0726459249854088,0.0905551984906197
767,0.0423968359827995,0.0424486137926579,0.0981282964348793,-1.1513825484144E-06,0.0713092088699341,0.0866054743528366
768,0.0385831519961357,0.042189821600914,0.0954937338829041,-1.14402303097449E-06,0.0706819146871567,0.0831425860524178
769,0.0343968719244003,0.0407656319439411,0.0949260219931602,-1.14045474219893E-06,0.071547158062458,0.0783609300851822
770,0.0301070585846901,0.0380617901682854,0.0958996936678886,-1.13871556095546E-06,0.0737763345241547,0.0719703733921051
771,0.0259739104658365,0.0340006984770298,0.0977842062711716,-1.13600299300742E-06,0.0773888751864433,0.0660374835133553
772,0.0218694657087326,0.0288208350539207,0.099368080496788,-1.13014209546236E-06,0.0816881284117699,0.0627981200814247
773,0.0180863589048386,0.023243498057127,0.0991595759987831,-1.12064412860491E-06,0.0841781944036484,0.0633314549922943
774,0.0152754811570048,0.0178275834769011,0.0971622616052628,-1.10884877813078E-06,0.0834146365523338,0.067346103489399
775,0.0124469641596079,0.0120786176994443,0.0936254262924194,-1.09713835172442E-06,0.0805206671357155,0.0716103091835976
776,0.00694216322153807,0.00498862098902464,0.0877279192209244,-1.0876808573812E-06,0.0761269778013229,0.0719042271375656
777,-0.00161983899306506,-0.0025969622656703,0.0796384364366531,-1.08136259768798E-06,0.0702538937330246,0.0680994912981987
778,-0.00979400519281626,-0.00826970580965281,0.0719857811927795,-1.07743085209222E-06,0.0653007477521896,0.0632772967219353
779,-0.014334105886519,-0.0106410505250096,0.0680503398180008,-1.07397397641762E-06,0.064565435051918,0.0594824254512787
780,-0.0145543916150928,-0.00973851606249809,0.0686127170920372,-1.06894344753528E-06,0.0685733035206795,0.0571732893586159
781,-0.0115756411105394,-0.00631127972155809,0.0720873177051544,-1.0611738616717E-06,0.0750915557146072,0.0566864833235741
782,-0.00750487484037876,-0.00174207787495106,0.0777125731110573,-1.05089839053107E-06,0.0819175764918327,0.0583228021860123
783,-0.00439559295773506,0.00218031578697264,0.0853565409779549,-1.03954471342149E-06,0.0876982733607292,0.0606683418154716
784,-0.00338624673895538,0.00491607747972012,0.0933072119951248,-1.02896115095064E-06,0.0906821116805077,0.0620043613016605
785,-0.00354576064273715,0.00806470401585102,0.0996454805135727,-1.02049193628773E-06,0.0912263989448547,0.063520684838295
786,-0.00371583458036184,0.0118746683001518,0.102391481399536,-1.01435932720051E-06,0.0915628895163536,0.0662863478064537
787,-0.00404020957648754,0.0142466733232141,0.099712535738945,-1.0096293863171E-06,0.0912027657032013,0.0685408562421799
788,-0.00428293040022254,0.0135661978274584,0.0924464389681816,-1.00473346265062E-06,0.0882287099957466,0.0682831481099129
789,-0.00291769625619054,0.0110819898545742,0.0845290124416351,-9.982596793634E-07,0.0835588797926903,0.0673640221357346
790,0.000194012594874948,0.00884503126144409,0.0792006477713585,-9.89617205959803E-07,0.0788694024085999,0.0684663280844688
791,0.00140113767702132,0.00590481655672193,0.0754427239298821,-9.79270225798246E-07,0.0728559121489525,0.0693069696426392
792,-0.0015563250053674,0.000956114323344082,0.0713376924395561,-9.68459630712459E-07,0.0645205527544022,0.0677343606948853
793,-0.00567210419103503,-0.00412799278274179,0.0679771527647972,-9.58576492848806E-07,0.0563696138560772,0.0663303285837173
794,-0.0083845341578126,-0.00734524801373482,0.0662573873996735,-9.50500975704927E-07,0.0506171658635139,0.0672184452414513
795,-0.0101496325805783,-0.00952226109802723,0.0650238990783691,-9.44213411457895E-07,0.0466389209032059,0.0691231489181519
796,-0.0101251332089305,-0.0102515947073698,0.0649097189307213,-9.38844380016235E-07,0.0441140532493591,0.0715497508645058
797,-0.00771249737590551,-0.00782119669020176,0.0669568106532097,-9.33115700263443E-07,0.0431978702545166,0.0756048038601875
798,-0.00513533782213926,-0.00395858241245151,0.0693743824958801,-9.25953315800143E-07,0.0419607907533646,0.0803645104169846
799,-0.0041198842227459,-0.00193919963203371,0.0700932964682579,-9.16983935894677E-07,0.0386196859180927,0.0833643674850464
800,-0.00422758143395185,-0.00177452771458775,0.0692252442240715,-9.06691923319158E-07,0.0346935018897057,0.0838398635387421
801,-0.00512946350499988,-0.00127895909827203,0.0680354982614517,-8.96174981335207E-07,0.0323001332581043,0.0827448964118958
802,-0.00872442871332169,-0.000793703075032681,0.0659070163965225,-8.86619432094449E-07,0.030250359326601,0.0801544487476349
803,-0.0156148076057434,-0.00167799787595868,0.0618948638439178,-8.7874099108376E-07,0.027562266215682,0.0761318653821945
804,-0.0226770844310522,-0.00291221006773412,0.0582129694521427,-8.72449618327664E-07,0.0268239136785269,0.0722708106040955
805,-0.028069457039237,-0.00371538288891315,0.0566202029585838,-8.66893742568209E-07,0.02920894138515,0.0686690434813499
806,-0.0322751253843308,-0.00406106654554605,0.056337371468544,-8.60865156937507E-07,0.0329057015478611,0.0645791739225388
807,-0.0337177850306034,-0.00209302804432809,0.0577814467251301,-8.53376263876271E-07,0.0380846634507179,0.0620624907314777
808,-0.0304622799158096,0.00321105099283159,0.0613435469567776,-8.44140117806091E-07,0.0452201999723911,0.0635272637009621
809,-0.0251925587654114,0.0087346276268363,0.0635838881134987,-8.33721060189418E-07,0.0509526208043098,0.0675245895981789
810,-0.0223091877996922,0.0111755253747106,0.0602061562240124,-8.23275684069813E-07,0.052286621183157,0.069665290415287
811,-0.0217564478516579,0.0117101054638624,0.0518685951828957,-8.13998155990703E-07,0.0505123883485794,0.0673073306679726
812,-0.0203480552881956,0.0130452457815409,0.0442279353737831,-8.06532000297011E-07,0.0482684746384621,0.0616095364093781
813,-0.0172247681766748,0.0146559970453382,0.0414933562278748,-8.00636826170376E-07,0.0461430102586746,0.0545659996569157
814,-0.0135731613263488,0.0151824876666069,0.0431109368801117,-7.95284165633348E-07,0.0437888912856579,0.0470535419881344
815,-0.00982913468033075,0.0159382726997137,0.0465118065476418,-7.89151442859293E-07,0.041840922087431,0.0408648513257504
816,-0.00575347431004047,0.0180472172796726,0.0503377392888069,-7.81280334649637E-07,0.0420803651213646,0.0390175692737103
817,-0.00101016648113728,0.0206476878374815,0.054831437766552,-7.71574264035735E-07,0.0459079444408417,0.0422256886959076
818,0.00329617224633694,0.0220893900841475,0.0589798539876938,-7.60875650485104E-07,0.0513208135962486,0.0475502423942089
819,0.00551666412502527,0.0217842776328325,0.0606135465204716,-7.50566528040508E-07,0.0544256828725338,0.0532023534178734
820,0.00580664025619626,0.0212048124521971,0.0594314895570278,-7.41877840937377E-07,0.0532456748187542,0.0604208596050739
821,0.00432603154331446,0.020727114751935,0.0569806918501854,-7.35251205696841E-07,0.048115998506546,0.0674596354365349
822,0.00171870400663465,0.0201026313006878,0.0550525821745396,-7.30085560007865E-07,0.0418691299855709,0.0703554973006248
823,0.000514079292770475,0.0205839145928621,0.0547081455588341,-7.25015297575737E-07,0.0380301214754581,0.0688334926962852
824,0.000479171052575111,0.0219084154814482,0.0552755855023861,-7.18595742910111E-07,0.0359201058745384,0.0651357993483543
825,-0.00200786557979882,0.021984389051795,0.0547183901071548,-7.10053484453965E-07,0.0323970131576061,0.0609188713133335
826,-0.00687455711886287,0.021349310874939,0.052203107625246,-6.99712188634294E-07,0.0280830394476652,0.0583703741431236
827,-0.0101991463452578,0.0220644176006317,0.048950370401144,-6.88857198838377E-07,0.0249682907015085,0.0592118315398693
828,-0.0105826389044523,0.022911224514246,0.0457298308610916,-6.79090874200483E-07,0.0218897014856339,0.0611665062606335
829,-0.00856402050703764,0.022846357896924,0.0426195412874222,-6.71500174576067E-07,0.0185135547071695,0.0617990233004093
830,-0.00549421273171902,0.0224197804927826,0.03994495049119,-6.66070036459132E-07,0.0158868264406919,0.0603225938975811
831,-0.00484162243083119,0.0202137064188719,0.0370848700404167,-6.61660692458099E-07,0.0130721013993025,0.0549540407955647
832,-0.00768510578200221,0.0155569454655051,0.0329472757875919,-6.56578890811943E-07,0.0101039335131645,0.0457898266613483
833,-0.0114336768165231,0.00979889184236526,0.0275686718523502,-6.49459195756208E-07,0.00775080872699618,0.0355757810175419
834,-0.0128168640658259,0.00485049793496728,0.0236427616328001,-6.39995846540842E-07,0.00570800714194775,0.0281235799193382
835,-0.00856921635568142,0.00341173098422587,0.0249361786991358,-6.2913215970184E-07,0.00456191739067435,0.0271507184952497
836,0.000474928703624755,0.00588406575843692,0.0309620536863804,-6.1859117295171E-07,0.00444458983838558,0.0312344282865524
837,0.00926100090146065,0.00951725337654352,0.0383171960711479,-6.09979224464041E-07,0.00466546369716525,0.0348306596279144
838,0.0145892994478345,0.0120824975892901,0.0446757189929485,-6.03929379394685E-07,0.00444638915359974,0.0351723991334438
839,0.0160888265818357,0.0129555827006698,0.0482554547488689,-5.99742918439006E-07,0.00317399948835373,0.0329661034047604
840,0.0138838412240148,0.0119479596614838,0.0478798151016235,-5.95732728925213E-07,0.00112441612873226,0.0292227417230606
841,0.0085451602935791,0.0095515288412571,0.0438214801251888,-5.90102331443632E-07,-0.00235205888748169,0.0257815141230822
842,0.00231820973567665,0.00772208115085959,0.0382883250713348,-5.81902042995353E-07,-0.00781822949647903,0.0256773717701435
843,-0.00376629619859159,0.00689355842769146,0.0323175154626369,-5.71552959627297E-07,-0.0149213988333941,0.0280921701341867
844,-0.0104398299008608,0.00585336145013571,0.025450274348259,-5.60648345526715E-07,-0.0219576135277748,0.0299445018172264
845,-0.0163889210671186,0.00517699774354696,0.0202562212944031,-5.51124287540006E-07,-0.0239742435514927,0.0312767997384071
846,-0.0200321134179831,0.00593434926122427,0.0188915431499481,-5.44231113508431E-07,-0.0190537199378014,0.0336409620940685
847,-0.0216087382286787,0.00832606479525566,0.0195524711161852,-5.39853431291704E-07,-0.0122473984956741,0.0376137644052505
848,-0.0218489542603493,0.0118409357964993,0.0204665623605251,-5.36549634944095E-07,-0.00843329634517431,0.0414879284799099
849,-0.0219891741871834,0.0148043883964419,0.0212286319583654,-5.32302635747328E-07,-0.00842710770666599,0.0422074049711227
850,-0.0239495057612658,0.0149693321436644,0.0213648751378059,-5.2559124696927E-07,-0.0115250293165445,0.0380928181111813
851,-0.0290342438966036,0.0118234558030963,0.0205408297479153,-5.16212367074331E-07,-0.0173462275415659,0.0303081460297108
852,-0.0358662940561771,0.00782667007297277,0.0194034352898598,-5.05408650042227E-07,-0.0242713633924723,0.0216322746127844
853,-0.0403515957295895,0.00602906243875623,0.0194861199706793,-4.9522230938237E-07,-0.027830870822072,0.0143401818349957
854,-0.0403446815907955,0.00672994321212173,0.0210006311535835,-4.87411227823031E-07,-0.0255764499306679,0.00928699225187302
855,-0.0372201316058636,0.00755420001223683,0.0227646883577108,-4.8250331019517E-07,-0.0202185250818729,0.00589363789185882
856,-0.0326202996075153,0.00618643965572119,0.0239647086709738,-4.79498623917607E-07,-0.0155036468058825,0.00364892091602087
857,-0.0271729566156864,0.00293816160410643,0.0242181699723005,-4.76388891001989E-07,-0.0126408133655787,0.00422557862475514
858,-0.0210520625114441,0.000496378925163299,0.0236823745071888,-4.71223671638654E-07,-0.0104474676772952,0.010075674392283
859,-0.0167260821908712,-0.000748126592952758,0.0220141839236021,-4.63157959984528E-07,-0.00959425140172243,0.0184323713183403
860,-0.0180271547287703,-0.00255605159327388,0.0178404897451401,-4.5291682226889E-07,-0.0124688325449824,0.0223869886249304
861,-0.0242616049945354,-0.00428747339174151,0.0115358699113131,-4.42421224988721E-07,-0.0174032635986805,0.0200347788631916
862,-0.0308389663696289,-0.00417823810130358,0.00553850550204515,-4.33767866070411E-07,-0.0207588020712137,0.0153455957770348
863,-0.0345663093030453,-0.00220066169276834,0.00173450831789523,-4.28105153105207E-07,-0.0213207937777042,0.0113680874928832
864,-0.0351292006671429,0.00073177763260901,0.00123198714572936,-4.25008948923278E-07,-0.0193149708211422,0.00876123271882534
865,-0.0319769680500031,0.00538821332156658,0.00478437636047602,-4.22698377633424E-07,-0.0152604654431343,0.00924033299088478
866,-0.0239626914262772,0.0129914134740829,0.0117022227495909,-4.18982551764202E-07,-0.00952859502285719,0.0138577874749899
867,-0.0137627925723791,0.0211690869182348,0.0192917473614216,-4.12434673080497E-07,-0.00322359381243587,0.0197235029190779
868,-0.00606719125062227,0.0260457582771778,0.0252523701637983,-4.031635114643E-07,0.00239754398353398,0.0238704737275839
869,-0.00304512772709131,0.0265532359480858,0.0287161618471146,-3.92764547996194E-07,0.00665320316329598,0.025490079075098
870,-0.00372649100609124,0.0246369149535894,0.0294302590191364,-3.83471075338093E-07,0.00947514548897743,0.0251061208546162
871,-0.00687435315921903,0.0215379782021046,0.0275267455726862,-3.76957927983312E-07,0.0105397878214717,0.0239357091486454
872,-0.013062221929431,0.0159738697111607,0.0225564800202847,-3.73438865608478E-07,0.0075819119811058,0.0221802350133657
873,-0.021240122616291,0.00771791720762849,0.0155688300728798,-3.71545468169643E-07,0.000593347358517349,0.0203949958086014
874,-0.027610057964921,-0.000442051328718662,0.0110560599714518,-3.69055896953796E-07,-0.00588564202189446,0.0209959950298071
875,-0.0297488067299128,-0.00615100795403123,0.0120096420869231,-3.6408584946912E-07,-0.00817927811294794,0.0251926258206367
876,-0.0279790833592415,-0.00981557741761208,0.0167593844234943,-3.5610219129012E-07,-0.00603907974436879,0.0310641098767519
877,-0.023455522954464,-0.0127842118963599,0.0224030278623104,-3.46213710145094E-07,-0.00115189386997372,0.0358505398035049
878,-0.0187397785484791,-0.0166454520076513,0.0259648878127337,-3.36579830673145E-07,0.00317357759922743,0.037123829126358
879,-0.01630506105721,-0.0216508246958256,0.0251951515674591,-3.2925257187344E-07,0.00386717007495463,0.0341330766677856
880,-0.0162510126829147,-0.0263263806700706,0.0201714057475328,-3.2507361424905E-07,-0.000107037034467794,0.0288057830184698
881,-0.0176742989569902,-0.0294515583664179,0.0122949909418821,-3.23220120890255E-07,-0.00745902536436915,0.0241269394755363
882,-0.0192431006580591,-0.030177341774106,0.00416782405227423,-3.21644563427981E-07,-0.0142800631001592,0.0215330179780722
883,-0.020208016037941,-0.0290310047566891,-0.00142876768950373,-3.18174102176272E-07,-0.0179615933448076,0.0190692357718945
884,-0.020943621173501,-0.0271989237517118,-0.00335687398910522,-3.11678007847149E-07,-0.0198729801923037,0.0150555772706866
885,-0.0212086774408817,-0.0236075147986412,-0.00158402812667191,-3.02675999819257E-07,-0.021117290481925,0.0118290856480598
886,-0.0204198583960533,-0.0169665534049273,0.0018603551434353,-2.9305900284271E-07,-0.0221412647515535,0.0117739448323846
887,-0.019086541607976,-0.0101335858926177,0.00359425693750381,-2.8507284355328E-07,-0.0243378262966871,0.0130673190578818
888,-0.0185760203748941,-0.00775306392461061,0.00289780576713383,-2.80111180472886E-07,-0.0279045719653368,0.0121586164459586
889,-0.0202592182904482,-0.010299171321094,-3.47257764587994E-06,-2.7796735935226E-07,-0.0329697355628014,0.00830607581883669
890,-0.0244005266577005,-0.0146653512492776,-0.00611071428284049,-2.76946991561999E-07,-0.0399306602776051,0.00328801292926073
891,-0.0294050425291061,-0.0185946002602577,-0.0147082861512899,-2.74780347808701E-07,-0.0469890609383583,-0.00150367303285748
892,-0.0327167846262455,-0.0211140252649784,-0.022257836535573,-2.69843098976708E-07,-0.050960585474968,-0.00522706052288413
893,-0.0331505611538887,-0.0216312222182751,-0.0260338392108679,-2.62027924691211E-07,-0.0504023395478725,-0.00808651559054852
894,-0.0312346890568733,-0.0192685704678297,-0.0272797979414463,-2.52799083000355E-07,-0.0467874594032764,-0.0098715778440237
895,-0.028617000207305,-0.0142761822789907,-0.0291635226458311,-2.44402059479398E-07,-0.0434247739613056,-0.00861092191189528
896,-0.0276414640247822,-0.0101511394605041,-0.032976932823658,-2.38654763506929E-07,-0.0433038175106049,-0.00485006533563137
897,-0.0291719827800989,-0.00992130022495985,-0.037365697324276,-2.35971896245246E-07,-0.0467888787388802,-0.00180988386273384
898,-0.0316132344305515,-0.0125671727582812,-0.0402136854827404,-2.35146288218857E-07,-0.0509492084383965,-0.00155648065265268
899,-0.0329687185585499,-0.0154364202171564,-0.0409062914550304,-2.34002868637617E-07,-0.0524389296770096,-0.00460499385371804
900,-0.0348063372075558,-0.0187553726136684,-0.0423680022358894,-2.30570904591332E-07,-0.0528425499796867,-0.0116006070747972
901,-0.0398133620619774,-0.0235426928848028,-0.0473726764321327,-2.2414214129185E-07,-0.0563603825867176,-0.0218826569616795
902,-0.046299897134304,-0.0278390813618898,-0.0544507764279842,-2.15646380752332E-07,-0.0637088045477867,-0.0325176045298576
903,-0.0506780445575714,-0.0303323771804571,-0.0615396164357662,-2.071448506058E-07,-0.0728134214878082,-0.0419471859931946
904,-0.0513786189258099,-0.0319881103932858,-0.067229151725769,-2.00717551024354E-07,-0.0807745754718781,-0.0498644635081291
905,-0.0496140420436859,-0.0334317535161972,-0.0701854005455971,-1.97345499941548E-07,-0.0862399116158485,-0.0558725148439407
906,-0.0477561429142952,-0.0342460200190544,-0.0725303590297699,-1.96389066786651E-07,-0.09112448990345,-0.0602322295308113
907,-0.0454506725072861,-0.0330099947750568,-0.0769071877002716,-1.95939932723377E-07,-0.0958152413368225,-0.0622964315116405
908,-0.0406252257525921,-0.0291687119752169,-0.0818397700786591,-1.93853111341014E-07,-0.0974161475896835,-0.0616199523210526
909,-0.0351237058639526,-0.0252695064991713,-0.0859019681811333,-1.8890067110533E-07,-0.0964927524328232,-0.0602725148200989
910,-0.0317554138600826,-0.0225358530879021,-0.0880027860403061,-1.81425917844535E-07,-0.0951844900846481,-0.0592315718531609
911,-0.0304171033203602,-0.0198548287153244,-0.0869704335927963,-1.73149572901821E-07,-0.0931834951043129,-0.0578317195177078
912,-0.0304315965622664,-0.0176012851297855,-0.0859456136822701,-1.66236631571337E-07,-0.0922572463750839,-0.0565150044858456
913,-0.0314087904989719,-0.0164206046611071,-0.0892890468239784,-1.62130433523089E-07,-0.0961220189929008,-0.0561931729316711
914,-0.034414641559124,-0.016885643824935,-0.0980305299162865,-1.60782036573437E-07,-0.107547998428345,-0.0586458593606949
915,-0.0392905175685883,-0.0187238622456789,-0.110094666481018,-1.60686695949153E-07,-0.124668538570404,-0.0642232373356819
916,-0.0430083088576794,-0.020424660295248,-0.122609384357929,-1.59702437940723E-07,-0.141454368829727,-0.0695480331778526
917,-0.0441290810704231,-0.0209905058145523,-0.134120807051659,-1.56205146595312E-07,-0.154785931110382,-0.0717763602733612
918,-0.0437953770160675,-0.0205994788557291,-0.144326224923134,-1.49956917994132E-07,-0.164875209331512,-0.0729049295186996
919,-0.0420268513262272,-0.0203524865210056,-0.153121784329414,-1.42222944532477E-07,-0.171685069799423,-0.0759811848402023
920,-0.037348747253418,-0.0201551076024771,-0.159968435764313,-1.35080099994411E-07,-0.174605682492256,-0.0799740478396416
921,-0.0307489894330502,-0.0196821726858616,-0.164698004722595,-1.30294878886161E-07,-0.173901632428169,-0.083620697259903
922,-0.024483809247613,-0.0200316365808249,-0.167880117893219,-1.28377337205166E-07,-0.171217784285545,-0.0876651629805565
923,-0.0193195194005966,-0.021470295265317,-0.17006441950798,-1.28317793723909E-07,-0.168524444103241,-0.0915922448039055
924,-0.0149032901972532,-0.0224329307675362,-0.171476364135742,-1.28142247035612E-07,-0.166296541690826,-0.0937096998095512
925,-0.0095799108967185,-0.0211601816117764,-0.170772463083267,-1.25980690768301E-07,-0.162816449999809,-0.0924371033906937
926,-0.00274556037038565,-0.0179027821868658,-0.166685447096825,-1.21070002023771E-07,-0.158053517341614,-0.0884102284908295
927,0.00284792180173099,-0.014698407612741,-0.161933645606041,-1.14153280605933E-07,-0.15580216050148,-0.0851263627409935
928,0.00478164805099368,-0.0116451876237988,-0.160111919045448,-1.07066519206001E-07,-0.157959640026093,-0.0830477103590965
929,0.00410520238801837,-0.00780509971082211,-0.161103129386902,-1.01742372748959E-07,-0.161744371056557,-0.0797750949859619
930,0.00225917482748628,-0.00530511979013681,-0.163932234048843,-9.91716362364059E-08,-0.164823040366173,-0.076684258878231
931,-0.000882540130987763,-0.00638476060703397,-0.168365612626076,-9.88807471458131E-08,-0.167054772377014,-0.0763320252299309
932,-0.0049647600390017,-0.00939604453742504,-0.172536224126816,-9.92008182265636E-08,-0.168320015072823,-0.0777989476919174
933,-0.00806478131562471,-0.0102656865492463,-0.173478320240974,-9.81756542728363E-08,-0.167723402380943,-0.0789798125624657
934,-0.00865296553820372,-0.00704808067530394,-0.170155584812164,-9.46145490843264E-08,-0.165331572294235,-0.0788108706474304
935,-0.00737633090466261,-0.00184821442235261,-0.164537727832794,-8.87229703039338E-08,-0.163129836320877,-0.0756975337862968
936,-0.00507710361853242,0.00273100240156055,-0.159533962607384,-8.19769567783624E-08,-0.161290884017944,-0.0685680583119392
937,-0.000830626697279513,0.00640745041891932,-0.156111627817154,-7.63168372941436E-08,-0.15624475479126,-0.0601425245404243
938,0.00518982578068972,0.00931006297469139,-0.153542906045914,-7.31007858689736E-08,-0.145692497491837,-0.0552355833351612
939,0.0101722637191415,0.0104311788454652,-0.151956975460052,-7.23826545367956E-08,-0.132881790399551,-0.0567229129374027
940,0.0121559835970402,0.0097461212426424,-0.151221826672554,-7.28980680264613E-08,-0.121765173971653,-0.0631746500730515
941,0.0100782858207822,0.0077325371094048,-0.150658786296844,-7.27581266346533E-08,-0.114660531282425,-0.0714282691478729
942,0.00402171164751053,0.00489204935729504,-0.150098621845245,-7.04699729681124E-08,-0.11320461332798,-0.0802057757973671
943,-0.00293524656444788,0.00303298374637961,-0.149568840861321,-6.57326424402527E-08,-0.116500578820705,-0.088399775326252
944,-0.00834720116108656,0.00242154160514474,-0.150853857398033,-5.9583669553831E-08,-0.122905269265175,-0.0948403626680374
945,-0.0113023659214377,0.00117368763312697,-0.154212400317192,-5.38258397853042E-08,-0.129470214247704,-0.0992065444588661
946,-0.0105752209201455,-0.00119214900769293,-0.155598714947701,-5.00506054379457E-08,-0.131409615278244,-0.0999160036444664
947,-0.0068555511534214,-0.00367606990039349,-0.152212202548981,-4.87872924281874E-08,-0.12759268283844,-0.0952266305685043
948,-0.00274697178974748,-0.00579455634579062,-0.144782856106758,-4.92329519374834E-08,-0.121444702148438,-0.0860840976238251
949,0.000347857858287171,-0.00845437590032816,-0.135874435305595,-4.97002439203698E-08,-0.115907490253448,-0.0760015770792961
950,0.0032430486753583,-0.0126667376607656,-0.128368243575096,-4.85336819622262E-08,-0.111368365585804,-0.0685764253139496
951,0.00865109264850616,-0.016422912478447,-0.122234404087067,-4.49964794313473E-08,-0.106833428144455,-0.0643126294016838
952,0.0172195173799992,-0.0174396932125092,-0.116887718439102,-3.96527504165078E-08,-0.103161379694939,-0.0614326968789101
953,0.0246499516069889,-0.0176924970000982,-0.114635206758976,-3.40470300841389E-08,-0.10292787104845,-0.0594731196761131
954,0.0273035857826471,-0.0186098478734493,-0.116042144596577,-2.98627433892307E-08,-0.105355568230152,-0.0574292540550232
955,0.0259409453719854,-0.0176832340657711,-0.117663450539112,-2.80180039169409E-08,-0.107565216720104,-0.0526950694620609
956,0.0232969522476196,-0.013950290158391,-0.116200938820839,-2.81844467764358E-08,-0.108579464256763,-0.046427495777607
957,0.0212337616831064,-0.00964567717164755,-0.111157685518265,-2.89809936049323E-08,-0.107929609715939,-0.0413869731128216
958,0.0193296708166599,-0.00644532265141606,-0.104910559952259,-2.87289640965582E-08,-0.105265721678734,-0.0379986129701138
959,0.0163193847984076,-0.0057483809068799,-0.100736893713474,-2.63556270141407E-08,-0.102399408817291,-0.0385147035121918
960,0.0126048121601343,-0.00914906524121761,-0.0992300137877464,-2.19597033890295E-08,-0.101457595825195,-0.044871773570776
961,0.010429342277348,-0.0145818712189794,-0.0984517857432365,-1.6740740349519E-08,-0.10100794583559,-0.0524953417479992
962,0.0110555896535516,-0.0179878417402506,-0.0966894179582596,-1.23397647655565E-08,-0.0972147658467293,-0.0553024373948574
963,0.0136309955269098,-0.0185207631438971,-0.0933091938495636,-9.95347004817404E-09,-0.088261753320694,-0.0513451360166073
964,0.016153221949935,-0.0180673468858004,-0.0897934585809708,-9.70009672585093E-09,-0.0771746784448624,-0.0417060628533363
965,0.0163397528231144,-0.0186504237353802,-0.0890937224030495,-1.05728537036498E-08,-0.069032296538353,-0.0318405888974667
966,0.0149720078334212,-0.0195498261600733,-0.0914738550782204,-1.09965982986182E-08,-0.0639827847480774,-0.0268483441323042
967,0.014223619364202,-0.0187069419771433,-0.0946076959371567,-9.68002122903044E-09,-0.0590784177184105,-0.0258768629282713
