,AF3,AF4,Fp1,Fp2,AF7,AF8
0,-0.00294319516979158,-0.031103041023016,0.0891179293394089,0.210213333368301,0.107087977230549,0.058040414005518
1,-0.000683299382217228,-0.0292910672724247,0.0958357080817223,0.210718438029289,0.107449121773243,0.0610367693006992
2,0.0037686622235924,-0.02731061168015,0.102733574807644,0.21613210439682,0.110082596540451,0.0644490346312523
3,0.00972412433475256,-0.0249620620161295,0.108457006514072,0.221555426716805,0.112879566848278,0.0672011226415634
4,0.014708305709064,-0.0230646003037691,0.112115256488323,0.223638832569122,0.114406228065491,0.067644290626049
5,0.0175464451313019,-0.022272190079093,0.113519623875618,0.220106512308121,0.116078667342663,0.0655839666724205
6,0.0190255232155323,-0.0214760266244411,0.112730719149113,0.211041986942291,0.118522152304649,0.0635799020528793
7,0.0201547145843506,-0.0198891665786505,0.110829085111618,0.200024157762527,0.120724156498909,0.0632569715380669
8,0.0207404922693968,-0.0182717591524124,0.109730280935764,0.191413849592209,0.122696250677109,0.0640915110707283
9,0.0198521111160517,-0.0182614214718342,0.11001268774271,0.187563642859459,0.125090181827545,0.0653581097722054
10,0.0178842786699533,-0.0195172317326069,0.111246444284916,0.187218740582466,0.128120511770248,0.0681881830096245
11,0.0167453978210688,-0.0192933827638626,0.113536424934864,0.186095774173737,0.131621763110161,0.0741163715720177
12,0.0152899343520403,-0.0180766694247723,0.115673460066319,0.180548310279846,0.132955074310303,0.0804605111479759
13,0.0111341504380107,-0.018163625150919,0.116179659962654,0.170712724328041,0.13013730943203,0.0839303806424141
14,0.00584265496581793,-0.0184660460799932,0.115556567907333,0.15954127907753,0.125319838523865,0.0854278355836868
15,0.0018269601278007,-0.0177366584539413,0.11466147005558,0.149570062756538,0.120539598166943,0.0864017531275749
16,-0.000817268621176481,-0.0172264073044062,0.114256121218205,0.142179563641548,0.11581889539957,0.0871952623128891
17,-0.00251065846532583,-0.0176600720733404,0.11488002538681,0.138523906469345,0.111944206058979,0.0885360985994339
18,-0.00206809979863465,-0.0176526140421629,0.116182267665863,0.139533087611198,0.111117817461491,0.0910785347223282
19,0.00124793290160596,-0.0157843176275492,0.117209978401661,0.144879415631294,0.113618902862072,0.0945863574743271
20,0.00588969746604562,-0.0119443191215396,0.117636077105999,0.151194378733635,0.117041654884815,0.0982133373618126
21,0.00949315074831247,-0.0081969853490591,0.116909295320511,0.152849867939949,0.119072280824184,0.0994969084858894
22,0.0110798627138138,-0.00665443763136864,0.114384509623051,0.146326839923859,0.119966864585876,0.0968427658081055
23,0.0115696983411908,-0.00734234787523746,0.110976666212082,0.134315669536591,0.121032156050205,0.0923556685447693
24,0.0114243291318417,-0.0104591427370906,0.107713356614113,0.123109377920628,0.121889285743237,0.0872816517949104
25,0.0108169028535485,-0.0146501529961824,0.105455003678799,0.117487445473671,0.122012957930565,0.0817859619855881
26,0.0101044597104192,-0.0166505929082632,0.10483530163765,0.118216030299664,0.121481761336327,0.07750204205513
27,0.00874657370150089,-0.0153386117890477,0.105525210499763,0.122043758630753,0.120430044829845,0.0760495662689209
28,0.00569255230948329,-0.0124721601605415,0.106482036411762,0.125650808215141,0.118493393063545,0.0777352005243301
29,0.00104289164301008,-0.010203299112618,0.107023254036903,0.127052962779999,0.115598537027836,0.0818741470575333
30,-0.00364617491140962,-0.00962849985808134,0.106986440718174,0.125644534826279,0.11278809607029,0.0871326997876167
31,-0.00745914131402969,-0.0117109222337604,0.105231337249279,0.122515939176083,0.110124655067921,0.0905416011810303
32,-0.010109456256032,-0.0162517316639423,0.100971423089504,0.118515029549599,0.106478877365589,0.0896696820855141
33,-0.0111782876774669,-0.0210133753716946,0.0953600779175758,0.112609528005123,0.101414635777473,0.084968276321888
34,-0.0111581748351455,-0.0241571608930826,0.0895576253533363,0.104147598147392,0.0954976156353951,0.0781962722539902
35,-0.0116084488108754,-0.0257555525749922,0.0836471915245056,0.096904456615448,0.0898226350545883,0.0710280165076256
36,-0.0131979566067457,-0.0264477375894785,0.0778229385614395,0.0958721339702606,0.0858185961842537,0.0653946623206139
37,-0.0143780801445246,-0.0262598991394043,0.0728402063250542,0.10090721398592,0.0841997638344765,0.0637179985642433
38,-0.0133502809330821,-0.0250055175274611,0.0699863061308861,0.108400672674179,0.0847293362021446,0.0676421001553535
39,-0.0103326551616192,-0.0229506976902485,0.0701555162668228,0.11716689914465,0.086394414305687,0.0753199309110641
40,-0.00697329267859459,-0.0206675007939339,0.0724085792899132,0.12716805934906,0.0871566981077194,0.0816355347633362
41,-0.00477534811943769,-0.0185014326125383,0.0747668743133545,0.136378616094589,0.0865216702222824,0.0832661986351013
42,-0.00467300042510033,-0.0173863545060158,0.0755278840661049,0.142305687069893,0.0858382508158684,0.08009372651577
43,-0.00587644567713141,-0.0183724723756313,0.0746671706438065,0.143701508641243,0.0856109708547592,0.0738662704825401
44,-0.00545410346239805,-0.0201551709324121,0.0743109509348869,0.140602350234985,0.0862196832895279,0.0686826184391975
45,-0.00196939124725759,-0.0204154383391142,0.0765302926301956,0.131278023123741,0.0882619470357895,0.0674337968230248
46,0.00304173305630684,-0.0187541265040636,0.0812750533223152,0.116345323622227,0.091615691781044,0.0686793699860573
47,0.00782805494964123,-0.0163669250905514,0.0865368545055389,0.101973719894886,0.0956284999847412,0.0701266974210739
48,0.0116464076563716,-0.0141071146354079,0.0910387337207794,0.0893884897232056,0.0993931144475937,0.0718182846903801
49,0.013863543048501,-0.0121598280966282,0.0945558995008469,0.0773640275001526,0.102245017886162,0.0743222013115883
50,0.0142867462709546,-0.0105877406895161,0.0964729115366936,0.0724174603819847,0.104147031903267,0.0770116969943047
51,0.0133717749267817,-0.00877499114722013,0.0962374433875084,0.0801238790154457,0.104592263698578,0.0788907259702683
52,0.0109087815508246,-0.0065827420912683,0.0940408185124397,0.0972829833626747,0.102552451193333,0.0786638557910919
53,0.00621261680498719,-0.00595194008201361,0.0908496975898743,0.117725469172001,0.0979230776429176,0.074698269367218
54,-8.62754386616871E-05,-0.00785206817090511,0.0873595997691154,0.13545373082161,0.0912572667002678,0.0677661076188087
55,-0.00574995344504714,-0.00985852349549532,0.0839564725756645,0.137462645769119,0.0841228663921356,0.0617382600903511
56,-0.00992268975824118,-0.0108310533687472,0.0806523710489273,0.113932825624943,0.0786883533000946,0.0578974522650242
57,-0.0135849891230464,-0.0129949375987053,0.0772531926631927,0.078759178519249,0.0756997987627983,0.0536204464733601
58,-0.0167436935007572,-0.01689088717103,0.0736076459288597,0.0484926216304302,0.0740826651453972,0.0484239235520363
59,-0.0183878168463707,-0.0202692206948996,0.0691974237561226,0.0198456216603518,0.0723760202527046,0.0445173680782318
60,-0.0188727956265211,-0.0225811637938023,0.063835397362709,-0.00957166031002998,0.0696950405836105,0.0418260991573334
61,-0.0207154788076878,-0.0256263520568609,0.0573963858187199,-0.0255807470530272,0.0649276524782181,0.0383156090974808
62,-0.0260240118950605,-0.0302588436752558,0.0496455542743206,-0.0196104031056166,0.0571669191122055,0.0336640886962414
63,-0.033173706382513,-0.0354371257126331,0.0417356230318546,0.00106279039755464,0.0484684035181999,0.029331311583519
64,-0.0384060069918633,-0.0397380478680134,0.0354376472532749,0.0293964650481939,0.0420421026647091,0.0264309961348772
65,-0.0408971980214119,-0.0428969040513039,0.0311418734490871,0.0546277984976768,0.0372828468680382,0.0246371235698462
66,-0.0419201888144016,-0.0449738800525665,0.0299147553741932,0.0654325783252716,0.0326406806707382,0.0236392132937908
67,-0.0416181348264217,-0.0449583046138287,0.0330497212707996,0.0634380280971527,0.0289632119238377,0.0234596710652113
68,-0.0404321774840355,-0.0424484238028526,0.0379908122122288,0.0547313317656517,0.0267016179859638,0.0229044370353222
69,-0.0391179099678993,-0.0388467498123646,0.0412444286048412,0.0394393689930439,0.0256928075104952,0.0214893165975809
70,-0.0367321856319904,-0.0351767316460609,0.0428998880088329,0.0164429377764463,0.0269743371754885,0.0210234615951777
71,-0.0329174250364304,-0.0311203561723232,0.0443388409912586,-0.00803009234368801,0.0308184679597616,0.0224028769880533
72,-0.0295859128236771,-0.0268373861908913,0.0455952510237694,-0.0319481827318668,0.0344738401472569,0.0241422560065985
73,-0.0272565372288227,-0.0223234221339226,0.0474736355245113,-0.0629096999764442,0.0362297259271145,0.025888754054904
74,-0.0246097967028618,-0.0170706529170275,0.0509778447449207,-0.0988738611340523,0.0378108583390713,0.0293763373047113
75,-0.0218272693455219,-0.0119102504104376,0.0544490776956081,-0.127392336726189,0.0398331545293331,0.0349481105804443
76,-0.0199831016361713,-0.00824975315481424,0.0566006526350975,-0.141794413328171,0.041414812207222,0.0398436896502972
77,-0.0189714040607214,-0.00623563816770911,0.0587387084960938,-0.144754111766815,0.0430004484951496,0.0417585484683514
78,-0.0178400278091431,-0.00458260299637914,0.0619445629417896,-0.141425207257271,0.0450479872524738,0.0422758907079697
79,-0.0164875946938992,-0.00238647148944438,0.0655049383640289,-0.132737964391708,0.045910406857729,0.0438636690378189
80,-0.015493924729526,0.000588872644584626,0.0683357864618301,-0.118407145142555,0.0439929217100143,0.0466281473636627
81,-0.0152616174891591,0.00407667178660631,0.0697305724024773,-0.103719048202038,0.0402321852743626,0.0491327233612537
82,-0.0154171930626035,0.00647740298882127,0.0698823928833008,-0.095260314643383,0.0374292843043804,0.0502195134758949
83,-0.0144494762644172,0.00642162933945656,0.0693337097764015,-0.0948520824313164,0.0379889868199825,0.0498068407177925
84,-0.0119799626991153,0.00435072090476751,0.0673423111438751,-0.101374074816704,0.0410454533994198,0.048363022506237
85,-0.0097456332296133,0.00134035258088261,0.0630148872733116,-0.109046287834644,0.0430292300879955,0.0453797616064548
86,-0.00888726953417063,-0.00208252458833158,0.056742824614048,-0.0932126566767693,0.0418633297085762,0.0398407578468323
87,-0.0083703463897109,-0.00495483679696918,0.0506225936114788,-0.0375843942165375,0.0387011952698231,0.0330979488790035
88,-0.00725784758105874,-0.00658741127699614,0.0467007905244827,0.0252802930772305,0.034876573830843,0.0281796287745237
89,-0.00580418109893799,-0.00749827176332474,0.0449196845293045,0.0609805583953857,0.0308529380708933,0.0271623581647873
90,-0.0050702472217381,-0.00866657495498657,0.0441164597868919,0.0765121281147003,0.026949655264616,0.0295203421264887
91,-0.00597321009263396,-0.0102785723283887,0.0440247841179371,0.0903719589114189,0.0236778296530247,0.0326357632875443
92,-0.00710867485031486,-0.0106631200760603,0.0447437129914761,0.108422964811325,0.0225357599556446,0.0355921871960163
93,-0.00587951624765992,-0.00832335092127323,0.0459487438201904,0.12797249853611,0.0242823325097561,0.0395149476826191
94,-0.00182587560266256,-0.0040690079331398,0.0480675138533115,0.143461942672729,0.0276030525565147,0.0443080142140388
95,0.00241662445478141,-0.000175894208950922,0.0507125407457352,0.149502277374268,0.029513830319047,0.0481200069189072
96,0.00455675832927227,0.00247461791150272,0.052698377519846,0.142392382025719,0.0289485845714808,0.0499088056385517
97,0.00445754639804363,0.00381168513558805,0.0534277893602848,0.125168830156326,0.0278124921023846,0.0495671518146992
98,0.00242328597232699,0.00280582346022129,0.0518688894808292,0.108415529131889,0.0263812597841024,0.0469801723957062
99,-0.000121246150229126,-0.000138457049615681,0.0486183278262615,0.100076302886009,0.0244102813303471,0.0433911122381687
100,-0.00195028248708695,-0.00392231158912182,0.045645859092474,0.107033461332321,0.0226707085967064,0.0400071516633034
101,-0.00434270082041621,-0.00855161901563406,0.0431041419506073,0.142781794071198,0.0201907604932785,0.0370274968445301
102,-0.00745124183595181,-0.0125802988186479,0.0415305756032467,0.207640275359154,0.0165974348783493,0.0355635434389114
103,-0.00864915736019611,-0.0138422502204776,0.0424803905189037,0.275190383195877,0.0143035352230072,0.0364124700427055
104,-0.00776174990460277,-0.0136227263137698,0.0444434881210327,0.322246640920639,0.0131320897489786,0.037639494985342
105,-0.00770017923787236,-0.01444495562464,0.0446504168212414,0.346892297267914,0.00970078259706497,0.037457212805748
106,-0.00937430467456579,-0.0159610323607922,0.0435780547559261,0.357910066843033,0.0044153374619782,0.0363776534795761
107,-0.0105028096586466,-0.0155583387240767,0.0436869338154793,0.364418089389801,0.00154116738121957,0.0355715043842793
108,-0.00982656143605709,-0.0120449783280492,0.0457419529557228,0.362230539321899,0.00265629100613296,0.035635132342577
109,-0.00843728985637426,-0.00764522003009915,0.048216424882412,0.341203063726425,0.00545044196769595,0.0356925576925278
110,-0.00658460287377238,-0.00429377285763621,0.0497230663895607,0.312370717525482,0.00778794148936868,0.034824937582016
111,-0.00490711722522974,-0.0025811477098614,0.0493515953421593,0.293331444263458,0.00855855457484722,0.0328771583735943
112,-0.00437271874397993,-0.00287252734415233,0.0471560284495354,0.284182876348495,0.00757679389789701,0.0302476137876511
113,-0.00347070279531181,-0.00486686080694199,0.0449363626539707,0.282533347606659,0.00661990325897932,0.0274382773786783
114,-0.000754313077777624,-0.00820297561585903,0.0441622287034988,0.291674166917801,0.00740519165992737,0.0247916169464588
115,0.00352906133048236,-0.012110729701817,0.0446989126503468,0.312519609928131,0.00948395486921072,0.0236804839223623
116,0.00930273532867432,-0.0149607080966234,0.0459588505327702,0.338900953531265,0.0122112296521664,0.0258175265043974
117,0.0159465204924345,-0.0149885267019272,0.0477688536047935,0.354217767715454,0.015920689329505,0.0315995998680592
118,0.0208904519677162,-0.0125717679038644,0.0489025488495827,0.343087196350098,0.0191230438649654,0.0381241329014301
119,0.0219414718449116,-0.00985742174088955,0.0478018820285797,0.308065801858902,0.0193840954452753,0.0412215627729893
120,0.019849332049489,-0.00737981637939811,0.0448230020701885,0.257247000932693,0.017138646915555,0.040560208261013
121,0.0171153713017702,-0.00467024929821491,0.0413689762353897,0.167079985141754,0.0151973841711879,0.0383786410093308
122,0.0147964879870415,-0.00259280670434237,0.0382676534354687,0.00222735316492617,0.0149488747119904,0.0362618193030357
123,0.0125193633139133,-0.00196453393436968,0.0357709899544716,-0.206910073757172,0.0153411328792572,0.0352716334164143
124,0.0111914500594139,-0.00141788937617093,0.0345498621463776,-0.385087788105011,0.0163114778697491,0.0358702167868614
125,0.0117686493322253,0.000925483414903283,0.0352060422301292,-0.497595697641373,0.0193751603364944,0.0376957505941391
126,0.0130135305225849,0.00420769490301609,0.0367168709635735,-0.5,0.0239137392491102,0.0390855744481087
127,0.0128733459860086,0.00508770393207669,0.0366696305572987,-0.5,0.0263575930148363,0.0370479933917522
128,0.0114685520529747,0.00278925732709467,0.0342334732413292,-0.5,0.0251660589128733,0.0314499065279961
129,0.0114657813683152,0.000896627141628414,0.0318750292062759,-0.5,0.0231397058814764,0.026585889980197
130,0.0139954211190343,0.00156209082342684,0.0318418145179749,-0.5,0.0227257665246725,0.025241669267416
131,0.016534274443984,0.00295819551683962,0.0334746204316616,-0.5,0.0229857992380857,0.0264008510857821
132,0.0164897758513689,0.00306785060092807,0.0352360047399998,-0.5,0.0220020525157452,0.0281061921268702
133,0.0143608264625072,0.00172223057597876,0.0363481715321541,-0.5,0.0195032898336649,0.027486827224493
134,0.011450381949544,-0.000658454664517194,0.0362796150147915,-0.5,0.015697380527854,0.0223543979227543
135,0.00807501748204231,-0.00406974274665117,0.0343459621071815,-0.466712355613709,0.0097002275288105,0.0145374955609441
136,0.00592790404334664,-0.00695182336494327,0.0314718745648861,-0.321476489305496,0.00251473858952522,0.00875160563737154
137,0.00751928985118866,-0.00601399270817637,0.0296947006136179,-0.0712026506662369,-0.00221239612437785,0.00886160042136908
138,0.012531915679574,-0.00100285594817251,0.0285838097333908,0.161449372768402,-0.0030276570469141,0.0140337934717536
139,0.0187976993620396,0.00531947892159224,0.0264033451676369,0.296563923358917,-0.00121703068725765,0.0200277883559465
140,0.0250257924199104,0.0106606297194958,0.0222529340535402,0.330587774515152,0.00131267798133194,0.0234356168657541
141,0.0288718473166227,0.0124107943847775,0.0145061276853085,0.283069908618927,0.000575441401451826,0.0223443191498518
142,0.0275819171220064,0.00923732295632362,0.00284102116711438,0.195980086922646,-0.00640328787267208,0.0174796860665083
143,0.0231822300702333,0.00358869601041079,-0.00852240063250065,0.103506021201611,-0.015660721808672,0.0113464538007975
144,0.0208418890833855,-0.00130333669949323,-0.0151559254154563,0.0141921667382121,-0.021638385951519,0.00560507550835609
145,0.0220209173858166,-0.00461233127862215,-0.0174671802669764,-0.0571780949831009,-0.024650800973177,0.000473883206723258
146,0.0246139746159315,-0.00643606716766953,-0.0189005732536316,-0.0798253118991852,-0.027769323438406,-0.00532204657793045
147,0.026311656460166,-0.00633526360616088,-0.0231455825269222,-0.0307974386960268,-0.0328047424554825,-0.0131663931533694
148,0.0256022196263075,-0.00483129126951098,-0.0318551808595657,0.0954044237732887,-0.0393695645034313,-0.0231450088322163
149,0.0235048029571772,-0.00240820762701333,-0.042987696826458,0.272997856140137,-0.0455977208912373,-0.0324464440345764
150,0.0226765517145395,0.00144627178087831,-0.0536450259387493,0.446349292993546,-0.051171749830246,-0.037180457264185
151,0.0238169003278017,0.00584621075540781,-0.0627420023083687,0.5,-0.0575016289949417,-0.037711825221777
152,0.0252523273229599,0.00852417852729559,-0.0708014741539955,0.5,-0.0651427954435349,-0.0379924438893795
153,0.0252926088869572,0.00827722251415253,-0.079624779522419,0.5,-0.07332693785429,-0.0412620194256306
154,0.0242886040359735,0.00607686722651124,-0.0894592553377151,0.5,-0.080438494682312,-0.0479981116950512
155,0.0240092258900404,0.00386110879480839,-0.098286084830761,0.5,-0.0849050059914589,-0.0565720908343792
156,0.0247468799352646,0.00321334134787321,-0.106240130960941,0.5,-0.0879486575722694,-0.0645741000771523
157,0.0255864039063454,0.00540302274748683,-0.115753576159477,0.5,-0.0934277921915054,-0.0694407522678375
158,0.0257335267961025,0.0100215338170528,-0.12808932363987,0.5,-0.103561572730541,-0.07102370262146
159,0.0247960519045591,0.0145655879750848,-0.141431763768196,0.5,-0.115951679646969,-0.0722006261348724
160,0.0228704437613487,0.0166382882744074,-0.152936205267906,0.5,-0.126973062753677,-0.0757497847080231
161,0.0201824959367514,0.0158087331801653,-0.161958038806915,0.498553931713104,-0.1361985206604,-0.0813630521297455
162,0.0176886152476072,0.0132276536896825,-0.169093072414398,0.442563652992249,-0.145131558179855,-0.0872152522206306
163,0.0171290375292301,0.00994896236807108,-0.174163624644279,0.399136066436768,-0.153739050030708,-0.093669630587101
164,0.0197304096072912,0.00694190058857203,-0.176872864365578,0.377711236476898,-0.159672230482101,-0.101824551820755
165,0.0248653255403042,0.00543166324496269,-0.177621230483055,0.376713305711746,-0.161179289221764,-0.11091598123312
166,0.0307812169194222,0.00585101265460253,-0.176322430372238,0.38545548915863,-0.158992543816566,-0.119488433003426
167,0.0360268205404282,0.00804905500262976,-0.174726948142052,0.390413582324982,-0.156449750065804,-0.126185745000839
168,0.0407819487154484,0.012422813102603,-0.17633917927742,0.382387667894363,-0.156572446227074,-0.129830941557884
169,0.046275295317173,0.0183896813541651,-0.180531352758408,0.359060764312744,-0.15841056406498,-0.131486162543297
170,0.0517274253070354,0.0234024617820978,-0.183742627501488,0.324795782566071,-0.159768849611282,-0.133485913276672
171,0.0550215877592564,0.0255010407418013,-0.184428185224533,0.288388103246689,-0.160299047827721,-0.136071786284447
172,0.0551959425210953,0.0248315613716841,-0.18377448618412,0.258112251758575,-0.160357788205147,-0.138882085680962
173,0.0532729178667068,0.0231534503400326,-0.18331803381443,0.238827779889107,-0.159882947802544,-0.142159000039101
174,0.0516424179077148,0.0228012278676033,-0.182454198598862,0.23209922015667,-0.158219188451767,-0.144574627280235
175,0.0508430786430836,0.0237075351178646,-0.180905804038048,0.234293788671494,-0.155381381511688,-0.145782724022865
176,0.0493904277682304,0.0237337928265333,-0.17976938188076,0.235590800642967,-0.152659580111504,-0.147228732705116
177,0.046356875449419,0.02172133885324,-0.179293304681778,0.223650455474854,-0.151212528347969,-0.149751484394073
178,0.041497353464365,0.017395731061697,-0.179833129048347,0.192719265818596,-0.151350051164627,-0.154870569705963
179,0.0362582989037037,0.0121571877971292,-0.180900827050209,0.15104267001152,-0.151307657361031,-0.162347227334976
180,0.0333291403949261,0.00874169170856476,-0.180460423231125,0.113449767231941,-0.148732170462608,-0.168645158410072
181,0.0328137800097466,0.00814641080796719,-0.177790969610214,0.0891395136713982,-0.144344732165337,-0.170863687992096
182,0.0324718840420246,0.00927428808063269,-0.17448428273201,0.0826457217335701,-0.140585228800774,-0.168896660208702
183,0.0305230151861906,0.0104934498667717,-0.172989428043365,0.0962215811014175,-0.138715222477913,-0.165414035320282
184,0.0264556035399437,0.0115127386525273,-0.173559918999672,0.12335842102766,-0.138843595981598,-0.162326946854591
185,0.0214277990162373,0.0128646213561296,-0.174268990755081,0.149315550923347,-0.140283524990082,-0.159363880753517
186,0.0171263962984085,0.0132713345810771,-0.174171254038811,0.16040363907814,-0.141498416662216,-0.156761467456818
187,0.0145657807588577,0.0112858796492219,-0.173132255673409,0.150666892528534,-0.141173362731934,-0.15437576174736
188,0.0138089116662741,0.00742754526436329,-0.17093688249588,0.127189099788666,-0.139629259705544,-0.15156327188015
189,0.014423068612814,0.00292610074393451,-0.167740046977997,0.108624137938023,-0.137483835220337,-0.147907912731171
190,0.016088480129838,-0.00126637739595026,-0.163879409432411,0.113148421049118,-0.134094282984734,-0.143343046307564
191,0.0177111346274614,-0.00437209475785494,-0.159741327166557,0.151269972324371,-0.128834173083305,-0.138447403907776
192,0.0184385236352682,-0.00604413356631994,-0.155318588018417,0.216563150286675,-0.121057026088238,-0.13346640765667
193,0.0194233674556017,-0.00642643263563514,-0.149694636464119,0.279426485300064,-0.110039755702019,-0.128477603197098
194,0.0214308928698301,-0.00610774010419846,-0.14309373497963,0.315321445465088,-0.0980605259537697,-0.123879082500935
195,0.0227172989398241,-0.00632409518584609,-0.138270601630211,0.324511170387268,-0.0890733748674393,-0.12055929005146
196,0.0218292102217674,-0.00710210436955094,-0.136348471045494,0.316800206899643,-0.0834960490465164,-0.118563905358315
197,0.0193848740309477,-0.00683196727186441,-0.134943798184395,0.302658140659332,-0.0793981477618217,-0.115899592638016
198,0.0157362315803766,-0.00553871458396316,-0.132703557610512,0.290979325771332,-0.0767593458294868,-0.111393317580223
199,0.010427107103169,-0.00500057730823755,-0.130963742733002,0.285210341215134,-0.0770650058984756,-0.10682987421751
200,0.00575216161087155,-0.00487374980002642,-0.129567742347717,0.282158732414246,-0.0789141952991486,-0.103202544152737
201,0.00538397766649723,-0.00354030099697411,-0.126337870955467,0.274405270814896,-0.0779916569590569,-0.0993292406201363
202,0.00855804141610861,-0.00146475282963365,-0.121449500322342,0.256028205156326,-0.0727006644010544,-0.0952960476279259
203,0.0122516257688403,0.000937269418500364,-0.116620652377605,0.22364929318428,-0.0647542327642441,-0.0912452787160873
204,0.0154438326135278,0.00411106739193201,-0.112164653837681,0.182581409811974,-0.0566184036433697,-0.0865270420908928
205,0.0192619096487761,0.0077753490768373,-0.106866061687469,0.15163491666317,-0.049883421510458,-0.0814983397722244
206,0.0257377624511719,0.0120597556233406,-0.0992281809449196,0.14410175383091,-0.0439001359045506,-0.076215498149395
207,0.034303542226553,0.0167082119733095,-0.0894266813993454,0.154297485947609,-0.0377482809126377,-0.0705158188939095
208,0.0417292602360249,0.0200985241681337,-0.0785162001848221,0.170830830931664,-0.031735435128212,-0.0650317966938019
209,0.0455358475446701,0.0207385700196028,-0.0674201548099518,0.185933619737625,-0.0267429184168577,-0.0600496232509613
210,0.0460918806493282,0.019068906083703,-0.0568107776343822,0.193927153944969,-0.0224864073097706,-0.0545539520680904
211,0.0455365143716335,0.0176169872283936,-0.0467996932566166,0.193158656358719,-0.0170415118336678,-0.0476912632584572
212,0.0443864911794662,0.0180364456027746,-0.0384453758597374,0.188404008746147,-0.00997229386121035,-0.0403924807906151
213,0.0413334257900715,0.0187673754990101,-0.0337931141257286,0.18896809220314,-0.00345492432825267,-0.0342724621295929
214,0.0370251014828682,0.0180765371769667,-0.0321242175996304,0.200808793306351,0.00148237752728164,-0.0284417662769556
215,0.0330473557114601,0.0164766870439053,-0.0302132852375507,0.219438821077347,0.00549250561743975,-0.0208784304559231
216,0.0286011006683111,0.0146550461649895,-0.0263848081231117,0.229290917515755,0.0091527346521616,-0.0126318456605077
217,0.0234700459986925,0.012889358215034,-0.0203765649348497,0.215670958161354,0.0135692618787289,-0.00539966393262148
218,0.0188949722796679,0.0113498261198401,-0.0134890554472804,0.181544169783592,0.0182977337390184,0.000360088975867257
219,0.0157759841531515,0.0104386173188686,-0.00821489933878183,0.144417390227318,0.0223262254148722,0.00463455729186535
220,0.0154444202780724,0.0115535920485854,-0.00471090339124203,0.122001983225346,0.0271676946431398,0.00919085182249546
221,0.0185404103249311,0.0156187647953629,-0.00119836954399943,0.121640868484974,0.0345439128577709,0.016091438010335
222,0.0229804180562496,0.0209955386817455,0.002762112300843,0.135916322469711,0.0434422381222248,0.0242417566478252
223,0.0261417757719755,0.0252015683799982,0.00610334286466241,0.150578692555428,0.0514335371553898,0.030285993590951
224,0.0272621363401413,0.0271865464746952,0.00841344147920609,0.158064067363739,0.0574431419372559,0.0319582521915436
225,0.0268126241862774,0.0271904524415731,0.0102827697992325,0.15969018638134,0.0616647154092789,0.0305102746933699
226,0.0252235997468233,0.0256391800940037,0.0120633812621236,0.157831266522408,0.064842589199543,0.0292347725480795
227,0.0226899180561304,0.0225416142493486,0.0150938294827938,0.15245109796524,0.0687124878168106,0.0296266078948975
228,0.0208370666950941,0.0193974580615759,0.0220585130155087,0.142939582467079,0.0750218257308006,0.0325017459690571
229,0.0203907564282417,0.0175231918692589,0.0326517708599567,0.131098300218582,0.0819369703531265,0.0376205444335938
230,0.0197646133601666,0.0158753581345081,0.0432833731174469,0.120603941380978,0.0862250477075577,0.0426628924906254
231,0.0183236971497536,0.0135155227035284,0.050716619938612,0.113355822861195,0.0874638631939888,0.0458158627152443
232,0.0161272771656513,0.0109939379617572,0.0533332228660584,0.108238466084003,0.0853884592652321,0.0467225350439548
233,0.013159348629415,0.00939954351633787,0.0525746829807758,0.102963738143444,0.0804612264037132,0.0469496063888073
234,0.00971245113760233,0.00834666006267071,0.0522989891469479,0.0988805815577507,0.0752490982413292,0.0481878034770489
235,0.00739686144515872,0.00818854290992022,0.0560935586690903,0.0976640433073044,0.0723438486456871,0.0520646646618843
236,0.00849141553044319,0.0103180045261979,0.0645792856812477,0.0961460620164871,0.0736666321754456,0.0597470365464687
237,0.0121194208040833,0.0129744904115796,0.0743531063199043,0.0932255685329437,0.078862763941288,0.069046251475811
238,0.0148501917719841,0.0136237451806664,0.081441156566143,0.0944677218794823,0.0851390510797501,0.0768903791904449
239,0.014767087996006,0.0119091337546706,0.0843029171228409,0.10474094748497,0.0901165753602982,0.0821003392338753
240,0.013227048330009,0.00885803997516632,0.0843952521681786,0.11756494641304,0.0939624384045601,0.0854824036359787
241,0.0128370830789208,0.00611713761463761,0.0848749801516533,0.120108596980572,0.0980243310332298,0.0893198549747467
242,0.0140172569081187,0.0041596544906497,0.0875580236315727,0.106828913092613,0.102430813014507,0.0947921499609947
243,0.0151186771690845,0.00285870372317731,0.0923559963703156,0.0836825892329216,0.106317900121212,0.101204417645931
244,0.014031520113349,0.00273208832368255,0.0978036448359489,0.059990294277668,0.108243979513645,0.106732726097107
245,0.00932255294173956,0.00316094467416406,0.101185448467731,0.0369411297142506,0.106830097734928,0.108356431126595
246,0.00223265867680311,0.00316317146643996,0.101370669901371,0.0118462052196264,0.103158459067345,0.105249851942062
247,-0.00447239819914103,0.00328225758858025,0.0999103635549545,-0.0143037606030703,0.0997943356633186,0.100586540997028
248,-0.00918976310640574,0.00425363425165415,0.0986736193299294,-0.0370255298912525,0.0978640615940094,0.0979225412011147
249,-0.011076801456511,0.00596488453447819,0.0994531735777855,-0.0522572547197342,0.0983192324638367,0.099104255437851
250,-0.0106358425691724,0.00771487131714821,0.102750577032566,-0.0583598501980305,0.10174722969532,0.103419579565525
251,-0.00984568893909454,0.00927529577165842,0.106705874204636,-0.0544975996017456,0.106739304959774,0.108342245221138
252,-0.00965112913399935,0.011876517906785,0.1098837479949,-0.0465280115604401,0.111057728528976,0.113299533724785
253,-0.0102069601416588,0.016275342553854,0.112023182213306,-0.0438295938074589,0.112468726933002,0.118799515068531
254,-0.0113267470151186,0.0211537312716246,0.112818948924541,-0.0464233532547951,0.110438875854015,0.122654594480991
255,-0.0121759232133627,0.0246065575629473,0.112203799188137,-0.0452495254576206,0.106948100030422,0.121669046580791
256,-0.0117222331464291,0.0263515654951334,0.111793972551823,-0.0361000373959541,0.104956537485123,0.117123186588287
257,-0.0100006414577365,0.0273399315774441,0.113348603248596,-0.0252000819891691,0.105873815715313,0.113548025488853
258,-0.00922159571200609,0.0279611051082611,0.115304090082645,-0.0169449392706156,0.107832953333855,0.1121666431427
259,-0.00959409680217505,0.0294500980526209,0.116694696247578,-0.010108538903296,0.109671108424664,0.112426072359085
260,-0.00877896416932344,0.0325079336762428,0.119312472641468,-0.00559174129739404,0.112465724349022,0.113678336143494
261,-0.00661966810002923,0.034949392080307,0.122787266969681,-0.00867845490574837,0.115682385861874,0.113374426960945
262,-0.00448128441348672,0.0350945554673672,0.124950908124447,-0.0238556228578091,0.117454782128334,0.110994659364223
263,-0.00322115421295166,0.0337113216519356,0.125429391860962,-0.0541011765599251,0.116633459925652,0.109711095690727
264,-0.00346252066083252,0.0319824926555157,0.124896541237831,-0.10066906362772,0.112975344061852,0.111283488571644
265,-0.00527102733030915,0.0298983622342348,0.122985489666462,-0.153367564082146,0.107233040034771,0.113185361027718
266,-0.00728032318875194,0.0276677757501602,0.120090819895267,-0.194987758994102,0.101347006857395,0.113042891025543
267,-0.00833240430802107,0.0259052291512489,0.117742173373699,-0.220861285924912,0.0969751998782158,0.111394494771957
268,-0.00960505940020084,0.0234738532453775,0.115547634661198,-0.239686846733093,0.0937216132879257,0.108278892934322
269,-0.0124472863972187,0.0191434435546398,0.1125677973032,-0.257972210645676,0.0907052904367447,0.103279337286949
270,-0.0159714948385954,0.0144754387438297,0.110088042914867,-0.276770293712616,0.0882274806499481,0.0980136841535568
271,-0.0189548097550869,0.011455025523901,0.109493561089039,-0.293621748685837,0.0863934084773064,0.0944007709622383
272,-0.0215600728988647,0.00930455327033997,0.109632194042206,-0.301494985818863,0.0843305438756943,0.0924415439367294
273,-0.0240312106907368,0.00634464295580983,0.108574777841568,-0.294631242752075,0.0817904695868492,0.0909415930509567
274,-0.0257518105208874,0.00318719842471182,0.10626658052206,-0.275723695755005,0.0802139639854431,0.0896160379052162
275,-0.0255678649991751,0.00218659546226263,0.104453273117542,-0.256024926900864,0.0811686366796494,0.0893601849675179
276,-0.0231806542724371,0.00431293109431863,0.104773618280888,-0.242596760392189,0.0843642130494118,0.0903753489255905
277,-0.0202476121485233,0.0079531529918313,0.1067268922925,-0.233043849468231,0.0874941498041153,0.0920370072126389
278,-0.0191027913242579,0.0100606707856059,0.108346782624722,-0.227158054709435,0.0880161002278328,0.0932621881365776
279,-0.0204350668936968,0.00940899737179279,0.108815595507622,-0.228386670351028,0.085928849875927,0.0927079021930695
280,-0.0221721101552248,0.00844363030046225,0.108718678355217,-0.234117791056633,0.0841137692332268,0.0908971056342125
281,-0.0221822392195463,0.00957767106592655,0.108001604676247,-0.235953509807587,0.0845363587141037,0.089479960501194
282,-0.021376920863986,0.0114388884976506,0.105486430227757,-0.231474041938782,0.085388720035553,0.0882892459630966
283,-0.0208969358354807,0.0122734773904085,0.10142158716917,-0.22298076748848,0.0847740024328232,0.0875462293624878
284,-0.0191592443734407,0.0144443614408374,0.0987561568617821,-0.208471164107323,0.0843004733324051,0.0899317935109138
285,-0.0152105847373605,0.0197296347469091,0.0991960167884827,-0.184587642550468,0.0854369252920151,0.0957754924893379
286,-0.010463853366673,0.0254698637872934,0.101267322897911,-0.152180895209312,0.0874195620417595,0.101985111832619
287,-0.00627954676747322,0.0284047834575176,0.103170558810234,-0.11797172576189,0.0893750861287117,0.106331281363964
288,-0.00406785681843758,0.0269632171839476,0.103108048439026,-0.0902273878455162,0.0896952897310257,0.107215330004692
289,-0.00458659557625651,0.0223701577633619,0.100362151861191,-0.0741858258843422,0.0872023552656174,0.104227364063263
290,-0.00675070704892278,0.0171058680862188,0.0965931788086891,-0.0710737183690071,0.0835822895169258,0.0984505712985992
291,-0.00953932199627161,0.0119374394416809,0.0930698066949844,-0.0769021958112717,0.0808734744787216,0.0908847376704216
292,-0.0127559769898653,0.00742814131081104,0.0897220969200134,-0.0835344865918159,0.0791867226362228,0.0837735235691071
293,-0.0168736446648836,0.00325954589061439,0.0858801454305649,-0.0850618407130241,0.077018104493618,0.0784777700901031
294,-0.0221311878412962,-0.00196038465946913,0.0806382745504379,-0.0838254913687706,0.0724082738161087,0.0743324533104897
295,-0.0269316080957651,-0.0068320925347507,0.0740087255835533,-0.085403136909008,0.0651668459177017,0.0717027485370636
296,-0.0293311923742294,-0.0088513595983386,0.0672267079353333,-0.0946980193257332,0.0569437742233276,0.0705074667930603
297,-0.0292164105921984,-0.00828152894973755,0.0623813234269619,-0.110207505524158,0.0498000830411911,0.0695013329386711
298,-0.0273514147847891,-0.00604233890771866,0.0613726936280727,-0.120797850191593,0.0457918159663677,0.0693714916706085
299,-0.0246294960379601,-0.00263681728392839,0.0641831830143929,-0.123383983969688,0.0452676191926003,0.0707824900746346
300,-0.0227041002362967,-1.49601191878901E-05,0.0684335380792618,-0.130031198263168,0.0462863482534885,0.0715829730033875
301,-0.021965442225337,0.00126443593762815,0.0720476657152176,-0.153163835406303,0.0482139214873314,0.0708203613758087
302,-0.0216662492603064,0.00211205892264843,0.0743761286139488,-0.191967636346817,0.0512295812368393,0.0697864219546318
303,-0.0224034693092108,0.00171159510500729,0.0746775791049004,-0.234388530254364,0.0532458387315273,0.0691073387861252
304,-0.024060407653451,-0.00060743308858946,0.0737657994031906,-0.267232060432434,0.053431510925293,0.0691677406430244
305,-0.0250862427055836,-0.00485671171918511,0.0734093114733696,-0.281863957643509,0.0534759499132633,0.0692896991968155
306,-0.0251851361244917,-0.0105887521058321,0.0728505030274391,-0.279574632644653,0.053632166236639,0.0670036524534225
307,-0.0251102726906538,-0.0159885808825493,0.0703897327184677,-0.267271101474762,0.0529129169881344,0.0607047379016876
308,-0.0245064981281757,-0.019322207197547,0.0668695345520973,-0.246070623397827,0.0517229624092579,0.0520296767354012
309,-0.0219828262925148,-0.0202016215771437,0.0651603043079376,-0.214492812752724,0.0518330670893192,0.0446018800139427
310,-0.0171131063252687,-0.0190523322671652,0.0667838528752327,-0.177970319986343,0.0541443154215813,0.0406580902636051
311,-0.0114378659054637,-0.0166167318820953,0.0698753297328949,-0.147952646017075,0.0568063892424107,0.0397476330399513
312,-0.00747913401573896,-0.014048146083951,0.0712352395057678,-0.134306594729424,0.0571223497390747,0.040108896791935
313,-0.0063623976893723,-0.011611994355917,0.0697997286915779,-0.139661833643913,0.0547689758241177,0.0410877019166946
314,-0.00726346578449011,-0.00891724228858948,0.0665739178657532,-0.163534134626389,0.0512379296123981,0.0431701168417931
315,-0.00945038348436356,-0.00669378181919456,0.0624744966626167,-0.201825872063637,0.0477603673934937,0.0455952808260918
316,-0.0127791622653604,-0.00576883275061846,0.0578521303832531,-0.243235662579536,0.0440683849155903,0.0462982319295406
317,-0.0173374582082033,-0.00707356166094542,0.0518275871872902,-0.278950929641724,0.038510873913765,0.043255016207695
318,-0.021863030269742,-0.0107350954785943,0.0440595708787441,-0.30411833524704,0.0326219834387302,0.0374131798744202
319,-0.0237374883145094,-0.0148880705237389,0.036871176213026,-0.314377218484879,0.0311377700418234,0.0330584906041622
320,-0.0237322971224785,-0.0186058953404427,0.0314178429543972,-0.309967935085297,0.0340631902217865,0.0311721190810204
321,-0.0245519727468491,-0.0217481851577759,0.0274841170758009,-0.294504463672638,0.0378930158913136,0.0295383390039206
322,-0.0259584374725819,-0.0238512437790632,0.0259279850870371,-0.276147544384003,0.041492085903883,0.0278265345841646
323,-0.0272514652460814,-0.0257626045495272,0.0260993484407663,-0.26935288310051,0.0437651462852955,0.0257603526115417
324,-0.0295259170234203,-0.0288900770246983,0.025944534689188,-0.278646022081375,0.0420843884348869,0.0221413504332304
325,-0.0324883237481117,-0.032415147870779,0.0257502254098654,-0.292719334363937,0.036438561975956,0.0177608467638493
326,-0.0332718193531036,-0.0348109006881714,0.0270268712192774,-0.302696913480759,0.0308113489300013,0.0140720391646028
327,-0.0306771825999022,-0.0365257486701012,0.0292040705680847,-0.308356434106827,0.0283120032399893,0.0106124905869365
328,-0.0272664539515972,-0.0379121452569962,0.0303804781287909,-0.311795324087143,0.0280433166772127,0.00740323727950454
329,-0.0254869349300861,-0.038146048784256,0.0299034975469112,-0.311944544315338,0.0275330040603876,0.00628077192232013
330,-0.0241769626736641,-0.036443404853344,0.0295131225138903,-0.306360512971878,0.0263034105300903,0.00826599076390266
331,-0.0216333344578743,-0.0329366959631443,0.030267383903265,-0.296759188175201,0.0250909309834242,0.0116299167275429
332,-0.0188087299466133,-0.0284435320645571,0.0311278235167265,-0.284791767597198,0.0234216954559088,0.0140186985954642
333,-0.0162844806909561,-0.0239165965467691,0.0319352447986603,-0.271089375019073,0.0211343448609114,0.0157440770417452
334,-0.013111874461174,-0.0205294974148273,0.0330218411982059,-0.256161659955978,0.019215377047658,0.0188910942524672
335,-0.0100190611556172,-0.0193351451307535,0.0334324650466442,-0.235613226890564,0.017561174929142,0.0230152625590563
336,-0.00884186942130327,-0.0202688574790955,0.0322403833270073,-0.205676555633545,0.0155152436345816,0.0255183465778828
337,-0.0092935711145401,-0.0217287391424179,0.030143927782774,-0.173028185963631,0.0139175793156028,0.0261114630848169
338,-0.00966187752783298,-0.0223098415881395,0.02859752997756,-0.150296449661255,0.0137578537687659,0.0258952751755714
339,-0.00927812978625298,-0.021711777895689,0.0275505352765322,-0.149968758225441,0.0142734237015247,0.0256768278777599
340,-0.00894003268331289,-0.0202061757445335,0.0259019564837217,-0.174526184797287,0.0135543085634708,0.0263042356818914
341,-0.00897693540900946,-0.0183399152010679,0.0238865744322538,-0.20427730679512,0.0109919048845768,0.0268415361642838
342,-0.0092585664242506,-0.0168201699852943,0.0219471175223589,-0.217965185642242,0.00700944988057017,0.0248633362352848
343,-0.0102083850651979,-0.0160170551389456,0.0192868448793888,-0.220014378428459,0.00165040441788733,0.0198774989694357
344,-0.0109462980180979,-0.0150923943147063,0.0158664248883724,-0.24166102707386,-0.00360109540633857,0.0142375435680151
345,-0.0108711291104555,-0.0137294279411435,0.0126142203807831,-0.301917612552643,-0.0070511233061552,0.00956442020833492
346,-0.0115251755341887,-0.0130418855696917,0.0102855581790209,-0.371609002351761,-0.00907208770513535,0.00513291312381625
347,-0.0127059705555439,-0.0125339180231094,0.0104556120932102,-0.422570377588272,-0.00894981250166893,0.00126381579320878
348,-0.0132568795233965,-0.0110195437446237,0.0132582457736135,-0.45453354716301,-0.00541651016101241,-0.000559250707738101
349,-0.0143728386610746,-0.00967022217810154,0.0156519804149866,-0.459404438734055,-0.000673899368848652,-0.000535799888893962
350,-0.016860930249095,-0.00972848106175661,0.0154815353453159,-0.445042222738266,0.00206241919659078,-3.65322848665528E-05
351,-0.0207005254924297,-0.0108984531834722,0.0126322451978922,-0.430191248655319,0.00170600798446685,0.000218210116145201
352,-0.0257122069597244,-0.0121283791959286,0.00809141900390387,-0.393387198448181,-0.000588972237892449,0.00117954169400036
353,-0.030215959995985,-0.0122015196830034,0.00372767820954323,-0.305716305971146,-0.00269819144159555,0.00359306810423732
354,-0.0332308895885944,-0.010795321315527,-6.4948653744068E-05,-0.182077705860138,-0.00450402963906527,0.0059066298417747
355,-0.0349716432392597,-0.0086251525208354,-0.00404104264453053,-0.0746210366487503,-0.00657460233196616,0.00642872927710414
356,-0.0354699268937111,-0.00720292236655951,-0.00796846859157085,-0.0218406058847904,-0.0076698032207787,0.00499011296778917
357,-0.0348831489682198,-0.00691194366663694,-0.0104135051369667,-0.0183688756078482,-0.00653306022286415,0.00280389469116926
358,-0.0331117250025272,-0.00656741857528687,-0.00928877480328083,-0.0397077351808548,-0.00326313893310726,0.00161304289940745
359,-0.030747452750802,-0.00677517661824822,-0.00461544003337622,-0.062421876937151,0.000755365705117583,0.00105000659823418
360,-0.0288040786981583,-0.00887735933065414,0.000645282329060137,-0.075131319463253,0.00401736563071609,-0.000765449833124876
361,-0.0271018389612436,-0.011884443461895,0.00381702347658575,-0.0842677503824234,0.00606066035106778,-0.00411277869716287
362,-0.0256418474018574,-0.0142768947407603,0.00395276211202145,-0.0955421924591064,0.00632771197706461,-0.00835057906806469
363,-0.0249497964978218,-0.0155085884034634,0.00163214677013457,-0.102611161768436,0.00469139683991671,-0.012576874345541
364,-0.0244342498481274,-0.0151985054835677,-0.000920036982279271,-0.0951751619577408,0.00357012124732137,-0.0148818483576179
365,-0.0230711996555328,-0.0131689086556435,-0.00147297151852399,-0.0650151297450066,0.00498171569779515,-0.014277271926403
366,-0.0208240766078234,-0.00965153332799673,-3.54251142198336E-06,-0.00858603976666927,0.00713790254667401,-0.011436652392149
367,-0.0183627940714359,-0.00591272907331586,0.00135424383915961,0.0676430463790894,0.00688423961400986,-0.0078893369063735
368,-0.0154802519828081,-0.00333438208326697,0.00198915787041187,0.148938074707985,0.00454194331541657,-0.00451997714117169
369,-0.0109039172530174,-0.00156700937077403,0.0041282270103693,0.224125578999519,0.00451006414368749,-0.000711176951881498
370,-0.00490748463198543,0.00020315004803706,0.00839734543114901,0.288547486066818,0.00902808550745249,0.00361108942888677
371,-0.000284072768408805,0.00115105882287025,0.0124380411580205,0.335699260234833,0.0143839046359062,0.00693894783034921
372,0.00130964280106127,0.000355642900103703,0.014329643920064,0.358715981245041,0.0165307279676199,0.00869619008153677
373,0.00157409382518381,-0.000738475122489035,0.0147173730656505,0.360185146331787,0.016093485057354,0.0107885068282485
374,0.00234226603060961,-0.000378299650037661,0.0149693349376321,0.348965466022491,0.015592428855598,0.0132573572918773
375,0.00359666929580271,0.00114401418250054,0.0153174782171845,0.332579165697098,0.0153055554255843,0.01336226798594
376,0.00451928284019232,0.00248240679502487,0.0153613844886422,0.317766308784485,0.0132289901375771,0.00985902547836304
377,0.00444872863590717,0.00294829648919404,0.0144299510866404,0.303280234336853,0.00836181733757257,0.00385794602334499
378,0.00355683779343963,0.00270201032981277,0.0124773709103465,0.277103245258331,0.00203947327099741,-0.0027135272976011
379,0.00221830583177507,0.00168745231349021,0.0108164893463254,0.23858268558979,-0.00437602214515209,-0.00871103722602129
380,0.000804641691502184,-0.000202257971977815,0.0104207498952746,0.202868819236755,-0.010704374872148,-0.0133359907194972
381,0.00101218314375728,-0.00196363613940775,0.0113325966522098,0.178965136408806,-0.0162951517850161,-0.0150220626965165
382,0.00393118476495147,-0.00292069069109857,0.0131343407556415,0.16993610560894,-0.0204380992799997,-0.0141813606023788
383,0.00687563000246882,-0.00495822774246335,0.0133633920922875,0.178688064217567,-0.0245170835405588,-0.0145594822242856
384,0.00713976472616196,-0.00920253898948431,0.00983061175793409,0.190696626901627,-0.0285926498472691,-0.0176575481891632
385,0.00591730605810881,-0.0131438113749027,0.0044455393217504,0.184660911560059,-0.0296012908220291,-0.0205870065838099
386,0.00474880216643214,-0.0151681853458285,-0.000145833793794736,0.163033679127693,-0.0273188799619675,-0.0212702788412571
387,0.00390366651117802,-0.0161022543907166,-0.00399947166442871,0.140453472733498,-0.0245798695832491,-0.0197779815644026
388,0.00376107078045607,-0.0167452730238438,-0.00770110869780183,0.131842762231827,-0.0224534142762423,-0.0170415211468935
389,0.00430141808465123,-0.0173197034746408,-0.010346963070333,0.147831723093987,-0.0205687843263149,-0.0143724158406258
390,0.00491195172071457,-0.0168966613709927,-0.0111914286389947,0.176189392805099,-0.0191923584789038,-0.0119851715862751
391,0.00511884596198797,-0.0154137127101421,-0.010733786970377,0.196482375264168,-0.0187731757760048,-0.00985465943813324
392,0.00519831292331219,-0.0144550185650587,-0.00980483647435904,0.201780185103416,-0.0189150869846344,-0.00886811781674623
393,0.00563851371407509,-0.0143959280103445,-0.00934780016541481,0.18494887650013,-0.0192733909934759,-0.0102141220122576
394,0.00725193042308092,-0.0137839801609516,-0.00890112295746803,0.141466498374939,-0.0194922257214785,-0.0134509224444628
395,0.0105441939085722,-0.0111836045980453,-0.00648550875484943,0.0857587605714798,-0.0188688319176435,-0.0158439073711634
396,0.0145877478644252,-0.00640320545062423,-0.00169014895800501,0.0333267599344254,-0.017395069822669,-0.0156215094029903
397,0.0180665273219347,-0.000677981704939157,0.00344228860922158,-0.0132244173437357,-0.0158098433166742,-0.0138003434985876
398,0.0193202961236238,0.0025726486928761,0.00564071768894792,-0.0542839281260967,-0.0156493876129389,-0.0128771578893065
399,0.0171846374869347,0.000247661111643538,0.00245715607888997,-0.089323878288269,-0.018246890977025,-0.0148002924397588
400,0.0135796815156937,-0.00576368672773242,-0.0045274761505425,-0.11953367292881,-0.0221918113529682,-0.0186888724565506
401,0.0116866445168853,-0.0104819070547819,-0.0113051785156131,-0.142397031188011,-0.0243490412831306,-0.0214767958968878
402,0.0109192095696926,-0.0124078607186675,-0.0168484915047884,-0.152509853243828,-0.0249976683408022,-0.022510189563036
403,0.00838339515030384,-0.0135623766109347,-0.0219793915748596,-0.150239840149879,-0.0271035525947809,-0.023971913382411
404,0.00405456125736237,-0.014786790125072,-0.0259841214865446,-0.140183374285698,-0.0300318095833063,-0.0273115951567888
405,0.000381479214411229,-0.0148615138605237,-0.0279089715331793,-0.126380741596222,-0.0301078595221043,-0.0320310592651367
406,-0.00139147148001939,-0.012845010496676,-0.0281656123697758,-0.110287144780159,-0.0264706648886204,-0.0366187691688538
407,-0.00147820170968771,-0.00954604893922806,-0.0271833445876837,-0.0935825034976006,-0.0213189665228128,-0.0400802232325077
408,0.000456464476883411,-0.0062026372179389,-0.0243497919291258,-0.078291654586792,-0.016383895650506,-0.0418833196163177
409,0.00377531605772674,-0.00351153244264424,-0.0204036980867386,-0.0587062984704971,-0.0134713146835566,-0.0422820001840591
410,0.00736697344109416,-0.000537369109224528,-0.0169085320085287,-0.0325638651847839,-0.0130539750680327,-0.0410832315683365
411,0.011680624447763,0.00401856703683734,-0.0145891048014164,-0.0141861587762833,-0.0128373159095645,-0.0367052666842937
412,0.0168477240949869,0.00966259557753801,-0.0138081666082144,-0.0133534893393517,-0.0114167351275682,-0.0290144011378288
413,0.0210686251521111,0.0153131932020187,-0.0139319617301226,-0.0234976541250944,-0.00954991485923529,-0.020715119317174
414,0.0228785369545221,0.0206060279160738,-0.0136558124795556,-0.0359771363437176,-0.00789949204772711,-0.0147758973762393
415,0.023534094914794,0.0257410537451506,-0.0121082561090589,-0.0479438453912735,-0.00564449373632669,-0.0118693681433797
416,0.0240112990140915,0.0292749516665936,-0.0101181957870722,-0.060148511081934,-0.00295808329246938,-0.0111849717795849
417,0.022627891972661,0.027983171865344,-0.00987108796834946,-0.0728754326701164,-0.00228806165978312,-0.012447452172637
418,0.0190251655876637,0.021306399255991,-0.0115918917581439,-0.0868514403700829,-0.00390408211387694,-0.0151243377476931
419,0.0163027942180634,0.0136495176702738,-0.0126912789419293,-0.10246330499649,-0.00460517313331366,-0.015859816223383
420,0.0161733534187078,0.00896749272942543,-0.0115114664658904,-0.113964334130287,-0.00247657345607877,-0.0124516198411584
421,0.0172810349613428,0.00716513535007834,-0.00937831588089466,-0.11152882874012,0.00127968285232782,-0.00817879382520914
422,0.0179635994136333,0.00730171659961343,-0.00905539281666279,-0.0946951806545258,0.00343766016885638,-0.00719930557534099
423,0.0179493445903063,0.00975448824465275,-0.0124791990965605,-0.0792217254638672,0.000960105156991631,-0.0095136146992445
424,0.0189341027289629,0.0148336812853813,-0.0186481904238462,-0.0783448219299316,-0.00539135467261076,-0.012345016002655
425,0.0217190980911255,0.0205138474702835,-0.0241006817668676,-0.090464785695076,-0.0118982372805476,-0.0137023730203509
426,0.0241307001560926,0.0236057583242655,-0.0263760779052973,-0.112521268427372,-0.0164316911250353,-0.0134208323433995
427,0.0247178822755814,0.0232946015894413,-0.0257375426590443,-0.145953506231308,-0.0187033135443926,-0.012596040032804
428,0.0240495279431343,0.020969795063138,-0.0247204527258873,-0.183524161577225,-0.0195939149707556,-0.0127602657303214
429,0.0215843096375465,0.0174334440380335,-0.0258809700608253,-0.20763698220253,-0.0216391198337078,-0.0152243683114648
430,0.0170371271669865,0.0131218684837222,-0.0290675405412912,-0.208123967051506,-0.025391997769475,-0.019990673288703
431,0.0118061089888215,0.00901906006038189,-0.0330600626766682,-0.189435958862305,-0.0294688604772091,-0.025613633915782
432,0.00718696229159832,0.00639896700158715,-0.0368764288723469,-0.168389841914177,-0.0332047119736671,-0.0299345962703228
433,0.00441780593246222,0.00703425239771605,-0.0388369299471378,-0.157326549291611,-0.0350969210267067,-0.0304272696375847
434,0.00399319408461452,0.0112162018194795,-0.038695365190506,-0.148011296987534,-0.0342817641794682,-0.0274699535220861
435,0.00432448880746961,0.0164775941520929,-0.038787417113781,-0.127341791987419,-0.0327110923826694,-0.02507359161973
436,0.00293313898146153,0.0194837041199207,-0.0411644279956818,-0.0972263365983963,-0.0330923311412334,-0.0259519834071398
437,-0.000931604066863656,0.0185396876186132,-0.0454858243465424,-0.0709158852696419,-0.0364993214607239,-0.0292317401617765
438,-0.0056929443962872,0.0143915740773082,-0.0500694364309311,-0.0540448091924191,-0.0417268946766853,-0.0335612446069717
439,-0.00951197929680347,0.00882453098893166,-0.0537049882113934,-0.042661227285862,-0.0468175299465656,-0.0388884916901588
440,-0.0107256146147847,0.00435463199391961,-0.0554254800081253,-0.0414635203778744,-0.0495993420481682,-0.0434844084084034
441,-0.00833539851009846,0.00304922880604863,-0.054739098995924,-0.062344279140234,-0.0478244014084339,-0.0449313074350357
442,-0.00406070053577423,0.0042432639747858,-0.0531723909080029,-0.0994727686047554,-0.0421566143631935,-0.0442471615970135
443,-8.52801385917701E-05,0.00650336965918541,-0.0527619868516922,-0.131480172276497,-0.0363361686468124,-0.0435832664370537
444,0.0031982574146241,0.00960030220448971,-0.0536160692572594,-0.146151438355446,-0.0330414474010468,-0.0429511591792107
445,0.00610674032941461,0.0127296112477779,-0.0538059882819653,-0.142093017697334,-0.0313926301896572,-0.0416031368076801
446,0.0110471174120903,0.0158994756639004,-0.0500976368784904,-0.122844859957695,-0.0276979152113199,-0.0386406891047955
447,0.0196333341300488,0.0205538477748632,-0.04151451587677,-0.0956413820385933,-0.020875683054328,-0.0338491871953011
448,0.0291572343558073,0.0269167069345713,-0.0309149660170078,-0.0685709789395332,-0.0141888773068786,-0.0283587854355574
449,0.0362377278506756,0.0334350280463696,-0.0217746645212173,-0.0485696457326412,-0.00997921172529459,-0.0232097189873457
450,0.0394378639757633,0.0378163270652294,-0.0162334479391575,-0.0374690070748329,-0.00850595347583294,-0.0186279844492674
451,0.0399213880300522,0.0395174324512482,-0.0141286822035909,-0.0308351702988148,-0.00853735487908125,-0.0139906099066138
452,0.039379671216011,0.0397281423211098,-0.0143026672303677,-0.0239340700209141,-0.0087834857404232,-0.00925998669117689
453,0.0376039817929268,0.0389155261218548,-0.016338549554348,-0.0199063811451197,-0.00994458049535751,-0.00581179652363062
454,0.0343737304210663,0.0368088074028492,-0.0196224581450224,-0.0239482894539833,-0.012290695682168,-0.00461387587711215
455,0.0303532406687737,0.0336087681353092,-0.0230857543647289,-0.0311482232064009,-0.0143420184031129,-0.00454240338876843
456,0.025894807651639,0.0297196637839079,-0.0257166512310505,-0.0335096418857574,-0.0152424452826381,-0.00441200658679008
457,0.0216829795390368,0.0258371867239475,-0.0263839121907949,-0.0211298540234566,-0.0155142173171043,-0.00471939565613866
458,0.0191286411136389,0.0228948034346104,-0.0246003642678261,0.02146983332932,-0.0156587287783623,-0.00552643788978457
459,0.018360435962677,0.0210862755775452,-0.0214042477309704,0.0904901698231697,-0.0159437749534845,-0.00593428919091821
460,0.0188462566584349,0.0207776483148336,-0.0173572562634945,0.158795490860939,-0.0160913746803999,-0.00534068327397108
461,0.0207897145301104,0.0225767008960247,-0.0119311837479472,0.209903672337532,-0.0152849899604917,-0.00392923690378666
462,0.0228862296789885,0.0250272788107395,-0.00632336549460888,0.24652436375618,-0.014124141074717,-0.00288028735667467
463,0.0242967810481787,0.0264745801687241,-0.002049291273579,0.270912885665894,-0.0129090445116162,-0.00292771961539984
464,0.026986526325345,0.0272895451635122,0.00144861475564539,0.281669914722443,-0.0101340925320983,-0.0041652643121779
465,0.0314728878438473,0.0273526199162006,0.0039997985586524,0.280129343271255,-0.00615506712347269,-0.00720964791253209
466,0.0349487960338593,0.0255995392799377,0.004227873403579,0.296054750680923,-0.00392891978845,-0.0121288448572159
467,0.0347476713359356,0.0219889972358942,0.0023367409594357,0.387587875127792,-0.00533376540988684,-0.0177066475152969
468,0.0318696536123753,0.0186635795980692,0.000202727547730319,0.5,-0.00877826660871506,-0.0212231744080782
469,0.0294039435684681,0.0183028560131788,-0.000315783225232735,0.5,-0.0113342124968767,-0.0197585895657539
470,0.0293878000229597,0.0217284671962261,0.00198334618471563,0.5,-0.0114693567156792,-0.0128630306571722
471,0.0320658162236214,0.0273529831320047,0.00636125076562166,0.5,-0.0102528491988778,-0.00321610108949244
472,0.0354465954005718,0.0324568711221218,0.01012550201267,0.5,-0.0103448145091534,0.00450299819931388
473,0.03736462444067,0.0353146158158779,0.0119473524391651,0.5,-0.0121307615190744,0.0067873396910727
474,0.0376818180084229,0.0353635475039482,0.0119606610387564,0.5,-0.0143202943727374,0.00396806793287396
475,0.0369197316467762,0.0329911783337593,0.0101097095757723,0.5,-0.0168830920010805,-0.000924907450098544
476,0.0353135615587235,0.0294195096939802,0.0071488618850708,0.5,-0.0199643913656473,-0.00557360891252756
477,0.0332442596554756,0.025842159986496,0.00398524478077888,0.5,-0.0234496258199215,-0.00993743073195219
478,0.0314627625048161,0.0231999754905701,0.00111962005030364,0.5,-0.026900501921773,-0.0135947652161121
479,0.0309120714664459,0.0219744760543108,-2.47168118221452E-05,0.5,-0.0280346162617207,-0.0151861403137445
480,0.0317773409187794,0.0213249046355486,0.00157993915490806,0.5,-0.0250669699162245,-0.0160996466875076
481,0.0334183312952518,0.0205599293112755,0.00553587265312672,0.5,-0.0197325926274061,-0.0184279251843691
482,0.0352075546979904,0.021061098203063,0.0112850833684206,0.5,-0.0146175948902965,-0.0203507989645004
483,0.0368279702961445,0.0240693371742964,0.0180621743202209,0.5,-0.00969323143362999,-0.0190822929143906
484,0.0372545346617699,0.0275548957288265,0.0240407828241587,0.5,-0.00491438992321491,-0.0163248479366302
485,0.0345953777432442,0.027500731870532,0.0266564264893532,0.5,-0.0031110281124711,-0.0166967026889324
486,0.0291972998529673,0.0230080708861351,0.025095796212554,0.5,-0.00610816525295377,-0.0208413600921631
487,0.0238854549825192,0.016345938667655,0.0206139013171196,0.5,-0.0120145995169878,-0.0262350048869848
488,0.0199529118835926,0.00892842654138803,0.0141532849520445,0.5,-0.0185601525008678,-0.0320757515728474
489,0.017258470878005,0.00231588631868362,0.00792933534830809,0.5,-0.0242884699255228,-0.0370270907878876
490,0.0166031811386347,-0.00133399001788348,0.00569469388574362,0.499141901731491,-0.0267001260071993,-0.038912046700716
491,0.0186481066048145,-0.00140224723145366,0.00822893064469099,0.466738224029541,-0.023977842181921,-0.0374997071921825
492,0.0226636230945587,0.00160816602874547,0.0127183012664318,0.467015117406845,-0.0180949121713638,-0.0338965989649296
493,0.0272557009011507,0.00718752155080438,0.0170588530600071,0.484291195869446,-0.0124407093971968,-0.0295647066086531
494,0.0307116843760014,0.0141728296875954,0.020853640511632,0.498958349227905,-0.00916574336588383,-0.0259954910725355
495,0.0319234132766724,0.0202408116310835,0.0235963054001331,0.5,-0.00959258805960417,-0.0238253679126501
496,0.0319596342742443,0.0234972778707743,0.0251564737409353,0.5,-0.0122478418052197,-0.0229057557880878
497,0.032881423830986,0.0237249955534935,0.0259397197514772,0.5,-0.0137561969459057,-0.0230298079550266
498,0.0353416502475739,0.0222340822219849,0.0269767679274082,0.5,-0.012725817039609,-0.0225187428295612
499,0.0382856614887714,0.0203404985368252,0.0292203687131405,0.5,-0.0103697599843144,-0.0191129520535469
500,0.0397073775529861,0.0179468281567097,0.031576793640852,0.486663728952408,-0.00928835105150938,-0.0135521637275815
501,0.0388098731637001,0.0152079286053777,0.0328239686787128,0.457387983798981,-0.0102722188457847,-0.00869634374976158
502,0.0370654761791229,0.0136531805619597,0.0336060896515846,0.427590489387512,-0.0109413973987103,-0.006346654612571
503,0.0346450880169868,0.0132718198001385,0.0338867381215096,0.39449405670166,-0.0101478528231382,-0.00658137118443847
504,0.0298510156571865,0.0120740188285708,0.03208227455616,0.36452579498291,-0.00997150409966707,-0.00813224818557501
505,0.0240605529397726,0.0103483106940985,0.0283731911331415,0.34164097905159,-0.0111567443236709,-0.00870444253087044
506,0.0215369649231434,0.0103434091433883,0.025670675560832,0.295700192451477,-0.0113029535859823,-0.00586586724966764
507,0.0226221028715372,0.0117699578404427,0.0261505246162415,0.213273867964745,-0.00876633357256651,0.00172551104333252
508,0.023271381855011,0.0125196184962988,0.028986006975174,0.152558103203774,-0.00427986681461334,0.0122051369398832
509,0.0213175099343061,0.0118990372866392,0.0318995863199234,0.159122496843338,0.000593378965277225,0.0199762862175703
510,0.0184666123241186,0.0101124234497547,0.0332068242132664,0.208820313215256,0.00424083741381764,0.0196414459496737
511,0.0171040110290051,0.00706741772592068,0.0318302288651466,0.262210369110107,0.00532218161970377,0.00924377422779799
512,0.0178664606064558,0.00371966930106282,0.0273421090096235,0.294488072395325,0.00372697110287845,-0.0084919473156333
513,0.0192479472607374,0.00135737133678049,0.0203659106045961,0.280444234609604,0.000311051204334944,-0.0273068901151419
514,0.0192637331783772,-0.00021263504459057,0.0125328507274389,0.20053343474865,-0.00351466261781752,-0.041719414293766
515,0.0182663220912218,-0.000943398626986891,0.00656594010069966,0.0740887969732285,-0.00605483818799257,-0.0486177802085876
516,0.0172773357480764,-0.000573849305510521,0.00432532373815775,-0.0531214885413647,-0.00721463095396757,-0.0483182929456234
517,0.0162387304008007,0.000472516228910536,0.00412290031090379,-0.155027896165848,-0.0085206525400281,-0.0439293570816517
518,0.0150155704468489,0.00205262517556548,0.00243392889387906,-0.229624852538109,-0.0117565859109163,-0.037929330021143
519,0.0136518748477101,0.00381380273029208,-0.00124487082939595,-0.283202648162842,-0.0169302299618721,-0.0324874892830849
520,0.0130553338676691,0.00526572437956929,-0.00430998113006353,-0.30828720331192,-0.0208474136888981,-0.0296151619404554
521,0.0130297839641571,0.00568650290369987,-0.00655914749950171,-0.277480691671371,-0.0223126448690891,-0.030586963519454
522,0.0115642780438066,0.00406816555187106,-0.00990007910877466,-0.18814517557621,-0.0238281358033419,-0.035226259380579
523,0.00831513293087482,0.000682800658978522,-0.0134579092264175,-0.0698350444436073,-0.025651128962636,-0.0401361621916294
524,0.00481436681002378,-0.003428551601246,-0.0157364197075367,0.0498410202562809,-0.0261042136698961,-0.0421551130712032
525,0.00317273288965225,-0.00642428360879421,-0.0171182323247194,0.143754661083221,-0.0238376092165709,-0.0418007299304008
526,0.00427166745066643,-0.00683143874630332,-0.0188708640635014,0.189195618033409,-0.0192409306764603,-0.0418258756399155
527,0.00674763368442655,-0.00575371040031314,-0.0222208015620708,0.184089958667755,-0.0152446869760752,-0.0439507514238358
528,0.00965219549834728,-0.00420540943741798,-0.0257752127945423,0.143452927470207,-0.0122968396171927,-0.0462980419397354
529,0.0130866141989827,-0.00244942749850452,-0.0269754678010941,0.0931338146328926,-0.00854633469134569,-0.0462302453815937
530,0.0164877194911242,-0.00136820354964584,-0.025997681543231,0.0579550266265869,-0.00485912105068564,-0.0439587943255901
531,0.0187724214047194,-0.00140252872370183,-0.0254265461117029,0.0359282605350018,-0.00287508592009544,-0.0419887118041515
532,0.0194980185478926,-0.00283323088660836,-0.0278949625790119,-0.00310557964257896,-0.00254078838042915,-0.0428865812718868
533,0.0195759031921625,-0.00566079095005989,-0.0335149653255939,-0.06772530823946,-0.00361448596231639,-0.0466258935630322
534,0.0200394075363874,-0.00898053962737322,-0.0402703993022442,-0.125791966915131,-0.00665371026843786,-0.0506342425942421
535,0.0217346716672182,-0.010761609300971,-0.04586111754179,-0.153905272483826,-0.010711969807744,-0.0518884919583797
536,0.0252560172230005,-0.00934761390089989,-0.0485914014279842,-0.154118299484253,-0.0129333771765232,-0.0498843230307102
537,0.0281449500471354,-0.0067548374645412,-0.0491088852286339,-0.135360300540924,-0.0134585965424776,-0.0484648086130619
538,0.0279433727264404,-0.00530110485851765,-0.048562228679657,-0.127196043729782,-0.0137870591133833,-0.0501031167805195
539,0.0258951410651207,-0.00470648379996419,-0.0472743101418018,-0.167467996478081,-0.0131199909374118,-0.0527539663016796
540,0.02468634955585,-0.00489777978509665,-0.0468940623104572,-0.239687263965607,-0.0111682955175638,-0.0543351098895073
541,0.0254651606082916,-0.00649064034223557,-0.0487556904554367,-0.286497890949249,-0.00969106145203114,-0.0547096394002438
542,0.0270330235362053,-0.00965747144073248,-0.0517747476696968,-0.287980735301971,-0.00972608011215925,-0.0548412390053272
543,0.0282603539526463,-0.0134101510047913,-0.0539797320961952,-0.253931611776352,-0.00988684874027967,-0.0550789088010788
544,0.0284903850406408,-0.0167078487575054,-0.0546613074839115,-0.186213344335556,-0.00961982738226652,-0.0553324408829212
545,0.0280045419931412,-0.019008481875062,-0.0544009990990162,-0.100791081786156,-0.00958630442619324,-0.0565294399857521
546,0.028367618098855,-0.0191974081099033,-0.0536707043647766,-0.0195911806076765,-0.00933976285159588,-0.058436743915081
547,0.0293169170618057,-0.0171976946294308,-0.0532423853874207,0.0575724132359028,-0.00882630608975887,-0.0585138984024525
548,0.02945776283741,-0.0152170220389962,-0.0536196567118168,0.131056576967239,-0.0084215858951211,-0.0555425211787224
549,0.0291498471051455,-0.0143686756491661,-0.053805273026228,0.188308447599411,-0.00771015556529164,-0.0511484518647194
550,0.027959655970335,-0.0139062907546759,-0.0545617677271366,0.217642694711685,-0.00781936198472977,-0.0472987927496433
551,0.0240460988134146,-0.0141436774283648,-0.0580096952617168,0.204990819096565,-0.0104592451825738,-0.0452085621654987
552,0.0185837969183922,-0.0151681574061513,-0.0628539323806763,0.132767632603645,-0.0140935927629471,-0.044888149946928
553,0.0146964294835925,-0.0157111547887325,-0.0666843578219414,0.0127901192754507,-0.0164543613791466,-0.044627271592617
554,0.0129087064415216,-0.0155350798740983,-0.0696056932210922,-0.116268739104271,-0.0178718045353889,-0.0425392054021358
555,0.0107142347842455,-0.01649852655828,-0.0725559070706367,-0.225352108478546,-0.0198661107569933,-0.0389801599085331
556,0.00603489996865392,-0.0202930215746164,-0.0753616839647293,-0.286530345678329,-0.0228247474879026,-0.0368969291448593
557,-0.000450095336418599,-0.0260546710342169,-0.0775263831019402,-0.284599542617798,-0.0261448044329882,-0.0385564342141151
558,-0.0067254644818604,-0.0317867510020733,-0.0787474662065506,-0.241322964429855,-0.0287152994424105,-0.0430277921259403
559,-0.010901452973485,-0.0356241539120674,-0.0780687779188156,-0.191885590553284,-0.0290656443685293,-0.0468168705701828
560,-0.0122735342010856,-0.0365144126117229,-0.0749134570360184,-0.168371558189392,-0.0277083050459623,-0.0476055331528187
561,-0.0113688930869102,-0.0351829938590527,-0.0698773413896561,-0.168960139155388,-0.0263491328805685,-0.0454860590398312
562,-0.00861260294914246,-0.0324153937399387,-0.0644510164856911,-0.153029024600983,-0.0252306908369064,-0.0395744740962982
563,-0.00553824612870812,-0.0286658592522144,-0.0612566918134689,-0.109899140894413,-0.0246151518076658,-0.0306778289377689
564,-0.00412325887009501,-0.0240299310535192,-0.0616437420248985,-0.0653834491968155,-0.0251621846109629,-0.0220013745129108
565,-0.00412180181592703,-0.0185511019080877,-0.0638939291238785,-0.0337351709604263,-0.026526315137744,-0.0148191237822175
566,-0.00439081527292728,-0.0135179869830608,-0.0656318292021751,-0.016500785946846,-0.0278711374849081,-0.00908674020320177
567,-0.00370498700067401,-0.00895807333290577,-0.0652953386306763,-0.0414240807294846,-0.0281983185559511,-0.00391764333471656
568,-0.00165395066142082,-0.00395088270306587,-0.0635953769087791,-0.160902872681618,-0.027966920286417,0.000324197550071403
569,0.000306497036945075,9.88142492133193E-05,-0.0632380098104477,-0.369464904069901,-0.029141653329134,0.00101023796014488
570,0.0014857187634334,0.00214462564326823,-0.0645391196012497,-0.5,-0.031102629378438,-0.000903313339222223
571,0.002437251387164,0.00302848452702165,-0.0653031095862389,-0.5,-0.0313362367451191,-0.00179527036380023
572,0.00327762472443283,0.00308148050680757,-0.0642884522676468,-0.5,-0.029675429686904,-0.00122346205171198
573,0.00315809180028737,0.0018085379851982,-0.0624499395489693,-0.5,-0.0283648539334536,-0.00122190953698009
574,0.00104492693208158,-0.00131325435359031,-0.0613488405942917,-0.5,-0.0291389040648937,-0.00409201439470053
575,-0.00201982795260847,-0.00542172230780125,-0.0609538294374943,-0.5,-0.030828882008791,-0.00971152167767286
576,-0.0039443476125598,-0.00873033702373505,-0.060515571385622,-0.5,-0.0317608565092087,-0.0152504434809089
577,-0.00400278158485889,-0.00991038512438536,-0.0601391233503819,-0.5,-0.0326408892869949,-0.0185721423476934
578,-0.00282279006205499,-0.00862151384353638,-0.0604246072471142,-0.5,-0.0345369093120098,-0.0193670596927404
579,-0.00225594593212008,-0.00698613235726953,-0.0618072785437107,-0.5,-0.0377700626850128,-0.0193557664752007
580,-0.00408002315089107,-0.00834764912724495,-0.0638158693909645,-0.5,-0.0417733751237392,-0.020814947783947
581,-0.00775142060592771,-0.0125446664169431,-0.064948134124279,-0.5,-0.0450685657560825,-0.022194042801857
582,-0.0121373971924186,-0.016849122941494,-0.0648925453424454,-0.5,-0.0477115549147129,-0.0210060104727745
583,-0.0167956184595823,-0.0197097733616829,-0.0642222762107849,-0.5,-0.0496389344334602,-0.0190533809363842
584,-0.0198318734765053,-0.019650686532259,-0.0620571635663509,-0.5,-0.0492299310863018,-0.0172218605875969
585,-0.0194789450615644,-0.0161416623741388,-0.0577945671975613,-0.246165052056313,-0.0466315522789955,-0.0130101880058646
586,-0.0173374023288488,-0.0116742933169007,-0.0528484433889389,0.0714903548359871,-0.0435820370912552,-0.00673261005431414
587,-0.017136923968792,-0.00921731721609831,-0.0487972795963287,0.304440021514893,-0.0417679324746132,-0.00153893523383886
588,-0.0207806546241045,-0.00952999107539654,-0.045876070857048,0.48224151134491,-0.0423258617520332,0.00185556302312762
589,-0.025266433134675,-0.0103584695607424,-0.0433213897049427,0.5,-0.0437309890985489,0.00487835565581918
590,-0.0262109618633986,-0.00872323382645845,-0.0404357463121414,0.5,-0.0433719642460346,0.00725752068683505
591,-0.0250034276396036,-0.00550349103286862,-0.037988692522049,0.5,-0.0421166755259037,0.00764852296561003
592,-0.0243887472897768,-0.002602803055197,-0.035899817943573,0.5,-0.0406089089810848,0.00813666637986898
593,-0.0234093982726336,0.00033595398417674,-0.0326494388282299,0.5,-0.0373789593577385,0.0107412924990058
594,-0.0222611147910357,0.0031722451094538,-0.0289835073053837,0.443910151720047,-0.0339008085429668,0.0129722226411104
595,-0.0225130282342434,0.00511547550559044,-0.0263310018926859,0.414603471755981,-0.0326039232313633,0.0126436511054635
596,-0.0239325519651175,0.00618156418204308,-0.0242644138634205,0.416783183813095,-0.0332874394953251,0.011194528080523
597,-0.0259447358548641,0.00661774631589651,-0.022869685664773,0.435393840074539,-0.0356064029037952,0.0117322597652674
598,-0.0285717435181141,0.00620933435857296,-0.0235938020050526,0.448614299297333,-0.0405297204852104,0.0153163187205791
599,-0.031103327870369,0.00513550732284784,-0.0261368174105883,0.433467328548431,-0.0474507287144661,0.0189477559179068
600,-0.0328362435102463,0.00428307009860873,-0.0277952495962381,0.387732177972794,-0.0531832873821259,0.0187331791967154
601,-0.0341745056211948,0.00378874549642205,-0.0266288686543703,0.337207078933716,-0.0552771985530853,0.0143794557079673
602,-0.0343597829341888,0.00345185794867575,-0.0225708484649658,0.308563232421875,-0.0531797148287296,0.0093263341113925
603,-0.0317457020282745,0.00304784555919468,-0.0175363272428513,0.299046277999878,-0.048080250620842,0.00626855529844761
604,-0.0274591706693172,0.00202699517831206,-0.0138765526935458,0.293595671653748,-0.0429416373372078,0.004846700001508
605,-0.0231066755950451,0.00181820197030902,-0.0104095079004765,0.285301178693771,-0.0387567132711411,0.0046571115963161
606,-0.0189615152776241,0.0041700298897922,-0.00468078907579184,0.26759946346283,-0.0345971956849098,0.00609634863212705
607,-0.0165347009897232,0.00768106849864125,0.00198865891434252,0.229837626218796,-0.0312968268990517,0.00899271294474602
608,-0.0176507048308849,0.00948622450232506,0.00603985460475087,0.166425168514252,-0.0300763268023729,0.0125282602384686
609,-0.0215698406100273,0.00826362147927284,0.00633896561339498,0.0837550535798073,-0.0301648769527674,0.0150995496660471
610,-0.0252501256763935,0.00555500574409962,0.00508091039955616,0.00502059794962406,-0.0301346238702536,0.0160578358918428
611,-0.0268642175942659,0.00354304816573858,0.0045450534671545,-0.0256801508367062,-0.0299774520099163,0.0170572996139526
612,-0.0272167269140482,0.00194033293519169,0.00526845268905163,0.00440394738689065,-0.0305106155574322,0.0192101523280144
613,-0.0269015319645405,-4.68421494588256E-05,0.00743646733462811,0.0517844185233116,-0.0313566289842129,0.0218510311096907
614,-0.0258824210613966,-0.00216943817213178,0.0102343838661909,0.0844948515295982,-0.0320503115653992,0.0231476686894894
615,-0.0249816495925188,-0.00435420870780945,0.0114666810259223,0.105207920074463,-0.0328860059380531,0.02098248898983
616,-0.0244489647448063,-0.00628352025523782,0.0105200856924057,0.131819427013397,-0.0330237485468388,0.0157115627080202
617,-0.0242806952446699,-0.00761990854516625,0.00873109605163336,0.179738625884056,-0.0318500176072121,0.00980792008340359
618,-0.025183292105794,-0.00799388438463211,0.00753110181540251,0.24053518474102,-0.0300799645483494,0.00615147314965725
619,-0.0265264380723238,-0.00621615722775459,0.00771852629259229,0.298470586538315,-0.0277458243072033,0.00716855889186263
620,-0.0275226943194866,-0.0021420179400593,0.00846520997583866,0.351766705513,-0.0250680521130562,0.0123112956061959
621,-0.0289001241326332,0.00226061418652534,0.00825425703078508,0.402754127979279,-0.0230140201747417,0.0180857516825199
622,-0.0301573593169451,0.00536621827632189,0.00743625033646822,0.445185333490372,-0.0209226347506046,0.0215778574347496
623,-0.0297282561659813,0.00718188984319568,0.00705626653507352,0.46766123175621,-0.0179466903209686,0.0221031997352839
624,-0.0274418480694294,0.00829662475734949,0.00676244078204036,0.462135583162308,-0.0151329059153795,0.0209363587200642
625,-0.024065962061286,0.00929572246968746,0.00553598580881953,0.429118901491165,-0.0130272340029478,0.020065899938345
626,-0.0206741113215685,0.0103265382349491,0.00283215288072824,0.379582047462463,-0.0114646786823869,0.0198922865092754
627,-0.0185788553208113,0.0107843624427915,-0.000330833252519369,0.330756574869156,-0.0105251939967275,0.0199599638581276
628,-0.0189303942024708,0.0094189653173089,-0.00255582900717855,0.30015617609024,-0.00998444482684135,0.0197010450065136
629,-0.0217120889574289,0.00544929783791304,-0.00431834766641259,0.309577703475952,-0.0101989805698395,0.0181140769273043
630,-0.0237684193998575,0.00135393755044788,-0.005125449039042,0.362423658370972,-0.00971771217882633,0.0171331092715263
631,-0.0218442026525736,0.000591651012655348,-0.00349213508889079,0.399588286876678,-0.0065939063206315,0.0197498220950365
632,-0.0158373266458511,0.00354843796230853,-0.000453769840532914,0.347058594226837,-0.00195358996279538,0.0249838624149561
633,-0.00826001167297363,0.00737155228853226,0.00111706263851374,0.207663163542748,0.00165672262664884,0.0281874798238277
634,-0.0038048978894949,0.00818327814340591,-0.00123724027071148,0.0688964053988457,0.00144699716474861,0.0252530928701162
635,-0.00446714926511049,0.00574771082028747,-0.00699688121676445,0.0197811219841242,-0.00241008982993662,0.0183664094656706
636,-0.00740235345438123,0.00314110331237316,-0.0124279344454408,0.0634938850998878,-0.0057579530403018,0.0139031568542123
637,-0.0106104733422399,0.00187491276301444,-0.0149693675339222,0.125953838229179,-0.00609524734318256,0.0146167334169149
638,-0.0149599220603704,0.0011628563515842,-0.0153632517904043,0.132791489362717,-0.00533490488305688,0.0182446260005236
639,-0.0204755067825317,0.000125220816698857,-0.0143095860257745,0.0743284001946449,-0.00517363520339131,0.0219236500561237
640,-0.0255075935274363,-0.0015747956931591,-0.0112088695168495,-0.00685696350410581,-0.00441337842494249,0.0248499978333712
641,-0.0280000325292349,-0.0031772127840668,-0.00569652440026402,-0.0746853426098824,-0.00175776868127286,0.0275942888110876
642,-0.0269419867545366,-0.00379204447381198,0.000918067991733551,-0.120646066963673,0.00245604547671974,0.0296772737056017
643,-0.0241180490702391,-0.00457924557849765,0.00609745271503925,-0.14977553486824,0.00657382141798735,0.0296749118715525
644,-0.0219041667878628,-0.00665591470897198,0.00865732412785292,-0.167399808764458,0.00814032554626465,0.0282456073909998
645,-0.0204399283975363,-0.00846866704523563,0.00862250663340092,-0.185580343008041,0.00615943362936378,0.0278883427381516
646,-0.0188026037067175,-0.00854343455284834,0.0057885111309588,-0.223650246858597,0.00208560097962618,0.0296041611582041
647,-0.017232209444046,-0.00809609238058329,0.000977314659394324,-0.280806690454483,-0.00240582320839167,0.0316238477826118
648,-0.0159450937062502,-0.00767238531261683,-0.00289437384344637,-0.336423575878143,-0.00489123677834868,0.0322614200413227
649,-0.0138293132185936,-0.00595933152362704,-0.00381022901274264,-0.384280979633331,-0.00294055370613933,0.0309508144855499
650,-0.0109357452020049,-0.00332860508933663,-0.00311485398560762,-0.433241218328476,0.00229577370919287,0.0272057708352804
651,-0.00925859715789557,-0.00158759916666895,-0.0028216615319252,-0.482862085103989,0.00702024111524224,0.0224765576422215
652,-0.00958895869553089,-0.000928921275772154,-0.00274578761309385,-0.5,0.00848492607474327,0.0206255000084639
653,-0.0103701762855053,-1.82115600182442E-05,-0.00243565579876304,-0.5,0.00671976944431663,0.0238993186503649
654,-0.0104540223255754,0.00119332585018128,-0.00252394448034465,-0.5,0.0038602096028626,0.0295309834182262
655,-0.00943770725280046,0.00238351291045547,-0.00143703864887357,-0.489699393510818,0.00329736969433725,0.0344192571938038
656,-0.00774077698588371,0.00400853762403131,0.00255823554471135,-0.438617825508118,0.00571343535557389,0.0382501184940338
657,-0.00761640118435025,0.00561050837859511,0.00750104291364551,-0.397783637046814,0.00726590538397431,0.040439173579216
658,-0.0100090419873595,0.00635540997609496,0.0105093643069267,-0.385008484125137,0.00469568325206637,0.0407800488173962
659,-0.0141233978793025,0.00516133382916451,0.0098312683403492,-0.400711745023727,-0.0024461115244776,0.0392089448869228
660,-0.0201434306800365,0.00123992387671024,0.00558855896815658,-0.433454066514969,-0.0121829211711884,0.0347625352442265
661,-0.0278006568551064,-0.0042762840166688,0.000355643831426278,-0.466765522956848,-0.0208781585097313,0.0281872265040874
662,-0.0344795659184456,-0.00877236016094685,-0.00250798230990767,-0.486642599105835,-0.0253907758742571,0.0227386336773634
663,-0.0378584787249565,-0.0105344234034419,-0.00178175896871835,-0.486601948738098,-0.0252427756786346,0.0200299080461264
664,-0.038321066647768,-0.010304206982255,0.00120694935321808,-0.469334483146667,-0.02301917783916,0.0181159731000662
665,-0.0369809344410896,-0.00946075189858675,0.00504584657028317,-0.447607338428497,-0.020841408520937,0.0160956475883722
666,-0.034587673842907,-0.00870583206415176,0.00822870153933764,-0.43464520573616,-0.0187006238847971,0.0156675633043051
667,-0.0326008982956409,-0.00868255738168955,0.00842450093477964,-0.436416745185852,-0.0169178042560816,0.0173625499010086
668,-0.0311260279268026,-0.00884726457297802,0.00613509677350521,-0.451654762029648,-0.0153996925801039,0.0210940688848495
669,-0.0288438405841589,-0.00738276308402419,0.00570146413519979,-0.47529411315918,-0.0129957115277648,0.0282998662441969
670,-0.026437520980835,-0.00411786930635571,0.00911672599613667,-0.498680412769318,-0.0108552994206548,0.0378751493990421
671,-0.0244357548654079,-0.000625801447313279,0.014509167522192,-0.5,-0.00991383939981461,0.043827123939991
672,-0.0212264135479927,0.0022382065653801,0.0201851073652506,-0.491206765174866,-0.00784090999513865,0.0415372811257839
673,-0.0165303945541382,0.00466620642691851,0.0248111318796873,-0.46112596988678,-0.00419879937544465,0.0331399068236351
674,-0.0121870804578066,0.00755209475755692,0.0267020910978317,-0.43898668885231,-0.00184772827196866,0.0245887339115143
675,-0.01005594804883,0.0104251625016332,0.0251417309045792,-0.433012574911118,-0.00252114445902407,0.0185892097651958
676,-0.0112202456220984,0.0099813649430871,0.0204656980931759,-0.435737520456314,-0.00589323695749044,0.0126953609287739
677,-0.0150789767503738,0.00500329211354256,0.0142625998705626,-0.444834887981415,-0.010782721452415,0.00595856318250299
678,-0.0191322844475508,-0.00161314918659627,0.0092087984085083,-0.454879373311996,-0.0151204345747828,0.000906908244360238
679,-0.0216779801994562,-0.00740112876519561,0.00668403692543507,-0.439512610435486,-0.0170061849057674,-0.00214667269028723
680,-0.0225434452295303,-0.0112941283732653,0.00616506487131119,-0.382762312889099,-0.0159841943532228,-0.00425647664815187
681,-0.0214845035225153,-0.0124386008828878,0.0059159817174077,-0.306599259376526,-0.0134285911917686,-0.00421062856912613
682,-0.0197039805352688,-0.0123168928548694,0.00431881472468376,-0.23945814371109,-0.0123597951605916,-0.00185637129470706
683,-0.0187697317451239,-0.0130534945055842,0.00271188002079725,-0.192068353295326,-0.0133351581171155,0.000738539209123701
684,-0.0185778215527534,-0.0147493965923786,0.00302148424088955,-0.168510466814041,-0.01391691993922,0.00180463620927185
685,-0.0189658403396606,-0.0173566434532404,0.00472279964014888,-0.169818520545959,-0.0130569553002715,0.00123919302131981
686,-0.0196749996393919,-0.0205293111503124,0.0070096543058753,-0.183690950274467,-0.0111282421275973,0.000183135169208981
687,-0.0195285826921463,-0.022828858345747,0.00920925289392471,-0.189333871006966,-0.00855848286300898,-0.00138260959647596
688,-0.0174035895615816,-0.0230397451668978,0.0104549312964082,-0.181235447525978,-0.00578772928565741,-0.00340005359612405
689,-0.0142023973166943,-0.0221698172390461,0.010600421577692,-0.177821040153503,-0.00370913906954229,-0.004863983951509
690,-0.0122013865038753,-0.0220927856862545,0.0104661416262388,-0.19691102206707,-0.00339234713464975,-0.0049102227203548
691,-0.0121854543685913,-0.0223655644804239,0.0111490385606885,-0.230801567435265,-0.00460279453545809,-0.00230322731658816
692,-0.0124025559052825,-0.0212120655924082,0.0131201362237334,-0.285438179969788,-0.00523669132962823,0.00242045870982111
693,-0.0107389539480209,-0.0173507295548916,0.016773883253336,-0.4211405813694,-0.00293177110143006,0.00713950581848621
694,-0.00757163530215621,-0.0108864959329367,0.0221732333302498,-0.5,0.00248007080517709,0.0106153450906277
695,-0.00436103250831366,-0.00368551607243717,0.0280129555612803,-0.5,0.008821084164083,0.0117620909586549
696,-0.00167710159439594,0.00172495935112238,0.0321873500943184,-0.5,0.0131275476887822,0.0109283551573753
697,-0.000183516094693914,0.00362610910087824,0.0328589528799057,-0.5,0.0140300653874874,0.0104345055297017
698,-0.000185486918780953,0.00256740301847458,0.0301377326250076,-0.5,0.0129384631291032,0.0117515614256263
699,-0.00143763958476484,-0.000428804632974789,0.0256881732493639,-0.5,0.0110427020117641,0.0130114760249853
700,-0.00243530818261206,-0.00383620150387287,0.0216293316334486,-0.5,0.00953456480056047,0.0129220122471452
701,-0.00131354096811265,-0.00543126836419106,0.0196272991597652,-0.5,0.010308894328773,0.0130482278764248
702,-8.8323482486885E-05,-0.00626059016212821,0.0185954049229622,-0.5,0.011887876316905,0.0126893892884254
703,-0.00213396130129695,-0.0083784107118845,0.0166866388171911,-0.5,0.0110949371010065,0.0106368996202946
704,-0.00789151713252068,-0.011507473886013,0.0139581291005015,-0.5,0.00747641595080495,0.00783300772309303
705,-0.0161254703998566,-0.0148578332737088,0.0106409266591072,-0.5,0.00240762252360582,0.00480303587391973
706,-0.0249011944979429,-0.0180668029934168,0.00565406354144216,-0.5,-0.0032801260240376,0.00121822650544345
707,-0.0317347757518291,-0.0202183406800032,-0.00089954660506919,-0.5,-0.00907734967768192,-0.00233459891751409
708,-0.0350776165723801,-0.0203271508216858,-0.00613930122926831,-0.5,-0.013804268091917,-0.0040276488289237
709,-0.0348632298409939,-0.0187665000557899,-0.00725198909640312,-0.5,-0.0162789616733789,-0.0025616642087698
710,-0.0324975810945034,-0.0172710977494717,-0.00365246692672372,-0.5,-0.016272496432066,0.00111081951763481
711,-0.0289039518684149,-0.0167718250304461,0.00393816363066435,-0.5,-0.0135770384222269,0.00491790426895022
712,-0.0237102508544922,-0.0168301053345203,0.0131350848823786,-0.5,-0.00884991977363825,0.00810743775218725
713,-0.0193396434187889,-0.0182093195617199,0.0192384477704763,-0.5,-0.00547271501272917,0.0103137474507093
714,-0.018866453319788,-0.0205196123570204,0.0201383288949728,-0.5,-0.00556038646027446,0.0123590249568224
715,-0.0216282419860363,-0.0216511655598879,0.017492588609457,-0.5,-0.00859788339585066,0.0153374690562487
716,-0.0263077616691589,-0.0228127501904964,0.0120408730581403,-0.5,-0.0144017431885004,0.0156107535585761
717,-0.0311798546463251,-0.0257962625473738,0.00524046225473285,-0.5,-0.0203381422907114,0.0100525207817554
718,-0.0326563529670238,-0.0280587784945965,0.00126023159828037,-0.5,-0.0214364118874073,0.00315363775007427
719,-0.0286020301282406,-0.02524808421731,0.0035659596323967,-0.5,-0.0159746129065752,0.00170927459839731
720,-0.0212163589894772,-0.0170333310961723,0.0114063136279583,-0.5,-0.00685032969340682,0.00664063589647412
721,-0.0157224256545305,-0.00929131638258696,0.0193043015897274,-0.5,0.000308984279399738,0.0118904253467917
722,-0.0146089252084494,-0.00732838269323111,0.0225450377911329,-0.5,0.0024859479162842,0.011957673355937
723,-0.0161915272474289,-0.00999176315963268,0.0213795565068722,-0.5,0.0013975310139358,0.00789230596274138
724,-0.0188903752714396,-0.0137531459331512,0.0182571578770876,-0.396580457687378,-0.00111175305210054,0.00273038912564516
725,-0.0214342717081308,-0.0165340583771467,0.0153631083667278,-0.138508677482605,-0.00360567332245409,-0.00198722956702113
726,-0.0222988650202751,-0.0172215048223734,0.0143569884821773,0.0638165920972824,-0.00380505155771971,-0.00458285212516785
727,-0.0217332802712917,-0.0160949155688286,0.0153368404135108,0.215757802128792,-0.00136348407249898,-0.00456282403320074
728,-0.0204957034438849,-0.0136970691382885,0.0171982366591692,0.318035423755646,0.00228404835797846,-0.00274450378492475
729,-0.0184172131121159,-0.0102748926728964,0.0185867883265018,0.370713323354721,0.00624745804816484,-0.000195384665858001
730,-0.0158576909452677,-0.00667596561834216,0.0187470205128193,0.370152533054352,0.00980493891984224,0.00226218113675714
731,-0.0138339651748538,-0.00379580841399729,0.0184264313429594,0.330343723297119,0.0127992071211338,0.00450498703867197
732,-0.0134271131828427,-0.00208228756673634,0.0183281507343054,0.283376336097717,0.0153224188834429,0.00683337682858109
733,-0.0147018618881702,-0.000512834405526519,0.0188292060047388,0.241545796394348,0.0164685249328613,0.0110074076801538
734,-0.016351068392396,0.00222013960592449,0.0203262716531754,0.210925787687302,0.0156610086560249,0.0185322649776936
735,-0.0168339032679796,0.00579783134162426,0.0220893379300833,0.211302787065506,0.0145441135391593,0.0278027039021254
736,-0.0160489063709974,0.00882228650152683,0.0224005132913589,0.250248223543167,0.0148907452821732,0.0347187593579292
737,-0.0158629287034273,0.00980515405535698,0.0204912312328815,0.30689263343811,0.0160939153283834,0.035761833190918
738,-0.0173935499042273,0.00889858417212963,0.0175075810402632,0.352678626775742,0.0162687785923481,0.0315127074718475
739,-0.0205469187349081,0.00726125342771411,0.0143138384446502,0.377289444208145,0.013565625064075,0.02484598942101
740,-0.0247212536633015,0.00502850906923413,0.0109367119148374,0.374465972185135,0.0081505011767149,0.0165684781968594
741,-0.0275210663676262,0.00275866407901049,0.00911343097686768,0.332376062870026,0.00322334188967943,0.00690107187256217
742,-0.0279026255011559,0.000708963256329298,0.010373049415648,0.250122427940369,0.000282192195300013,-0.0028097287286073
743,-0.0278465822339058,-0.00296502327546477,0.0124404449015856,0.142679423093796,-0.00239647226408124,-0.0113669959828258
744,-0.0281498376280069,-0.00822825543582439,0.0126713970676064,0.0372585766017437,-0.00477896025404334,-0.0172314774245024
745,-0.0291580017656088,-0.0126264169812202,0.0106027144938707,-0.0416447855532169,-0.00627138977870345,-0.0203494876623154
746,-0.0314560234546661,-0.0152872884646058,0.00716740638017654,-0.0832809284329414,-0.00695352675393224,-0.0221290290355682
747,-0.0327771343290806,-0.0161806885153055,0.00445325206965208,-0.0876078978180885,-0.00523479841649532,-0.0209693498909473
748,-0.0320255495607853,-0.0157868210226297,0.00281918374821544,-0.0686348527669907,-0.00184800231363624,-0.0158579181879759
749,-0.0319431386888027,-0.0156001066789031,0.000653741182759404,-0.0491547472774982,-0.000854231766425073,-0.00996606051921844
750,-0.0332551635801792,-0.0151738692075014,-0.00150950462557375,-0.0350338071584702,-0.00301467604003847,-0.00534326303750277
751,-0.0336406975984573,-0.0123585117980838,-0.00110169861000031,-0.00975271500647068,-0.00510354619473219,-0.000778313493356109
752,-0.0320366732776165,-0.00723540876060724,0.00264070159755647,0.0395997054874897,-0.00497723557054996,0.00588771607726812
753,-0.0294379554688931,-0.00234137731604278,0.00787399429827929,0.106442205607891,-0.00331084872595966,0.0149877434596419
754,-0.0268465634435415,0.000727035920135677,0.011984177865088,0.16969820857048,-0.00193538086023182,0.0228384360671043
755,-0.0241760406643152,0.00278143119066954,0.0140739614143968,0.201324090361595,-0.00123610417358577,0.0256028678268194
756,-0.0221999045461416,0.00411247136071324,0.0140488538891077,0.189910873770714,-0.00131779303774238,0.0230132900178432
757,-0.0220824591815472,0.00360955088399351,0.0115523170679808,0.150427371263504,-0.00256193173117936,0.0181744508445263
758,-0.0228045117110014,0.00161540601402521,0.00818114448338747,0.104014240205288,-0.00319551979191601,0.015933383256197
759,-0.0219046473503113,0.000347369757946581,0.00634953426197171,0.0702257081866264,-0.00135844538453966,0.0180215686559677
760,-0.0177275072783232,0.00204939511604607,0.00717938272282481,0.0603657774627209,0.00235291663557291,0.0213624350726604
761,-0.0116971675306559,0.00645121326670051,0.0101045882329345,0.0709643810987473,0.00590807013213634,0.021449651569128
762,-0.00691187102347612,0.0115895513445139,0.0134121468290687,0.0869030654430389,0.00781243480741978,0.0172431524842978
763,-0.00425652787089348,0.0161157678812742,0.0159724894911051,0.0926966071128845,0.00777633860707283,0.0111638689413667
764,-0.00238488661125302,0.0191572848707438,0.0178620032966137,0.0702846795320511,0.006289167329669,0.00533679546788335
765,-0.00109374010935426,0.0198535211384296,0.0191719848662615,0.00692597264423966,0.00408869050443172,0.00118840963114053
766,-0.00187871837988496,0.0172280594706535,0.0193135906010866,-0.0739122778177261,0.00104088021907955,-0.000966908992268145
767,-0.00436676060780883,0.0119430795311928,0.0181448925286531,-0.137200891971588,-0.0026348726823926,-0.00192257633898407
768,-0.00656950892880559,0.00589416548609734,0.0161234252154827,-0.177360445261002,-0.004855134524405,-0.00225289771333337
769,-0.00921495351940393,-0.000567059963941574,0.0132008697837591,-0.200956270098686,-0.00520627945661545,-0.00257795234210789
770,-0.013325734063983,-0.00715555343776941,0.00974367652088404,-0.20921117067337,-0.00497930170968175,-0.00270202080719173
771,-0.015848221257329,-0.0121355513110757,0.00746418116614223,-0.200526624917984,-0.00281960447318852,-0.00105959118809551
772,-0.0143272196874022,-0.0142129249870777,0.00754199596121907,-0.163412973284721,0.00239297491498291,0.00261042104102671
773,-0.0106804464012384,-0.0133075164631009,0.00948015600442886,-0.101513646543026,0.00805256795138121,0.00666741980239749
774,-0.00752268126234412,-0.0105620501562953,0.0125978840515018,-0.0493475124239922,0.0111699402332306,0.00826925318688154
775,-0.00498118624091148,-0.00699688633903861,0.0168794095516205,-0.0249469671398401,0.011524548754096,0.00505299493670464
776,-0.00231203949078918,-0.00239655910991132,0.0211354903876781,-0.0203080791980028,0.00997019931674004,-0.0013118339702487
777,-0.000494392123073339,0.0020695966668427,0.0227768458425999,-0.0272723324596882,0.00662743905559182,-0.00679094903171062
778,-0.000649272813461721,0.00367905152961612,0.0212286282330751,-0.042724896222353,0.00279094348661602,-0.00924764946103096
779,-0.00181663921102881,0.00155064160935581,0.0189302619546652,-0.0748910754919052,0.00108625658322126,-0.00800263229757547
780,-0.0020466388668865,-0.00243077520281076,0.0188193414360285,-0.129449233412743,0.00289439177140594,-0.00340979755856097
781,-0.000597990409005433,-0.00595130585134029,0.0223233923316002,-0.19707079231739,0.00757534755393863,0.00166359078139067
782,0.000705527199897915,-0.00897687952965498,0.0277033522725105,-0.258313208818436,0.0129295913502574,0.00397293269634247
783,-0.000108831511170138,-0.0120985442772508,0.0314804762601852,-0.293829143047333,0.0166742224246264,0.00298242154531181
784,-0.00247344118542969,-0.0143292490392923,0.0316559262573719,-0.29920682311058,0.0175793897360563,-0.000355079129803926
785,-0.00554223917424679,-0.0155572658404708,0.0276501458138227,-0.280592054128647,0.0145162232220173,-0.00613045506179333
786,-0.00909972563385963,-0.0169173944741488,0.0210202448070049,-0.240996047854424,0.00740478467196226,-0.0136444987729192
787,-0.0122924949973822,-0.0186252351850271,0.015053384937346,-0.179870933294296,-0.00138126290403306,-0.0196369718760252
788,-0.0149978483095765,-0.0203226283192635,0.0110481018200517,-0.0985344126820564,-0.00932670570909977,-0.0221013110131025
789,-0.0185082536190748,-0.022315826267004,0.00737597560510039,-0.0135975405573845,-0.0162495523691177,-0.0230288375169039
790,-0.0229922775179148,-0.0245337188243866,0.00263234181329608,0.0460859760642052,-0.0222858730703592,-0.0239296033978462
791,-0.0268883761018515,-0.0258539412170649,-0.00198201998136938,0.0750228017568588,-0.0262161679565907,-0.0218654405325651
792,-0.0294282156974077,-0.0261426903307438,-0.00420061079785228,0.087627187371254,-0.0269574355334044,-0.0155211305245757
793,-0.0303467847406864,-0.0261717680841684,-0.00285425619222224,0.0949120447039604,-0.0240185391157866,-0.00934457592666149
794,-0.0294844564050436,-0.026509715244174,0.00129973539151251,0.111036702990532,-0.0187988318502903,-0.00734116276726127
795,-0.0279476810246706,-0.0274868253618479,0.00612686248496175,0.139759689569473,-0.0143361836671829,-0.00942687597125769
796,-0.0264832731336355,-0.0281808823347092,0.010087619535625,0.16200977563858,-0.0119755389168859,-0.0138162840157747
797,-0.0245972480624914,-0.0273190252482891,0.0130403293296695,0.162716716527939,-0.0109661351889372,-0.0188467763364315
798,-0.0211295504122972,-0.0248552914708853,0.0163440648466349,0.146393805742264,-0.00901793502271175,-0.0226234290748835
799,-0.0151485679671168,-0.0214382689446211,0.0213627591729164,0.122782945632935,-0.00394565518945456,-0.0240001678466797
800,-0.00804146658629179,-0.017421567812562,0.0267247632145882,0.08692666888237,0.00256874761544168,-0.0233677476644516
801,-0.00276437471620739,-0.0128041664138436,0.0295075308531523,0.0243931841105223,0.00613814778625965,-0.0212684404104948
802,-0.000641980383079499,-0.00826473720371723,0.0285675525665283,-0.0520515888929367,0.00496461009606719,-0.0179108884185553
803,-0.000811282894574106,-0.005660196300596,0.0252118445932865,-0.1184261739254,0.00141686585266143,-0.0139939123764634
804,-0.00195067084860057,-0.0063955020159483,0.021628238260746,-0.182802617549896,-0.00159352098125964,-0.0101325660943985
805,-0.00336979539133608,-0.00970984529703856,0.0195902269333601,-0.253345608711243,-0.00329877785407007,-0.00557038374245167
806,-0.00432015117257833,-0.0136039452627301,0.0198692753911018,-0.321205049753189,-0.00356198544614017,0.000408390449592844
807,-0.00349143543280661,-0.0160836037248373,0.0224506333470345,-0.382934153079987,-0.00149025360587984,0.00742982840165496
808,-0.000666586798615754,-0.0162765961140394,0.0265573393553495,-0.429767161607742,0.0029092631302774,0.0137594239786267
809,0.00204161601141095,-0.0158916693180799,0.0296163763850927,-0.449793308973312,0.00686820270493627,0.0159844793379307
810,0.00224964180961251,-0.0172704290598631,0.0289454571902752,-0.445733994245529,0.00767686078324914,0.0121386423707008
811,0.000265313923591748,-0.0202154237776995,0.0249884612858295,-0.437287092208862,0.00625509023666382,0.00435246201232076
812,-0.0024500482250005,-0.0234572980552912,0.0196828916668892,-0.440244615077972,0.00424393266439438,-0.00420537777245045
813,-0.00500817317515612,-0.0260867141187191,0.0136570557951927,-0.440511167049408,0.00181889650411904,-0.0115045346319675
814,-0.00596021953970194,-0.026604738086462,0.00735326530411839,-0.425274193286896,2.90194275294198E-05,-0.0155614698305726
815,-0.00517767947167158,-0.0249282959848642,0.00199241144582629,-0.409501254558563,-0.00041045926627703,-0.0156449377536774
816,-0.00507072871550918,-0.0240525919944048,-0.00213198992423713,-0.39901876449585,-0.00118668924551457,-0.0139039270579815
817,-0.00651901494711638,-0.0258369501680136,-0.00538273667916656,-0.380472272634506,-0.0026259608566761,-0.0125336311757565
818,-0.00704643270000815,-0.0276380889117718,-0.00686374958604574,-0.346461236476898,-0.00207273080013692,-0.0110913887619972
819,-0.00520978542044759,-0.0267868619412184,-0.00653654243797064,-0.303318232297897,0.00100091018248349,-0.00882231816649437
820,-0.00261553353630006,-0.0239913146942854,-0.00561312865465879,-0.267185866832733,0.00402188254520297,-0.00539533654227853
821,-0.00135701918043196,-0.0208976734429598,-0.00431387592107058,-0.253398030996323,0.0048226066865027,-0.000917063443921506
822,-0.00178922968916595,-0.0174116864800453,-0.00228546094149351,-0.265408843755722,0.00331213604658842,0.0031149520073086
823,-0.00231758574955165,-0.0128110991790891,0.000963850354310125,-0.296904027462006,0.00170771544799209,0.00538290152326226
824,-0.00262034893967211,-0.00895572453737259,0.00437051523476839,-0.338186115026474,0.00148049357812852,0.00471935514360666
825,-0.00387483066879213,-0.0079710753634572,0.00609587738290429,-0.377785712480545,0.00199821847490966,0.00130483810789883
826,-0.00520949391648173,-0.00921901594847441,0.00678985845297575,-0.402166068553925,0.00303584011271596,-0.00205055647529662
827,-0.00496758008375764,-0.0114525323733687,0.0080128675326705,-0.397580742835999,0.00482177129015327,-0.00356194516643882
828,-0.00308084720745683,-0.0135423773899674,0.0101309698075056,-0.365545958280563,0.00736367702484131,-0.00313077541068196
829,-5.55126462131739E-05,-0.0141697358340025,0.0126310847699642,-0.324984848499298,0.0109189599752426,-0.000659525801893324
830,0.00271324184723198,-0.0141514344140887,0.014120084233582,-0.2949598133564,0.0145169170573354,0.00188933243043721
831,0.00298560806550086,-0.0157125256955624,0.0137996943667531,-0.282223790884018,0.015601565130055,0.000977818621322513
832,0.000881985994055867,-0.0186188779771328,0.0128013296052814,-0.273079097270966,0.0137897841632366,-0.00317707122303545
833,-0.00196430878713727,-0.0215562954545021,0.0114520229399204,-0.249143943190575,0.0106383403763175,-0.00578056694939733
834,-0.0052680354565382,-0.0253498069941998,0.00850340630859137,-0.211906954646111,0.00629258947446942,-0.00467907916754484
835,-0.00805165711790323,-0.0303500965237617,0.0047571281902492,-0.178335085511208,0.00146727683022618,-0.00245749088935554
836,-0.00829701405018568,-0.0341570600867271,0.00322217238135636,-0.160284891724586,-0.00151336775161326,-0.000830174132715911
837,-0.00658216653391719,-0.0357981473207474,0.00441755075007677,-0.163405135273933,-0.00227162148803473,-0.00187126745004207
838,-0.00611382024362683,-0.0373090580105782,0.00556874414905906,-0.19515523314476,-0.00283079408109188,-0.00878121517598629
839,-0.0079693328589201,-0.0382611341774464,0.00542294420301914,-0.241363123059273,-0.00372806331142783,-0.0190322864800692
840,-0.00917383190244436,-0.0354330874979496,0.00582327740266919,-0.26218569278717,-0.00278162048198283,-0.0253453589975834
841,-0.00738765858113766,-0.0284322667866945,0.00781664997339249,-0.235232785344124,0.00063028180738911,-0.0230761617422104
842,-0.00509255519136786,-0.0202157702296972,0.00882587116211653,-0.17161750793457,0.00295666349120438,-0.0131223434582353
843,-0.00558827305212617,-0.0131769189611077,0.00623207353055477,-0.100930869579315,0.00171082140877843,0.000560366723220795
844,-0.00833924021571875,-0.00804203934967518,0.000953212846070528,-0.0436761379241943,-0.00101523287594318,0.0135413836687803
845,-0.0114975813776255,-0.00476598646491766,-0.00452909339219332,0.0006845350144431,-0.00231512193568051,0.0206594076007605
846,-0.013857620768249,-0.00251445733010769,-0.00790100730955601,0.0202409997582436,-0.000889369694050401,0.0190334096550941
847,-0.0137757947668433,0.000940812227781862,-0.00783877074718475,-0.00412544049322605,0.00330498325638473,0.0111330766230822
848,-0.0112004484981298,0.00745228631421924,-0.00611056527122855,-0.0597108788788319,0.0079885283485055,0.00314634386450052
849,-0.0086945490911603,0.0132110202684999,-0.00640841433778405,-0.113751851022244,0.00973066966980696,-0.000543694477528334
850,-0.00735097099095583,0.0132205141708255,-0.00857578217983246,-0.14166134595871,0.00892439763993025,-0.000530939199961722
851,-0.00658318400382996,0.00871809665113688,-0.00855055171996355,-0.134322002530098,0.00850548781454563,-0.000123393270769157
852,-0.00606649182736874,0.00360428588464856,-0.00408331863582134,-0.097526341676712,0.00995975639671087,-0.00157336879055947
853,-0.00468313414603472,0.000253754871664569,0.00309631205163896,-0.0507156513631344,0.0141336619853973,-0.00356596359051764
854,-0.0019216820364818,-0.00195901980623603,0.00898585841059685,-0.0155156012624502,0.02063212916255,-0.00488121761009097
855,0.00164345325902104,-0.00437796767801046,0.0118066556751728,-0.000142409888212569,0.0275398939847946,-0.00467559928074479
856,0.0059242881834507,-0.00565313128754497,0.0136174401268363,-0.00254492391832173,0.0331266298890114,0.00112962874118239
857,0.0100346822291613,-0.00454484904184937,0.0162039771676064,-0.0140907000750303,0.0365267060697079,0.0127795981243253
858,0.0128834592178464,-0.00161359924823046,0.0195909701287746,-0.0226872693747282,0.0386128276586533,0.0226065889000893
859,0.0154717927798629,0.00274126045405865,0.0239612869918346,-0.0221486762166023,0.0415806025266647,0.0246550645679235
860,0.0189129915088415,0.00799484644085169,0.0289059747010469,-0.0100900204852223,0.0459936633706093,0.0211230143904686
861,0.0226039662957191,0.012589699588716,0.0325225442647934,0.0102219767868519,0.0493206046521664,0.017413254827261
862,0.0254772249609232,0.0144391693174839,0.0332253538072109,0.0278999283909798,0.0491653829813004,0.0156640000641346
863,0.0269311759620905,0.0135035961866379,0.0314485132694244,0.0415928363800049,0.04599903896451,0.0161543879657984
864,0.027815617620945,0.0131087601184845,0.0292920637875795,0.0550493225455284,0.0423121638596058,0.0201920680701733
865,0.0292135700583458,0.0154575686901808,0.0280540511012077,0.0595211200416088,0.0402651503682137,0.0262397397309542
866,0.0292468760162592,0.0183209702372551,0.0268956143409014,0.0613458342850208,0.0394865572452545,0.0289293229579926
867,0.0249792132526636,0.0182962492108345,0.0236152410507202,0.0746477916836739,0.0372370108962059,0.0251215454190969
868,0.0179954525083303,0.0161465089768171,0.0176391713321209,0.0854933261871338,0.0323810540139675,0.0168532375246286
869,0.0133867841213942,0.0164177846163511,0.0125518292188644,0.0863452106714249,0.0287293419241905,0.010041756555438
870,0.01323052495718,0.0208860635757446,0.011997951194644,0.0875429958105087,0.030027724802494,0.0105356285348535
871,0.0162674561142921,0.0270829610526562,0.0156552623957396,0.0900930091738701,0.035097062587738,0.019232589751482
872,0.0204121991991997,0.03199303150177,0.0206834599375725,0.0917140021920204,0.0407404340803623,0.0310729257762432
873,0.0237110182642937,0.0356326438486576,0.0247983690351248,0.0888352990150452,0.0452391728758812,0.039910864084959
874,0.0262538902461529,0.0394366458058357,0.0278588067740202,0.0752171948552132,0.048388659954071,0.0435367301106453
875,0.0285051241517067,0.0414104983210564,0.0302746966481209,0.0435826852917671,0.0503849610686302,0.0427711568772793
876,0.0285037588328123,0.0389542356133461,0.0311964303255081,-0.0117484098300338,0.0507373213768005,0.0382759645581245
877,0.0251554194837809,0.0331579707562923,0.0297598801553249,-0.0771266669034958,0.0487151965498924,0.030055396258831
878,0.0213528200984001,0.0279685072600842,0.02677514962852,-0.129931479692459,0.045891422778368,0.0203637108206749
879,0.0193199533969164,0.0258126631379128,0.0236202701926231,-0.162421017885208,0.0442169606685638,0.0127733759582043
880,0.0175691675394773,0.0250840950757265,0.0211246162652969,-0.178462028503418,0.0432648882269859,0.00782105978578329
881,0.0149106597527862,0.0234742350876331,0.020127184689045,-0.184356793761253,0.0427367500960827,0.00478890957310796
882,0.0118061564862728,0.0200022254139185,0.0205702390521765,-0.17355965077877,0.0430841743946075,0.00337864877656102
883,0.00955064781010151,0.0151676228269935,0.0212294049561024,-0.130516365170479,0.0451935157179832,0.00278168777003884
884,0.0103835249319673,0.0119189182296395,0.0220447368919849,-0.0600276328623295,0.0506245568394661,0.00358060700818896
885,0.0150107219815254,0.0135461669415236,0.0231307037174702,0.0169676281511784,0.0581788867712021,0.00703499652445316
886,0.0208337288349867,0.0182746704667807,0.0216819811612368,0.083735816180706,0.0622281059622765,0.0110090235248208
887,0.0250949449837208,0.0207423530519009,0.0150118293240666,0.128442242741585,0.058481503278017,0.0123443705961108
888,0.0267149731516838,0.0193517114967108,0.00453970208764076,0.145971134305,0.0489347837865353,0.0116461776196957
889,0.0253650099039078,0.0163379367440939,-0.00597133301198483,0.137740299105644,0.0387832447886467,0.00985561311244965
890,0.0228675957769156,0.0139846326783299,-0.0127372201532125,0.110584892332554,0.032391831278801,0.00717689748853445
891,0.0212185233831406,0.0122373718768358,-0.0143390167504549,0.0804163962602615,0.0303554888814688,0.00403400277718902
892,0.0204126499593258,0.0102234967052937,-0.0127939144149423,0.0606018863618374,0.0297238230705261,-0.000169906285009347
893,0.020349595695734,0.00913734268397093,-0.0106465239077806,0.0539883635938168,0.0287484284490347,-0.00471067475154996
894,0.0207762755453587,0.00982861872762442,-0.00948125217109919,0.0615653395652771,0.0273838844150305,-0.00727985613048077
895,0.0201609674841166,0.0108893839642406,-0.0106818275526166,0.0815341845154762,0.0238431710749865,-0.00697086751461029
896,0.0176142789423466,0.0112077640369534,-0.0131951114162803,0.103539764881134,0.0167505871504545,-0.00499507784843445
897,0.0140659771859646,0.0112831201404333,-0.0138449436053634,0.114364668726921,0.00842525437474251,-0.00334134185686708
898,0.0101885488256812,0.01150793582201,-0.0127545585855842,0.110000506043434,0.00152157316915691,-0.00333424773998559
899,0.00640560220927,0.0122173558920622,-0.0122610041871667,0.099248044192791,-0.00313344527967274,-0.00387169956229627
900,0.00395198026672006,0.0137700960040092,-0.0115188546478748,0.0970229282975197,-0.00514426594600081,-0.00238281255587935
901,0.00408725719898939,0.0157234370708466,-0.00755262142047286,0.111534804105759,-0.0043359980918467,0.00197052164003253
902,0.0072233434766531,0.0178118832409382,-0.000165068675414659,0.142500758171082,-0.00112362008076161,0.00759695889428258
903,0.0119779873639345,0.0197798609733582,0.00681059807538986,0.182289853692055,0.0029455223120749,0.0130554735660553
904,0.0163729470223188,0.0205015856772661,0.0103449691087008,0.209989622235298,0.00678154220804572,0.0176145602017641
905,0.0205028709024191,0.0187889412045479,0.0116445263847709,0.210451602935791,0.0112272324040532,0.0192861966788769
906,0.025596110150218,0.0154001927003264,0.0125844525173306,0.189485400915146,0.0163372345268726,0.0170104131102562
907,0.0317734591662884,0.0128551013767719,0.0133906742557883,0.163556024432182,0.020916910842061,0.0123359132558107
908,0.0367528945207596,0.0114124994724989,0.0123014766722918,0.149390295147896,0.0231493674218655,0.00528640951961279
909,0.0377331785857677,0.00948286522179842,0.0067573944106698,0.151023611426353,0.0213658828288317,-0.00537694059312344
910,0.0347961708903313,0.0072155324742198,-0.00242088525556028,0.160351634025574,0.0164012052118778,-0.0168699622154236
911,0.0299964603036642,0.00721523258835077,-0.0113084623590112,0.168804213404655,0.0106616159901023,-0.0236877109855413
912,0.0246997270733118,0.0106854913756251,-0.0169265903532505,0.166022196412086,0.00591072207316756,-0.0230106767266989
913,0.0197646580636501,0.0144553603604436,-0.0189901702105999,0.147270634770393,0.00279453489929438,-0.0155996754765511
914,0.0169685166329145,0.0167850963771343,-0.0186324529349804,0.121467784047127,0.00134812423493713,-0.00398833910003304
915,0.0169769078493118,0.0192395281046629,-0.0178264938294888,0.101870678365231,0.000142930046422407,0.00747973006218672
916,0.0187512710690498,0.023140162229538,-0.0178485382348299,0.0981789156794548,-0.00176152063068002,0.0150539446622133
917,0.021164633333683,0.0277294386178255,-0.0184045899659395,0.122608192265034,-0.00292658503167331,0.0175252296030521
918,0.0233656689524651,0.0308528058230877,-0.0191414784640074,0.172854244709015,-0.00274839671328664,0.0148020917549729
919,0.0257315281778574,0.0321702472865582,-0.0192731898277998,0.220774114131927,-0.00158461672253907,0.00939325988292694
920,0.0280947964638472,0.0313445553183556,-0.0188018847256899,0.251980304718018,6.44526808173396E-05,0.00407550856471062
921,0.0295374151319265,0.0277843046933413,-0.0191501472145319,0.271080583333969,0.000962514721322805,-0.00149158388376236
922,0.0310005117207766,0.0246793050318956,-0.020106228068471,0.279693394899368,0.00103173905517906,-0.00589384511113167
923,0.0337229110300541,0.0260891411453485,-0.0199969559907913,0.27963200211525,0.00140473514329642,-0.00522142648696899
924,0.0366137698292732,0.03122135438025,-0.019464397802949,0.27376800775528,0.00179854861926287,-0.000571478507481515
925,0.0381078869104385,0.03627834841609,-0.0199521817266941,0.259599775075912,0.00183226238004863,0.0036559549625963
926,0.0389886423945427,0.0385233908891678,-0.0203437600284815,0.23847933113575,0.0036008832976222,0.00696317246183753
927,0.0401224046945572,0.0358490087091923,-0.0197200998663902,0.222281977534294,0.00800629425793886,0.00810113269835711
928,0.0402216129004955,0.0282875709235668,-0.0196613185107708,0.218992993235588,0.0118937706574798,0.0032946546562016
929,0.0383649207651615,0.0193832069635391,-0.0217153429985046,0.221177220344543,0.012077777646482,-0.00641567353159189
930,0.0354110971093178,0.0140741942450404,-0.0253135804086924,0.212265610694885,0.00891100335866213,-0.0159920025616884
931,0.0322671718895435,0.0165744014084339,-0.0290826410055161,0.197179317474365,0.00475485809147358,-0.0213548615574837
932,0.0288969520479441,0.0247028898447752,-0.031737107783556,0.192293405532837,0.0014843869721517,-0.0208807624876499
933,0.0256207715719938,0.0300753582268953,-0.0322892293334007,0.181391388177872,0.000338224606821314,-0.0167144648730755
934,0.0224903170019388,0.0278697982430458,-0.0316656976938248,0.146649062633514,0.000712357868906111,-0.0138181792572141
935,0.0182506274431944,0.020575862377882,-0.0316779464483261,0.106929756700993,-0.00014430696319323,-0.0154800321906805
936,0.0140687702223659,0.0139039857313037,-0.0318866036832333,0.0847541391849518,-0.00272055272944272,-0.0206416193395853
937,0.0129325417801738,0.0106914760544896,-0.0309102945029736,0.0822274312376976,-0.00503764161840081,-0.0264830589294434
938,0.0147685809060931,0.00993797369301319,-0.029088145121932,0.0919900313019753,-0.00613514333963394,-0.0312995426356792
939,0.0177064053714275,0.0104019176214933,-0.0272587332874537,0.10568293184042,-0.00600932072848082,-0.0330063477158546
940,0.0209503285586834,0.0106938425451517,-0.0260566305369139,0.120348140597343,-0.00571808544918895,-0.0295939203351736
941,0.0233473796397448,0.00910878088325262,-0.0260460376739502,0.135848492383957,-0.006807800848037,-0.0234448537230492
942,0.023101232945919,0.00536890653893352,-0.0266895461827517,0.142495572566986,-0.00894811190664768,-0.0192207507789135
943,0.0211065765470266,0.00186458963435143,-0.0267001185566187,0.12508998811245,-0.00979298911988735,-0.0180114153772593
944,0.0200717598199844,0.00133003399241716,-0.0259429793804884,0.0803804248571396,-0.00787361897528172,-0.0184614080935717
945,0.0202629081904888,0.0025577861815691,-0.0257096029818058,0.0326292812824249,-0.00501427613198757,-0.0196961481124163
946,0.0200232248753309,0.00295674591325223,-0.0267917010933161,0.0177871659398079,-0.00430055102333426,-0.0202604401856661
947,0.0189668722450733,0.00362894753925502,-0.0284835025668144,0.0402926281094551,-0.00594293093308806,-0.0179056972265244
948,0.0183773040771484,0.00567635893821716,-0.0295994319021702,0.0671253055334091,-0.0074286088347435,-0.0133808124810457
949,0.0181993413716555,0.00581008242443204,-0.0302987042814493,0.0762764438986778,-0.00801809132099152,-0.0115342102944851
950,0.0170227345079184,0.00239955424331129,-0.0311507023870945,0.0804485157132149,-0.00883367192000151,-0.0141950882971287
951,0.0150670437142253,-0.00129431579262018,-0.032124474644661,0.0901161208748817,-0.0100008649751544,-0.0177966877818108
952,0.0139886932447553,-0.00261852890253067,-0.032230693846941,0.100356474518776,-0.00948224496096373,-0.0176520682871342
953,0.0148992352187634,-0.00147385476157069,-0.0295828338712454,0.108655899763107,-0.00463795615360141,-0.0109621845185757
954,0.0158635079860687,0.000411777466069907,-0.0255093313753605,0.115069396793842,0.00207366049289703,-0.00266258837655187
955,0.0140620162710547,0.000433434470323846,-0.0235647559165955,0.117129638791084,0.00535869039595127,-0.00222543277777731
956,0.00963013339787722,-0.002951750298962,-0.0247778426855803,0.111606895923615,0.00432952446863055,-0.0118426196277142
957,0.00444505363702774,-0.00738070672377944,-0.0278298612684011,0.0982834473252296,0.00152349658310413,-0.0259889736771584
958,0.000690356595441699,-0.00647081946954131,-0.0304983537644148,0.0812924057245255,-0.000318030564812943,-0.0372907370328903
959,0.000269206590019166,0.00217200326733291,-0.0307922642678022,0.0690641924738884,0.00075607787584886,-0.0396986901760101
960,0.00288056535646319,0.0120754819363356,-0.0290379393845797,0.0698082447052002,0.00340948393568397,-0.0328176990151405
961,0.00597102846950293,0.0157861895859241,-0.028291791677475,0.0833221524953842,0.00363315059803426,-0.0216906014829874
962,0.00784024316817522,0.012857154943049,-0.0305326450616121,0.0984999984502792,0.000494170177262276,-0.0113798333331943
963,0.00898216105997562,0.00733182206749916,-0.0335769578814507,0.10300312936306,-0.00275515601970255,-0.00488624349236488
964,0.0108769750222564,0.00192115048412234,-0.0339999906718731,0.0933249220252037,-0.00287135108374059,-0.00374709232710302
965,0.0130963046103716,-0.00345753622241318,-0.0316747240722179,0.0734356716275215,-0.000785272219218314,-0.0088345855474472
966,0.0139313545078039,-0.00870930030941963,-0.0279597919434309,0.0520561337471008,0.000454406428616494,-0.0173290874809027
967,0.0142658874392509,-0.0115759698674083,-0.0227413978427649,0.0389939956367016,0.00104103703051806,-0.0220964103937149
968,0.0143248019739985,-0.0114738075062633,-0.0183187369257212,0.0371602140367031,0.000976610346697271,-0.0206005405634642
969,0.0114958398044109,-0.0112561043351889,-0.0191961862146854,0.0395161733031273,-0.00248658307828009,-0.0177040528506041
970,0.00544742401689291,-0.0127365458756685,-0.0253794454038143,0.0375089533627033,-0.00935321487486362,-0.0177477411925793
971,-0.00102165061980486,-0.0155918132513762,-0.0321853570640087,0.0313342660665512,-0.0158122964203358,-0.0207537189126015
972,-0.00543868588283658,-0.0193256679922342,-0.0356276854872704,0.0299434848129749,-0.0190614443272352,-0.0255388505756855
973,-0.00702082924544811,-0.023174500092864,-0.0352886021137238,0.0373190268874168,-0.0193717982620001,-0.0309141464531422
974,-0.00594481313601136,-0.0254585146903992,-0.0329260639846325,0.0403233841061592,-0.0181085877120495,-0.0341477505862713
975,-0.00347290351055563,-0.0250837635248899,-0.0310108568519354,0.0280366912484169,-0.016932999715209,-0.0351304784417152
976,-0.00117395259439945,-0.0222773253917694,-0.031163077801466,0.0140881882980466,-0.0164426695555449,-0.0370500162243843
977,0.000833236030302942,-0.0169211626052856,-0.0322428792715073,0.0130886835977435,-0.0159948598593473,-0.0389974303543568
978,0.00185541459359229,-0.0104652876034379,-0.032485157251358,0.0162775572389364,-0.0168340131640434,-0.0386864393949509
979,0.000355359254172072,-0.00613325042650104,-0.0309295020997524,0.00788286700844765,-0.0194437820464373,-0.0385433658957481
980,-0.0029954647179693,-0.00322094466537237,-0.0268475115299225,-0.0152082983404398,-0.020768815651536,-0.0405339933931828
981,-0.00646884273737669,0.00044752485700883,-0.0219123158603907,-0.039177592843771,-0.0195320881903172,-0.0422115363180637
982,-0.00990534480661154,0.0019799517467618,-0.0200513936579227,-0.050261989235878,-0.0186643991619349,-0.0409022383391857
983,-0.0139454724267125,-0.00168731005396694,-0.0231674574315548,-0.0449051670730114,-0.02085917070508,-0.0381516702473164
984,-0.018394960090518,-0.00873085483908653,-0.028495118021965,-0.0176228154450655,-0.025450412184,-0.0369438156485558
985,-0.0227538086473942,-0.0169616136699915,-0.0320682376623154,0.0329769216477871,-0.0306066833436489,-0.0367869101464748
986,-0.0271457657217979,-0.026246540248394,-0.0328559279441834,0.0941044613718987,-0.0353314653038979,-0.0358435213565826
987,-0.0307631231844425,-0.0345914624631405,-0.0304098892956972,0.148810967803001,-0.0377740189433098,-0.0338179580867291
988,-0.0332231856882572,-0.0399000309407711,-0.0257617421448231,0.177085489034653,-0.0379787497222424,-0.0334155820310116
989,-0.0361688211560249,-0.0437156669795513,-0.0233329944312572,0.16999226808548,-0.0395341441035271,-0.0385832637548447
990,-0.0391435883939266,-0.0466797463595867,-0.0249131619930267,0.14486888051033,-0.0430467203259468,-0.047974731773138
991,-0.0391656942665577,-0.0457788072526455,-0.0282472278922796,0.117171555757523,-0.0456375367939472,-0.0547447800636292
992,-0.034761406481266,-0.0390439666807652,-0.0317645855247974,0.0904145538806915,-0.0462849028408527,-0.0529447048902512
993,-0.0275856945663691,-0.0294542964547873,-0.0351735129952431,0.0709093064069748,-0.0455238558351994,-0.0431398153305054
994,-0.020180394873023,-0.0210099350661039,-0.0370551943778992,0.0571340098977089,-0.0428668931126595,-0.0308257918804884
995,-0.0131183639168739,-0.0139117818325758,-0.0355898439884186,0.0354827120900154,-0.0379233099520206,-0.0203310716897249
996,-0.00707931304350495,-0.00720518035814166,-0.0313530378043652,0.0164491571485996,-0.032485093921423,-0.0139035731554031
997,-0.00396141037344933,-0.00172072788700461,-0.0273621659725904,0.0292299725115299,-0.0292463656514883,-0.0126470765098929
998,-0.00384937832131982,0.000446523394202814,-0.0265042372047901,0.0737185627222061,-0.0287463907152414,-0.0165089890360832
999,-0.00557260727509856,-0.00254638330079615,-0.0282633192837238,0.120786473155022,-0.0291191767901182,-0.0237684845924377
1000,-0.00967530533671379,-0.010052596218884,-0.0304112285375595,0.14960865676403,-0.0305577460676432,-0.0305493660271168
1001,-0.0160983856767416,-0.0168139226734638,-0.0318846888840199,0.170496165752411,-0.0345520712435246,-0.0322116948664188
1002,-0.0221502743661404,-0.0189285613596439,-0.0320318229496479,0.201731279492378,-0.0395657606422901,-0.0272875130176544
1003,-0.0257343426346779,-0.0196868870407343,-0.0309257507324219,0.241864994168282,-0.0435780137777328,-0.0190097503364086
