,AF3,AF4,Fp1,Fp2,AF7,AF8
0,-0.0491229481995106,0.0400812216103077,-0.0526201762259007,-0.102830849587917,-0.0314481928944588,-0.0046274084597826
1,-0.0526192635297775,0.0392305962741375,-0.0587205663323402,-0.104684822261333,-0.0362597666680813,-0.00486888270825148
2,-0.054730761796236,0.0391799621284008,-0.0647824332118034,-0.106528498232365,-0.038592167198658,-0.00545836286619306
3,-0.0553093366324902,0.03961231559515,-0.0702819526195526,-0.108988367021084,-0.0386669486761093,-0.00582900177687407
4,-0.0551816150546074,0.0394407548010349,-0.0751174241304398,-0.111907206475735,-0.0389752388000488,-0.00633508805185556
5,-0.0549251101911068,0.0382772125303745,-0.0784282088279724,-0.11441146582365,-0.0409581921994686,-0.00774089619517326
6,-0.0550976805388927,0.0360415317118168,-0.0791486352682114,-0.11632975935936,-0.0443092361092567,-0.0108782015740871
7,-0.055952612310648,0.0331842601299286,-0.077629566192627,-0.117446571588516,-0.0483949072659016,-0.0153771098703146
8,-0.0574272163212299,0.0303430892527103,-0.0756408199667931,-0.117535643279552,-0.0525459796190262,-0.0198691505938768
9,-0.0585897006094456,0.0279951766133308,-0.0741302147507668,-0.117110915482044,-0.054678026586771,-0.023573437705636
10,-0.0580457448959351,0.0266548879444599,-0.0733082443475723,-0.11700864136219,-0.0527847781777382,-0.0264408830553293
11,-0.0557510443031788,0.0259175039827824,-0.0736755654215813,-0.117687955498695,-0.0481945760548115,-0.0286061316728592
12,-0.0526311881840229,0.0251150876283646,-0.0746659189462662,-0.118368953466415,-0.0436533689498901,-0.029452221468091
13,-0.0494613759219646,0.0245234724134207,-0.0745912343263626,-0.117480099201202,-0.0402442552149296,-0.0282413829118013
14,-0.0466324687004089,0.0244841706007719,-0.0728880167007446,-0.114668138325214,-0.0379398949444294,-0.0256752278655767
15,-0.0444721430540085,0.024921678006649,-0.0702722668647766,-0.111416034400463,-0.0366042628884315,-0.0234810039401054
16,-0.0434762500226498,0.0257983040064573,-0.0671277940273285,-0.109457321465015,-0.0361506827175617,-0.0228841230273247
17,-0.0435133501887321,0.0273421835154295,-0.0636653900146484,-0.109170906245708,-0.036178931593895,-0.0229733120650053
18,-0.0443310290575027,0.0296258870512247,-0.0608604960143566,-0.110058426856995,-0.0363784283399582,-0.0218815505504608
19,-0.0453971102833748,0.0325330384075642,-0.0590239353477955,-0.111122742295265,-0.0363595150411129,-0.019203320145607
20,-0.0452437773346901,0.0358065515756607,-0.0573226623237133,-0.11112355440855,-0.0355228893458843,-0.0160461384803057
21,-0.0433048158884048,0.0386678017675877,-0.0557778961956501,-0.110133826732636,-0.0345368534326553,-0.0139883132651448
22,-0.0404980257153511,0.0401691347360611,-0.0553296804428101,-0.109474338591099,-0.0345136635005474,-0.0136943887919188
23,-0.0376320295035839,0.0398597903549671,-0.0561550557613373,-0.109718516469002,-0.0351132825016975,-0.0143143208697438
24,-0.035146202892065,0.0387460850179195,-0.0573405511677265,-0.110422067344189,-0.0360713824629784,-0.0149221168830991
25,-0.0339506268501282,0.0383766032755375,-0.0583668872714043,-0.111727677285671,-0.0383716896176338,-0.0161578077822924
26,-0.0348422974348068,0.0386971868574619,-0.0597400069236755,-0.113764993846416,-0.041999313980341,-0.0188350155949593
27,-0.0369642227888107,0.0390151254832745,-0.0615721046924591,-0.114976294338703,-0.0449266955256462,-0.0220890678465366
28,-0.0382081307470798,0.0391655415296555,-0.0628147944808006,-0.113766029477119,-0.0451119765639305,-0.0251816175878048
29,-0.0380208045244217,0.0386507920920849,-0.0626602470874786,-0.111188262701035,-0.0431790426373482,-0.0290603954344988
30,-0.0367404371500015,0.037616603076458,-0.0608518980443478,-0.109276577830315,-0.0410419590771198,-0.0333682373166084
31,-0.0341040156781673,0.0373386144638062,-0.0581440329551697,-0.108644261956215,-0.039462748914957,-0.035382192581892
32,-0.0308721661567688,0.0381684564054012,-0.0570141188800335,-0.109096623957157,-0.038981918245554,-0.033943273127079
33,-0.027414184063673,0.0396344475448132,-0.0581035278737545,-0.110052801668644,-0.0390287004411221,-0.0299845281988382
34,-0.0236936174333096,0.0409649722278118,-0.0601109638810158,-0.11130440980196,-0.0386047698557377,-0.0254066325724125
35,-0.0210009273141623,0.041274182498455,-0.0629006028175354,-0.112299248576164,-0.0384425930678844,-0.0222747307270765
36,-0.0198126845061779,0.0408173240721226,-0.0662269368767738,-0.111656375229359,-0.0389827564358711,-0.0206898041069508
37,-0.0201471764594316,0.039734311401844,-0.0697039812803268,-0.110427707433701,-0.0397603176534176,-0.0206148754805326
38,-0.0224378313869238,0.0373906865715981,-0.0732761099934578,-0.1107217669487,-0.0407633371651173,-0.0226739905774593
39,-0.025098780170083,0.0346538051962852,-0.0758005231618881,-0.111147351562977,-0.041627936065197,-0.0253993552178144
40,-0.0256315190345049,0.0335458070039749,-0.0762351751327515,-0.109094575047493,-0.0413200818002224,-0.0262499824166298
41,-0.0241007562726736,0.0339481085538864,-0.0752130374312401,-0.105240821838379,-0.03995306417346,-0.0251096282154322
42,-0.0223543606698513,0.0338551476597786,-0.0732996761798859,-0.102026619017124,-0.0388424247503281,-0.0238528847694397
43,-0.020962281152606,0.0326273217797279,-0.06980100274086,-0.0998596921563149,-0.0384452864527702,-0.0233278945088387
44,-0.0193702485412359,0.0311227906495333,-0.0645821988582611,-0.0979333743453026,-0.0384927913546562,-0.0236668456345797
45,-0.0169853493571281,0.0303613338619471,-0.0580124445259571,-0.0958963334560394,-0.0386706851422787,-0.0246957875788212
46,-0.0135744316503406,0.0309555381536484,-0.0500205457210541,-0.0931688547134399,-0.0384972169995308,-0.0251262914389372
47,-0.010320401750505,0.0326689220964909,-0.0414600521326065,-0.0896288305521011,-0.0383338630199432,-0.024371488019824
48,-0.00915610231459141,0.0347604490816593,-0.0346549563109875,-0.0864364504814148,-0.0395679362118244,-0.0233071055263281
49,-0.0111772213131189,0.0359538160264492,-0.0325224623084068,-0.0848303213715553,-0.0430633947253227,-0.0229316484183073
50,-0.015436889603734,0.0355341993272305,-0.0360022708773613,-0.0848581418395042,-0.0477361790835857,-0.0233561564236879
51,-0.0196539666503668,0.0347106978297234,-0.0426273606717587,-0.0857594534754753,-0.0514633804559708,-0.0240144245326519
52,-0.0225590281188488,0.0347315929830074,-0.0490917265415192,-0.0869615450501442,-0.0529557913541794,-0.0248735584318638
53,-0.0240882840007544,0.0357151590287685,-0.053614042699337,-0.0878788158297539,-0.052292987704277,-0.0259089656174183
54,-0.0246888864785433,0.0372431986033916,-0.0562142059206963,-0.0875897482037544,-0.0507997535169125,-0.0268612559884787
55,-0.0242498777806759,0.0390002653002739,-0.0569860488176346,-0.0852826833724976,-0.0492606833577156,-0.0274608060717583
56,-0.0219017323106527,0.0408915467560291,-0.0550737865269184,-0.0809759944677353,-0.0472403094172478,-0.0270853005349636
57,-0.0175206679850817,0.0424952395260334,-0.0499350056052208,-0.0754605382680893,-0.0442802868783474,-0.0260285809636116
58,-0.0119640557095408,0.0439904220402241,-0.0422367565333843,-0.0692575499415398,-0.0401415042579174,-0.0250997561961412
59,-0.00717214262112975,0.0457775108516216,-0.0345603674650192,-0.0634026601910591,-0.0357467979192734,-0.0249045602977276
60,-0.00505316583439708,0.0471452139317989,-0.0302752461284399,-0.0602113790810108,-0.0326818563044071,-0.0262761060148478
61,-0.00541732646524906,0.0471707098186016,-0.0302238576114178,-0.0607890635728836,-0.0313151329755783,-0.0292705316096544
62,-0.00687302183359861,0.0456533953547478,-0.0325065813958645,-0.0634389966726303,-0.0310401599854231,-0.0330974385142326
63,-0.00849104207009077,0.0433690473437309,-0.0355585999786854,-0.0657595917582512,-0.0311187040060759,-0.0365890376269817
64,-0.00943229533731937,0.0415205210447311,-0.0388378612697124,-0.0664340928196907,-0.0310876965522766,-0.0389316231012344
65,-0.00927741825580597,0.0400537401437759,-0.0416366457939148,-0.0653406828641891,-0.0310666337609291,-0.0412048399448395
66,-0.009149887599051,0.03791394084692,-0.0439590811729431,-0.0635920166969299,-0.0317165516316891,-0.0449596643447876
67,-0.0100704990327358,0.0352338664233685,-0.0462386086583138,-0.0619059838354588,-0.0332944430410862,-0.0491964444518089
68,-0.0115905627608299,0.0331015959382057,-0.0478446297347546,-0.059890653938055,-0.035370659083128,-0.0516173429787159
69,-0.0132455276325345,0.0319303423166275,-0.0483995974063873,-0.0577397085726261,-0.0380512252449989,-0.0516193322837353
70,-0.0148755786940455,0.0314994789659977,-0.0485930740833282,-0.0563665516674519,-0.0411608181893826,-0.0500812567770481
71,-0.0163838267326355,0.0307264383882284,-0.0494851879775524,-0.0565207004547119,-0.0439347997307777,-0.0488663911819458
72,-0.0173378679901361,0.0294246803969145,-0.0511577352881432,-0.0574705861508846,-0.0458797998726368,-0.0487926192581654
73,-0.0166390761733055,0.0294423941522837,-0.0519458204507828,-0.0576483644545078,-0.046274408698082,-0.0479740016162395
74,-0.0142624657601118,0.0309413578361273,-0.0508140362799168,-0.0573454536497593,-0.0452089309692383,-0.0452823527157307
75,-0.0111589143052697,0.0317758992314339,-0.0479549318552017,-0.0575451254844666,-0.0433594100177288,-0.0417641215026379
76,-0.00688408175483346,0.03145906701684,-0.0428261458873749,-0.0570661686360836,-0.0398734323680401,-0.038310382515192
77,-0.000647540844511241,0.0319746397435665,-0.0356305204331875,-0.0544530265033245,-0.0341502763330936,-0.0351608470082283
78,0.00543547421693802,0.0340040326118469,-0.0291807148605585,-0.0512916631996632,-0.0287803541868925,-0.0331997610628605
79,0.00846136640757322,0.0361803285777569,-0.0256486162543297,-0.0496483854949474,-0.0265746992081404,-0.0329205989837646
80,0.0082758879289031,0.037747036665678,-0.0244941264390945,-0.0487367175519466,-0.0271630585193634,-0.0332152917981148
81,0.00653534103184938,0.0389994755387306,-0.0240335650742054,-0.0465672239661217,-0.0282353162765503,-0.0330516323447227
82,0.00467134499922395,0.0402046591043472,-0.0229240749031305,-0.0426044873893261,-0.0280445758253336,-0.0327382758259773
83,0.0033655499573797,0.0415222682058811,-0.021555969491601,-0.037694089114666,-0.0270339008420706,-0.0327196791768074
84,0.00295943603850901,0.0426281429827213,-0.0214334931224585,-0.032973513007164,-0.026540607213974,-0.032863799482584
85,0.00359841366298497,0.0424712896347046,-0.0223902892321348,-0.0297985728830099,-0.0264228191226721,-0.0334050133824348
86,0.00505018653348088,0.0410588718950748,-0.0222919192165136,-0.0288285426795483,-0.0258586667478085,-0.0345299355685711
87,0.00679768435657024,0.0395808666944504,-0.0195506531745195,-0.0287473686039448,-0.0246573034673929,-0.0358333364129066
88,0.00846431870013475,0.0391241870820522,-0.0145623357966542,-0.0276135355234146,-0.0222553033381701,-0.0365359634160995
89,0.00922713801264763,0.039638165384531,-0.00969444960355759,-0.0258655287325382,-0.0185874681919813,-0.0367077402770519
90,0.00899168010801077,0.040371235460043,-0.00672212895005941,-0.0247024428099394,-0.0141692953184247,-0.0375867001712322
91,0.0096397502347827,0.0416026450693607,-0.00510671595111489,-0.0230822805315256,-0.00904203113168478,-0.0398474112153053
92,0.0121501479297876,0.043482668697834,-0.00360901560634375,-0.0202257838100195,-0.00422761356458068,-0.0432945489883423
93,0.0153156900778413,0.044900331646204,-0.00152362452354282,-0.0176961980760098,-0.00110196531750262,-0.0471824966371059
94,0.017648734152317,0.0450607314705849,0.00105929188430309,-0.0169067084789276,0.000235569837968796,-0.0504200346767902
95,0.018718084320426,0.0447068475186825,0.00406214641407132,-0.016923313960433,0.000644616375211626,-0.0516407787799835
96,0.0187032856047153,0.0448932163417339,0.00711640436202288,-0.0166411511600018,0.000876175239682198,-0.0501877814531326
97,0.0178785175085068,0.0453496873378754,0.00909085851162672,-0.0166591927409172,0.00115104392170906,-0.0474842675030231
98,0.0169988162815571,0.0451762229204178,0.00957063306123018,-0.0176246259361506,0.00126387574709952,-0.0454215072095394
99,0.017005417495966,0.0445051640272141,0.00918726623058319,-0.0190928727388382,0.000524848990608007,-0.0439012162387371
100,0.0183627661317587,0.0443429090082645,0.00845715217292309,-0.0194101706147194,-0.00103854306507856,-0.0417675971984863
101,0.0205154195427895,0.045014314353466,0.00712922913953662,-0.0168127678334713,-0.00233335932716727,-0.0392095856368542
102,0.0226876735687256,0.0461440905928612,0.00525943236425519,-0.0117452330887318,-0.00203463272191584,-0.0371957346796989
103,0.0245714113116264,0.0471850410103798,0.00348715810105205,-0.00694258697330952,0.00045622800826095,-0.0363712422549725
104,0.0259095672518015,0.0478754080832005,0.0022312302608043,-0.00409158365800977,0.00430235266685486,-0.0365960225462914
105,0.026372853666544,0.0481997579336166,0.00145165505819023,-0.00264731445349753,0.00796854868531227,-0.0374179743230343
106,0.0258917808532715,0.0478016957640648,0.000683404563460499,-0.00196731649339199,0.0105963265523314,-0.0388022176921368
107,0.0249359160661697,0.0466456636786461,0.000299036939395592,-0.00138166185934097,0.012516014277935,-0.0397771000862122
108,0.0238291565328836,0.0453845597803593,0.00155225477647036,0.000222538787056692,0.0137814627960324,-0.0388500392436981
109,0.0221834667026997,0.0443464554846287,0.00489863660186529,0.00330415391363204,0.0131870768964291,-0.0365652143955231
110,0.0198257118463516,0.0429638549685478,0.00988460704684258,0.00745182484388351,0.00999335199594498,-0.0353439003229141
111,0.0175617691129446,0.0408030152320862,0.0152258854359388,0.0118710556998849,0.0051101497374475,-0.0360557846724987
112,0.0163411367684603,0.0379467979073524,0.0189574677497149,0.0157000161707401,5.84220615564846E-05,-0.037273645401001
113,0.0170188434422016,0.0348097383975983,0.0205840058624744,0.018895260989666,-0.00321564450860024,-0.0376661904156208
114,0.0194640997797251,0.0319569893181324,0.0206907857209444,0.021382624283433,-0.00379220093600452,-0.0372366160154343
115,0.0224780105054379,0.0297436770051718,0.0195524822920561,0.0222213473170996,-0.00239437376148999,-0.0370541997253895
116,0.0252316147089005,0.0284329727292061,0.0177745129913092,0.0214863382279873,0.000266244023805484,-0.0376954115927219
117,0.0264440216124058,0.027584495022893,0.0150935677811503,0.0204290840774775,0.0023555108346045,-0.0387778356671333
118,0.0255400445312262,0.0263636410236359,0.0109696891158819,0.0202896539121866,0.00221824250184,-0.0400029309093952
119,0.0241306703537703,0.024992223829031,0.00672120088711381,0.022384375333786,0.00108141184318811,-0.0407162606716156
120,0.0237333495169878,0.0245515592396259,0.00408118171617389,0.027923671528697,0.000969804474152625,-0.0394977778196335
121,0.0249847080558538,0.0258092079311609,0.00384984281845391,0.0365330763161182,0.00259786820970476,-0.036121591925621
122,0.027754032984376,0.0282568000257015,0.00566986575722694,0.0454267002642155,0.00511011434718966,-0.0325344838202
123,0.0311078634113073,0.0303895305842161,0.00785482581704855,0.0517838671803474,0.00724004954099655,-0.0307088773697615
124,0.0342733599245548,0.0308863520622253,0.00835645850747824,0.0549564436078072,0.00876434706151485,-0.0313752219080925
125,0.036548376083374,0.0289453417062759,0.00665546394884586,0.0557308122515678,0.00944385770708323,-0.0343113094568253
126,0.0374438315629959,0.0249145738780499,0.00461751827970147,0.0552129596471787,0.00850610062479973,-0.0379420183598995
127,0.0370267368853092,0.0202506091445684,0.00413269689306617,0.0541088618338108,0.00615442031994462,-0.0404793061316013
128,0.0358632914721966,0.016172256320715,0.00575894443318248,0.0524724945425987,0.00411573564633727,-0.0416797772049904
129,0.0345868356525898,0.0136668886989355,0.00915712770074606,0.0501438714563847,0.00332095287740231,-0.0418307296931744
130,0.0333918444812298,0.0136017203330994,0.0132662961259484,0.0473959259688854,0.00308616762049496,-0.0406795181334019
131,0.0323395878076553,0.0156338829547167,0.017652215436101,0.0446385480463505,0.00297589134424925,-0.0386060550808907
132,0.0319653116166592,0.0185071192681789,0.0228658635169268,0.0426093935966492,0.0033260767813772,-0.0364632345736027
133,0.0330078229308128,0.0212103817611933,0.0290107969194651,0.0428128316998482,0.00462611205875874,-0.0344600975513458
134,0.0345265194773674,0.0229146089404821,0.0346098691225052,0.0452143885195255,0.00639813905581832,-0.032865758985281
135,0.0351848267018795,0.0230109803378582,0.0379340499639511,0.0483491346240044,0.00812449399381876,-0.0317546688020229
136,0.0354958511888981,0.0214709974825382,0.0384762771427631,0.0516271479427814,0.0101925022900105,-0.0305232610553503
137,0.0364737957715988,0.0193073526024818,0.0367716029286385,0.0553291030228138,0.0127635719254613,-0.0288170594722033
138,0.0379514321684837,0.0177359730005264,0.0336995162069798,0.0596277751028538,0.0149280838668346,-0.0271255113184452
139,0.0389045588672161,0.0169137585908175,0.0295097567141056,0.0634739026427269,0.0151970451697707,-0.0259578470140696
140,0.0391948148608208,0.0167667530477047,0.0249630194157362,0.0655674859881401,0.0133269177749753,-0.0250757727771997
141,0.0392123386263847,0.0168351288884878,0.0223499536514282,0.0659403130412102,0.0100473798811436,-0.0244670026004314
142,0.0391680933535099,0.0163139291107655,0.0235117115080357,0.065758153796196,0.00635538529604673,-0.023994630202651
143,0.0390908792614937,0.0150115471333265,0.0271887611597776,0.0663124024868011,0.00386517238803208,-0.0232908092439175
144,0.038842149078846,0.0134813766926527,0.0299108047038317,0.0679722875356674,0.00407202774658799,-0.02287857234478
145,0.0388634018599987,0.0127608422189951,0.0294298697263002,0.069755345582962,0.00717465579509735,-0.0234525706619024
146,0.039452463388443,0.0127208726480603,0.0259704440832138,0.070000059902668,0.0113661121577024,-0.0252691339701414
147,0.0403707474470139,0.0123630492016673,0.0214704759418964,0.068032331764698,0.0147639997303486,-0.0281617976725101
148,0.0414685308933258,0.0113390926271677,0.0182755906134844,0.0646321550011635,0.0176697447896004,-0.0317636430263519
149,0.0423270910978317,0.00938932038843632,0.0175736770033836,0.0609107054769993,0.0209527481347322,-0.035727933049202
150,0.0423623807728291,0.00664441101253033,0.0184130370616913,0.0574898533523083,0.0237304829061031,-0.0395017899572849
151,0.0415467172861099,0.00416084844619036,0.0192982442677021,0.0548111349344254,0.0245462208986282,-0.042732872068882
152,0.0403016656637192,0.00285498471930623,0.0202832370996475,0.0534605979919434,0.0235718563199043,-0.0452632717788219
153,0.0388247072696686,0.00329126510769129,0.0218970328569412,0.0535939633846283,0.0222899541258812,-0.0464346185326576
154,0.0366326123476028,0.00542104477062821,0.0237847957760096,0.054589107632637,0.0212414376437664,-0.0459931902587414
155,0.0329383760690689,0.00751484651118517,0.024811876937747,0.055499479174614,0.0190470423549414,-0.0455732718110085
156,0.0283622443675995,0.00852052681148052,0.0246521644294262,0.0574365071952343,0.0151519775390625,-0.0461946539580822
157,0.0252160299569368,0.00968792475759983,0.0248831696808338,0.0633740127086639,0.0113771641626954,-0.0460744984447956
158,0.0252721533179283,0.0120411310344934,0.0263354312628508,0.0728454291820526,0.00928099267184734,-0.0436932258307934
159,0.0284624081104994,0.0146162007004023,0.0280131865292788,0.0815102308988571,0.00867156405001879,-0.039814867079258
160,0.0331713072955608,0.0156480334699154,0.0294810980558395,0.0865342393517494,0.00890526548027992,-0.03601985424757
161,0.0370153374969959,0.0146385366097093,0.030997721478343,0.0881696417927742,0.00922689214348793,-0.0339208617806435
162,0.0387120135128498,0.0122893154621124,0.0321933068335056,0.0875294432044029,0.00911593995988369,-0.0345238782465458
163,0.0390422977507114,0.00965136010199785,0.032886728644371,0.0852189064025879,0.00923885963857174,-0.0369834452867508
164,0.0384220443665981,0.00672100018709898,0.033347811549902,0.0809944197535515,0.00926330778747797,-0.0401369594037533
165,0.0365236066281796,0.00331955240108073,0.0344185680150986,0.0758844837546349,0.00809876993298531,-0.0429649166762829
166,0.0339398458600044,0.000747158017475158,0.037024449557066,0.0729664638638496,0.00657419115304947,-0.043633759021759
167,0.0309738721698523,-0.000710939464624971,0.039656613022089,0.0729421079158783,0.00542076118290424,-0.0420000106096268
168,0.0277174655348063,-0.00172499765176326,0.040349755436182,0.0734746977686882,0.00450097909197211,-0.0399709269404411
169,0.0249669831246138,-0.00216929847374558,0.0398891307413578,0.0732216089963913,0.00385662470944226,-0.0388104803860188
170,0.0236371532082558,-0.00186771980952471,0.0404719486832619,0.0727020055055618,0.00331521034240723,-0.0383468009531498
171,0.0240906570106745,-0.00104349735192955,0.0434054806828499,0.0723849460482597,0.00331226014532149,-0.0381334982812405
172,0.0248676650226116,-0.000986833474598825,0.0477658472955227,0.0718467980623245,0.00413509644567966,-0.0391875766217709
173,0.024724068120122,-0.00271823676303029,0.0515498369932175,0.071322575211525,0.0052000405266881,-0.042172621935606
174,0.0252465419471264,-0.00499170180410147,0.054019570350647,0.0719196572899818,0.00636439165100455,-0.0450790449976921
175,0.0277985259890556,-0.00601369282230735,0.0551115646958351,0.0733615756034851,0.00743869878351688,-0.0460540987551212
176,0.031463086605072,-0.0051933154463768,0.0546364895999432,0.0744958966970444,0.00828863214701414,-0.0455501675605774
177,0.0349667556583881,-0.00314126559533179,0.0532916188240051,0.0755221843719482,0.00975457299500704,-0.0445136278867722
178,0.0376128181815147,-0.00114178576041013,0.052435614168644,0.0774868875741959,0.0120725007727742,-0.0427589938044548
179,0.039510291069746,-1.65214714797912E-05,0.0526164136826992,0.0807849690318108,0.0147279510274529,-0.0398533269762993
180,0.0414195470511913,0.00033183503546752,0.0533390901982784,0.0844836980104446,0.0178440287709236,-0.036524623632431
181,0.0425994470715523,-0.000146223639603704,0.0538365170359612,0.0865093469619751,0.0200652237981558,-0.0346377566456795
182,0.0417374409735203,-0.0019811955280602,0.054046593606472,0.0861796289682388,0.0191538296639919,-0.0351214185357094
183,0.0394179560244083,-0.00490899477154016,0.0543306320905685,0.0848744511604309,0.015765767544508,-0.0369468741118908
184,0.0366126634180546,-0.00739018665626645,0.054472804069519,0.0835782065987587,0.0121026551350951,-0.0385926812887192
185,0.0339590422809124,-0.00812612473964691,0.0542723946273327,0.0826402753591537,0.00929882936179638,-0.0389267541468143
186,0.0314879901707172,-0.00811406970024109,0.0532250553369522,0.0818702206015587,0.00702748773619533,-0.0383877381682396
187,0.028531601652503,-0.00940867140889168,0.051380317658186,0.0810463353991508,0.00441256724298,-0.0381374321877956
188,0.025706309825182,-0.0118712140247226,0.0506950169801712,0.0812524482607841,0.00181782885920256,-0.0377590134739876
189,0.0247581750154495,-0.0135728297755122,0.0526910237967968,0.0837165415287018,0.00102552445605397,-0.036112654954195
190,0.02615787088871,-0.0139621142297983,0.0564856454730034,0.0878181457519531,0.00279172789305449,-0.0336853340268135
191,0.028622867539525,-0.0140470284968615,0.0597201697528362,0.0912322923541069,0.00539334490895271,-0.032579567283392
192,0.0307968202978373,-0.0141130909323692,0.0608715824782848,0.0925867632031441,0.00691211735829711,-0.0338659137487412
193,0.0317946150898933,-0.0140090333297849,0.059928972274065,0.0926094576716423,0.00675147026777267,-0.0370386652648449
194,0.0307896062731743,-0.0144396489486098,0.0567857101559639,0.0916531905531883,0.00457941321656108,-0.041641604155302
195,0.0279419962316751,-0.0157895684242249,0.051260519772768,0.0892490297555923,0.000910970906261355,-0.0471342653036118
196,0.0255246330052614,-0.016365759074688,0.0446571558713913,0.087092250585556,-0.00180249975528568,-0.0510798804461956
197,0.025825958698988,-0.0141925262287259,0.0395297631621361,0.0881595835089684,-0.00161755306180567,-0.0506653189659119
198,0.0279596578329802,-0.0102978954091668,0.0373265072703362,0.0924643650650978,0.000416101509472355,-0.0468116141855717
199,0.0292617455124855,-0.00773007608950138,0.0377216450870037,0.0968810170888901,0.00217038439586759,-0.0429120734333992
200,0.0289001110941172,-0.00787271279841661,0.0404093414545059,0.0988965779542923,0.00324700772762299,-0.0405188500881195
201,0.0281347632408142,-0.00916387885808945,0.0446387566626072,0.0984193310141563,0.00417721271514893,-0.0389486365020275
202,0.0278943236917257,-0.00950028281658888,0.0486243404448032,0.0963580161333084,0.00455648079514503,-0.037199966609478
203,0.0281328856945038,-0.0085650347173214,0.0515441484749317,0.0938809588551521,0.00419312436133623,-0.035196915268898
204,0.0280848890542984,-0.00775263365358114,0.0532932095229626,0.0909583196043968,0.00334704946726561,-0.0342214852571487
205,0.0264046341180801,-0.00840412732213736,0.0533518306910992,0.0857140123844147,0.0015911110676825,-0.0354573875665665
206,0.0239199493080378,-0.00985516421496868,0.05250159278512,0.0779281556606293,-0.000428507075412199,-0.0378831997513771
207,0.023412149399519,-0.0107115423306823,0.0526592209935188,0.0699319988489151,-0.00109835376497358,-0.039449542760849
208,0.0252366848289967,-0.0111886113882065,0.0540037415921688,0.0640385448932648,-0.000431554886745289,-0.0400424562394619
209,0.0273127369582653,-0.0123827438801527,0.055076889693737,0.0614097118377686,0.000503836548887193,-0.0410250686109066
210,0.0284395627677441,-0.0146761890500784,0.0550178289413452,0.0616654418408871,0.0011769502889365,-0.042651791125536
211,0.0290503688156605,-0.018048970028758,0.0541767068207264,0.0633311346173286,0.00130408082623035,-0.0440515205264091
212,0.0299811493605375,-0.0221808720380068,0.0537075623869896,0.0659288167953491,0.00113313633482903,-0.0445301756262779
213,0.0313400365412235,-0.0254883822053671,0.0542971193790436,0.0698110461235046,0.00144763803109527,-0.0436541214585304
214,0.0325422994792461,-0.026448730379343,0.0554599612951279,0.0742273330688477,0.00243966258130968,-0.0414472073316574
215,0.032950222492218,-0.0257994849234819,0.0561368875205517,0.0772348344326019,0.00330712483264506,-0.0392102412879467
216,0.0319978184998035,-0.0251371655613184,0.0547267943620682,0.0770132839679718,0.00272288848645985,-0.0388249829411507
217,0.0294272135943174,-0.0248867776244879,0.0508357733488083,0.0734577625989914,1.83647462108638E-05,-0.0408370457589626
218,0.0260890834033489,-0.0250090379267931,0.0475562214851379,0.0682477653026581,-0.00393719132989645,-0.0441013053059578
219,0.0230487771332264,-0.0257357489317656,0.0474413335323334,0.0635572597384453,-0.00841205101460218,-0.0473185554146767
220,0.0202871784567833,-0.0270639657974243,0.0484956502914429,0.0615365691483021,-0.0137192457914352,-0.0496195070445538
221,0.0184280630201101,-0.0282006971538067,0.0489256680011749,0.0634202435612679,-0.0182333644479513,-0.049886342138052
222,0.0183477066457272,-0.0287790838629007,0.0493767224252224,0.0673305913805962,-0.0193383041769266,-0.048293549567461
223,0.0195536315441132,-0.0290275681763887,0.0499549843370914,0.0707554593682289,-0.0165941100567579,-0.0462434478104115
224,0.021418359130621,-0.0286369379609823,0.0502611845731735,0.0738060474395752,-0.0110886283218861,-0.0442740544676781
225,0.0235856994986534,-0.0275054983794689,0.0500509440898895,0.0768196806311607,-0.00460060220211744,-0.0428978875279427
226,0.0258243680000305,-0.0259542465209961,0.0495643354952335,0.0793481022119522,0.00107349792961031,-0.0424110256135464
227,0.0277106631547213,-0.0248192101716995,0.0496106296777725,0.0811192095279694,0.00479548703879118,-0.0424156337976456
228,0.0279143489897251,-0.0256359912455082,0.0499324947595596,0.0814184620976448,0.00589900044724345,-0.0433286093175411
229,0.0255631878972054,-0.0290182903409004,0.0492266081273556,0.079209953546524,0.00454281037673354,-0.0456015951931477
230,0.0215364582836628,-0.03400819003582,0.0473726987838745,0.0743299946188927,0.00218381290324032,-0.0486981719732285
231,0.0178610291332006,-0.0390706844627857,0.0462156571447849,0.0686054453253746,0.000948171364143491,-0.0517354123294353
232,0.0158149525523186,-0.043014332652092,0.0474294126033783,0.0643988847732544,0.00170197780244052,-0.0539328716695309
233,0.0151903480291367,-0.0451339669525623,0.0503328703343868,0.062090776860714,0.00368753401562572,-0.054865874350071
234,0.0152769945561886,-0.0451515316963196,0.053074061870575,0.0605959855020046,0.00550815463066101,-0.0550470873713493
235,0.0147033510729671,-0.0438454747200012,0.0540038086473942,0.0585088655352592,0.00520924432203174,-0.0558147989213467
236,0.0131634753197432,-0.0412413328886032,0.0529647283256054,0.055566344410181,0.00282428949140012,-0.0565258227288723
237,0.0122641902416945,-0.036549661308527,0.0521480217576027,0.0528356283903122,0.000979788019321859,-0.0549524761736393
238,0.0125348335132003,-0.0314069762825966,0.0535857230424881,0.0503872483968735,0.00107263750396669,-0.0509471967816353
239,0.0129816913977265,-0.0276186913251877,0.0574231557548046,0.0481551624834538,0.00230460078455508,-0.0459426417946815
240,0.0131506500765681,-0.0245324708521366,0.062568411231041,0.0475063100457191,0.00346399727277458,-0.0407225042581558
241,0.0124312825500965,-0.0223596822470427,0.0663336217403412,0.0489254742860794,0.00289264344610274,-0.0355053842067719
242,0.0102446330711246,-0.0223138742148876,0.0667598024010658,0.0519202202558517,-2.98744416795671E-05,-0.0305407661944628
243,0.0084808487445116,-0.0235368590801954,0.0659158006310463,0.0564126297831535,-0.00276445643976331,-0.0261381976306438
244,0.00925018545240164,-0.0246567148715258,0.0664097592234612,0.0611154660582542,-0.0032182380091399,-0.0230045951902866
245,0.0118017885833979,-0.0259861089289188,0.067684218287468,0.0635498091578484,-0.00250749196857214,-0.0212663244456053
246,0.0137013401836157,-0.0286239311099052,0.0674214735627174,0.0622279942035675,-0.00218218960799277,-0.0203384216874838
247,0.0136575987562537,-0.0326671227812767,0.064264252781868,0.05810571834445,-0.00187814910896122,-0.0204106830060482
248,0.0126398494467139,-0.03620545566082,0.0586736537516117,0.0540006309747696,-0.000430017767939717,-0.0217883475124836
249,0.0120206316933036,-0.0373239926993847,0.0516755729913712,0.0519748739898205,0.002130197128281,-0.024290420114994
250,0.0126543017104268,-0.0364546105265617,0.0449217259883881,0.0525147616863251,0.00588351534679532,-0.0270168706774712
251,0.0151244588196278,-0.0351355709135532,0.0403639450669289,0.0550636351108551,0.0120335975661874,-0.0284659489989281
252,0.019159996882081,-0.0337953679263592,0.0384729392826557,0.0582430325448513,0.0201146900653839,-0.0280376765877008
253,0.0236052628606558,-0.0319100916385651,0.038106020539999,0.0606832690536976,0.0269980784505606,-0.0257112327963114
254,0.0267513189464808,-0.0300570093095303,0.0375736467540264,0.0619970075786114,0.0297744497656822,-0.0219957567751408
255,0.0273884031921625,-0.029351344332099,0.0361049734055996,0.0631804019212723,0.0286857988685369,-0.0182464588433504
256,0.0260276943445206,-0.029740372672677,0.0342845693230629,0.0651167184114456,0.0260249096900225,-0.0153957474976778
257,0.0244002789258957,-0.0304439850151539,0.0336461029946804,0.0677055269479752,0.0237872470170259,-0.0131394658237696
258,0.0237617772072554,-0.0304905511438847,0.0348663814365864,0.0703897625207901,0.0230812057852745,-0.0102598182857037
259,0.0245971195399761,-0.0291357357054949,0.0365876965224743,0.0721622407436371,0.0241882149130106,-0.00627297163009644
260,0.0266854912042618,-0.0270607359707356,0.037293940782547,0.0717024877667427,0.0264591388404369,-0.00272354483604431
261,0.0291223227977753,-0.0258609466254711,0.0373177267611027,0.0691405385732651,0.0285257212817669,-0.00143619568552822
262,0.0312006901949644,-0.0259957686066628,0.0381353199481964,0.0667021125555038,0.0292990151792765,-0.00232392782345414
263,0.0320767313241959,-0.0273477956652641,0.0398061387240887,0.0654745250940323,0.0283333212137222,-0.00427994597703218
264,0.0315917693078518,-0.0294740833342075,0.0415411219000816,0.0650423169136047,0.0264269262552261,-0.00608301535248756
265,0.0306352078914642,-0.0314736887812614,0.0424702130258083,0.0656181201338768,0.0244297757744789,-0.00673391576856375
266,0.0296966005116701,-0.0329437404870987,0.0420571900904179,0.0674063414335251,0.0224033799022436,-0.0060584656894207
267,0.0293794237077236,-0.0336594097316265,0.0421460531651974,0.0696818083524704,0.0214039050042629,-0.00444123381748796
268,0.0305459406226873,-0.0329412259161472,0.0449420809745789,0.0714569464325905,0.0223031546920538,-0.00237717013806105
269,0.0326880775392056,-0.0301702786237001,0.0493710599839687,0.0723505020141602,0.0235209483653307,-0.000210967511520721
270,0.0345635339617729,-0.0260215550661087,0.0530679784715176,0.0726640671491623,0.0234892871230841,0.00146627298090607
271,0.0358190275728703,-0.0220205932855606,0.0558455996215343,0.0732067450881004,0.022963659837842,0.00178967125248164
272,0.0360208824276924,-0.0196553654968739,0.0585364662110806,0.0742317065596581,0.0226701162755489,0.000366318301530555
273,0.0349362939596176,-0.0196032784879208,0.0614497885107994,0.0750247463583946,0.0228868648409843,-0.00201787007972598
274,0.0341882519423962,-0.0203555673360825,0.065694697201252,0.0755612254142761,0.0249369479715824,-0.00315540749579668
275,0.0352022461593151,-0.0202306527644396,0.0715421065688133,0.0762612968683243,0.0285976435989141,-0.00154849654063582
276,0.0372032634913921,-0.019492769613862,0.0762800350785255,0.0770843550562859,0.0314185880124569,0.00237376452423632
277,0.0385526865720749,-0.0187462326139212,0.0778233706951141,0.0784059539437294,0.0323975011706352,0.00760497944429517
278,0.0383693687617779,-0.0178356431424618,0.0772289112210274,0.0810742601752281,0.0329370759427547,0.0130588272586465
279,0.0372087098658085,-0.0161590278148651,0.0765902027487755,0.0863068848848343,0.0344980619847775,0.0182212665677071
280,0.0360561572015285,-0.0138648906722665,0.0766684412956238,0.094571091234684,0.0367803238332272,0.0228179357945919
281,0.0353120677173138,-0.0124109769240022,0.0770517289638519,0.103007912635803,0.0386997945606709,0.0247863829135895
282,0.0351035669445992,-0.0131163764744997,0.0764068886637688,0.106550551950932,0.0390979610383511,0.02115723118186
283,0.0353907383978367,-0.016566252335906,0.0722783282399178,0.10242123901844,0.03664855286479,0.0109834186732769
284,0.0354623422026634,-0.0224166102707386,0.0636602193117142,0.0917558372020721,0.0312102288007736,-0.0037075113505125
285,0.0345699489116669,-0.0280986446887255,0.0529429987072945,0.0786292403936386,0.0245089400559664,-0.0182055812329054
286,0.0328818596899509,-0.0307193025946617,0.0441941618919373,0.0680195242166519,0.0191565174609423,-0.0274038650095463
287,0.0313112288713455,-0.0300044864416122,0.0403930693864822,0.0625253543257713,0.0172587521374226,-0.029296463355422
288,0.0309309996664524,-0.0275580063462257,0.041405200958252,0.0610267519950867,0.0189199950546026,-0.0262864585965872
289,0.0315316244959831,-0.0256616175174713,0.0441993549466133,0.060665063560009,0.0215384196490049,-0.0225538276135921
290,0.0324674621224403,-0.0253253951668739,0.0465606525540352,0.0607671700417995,0.0232644267380238,-0.0191026832908392
291,0.0343087017536163,-0.0255063772201538,0.0494603402912617,0.0630427151918411,0.0257256031036377,-0.0147594967857003
292,0.0372043140232563,-0.0256250891834497,0.0541431754827499,0.0672136172652245,0.0302195269614458,-0.010997817851603
293,0.0400321185588837,-0.0265130493789911,0.0591662563383579,0.0703671872615814,0.0353054441511631,-0.0109287099912763
294,0.0417527034878731,-0.0288596991449595,0.0615379065275192,0.0705382972955704,0.0393656678497791,-0.0152474865317345
295,0.0416976734995842,-0.0320868156850338,0.0597052536904812,0.0684564784169197,0.041059635579586,-0.0212315786629915
296,0.0390626192092896,-0.035300437361002,0.0547449178993702,0.0655844360589981,0.038798313587904,-0.0255121383816004
297,0.0345654636621475,-0.037577249109745,0.0493878237903118,0.0629914328455925,0.0333228670060635,-0.026612151414156
298,0.0308103654533625,-0.0376013480126858,0.0461919084191322,0.0620989240705967,0.0276028253138065,-0.0248374901711941
299,0.0292375572025776,-0.0349794663488865,0.0463541783392429,0.0638635158538818,0.023617297410965,-0.0211120881140232
300,0.0292544066905975,-0.0310963466763496,0.0498564764857292,0.0680496171116829,0.0215278156101704,-0.0162281803786755
301,0.0297766886651516,-0.0280571412295103,0.0552267991006374,0.0732418671250343,0.0206574369221926,-0.0114778792485595
302,0.0305018071085215,-0.026764115318656,0.0605786181986332,0.0773517489433289,0.0208859872072935,-0.00840047094970942
303,0.0311567448079586,-0.0272754728794098,0.0642360225319862,0.0784580186009407,0.0220037270337343,-0.00774681940674782
304,0.0309670772403479,-0.0294699110090733,0.0643979460000992,0.075895220041275,0.0221245866268873,-0.00919970590621233
305,0.0303028747439384,-0.0319774895906448,0.0609580837190151,0.0709668546915054,0.0199853386729956,-0.0115711772814393
306,0.0294440053403378,-0.0338903442025185,0.0557777248322964,0.0657066032290459,0.0167195051908493,-0.0142468735575676
307,0.0278625562787056,-0.0354058779776096,0.0516041964292526,0.0620426051318645,0.0144059434533119,-0.016671696677804
308,0.0259222742170095,-0.0359493568539619,0.0504087619483471,0.0612869262695313,0.0147943450137973,-0.0173294972628355
309,0.0243276339024305,-0.0347839146852493,0.0515866689383984,0.0636015012860298,0.0176633838564157,-0.015577838756144
310,0.023745235055685,-0.0317062586545944,0.0538520328700542,0.0685303285717964,0.0208224561065435,-0.0125637706369162
311,0.0244404338300228,-0.0280030388385057,0.0563908405601978,0.0743133500218391,0.0221868716180325,-0.0106079671531916
312,0.0256655886769295,-0.02610551007092,0.0577538087964058,0.0784238576889038,0.0204767156392336,-0.0112539762631059
313,0.0268824361264706,-0.0265330448746681,0.0571024268865585,0.0804404392838478,0.0157718099653721,-0.0134422974660993
314,0.0288012772798538,-0.0277024004608393,0.0552718304097652,0.0815998166799545,0.0104419672861695,-0.0153293050825596
315,0.0309898108243942,-0.029299583286047,0.0526729822158813,0.081236220896244,0.00652449019253254,-0.017512297257781
316,0.0308778416365385,-0.0328308343887329,0.048722181469202,0.0773481577634811,0.00347596779465675,-0.021600641310215
317,0.0279573518782854,-0.0378794930875301,0.0439947545528412,0.0710451602935791,0.000782295945100486,-0.025677964091301
318,0.0235652327537537,-0.0426414459943771,0.0396896228194237,0.0654142200946808,-0.00147070782259107,-0.0267588905990124
319,0.0185999423265457,-0.0467919148504734,0.0360414125025272,0.0612779259681702,-0.00298536801710725,-0.0256154704838991
320,0.0146186230704188,-0.0505707263946533,0.0335097759962082,0.0577161312103271,-0.00220512528903782,-0.0247862245887518
321,0.0124000869691372,-0.0538885556161404,0.0339500457048416,0.054158728569746,0.00211924407631159,-0.0260511208325624
322,0.0114264599978924,-0.056092768907547,0.038676280528307,0.0512204580008984,0.00908626802265644,-0.0294650737196207
323,0.0106450505554676,-0.0570965744554996,0.0461125858128071,0.0493183583021164,0.015150441788137,-0.0332300141453743
324,0.00859059859067202,-0.0581400543451309,0.0530569553375244,0.0473867133259773,0.016999302431941,-0.0355594828724861
325,0.00509294541552663,-0.0600269623100758,0.0569403655827045,0.0443375632166862,0.0148591743782163,-0.0361046269536018
326,0.00137406156864017,-0.0622845329344273,0.0574057102203369,0.0401127375662327,0.0110381664708257,-0.0360315032303333
327,-0.00112712674308568,-0.0637439489364624,0.0568240843713284,0.0358203388750553,0.00781952682882547,-0.0365924127399921
328,-0.0021982085891068,-0.0645427629351616,0.0568049997091293,0.0327968560159206,0.00581157673150301,-0.0384493507444859
329,-0.00283882184885442,-0.0661752298474312,0.0564252361655235,0.0317867770791054,0.00425038812682033,-0.0418770834803581
330,-0.00283491564914584,-0.0686168521642685,0.0552752614021301,0.0333337336778641,0.00346389599144459,-0.0459925010800362
331,-0.00138872710522264,-0.0699251517653465,0.0540848076343536,0.036914624273777,0.00410733558237553,-0.0482934154570103
332,0.000731940555851907,-0.0686052739620209,0.0532655827701092,0.0409000888466835,0.00577398575842381,-0.0465824455022812
333,0.00209646997973323,-0.0651513934135437,0.0525242984294891,0.0439463742077351,0.00771937193349004,-0.0412333086133003
334,0.00212150113657117,-0.0612810030579567,0.0512212216854095,0.0452369153499603,0.00893593486398458,-0.0349199250340462
335,0.00128023151773959,-0.0589161776006222,0.0494892597198486,0.0446943044662476,0.00883692130446434,-0.0309563148766756
336,0.000301244872389361,-0.0590615272521973,0.0479699857532978,0.042870320379734,0.00792722590267658,-0.0302779916673899
337,-0.000169588864082471,-0.0602790080010891,0.04726592451334,0.0408425889909267,0.00748518714681268,-0.0303447060286999
338,0.00044925170368515,-0.0598599463701248,0.0474733039736748,0.0396411083638668,0.00901713874191046,-0.0287188868969679
339,0.00138869532383978,-0.0572771616280079,0.0471376702189446,0.0386305712163448,0.0119266211986542,-0.0260697193443775
340,0.00112647807691246,-0.0544332787394524,0.0450516529381275,0.0374658890068531,0.0137639632448554,-0.0242783669382334
341,-0.000522028305567801,-0.0530788190662861,0.0428352691233158,0.0378549061715603,0.0136915612965822,-0.0235186386853457
342,-0.00260358955711126,-0.0536561533808708,0.0434580929577351,0.040650375187397,0.0130112357437611,-0.0224536396563053
343,-0.00382494158111513,-0.0554017536342144,0.0475832559168339,0.0447408929467201,0.0133943893015385,-0.0200614780187607
344,-0.00300966575741768,-0.0569774508476257,0.0531106740236282,0.0494845323264599,0.0154467653483152,-0.016412740573287
345,-0.000113007146865129,-0.0577669851481915,0.0578785873949528,0.0545962937176228,0.0183534156531096,-0.0124188857153058
346,0.00304732262156904,-0.0588182918727398,0.0605711415410042,0.0582207329571247,0.0202062074095011,-0.00954600516706705
347,0.00425457395613194,-0.0611657686531544,0.0604172796010971,0.0588788017630577,0.0193248577415943,-0.00807487685233355
348,0.00338551448658109,-0.0642816126346588,0.0580739453434944,0.0569290816783905,0.0162309911102057,-0.00704880524426699
349,0.0019278300460428,-0.0669781193137169,0.0548627451062202,0.05275908857584,0.0119404438883066,-0.00651483284309506
350,0.000759901304263622,-0.0680905133485794,0.0510922484099865,0.0469715520739555,0.00649275025352836,-0.00715055549517274
351,8.11087375041097E-05,-0.0671100094914436,0.0469685234129429,0.0410477034747601,0.00178483605850488,-0.00864349864423275
352,0.000475374341476709,-0.0640409216284752,0.0440533198416233,0.0367432087659836,0.0011862829560414,-0.00895432010293007
353,0.00279656797647476,-0.0588939338922501,0.0441182777285576,0.0356013067066669,0.00534936785697937,-0.006286327727139
354,0.00659876130521297,-0.0533480010926723,0.0464269444346428,0.0372428670525551,0.0110471826046705,-0.00285387272015214
355,0.0100550064817071,-0.0505469143390656,0.0481527224183083,0.0394130647182465,0.0145615395158529,-0.00271630380302668
356,0.0121898632496595,-0.0517615266144276,0.0479345358908176,0.0408903211355209,0.0153510449454188,-0.00631222128868103
357,0.0133039308711886,-0.055447019636631,0.0469915084540844,0.0421376377344131,0.015503347851336,-0.0110359136015177
358,0.0133923524990678,-0.0595839433372021,0.0469943955540657,0.0436596162617207,0.0166050754487515,-0.0152114070951939
359,0.0121839661151171,-0.0627318099141121,0.0483621135354042,0.0456396453082561,0.0187611225992441,-0.0183023661375046
360,0.0101767247542739,-0.0639159455895424,0.0503187440335751,0.0476217828691006,0.021632568910718,-0.0197109468281269
361,0.00805504620075226,-0.0633111447095871,0.0517515167593956,0.0481671653687954,0.0246824640780687,-0.0194232817739248
362,0.00554548855870962,-0.0623265914618969,0.0517918281257153,0.0466356314718723,0.0266575254499912,-0.0184817146509886
363,0.00169831141829491,-0.06252621114254,0.0498113408684731,0.0444464050233364,0.0265936069190502,-0.0182669088244438
364,-0.00308028142899275,-0.0639034882187843,0.0458641164004803,0.0435582622885704,0.0257194172590971,-0.0188996344804764
365,-0.00676649250090122,-0.0654800459742546,0.040784727782011,0.0439729057252407,0.0258017033338547,-0.0192940719425678
366,-0.00795619189739227,-0.0669563636183739,0.0360576175153255,0.0440902151167393,0.0267838425934315,-0.0187907926738262
367,-0.00736944237723947,-0.0685601159930229,0.0331409052014351,0.0428793616592884,0.0267976336181164,-0.0182332023978233
368,-0.00634855730459094,-0.0693927481770515,0.032811876386404,0.0410672426223755,0.0246390569955111,-0.0180696342140436
369,-0.00503613753244281,-0.0681002885103226,0.0356780476868153,0.0402516759932041,0.0216002520173788,-0.0172658301889896
370,-0.00417269440367818,-0.0660766884684563,0.0407470352947712,0.0407296903431416,0.0179011505097151,-0.0159720294177532
371,-0.00541415670886636,-0.0657782852649689,0.04464191198349,0.0416820719838142,0.0121544739231467,-0.0153941577300429
372,-0.00839488673955202,-0.0670344680547714,0.0454683639109135,0.0426202639937401,0.00633057672530413,-0.0159528031945229
373,-0.0107964407652617,-0.0680061280727386,0.0448722615838051,0.0439755991101265,0.00432945042848587,-0.0166981052607298
374,-0.0107731306925416,-0.0676092281937599,0.0458339639008045,0.0462888292968273,0.00641266815364361,-0.0157191604375839
375,-0.0081198588013649,-0.0658260732889175,0.0497764460742474,0.0489926785230637,0.010079987347126,-0.0126641448587179
376,-0.00497876387089491,-0.063666857779026,0.0542491897940636,0.0500711165368557,0.0127443391829729,-0.00972830597311258
377,-0.00367215555161238,-0.062244325876236,0.0561626553535461,0.048345010727644,0.0128929689526558,-0.0086841955780983
378,-0.0042009106837213,-0.0617234222590923,0.0556191764771938,0.0452446825802326,0.0108004920184612,-0.00930039491504431
379,-0.00612731324508786,-0.0624482184648514,0.0536608807742596,0.0420717112720013,0.00681823259219527,-0.0110223740339279
380,-0.009490423835814,-0.0645159110426903,0.0510055497288704,0.038924191147089,0.000979598378762603,-0.0134559124708176
381,-0.0137548623606563,-0.0672329440712929,0.0481587424874306,0.0358956195414066,-0.00586216291412711,-0.016405675560236
382,-0.0179700553417206,-0.0701535195112228,0.0442433208227158,0.0337349809706211,-0.0125221060588956,-0.0198308732360601
383,-0.0211935024708509,-0.0730016678571701,0.0390533842146397,0.0336827635765076,-0.0179427117109299,-0.0231704544275999
384,-0.0233712308108807,-0.0757608637213707,0.0348495803773403,0.0355823077261448,-0.0212863553315401,-0.0260821189731359
385,-0.0254136640578508,-0.0775344669818878,0.0331898257136345,0.0378768406808376,-0.022574208676815,-0.0282990410923958
386,-0.0275273416191339,-0.076392263174057,0.0327228903770447,0.0393265150487423,-0.0225227195769548,-0.0290900655090809
387,-0.0282924957573414,-0.0721928626298904,0.0318875722587109,0.0392994433641434,-0.0213302802294493,-0.0281595848500729
388,-0.0267146024852991,-0.0671055018901825,0.0303813144564629,0.0376494489610195,-0.0191957056522369,-0.0260502435266972
389,-0.0243386588990688,-0.0639176592230797,0.0274418462067842,0.0348870232701302,-0.0175296403467655,-0.0238644555211067
390,-0.0231836922466755,-0.0642558857798576,0.0224380530416965,0.0321512334048748,-0.0175122283399105,-0.02252047508955
391,-0.0235129091888666,-0.0683168768882751,0.016264196485281,0.0299194660037756,-0.0186727121472359,-0.022460050880909
392,-0.0239848885685205,-0.0746167451143265,0.010863920673728,0.0278781186789274,-0.0192152056843042,-0.0235417298972607
393,-0.0229128822684288,-0.080301433801651,0.00741194793954492,0.0263885017484427,-0.0173500701785088,-0.0251800026744604
394,-0.0203329734504223,-0.084065742790699,0.00549471331760287,0.025568138808012,-0.0133589040488005,-0.0271305162459612
395,-0.0174214653670788,-0.0858490690588951,0.00504598813131452,0.0247133150696754,-0.00924635399132967,-0.0288651194423437
396,-0.0150296716019511,-0.0853235051035881,0.00698624085634947,0.0230940748006105,-0.00690505467355251,-0.0296216551214457
397,-0.0141715928912163,-0.0832911506295204,0.0111727947369218,0.0202306900173426,-0.00745079107582569,-0.0300414524972439
398,-0.0149175375699997,-0.0810820683836937,0.0159941241145134,0.0169707164168358,-0.0100270053371787,-0.0314959622919559
399,-0.0161194298416376,-0.0791502371430397,0.0192473381757736,0.01490169018507,-0.0124724358320236,-0.0342289246618748
400,-0.0170190948992968,-0.0776738673448563,0.0192422438412905,0.0139020308852196,-0.0138720665127039,-0.0373842157423496
401,-0.0172483325004578,-0.0761189162731171,0.0171245206147432,0.0136436056345701,-0.0144290719181299,-0.039762869477272
402,-0.0164971221238375,-0.0735180824995041,0.0156605411320925,0.0152023788541555,-0.0142272021621466,-0.0407843478024006
403,-0.0148058058694005,-0.0702474266290665,0.0155340041965246,0.0177473612129688,-0.013654462993145,-0.0409441292285919
404,-0.013536018319428,-0.067872628569603,0.0151748741045594,0.018185768276453,-0.0138701368123293,-0.0414511300623417
405,-0.0141731910407543,-0.0671472474932671,0.013466446660459,0.0155060524120927,-0.0156790632754564,-0.0431238934397697
406,-0.0155491344630718,-0.0668322890996933,0.0113576324656606,0.0125845344737172,-0.0179023798555136,-0.0446103811264038
407,-0.0155880004167557,-0.0654267221689224,0.0102104134857655,0.0126292314380407,-0.0184147823601961,-0.043786458671093
408,-0.0145431635901332,-0.0630191713571548,0.00997401587665081,0.0150751937180758,-0.0175739582628012,-0.040714118629694
409,-0.0136379646137357,-0.0601852983236313,0.0102149024605751,0.0175915993750095,-0.0176380015909672,-0.0367151573300362
410,-0.0128879081457853,-0.0570059046149254,0.0112971244379878,0.0195453949272633,-0.0191550999879837,-0.0321979820728302
411,-0.0114054642617702,-0.0537216439843178,0.013783460482955,0.0213585253804922,-0.020449373871088,-0.0275043193250895
412,-0.00804836861789227,-0.050594799220562,0.017947806045413,0.023470239713788,-0.0195995382964611,-0.0241299029439688
413,-0.00281624356284738,-0.0482996627688408,0.0231848526746035,0.0251532793045044,-0.0164376366883516,-0.0237061828374863
414,0.00293132779188454,-0.0472008213400841,0.027866754680872,0.0252415165305138,-0.0122358556836843,-0.0254502575844526
415,0.00780953420326114,-0.0458856970071793,0.0304261241108179,0.0239589177072048,-0.00858016405254602,-0.0263800341635942
416,0.0103526310995221,-0.043892927467823,0.0298184417188168,0.0209510400891304,-0.00739864399656653,-0.0259067937731743
417,0.0099517609924078,-0.042672373354435,0.0260291919112206,0.0157518815249205,-0.00975679699331522,-0.0261094886809587
418,0.00784122012555599,-0.0431520789861679,0.0201709624379873,0.00985287129878998,-0.0151048069819808,-0.0278639048337936
419,0.00571075081825256,-0.045328427106142,0.0146672977134585,0.00511712394654751,-0.0212175454944372,-0.0304810348898172
420,0.0045833233743906,-0.0480245873332024,0.0125776901841164,0.00229363655671477,-0.025242805480957,-0.0326072163879871
421,0.00429333327338099,-0.0493453666567802,0.0138358427211642,0.0013532763114199,-0.027015570551157,-0.0329137295484543
422,0.0038382294587791,-0.0483580268919468,0.0153220044448972,0.00192029285244644,-0.0282953288406134,-0.0313554741442204
423,0.00307016400620341,-0.0445393025875092,0.0147476047277451,0.00316754798404872,-0.0295986719429493,-0.0284301955252886
424,0.00214871764183044,-0.0384489633142948,0.0115008829161525,0.00393611053004861,-0.0307907722890377,-0.0251955483108759
425,0.000712342793121934,-0.0328537113964558,0.006397251971066,0.00310414377599955,-0.0322604104876518,-0.0240982323884964
426,-0.000646194617729634,-0.0295889768749475,0.00151140091475099,0.000571099051740021,-0.0343196801841259,-0.0262574665248394
427,-0.00105951318982989,-0.0283008962869644,-0.00173120631370693,-0.00254783127456903,-0.0372157469391823,-0.0299078375101089
428,-0.000996547983959317,-0.0280576664954424,-0.0033124762121588,-0.0047877267934382,-0.0421590656042099,-0.0332098379731178
429,-0.00134908186737448,-0.0281121991574764,-0.00361624592915177,-0.00503726070746779,-0.0506224632263184,-0.0364192649722099
430,-0.00198968942277133,-0.0282884165644646,-0.00381778832525015,-0.00363441789522767,-0.0615677200257778,-0.0400662757456303
431,-0.00176513555925339,-0.028374195098877,-0.00520318234339356,-0.00197765440680087,-0.0709004327654839,-0.0428157299757004
432,-0.000511255057062954,-0.0281251072883606,-0.00799327623099089,-0.00138014776166528,-0.0759145841002464,-0.0436383374035358
433,0.000365261133993045,-0.0273285694420338,-0.0117305424064398,-0.00307452073320746,-0.0779463201761246,-0.0429997444152832
434,-0.000405958970077336,-0.0263036843389273,-0.0160354785621166,-0.00818130094558001,-0.0791661590337753,-0.0421105436980724
435,-0.00282537844032049,-0.0260763447731733,-0.0204972736537457,-0.016135361045599,-0.0798785910010338,-0.042477048933506
436,-0.0055533847771585,-0.026527501642704,-0.0242012739181519,-0.0240535549819469,-0.0798064768314362,-0.0440637022256851
437,-0.00689267134293914,-0.0267580356448889,-0.0264149643480778,-0.0292610675096512,-0.0789554193615913,-0.0459709689021111
438,-0.00571934459730983,-0.0263367723673582,-0.027484567835927,-0.0310830939561129,-0.0775386095046997,-0.0481367111206055
439,-0.00289164809510112,-0.0258609391748905,-0.0291415099054575,-0.0309005714952946,-0.0776214376091957,-0.0512359589338303
440,-0.000241066125454381,-0.0259714666754007,-0.031938448548317,-0.0303003061562777,-0.0807693675160408,-0.0548703521490097
441,0.001923902425915,-0.0262329708784819,-0.0343022234737873,-0.0294801630079746,-0.0859891399741173,-0.0572351925075054
442,0.0038191294297576,-0.0268768295645714,-0.035744696855545,-0.029228949919343,-0.0921595245599747,-0.0582925379276276
443,0.00542344618588686,-0.0282373055815697,-0.0376737415790558,-0.0303236898034811,-0.0975821986794472,-0.0591543950140476
444,0.0066597880795598,-0.0294057447463274,-0.0414881035685539,-0.0315534099936485,-0.100962713360786,-0.0597119890153408
445,0.00657689664512873,-0.0297332089394331,-0.0477798841893673,-0.0327100120484829,-0.103875353932381,-0.0603175982832909
446,0.00435056770220399,-0.0292718205600977,-0.0569668933749199,-0.0358243100345135,-0.108433306217194,-0.0624646581709385
447,0.000710989173967391,-0.0282157342880964,-0.0691575706005096,-0.042087234556675,-0.11518257111311,-0.0670269802212715
448,-0.00271758437156677,-0.0271538905799389,-0.0822654590010643,-0.0499473586678505,-0.122836962342262,-0.073308639228344
449,-0.00524033093824983,-0.0276185683906078,-0.0926909595727921,-0.0573147051036358,-0.129190877079964,-0.080464281141758
450,-0.00747938035055995,-0.0308081340044737,-0.0992113575339317,-0.0640641823410988,-0.134048864245415,-0.0881779119372368
451,-0.00992125831544399,-0.0356744155287743,-0.103209748864174,-0.0706393420696259,-0.139714971184731,-0.0950898826122284
452,-0.0121686654165387,-0.039911936968565,-0.105958744883537,-0.0769151523709297,-0.147825226187706,-0.0999279171228409
453,-0.01361074578017,-0.0422196611762047,-0.108820274472237,-0.0831834450364113,-0.157496243715286,-0.10331566631794
454,-0.0143791288137436,-0.0432274453341961,-0.112603090703487,-0.0895466580986977,-0.166297197341919,-0.106108002364635
455,-0.0141625311225653,-0.0437780916690826,-0.114675298333168,-0.0940250009298325,-0.171044319868088,-0.107698678970337
456,-0.012531591579318,-0.0440383069217205,-0.112108483910561,-0.0948162227869034,-0.170264348387718,-0.10808964073658
457,-0.0104714827612042,-0.0442375726997852,-0.105888225138187,-0.0929801091551781,-0.166507959365845,-0.108186095952988
458,-0.00883093476295471,-0.0435955710709095,-0.099170483648777,-0.0903778970241547,-0.163672491908073,-0.106868445873261
459,-0.00812865886837244,-0.0410122387111187,-0.0949026420712471,-0.0880339667201042,-0.163450077176094,-0.103058107197285
460,-0.00882159918546677,-0.0370118468999863,-0.0938238054513931,-0.0860060378909111,-0.164568111300468,-0.0985100641846657
461,-0.0101262470707297,-0.0331921204924583,-0.0949305891990662,-0.0841298326849937,-0.165087103843689,-0.095308244228363
462,-0.0110391983762383,-0.0309645403176546,-0.0981062427163124,-0.0830252766609192,-0.164771571755409,-0.0938270837068558
463,-0.0117274029180408,-0.0305571854114532,-0.103290438652039,-0.0828915312886238,-0.164119184017181,-0.0933171510696411
464,-0.0125765400007367,-0.0312250070273876,-0.109071858227253,-0.0831662639975548,-0.163280889391899,-0.092559427022934
465,-0.0131639456376433,-0.0324890799820423,-0.114039860665798,-0.0836374089121819,-0.162755787372589,-0.090741254389286
466,-0.0134976739063859,-0.0342352725565434,-0.117668725550175,-0.0846045389771461,-0.163751050829887,-0.0884620547294617
467,-0.0149769959971309,-0.0365032181143761,-0.11968918889761,-0.0862388759851456,-0.167531237006187,-0.0869543626904488
468,-0.0180644933134317,-0.039038747549057,-0.120242111384869,-0.0878379642963409,-0.173555046319962,-0.0861681625247002
469,-0.021086698397994,-0.0412057302892208,-0.120066039264202,-0.0881697088479996,-0.179147720336914,-0.0852069035172462
470,-0.0223479587584734,-0.0431069582700729,-0.118731096386909,-0.0865038186311722,-0.181974425911903,-0.0839619189500809
471,-0.0217602271586657,-0.0454676114022732,-0.114705674350262,-0.0839376449584961,-0.18162202835083,-0.0834300145506859
472,-0.0205479562282562,-0.0484583526849747,-0.108916945755482,-0.0832458287477493,-0.179241895675659,-0.0853210762143135
473,-0.0194532610476017,-0.0511675961315632,-0.104120515286922,-0.0855312868952751,-0.175486266613007,-0.0897339209914207
474,-0.0180689878761768,-0.0524476729333401,-0.101308941841125,-0.0884007215499878,-0.169178992509842,-0.094148151576519
475,-0.0162097625434399,-0.0523267015814781,-0.100010395050049,-0.0885398834943771,-0.160282045602798,-0.0964138135313988
476,-0.0143184019252658,-0.0513965636491776,-0.0988103076815605,-0.0844022482633591,-0.151915535330772,-0.0958302542567253
477,-0.0129256341606379,-0.049534123390913,-0.0965535268187523,-0.0773016139864922,-0.146963179111481,-0.0924827456474304
478,-0.0125273484736681,-0.0473022945225239,-0.0949079617857933,-0.071785070002079,-0.145343393087387,-0.0885749906301498
479,-0.012651183642447,-0.0455858297646046,-0.0959570854902267,-0.0713960155844688,-0.145254597067833,-0.0864278897643089
480,-0.0127913933247328,-0.0440300032496452,-0.098827138543129,-0.0745851621031761,-0.146022826433182,-0.0856354013085365
481,-0.0130718881264329,-0.0420114621520042,-0.100241675972939,-0.0769265219569206,-0.147283717989922,-0.0844735279679298
482,-0.0127412378787994,-0.0388652086257935,-0.0975970923900604,-0.0749374628067017,-0.147589027881622,-0.0814956277608871
483,-0.011694329790771,-0.034672237932682,-0.0917061939835548,-0.0686265155673027,-0.146977320313454,-0.0771611407399178
484,-0.0109919663518667,-0.0307630728930235,-0.0850427225232124,-0.0609497427940369,-0.145861804485321,-0.073543019592762
485,-0.0105912191793323,-0.027800377458334,-0.0791774988174438,-0.0548027642071247,-0.143353521823883,-0.0714204534888268
486,-0.0096986498683691,-0.0250212289392948,-0.0748998299241066,-0.0512531101703644,-0.139627426862717,-0.0699118673801422
487,-0.00904247350990772,-0.0222585424780846,-0.0730304792523384,-0.0502193868160248,-0.136565253138542,-0.068186953663826
488,-0.00997515395283699,-0.0209201220422983,-0.0740778297185898,-0.0510575845837593,-0.135175034403801,-0.0655547454953194
489,-0.0117061296477914,-0.0214873105287552,-0.0760839805006981,-0.0516147837042809,-0.133679270744324,-0.0608242638409138
490,-0.0123366545885801,-0.0225882977247238,-0.0757478848099709,-0.0497314445674419,-0.130286410450935,-0.0540004931390285
491,-0.0107215382158756,-0.0234759245067835,-0.0722678005695343,-0.0462395362555981,-0.124689608812332,-0.0480895265936852
492,-0.00643036095425487,-0.0245484933257103,-0.0668813288211823,-0.043134156614542,-0.116026766598225,-0.0468816868960857
493,-0.000648424029350281,-0.0260306186974049,-0.0612233318388462,-0.0405474305152893,-0.1046157553792,-0.0513300150632858
494,0.00400757184252143,-0.0282369386404753,-0.0567800737917423,-0.0378569848835468,-0.0932641103863716,-0.0592076815664768
495,0.00623671524226666,-0.0312619134783745,-0.0535318069159985,-0.0354204215109348,-0.0836995765566826,-0.0673204958438873
496,0.00622792867943645,-0.0340558215975761,-0.0514220148324966,-0.034338217228651,-0.0766766965389252,-0.0735066533088684
497,0.00365929072722793,-0.0347689613699913,-0.0519981160759926,-0.0348130241036415,-0.0746028125286102,-0.0768014565110207
498,-0.000529101758729666,-0.0321440249681473,-0.0553020611405373,-0.035904910415411,-0.0777184441685677,-0.0770436227321625
499,-0.00370884663425386,-0.0278491172939539,-0.0591677948832512,-0.0374164581298828,-0.0821774080395699,-0.0761938691139221
500,-0.00535501819103956,-0.0253772437572479,-0.0619387589395046,-0.0395553894340992,-0.0855738818645477,-0.0766560360789299
501,-0.00656681042164564,-0.0260788965970278,-0.0620703548192978,-0.0412498563528061,-0.0878188610076904,-0.0774682834744453
502,-0.00696301087737083,-0.028226712718606,-0.0585580728948116,-0.0402920618653297,-0.0872217565774918,-0.0756257995963097
503,-0.00576790841296315,-0.0289783384650946,-0.0526689998805523,-0.0347953774034977,-0.082148551940918,-0.0700402781367302
504,-0.00330156227573752,-0.0269191674888134,-0.0468596369028091,-0.0251436308026314,-0.0742479339241982,-0.0621756054461002
505,-0.000403164041927084,-0.022718571126461,-0.0429280996322632,-0.0142661491408944,-0.0669217854738235,-0.0537135265767574
506,0.0020552531350404,-0.0182167962193489,-0.0411945208907127,-0.00589235825464129,-0.0622271150350571,-0.0456538461148739
507,0.00383191090077162,-0.0154003351926804,-0.0406942926347256,-0.00220188708044589,-0.0603876076638699,-0.0387567281723022
508,0.00574031518772244,-0.0139438044279814,-0.0394092313945293,-0.00184714188799262,-0.0602461956441402,-0.033173318952322
509,0.0085419062525034,-0.0114744231104851,-0.0357339791953564,-0.00178308493923396,-0.0599098205566406,-0.0281482338905334
510,0.0116243027150631,-0.00700783682987094,-0.0302294436842203,-0.000622945022769272,-0.0588569864630699,-0.0222420170903206
511,0.0138077354058623,-0.00222475593909621,-0.0242595802992582,0.00144545163493603,-0.057293388992548,-0.0149614308029413
512,0.0152586922049522,0.000529969518538564,-0.0183011591434479,0.00388099043630064,-0.0544436611235142,-0.00711961975321174
513,0.0173963606357574,0.00112584710586816,-0.0116637144237757,0.00670355465263128,-0.049908846616745,0.000960551726166159
514,0.0202216599136591,0.000323137588566169,-0.00435331743210554,0.00997176114469767,-0.044948123395443,0.00845271069556475
515,0.0222990307956934,-0.00188974966295064,0.00150071666575968,0.0132544059306383,-0.0402161292731762,0.0136684235185385
516,0.023162305355072,-0.00470210006460547,0.00492797838523984,0.0168591998517513,-0.0341366194188595,0.0159200876951218
517,0.022913096472621,-0.00623813178390265,0.0070350575260818,0.0214144121855497,-0.0266284979879856,0.0156769063323736
518,0.0216242428869009,-0.00524595146998763,0.008720388635993,0.0272177122533321,-0.0201690215617418,0.0143135040998459
519,0.0199858285486698,-0.00255951914004982,0.0100636603310704,0.0340561680495739,-0.015561412088573,0.0131856920197606
520,0.0181080661714077,-0.00032148850732483,0.0100281899794936,0.0399867221713066,-0.012181032449007,0.0121051706373692
521,0.0156100271269679,0.000316753605147824,0.00804163422435522,0.0428324975073338,-0.0101986257359385,0.0105406036600471
522,0.0135510973632336,-0.000195836299099028,0.00602348474785686,0.0423730947077274,-0.00899370945990086,0.00931336544454098
523,0.0130903357639909,-0.000971659668721259,0.00708332844078541,0.0393369942903519,-0.00707080494612455,0.00932705029845238
524,0.0138505361974239,-0.00162235519383103,0.0120867332443595,0.0345235019922256,-0.0045881480909884,0.0103137567639351
525,0.0147824073210359,-0.00246656220406294,0.0189358647912741,0.0292120892554522,-0.00335097149945796,0.0112329348921776
526,0.0156679134815931,-0.00348577834665775,0.0248780529946089,0.0254826657474041,-0.00319315050728619,0.0115253822878003
527,0.0169406477361918,-0.00388845521956682,0.0275299064815044,0.0241817012429237,-0.00192350090947002,0.0115688499063253
528,0.0179558862000704,-0.00386609300039709,0.0258867610245943,0.0231589898467064,0.000644984829705209,0.0114777842536569
529,0.0177330076694489,-0.00455771805718541,0.0214762352406979,0.0208422653377056,0.00289155216887593,0.0110878776758909
530,0.016812302172184,-0.00542742665857077,0.0165500678122044,0.0189296863973141,0.00393834849819541,0.0111607005819678
531,0.0164038222283125,-0.00463005620986223,0.0122352978214622,0.0194102190434933,0.00413198722526431,0.0126778101548553
532,0.0164556987583637,-0.00256545981392264,0.00913118477910757,0.0216163266450167,0.00480287708342075,0.0144031057134271
533,0.016589617356658,-0.00112588657066226,0.00799631886184216,0.0242520403116941,0.00762389088049531,0.0148935774341226
534,0.0176398940384388,-0.000585526518989354,0.00962035544216633,0.0277350191026926,0.0131416711956263,0.0154855418950319
535,0.0197093952447176,-0.00120481883641332,0.0142939994111657,0.0314931832253933,0.0199409443885088,0.0162102766335011
536,0.0218478329479694,-0.00345477508381009,0.0220439042896032,0.0338669270277023,0.0269169919192791,0.0151782194152474
537,0.0237351208925247,-0.00624858308583498,0.0320159420371056,0.035031009465456,0.0340238213539124,0.0125944949686527
538,0.024962306022644,-0.00818370934575796,0.0412926822900772,0.0363523587584496,0.0397902652621269,0.0103132305666804
539,0.0255103781819344,-0.00783616676926613,0.0476161129772663,0.03933385014534,0.0433176159858704,0.0105840526521206
540,0.0256700795143843,-0.00479118665680289,0.0510434322059155,0.0443782620131969,0.0455580502748489,0.0144987013190985
541,0.0244347043335438,-0.00106044253334403,0.0523684620857239,0.0502424016594887,0.0462988540530205,0.0206788368523121
542,0.0214274413883686,0.00117680779658258,0.053404662758112,0.0556079745292664,0.0450689606368542,0.0265132859349251
543,0.0183164943009615,0.00137676286976784,0.0555389299988747,0.0593916922807693,0.0425746478140354,0.0296635497361422
544,0.0166622586548328,0.000100352204754017,0.0571974888443947,0.0604976415634155,0.0395147129893303,0.0288461875170469
545,0.0160581264644861,-0.00242898939177394,0.0560785569250584,0.0582454018294811,0.0369890816509724,0.0236926693469286
546,0.0156881231814623,-0.0063320230692625,0.0527446679770947,0.0534484274685383,0.0373492352664471,0.0151349306106567
547,0.0160885378718376,-0.0105506852269173,0.0499626509845257,0.0485515892505646,0.0414503514766693,0.00585456099361181
548,0.0174109507352114,-0.0134852090850472,0.0496440157294273,0.0456326864659786,0.0465775057673454,-0.00116879167035222
549,0.0192694179713726,-0.0141603266820312,0.0521902702748775,0.0456875935196877,0.0510300546884537,-0.00377860013395548
550,0.021215071901679,-0.0129737034440041,0.0557905770838261,0.0478486232459545,0.0548434294760227,-0.00206041359342635
551,0.0220638252794743,-0.0116967102512717,0.0570443160831928,0.0498044081032276,0.0563506186008453,0.0016674519283697
552,0.0210752226412296,-0.0119589287787676,0.0550627298653126,0.0508524850010872,0.0549008212983608,0.00544089730829
553,0.0192224159836769,-0.0143547970801592,0.0520262606441975,0.0511774197220802,0.0534832328557968,0.00796873867511749
554,0.0182799343019724,-0.0183853358030319,0.0507510863244534,0.0508552119135857,0.0555971749126911,0.00920343771576881
555,0.0185133945196867,-0.022953474894166,0.0528964512050152,0.0510431006550789,0.0610824935138226,0.0109381033107638
556,0.019490672275424,-0.0264066066592932,0.0583933778107166,0.0526218377053738,0.0675768107175827,0.0140391448512673
557,0.0214483588933945,-0.0271743759512901,0.0654395744204521,0.0544330514967442,0.0732893496751785,0.0167530234903097
558,0.0236817840486765,-0.0253454353660345,0.0703467205166817,0.0547690950334072,0.0765597447752953,0.0175216142088175
559,0.0245118606835604,-0.0224211327731609,0.0695148035883904,0.0540230683982372,0.0765014216303825,0.0177166499197483
560,0.0229805465787649,-0.0198186989873648,0.0627103373408318,0.0535403862595558,0.0737627446651459,0.0196411292999983
561,0.019813185557723,-0.0177673771977425,0.0543458350002766,0.0537224523723125,0.070489726960659,0.0240526683628559
562,0.0169511418789625,-0.0156428944319487,0.0497446060180664,0.0546877942979336,0.0696564763784409,0.0298499837517738
563,0.0157807134091854,-0.0128138707950711,0.0503226704895496,0.0569418929517269,0.072515681385994,0.0356747470796108
564,0.0164052303880453,-0.00882870983332396,0.0545883290469646,0.0615862458944321,0.0775989294052124,0.0417072512209415
565,0.0177001692354679,-0.00435095792636275,0.0597610734403133,0.0685026869177818,0.0821052119135857,0.0474029667675495
566,0.017805315554142,-0.00127137277740985,0.0619526356458664,0.0752968415617943,0.083430178463459,0.0503067933022976
567,0.0164064764976501,-0.000608086353167892,0.0604703798890114,0.0801023691892624,0.0814926326274872,0.0491838045418262
568,0.0153128849342465,-0.00119616719894111,0.0583789013326168,0.0828425586223602,0.0789483264088631,0.0455006435513496
569,0.0154545241966844,-0.00187497003935277,0.0571180582046509,0.0837307944893837,0.0772525295615196,0.0407850444316864
570,0.0158757921308279,-0.00295256194658577,0.0562571585178375,0.0833153054118156,0.0751877203583717,0.0349180921912193
571,0.015618534758687,-0.00438366550952196,0.0558871477842331,0.0829311385750771,0.0712865814566612,0.0277414079755545
572,0.0146356308832765,-0.00548850372433662,0.0557642839848995,0.0837574824690819,0.0655019655823708,0.0202340763062239
573,0.0138549003750086,-0.0057602352462709,0.0554540827870369,0.0864887461066246,0.0601376704871655,0.0149097135290504
574,0.0137607790529728,-0.00575870042666793,0.0546183809638023,0.0902733579277992,0.0581370890140533,0.0133240669965744
575,0.0134269911795855,-0.00718573899939656,0.0525626391172409,0.0930435359477997,0.0595694407820702,0.0136709716171026
576,0.0125713599845767,-0.0101721882820129,0.0502967983484268,0.0946343317627907,0.0624760948121548,0.0137978726997972
577,0.0121357794851065,-0.0128558557480574,0.0502522140741348,0.0958983972668648,0.0659186393022537,0.0132367042824626
578,0.0124711878597736,-0.0141509072855115,0.0530918389558792,0.0963074266910553,0.0699170008301735,0.0124629521742463
579,0.0141159910708666,-0.0131625989452004,0.0586066246032715,0.0966548770666122,0.0758441463112831,0.0132339624688029
580,0.0178524442017078,-0.00911416951566935,0.0671475529670715,0.099231444299221,0.0855135694146156,0.0161868650466204
581,0.0223371498286724,-0.0038734688423574,0.0773502737283707,0.103375129401684,0.0968030840158463,0.0188656877726316
582,0.0250697024166584,6.09028174949344E-05,0.085726760327816,0.106133796274662,0.104605965316296,0.0194749440997839
583,0.0249964911490679,0.00234642974101007,0.0897813811898232,0.106261566281319,0.106077447533607,0.0195585638284683
584,0.0228499975055456,0.00361830554902554,0.0900376737117767,0.104930900037289,0.102905660867691,0.0217590685933828
585,0.0199562683701515,0.00374959432519972,0.0883323103189468,0.103718958795071,0.0993003249168396,0.0261414144188166
586,0.0176104996353388,0.00244077178649604,0.0858362317085266,0.102823026478291,0.098114974796772,0.0300858039408922
587,0.016772048547864,0.000280140287941322,0.0838935002684593,0.101071961224079,0.0991347208619118,0.03145457431674
588,0.0172054041177034,-0.0017562952125445,0.0837375074625015,0.0971040800213814,0.0998385697603226,0.0300810541957617
589,0.0175172407180071,-0.00331812910735607,0.0834466591477394,0.0899806246161461,0.0975399315357208,0.0266746990382671
590,0.0170835424214602,-0.00455948943272233,0.079919770359993,0.0805465802550316,0.0929425284266472,0.022302757948637
591,0.0164240542799234,-0.00570254772901535,0.0741077959537506,0.0716516077518463,0.0896809995174408,0.0181399919092655
592,0.0157940927892923,-0.00654277112334967,0.0688458532094955,0.0658664181828499,0.0892163589596748,0.0154079012572765
593,0.0147253833711147,-0.00643604435026646,0.0645788237452507,0.0639573335647583,0.0899190902709961,0.0155094414949417
594,0.0126616675406694,-0.00561673706397414,0.0611238181591034,0.064945675432682,0.0904747471213341,0.0189048927277327
595,0.0104781612753868,-0.00451270490884781,0.0591957494616508,0.0679058209061623,0.090982660651207,0.0249207634478807
596,0.00967862829566002,-0.00298807746730745,0.0588212311267853,0.0726492553949356,0.0916460603475571,0.032184474170208
597,0.0103048253804445,-0.00164487166330218,0.0592617355287075,0.0786151811480522,0.0923177972435951,0.038459237664938
598,0.011422966606915,-0.00163439358584583,0.0596303343772888,0.0846068039536476,0.0929495692253113,0.0411313809454441
599,0.0128813721239567,-0.00296511617489159,0.0598690360784531,0.0894838273525238,0.0942584350705147,0.0395533256232738
600,0.0157636199146509,-0.0039092474617064,0.0611573532223701,0.0929035246372223,0.0977278798818588,0.0363653153181076
601,0.0206474438309669,-0.00301322829909623,0.064057245850563,0.095256507396698,0.103839956223965,0.0348133966326714
602,0.0265651643276215,-0.0016060802154243,0.0685065165162086,0.097061924636364,0.112016394734383,0.035635557025671
603,0.0316662900149822,-0.00268951221369207,0.0748677626252174,0.0979626253247261,0.121750272810459,0.0368544608354568
604,0.0332150533795357,-0.00753408810123801,0.081592857837677,0.0965680927038193,0.130378872156143,0.0358015596866608
605,0.0296719279140234,-0.0140354009345174,0.084505632519722,0.0924959257245064,0.133392691612244,0.0318962149322033
606,0.0232689119875431,-0.0185610614717007,0.0814897939562798,0.0870761424303055,0.129242241382599,0.0274662543088198
607,0.0171281974762678,-0.0193897560238838,0.0743751898407936,0.0808593332767487,0.120109438896179,0.0241628047078848
608,0.0122564565390348,-0.017377806827426,0.0659657418727875,0.0733694955706596,0.109170757234097,0.0210355836898088
609,0.00883962865918875,-0.0137836504727602,0.0588360093533993,0.0665490105748177,0.0995600819587708,0.018366539850831
610,0.00714541878551245,-0.00883360859006643,0.0548293069005013,0.0644646733999252,0.0934420302510262,0.0191288497298956
611,0.00716889835894108,-0.00254817539826036,0.0542596615850925,0.0686516538262367,0.0907599329948425,0.0256000366061926
612,0.00840950571000576,0.00408888421952724,0.0564346127212048,0.0764608979225159,0.0900621265172958,0.0364082157611847
613,0.0100550632923841,0.0098021887242794,0.0602638386189938,0.0834798961877823,0.0903844088315964,0.0473610833287239
614,0.0112000545486808,0.013769531622529,0.0642136260867119,0.0857765674591064,0.0910733118653297,0.0542479902505875
615,0.0112137366086245,0.0153709594160318,0.0665997117757797,0.0821535214781761,0.0914582386612892,0.0549167953431606
616,0.0101841688156128,0.0148460073396564,0.0675016418099403,0.0751739665865898,0.0919149592518806,0.0505570396780968
617,0.00863593351095915,0.0138515336439013,0.0685437768697739,0.0689891949295998,0.092984139919281,0.044981524348259
618,0.00740670273080468,0.0137973129749298,0.0703190937638283,0.0668475329875946,0.0940679162740707,0.0419603511691093
619,0.00709563307464123,0.0146131161600351,0.0722784474492073,0.0693636536598206,0.0945789664983749,0.0427326820790768
620,0.0075918803922832,0.0157712232321501,0.074036180973053,0.0750516653060913,0.0945814102888107,0.0458399318158627
621,0.00839608069509268,0.0165710393339396,0.075046218931675,0.0814354792237282,0.0941485241055489,0.0483941771090031
622,0.00904842000454664,0.0164112467318773,0.0746759176254272,0.0859649926424026,0.0940406695008278,0.0486444011330605
623,0.00908463262021542,0.015064986422658,0.0730192139744759,0.0873467996716499,0.0952202379703522,0.0469637475907803
624,0.00818626303225756,0.0122375963255763,0.0702981352806091,0.0852900445461273,0.0974729508161545,0.0435186251997948
625,0.00712302187457681,0.00865551829338074,0.067463293671608,0.0813533291220665,0.100197441875935,0.038861408829689
626,0.00684262672439218,0.0054055261425674,0.0663665011525154,0.07854213565588,0.10290315002203,0.0349268540740013
627,0.00743551040068269,0.00280881370417774,0.0677565857768059,0.0781467705965042,0.105356708168983,0.0330493003129959
628,0.00877118203788996,0.00144735316280276,0.0705857649445534,0.0792777165770531,0.107121087610722,0.0337975174188614
629,0.0102385384961963,0.00176656385883689,0.0728325620293617,0.0805172026157379,0.107112094759941,0.0372655168175697
630,0.0114076361060143,0.00341112189926207,0.0731007307767868,0.081219345331192,0.105795599520206,0.0419102273881435
631,0.0127095934003592,0.00506183970719576,0.0710692331194878,0.0813074856996536,0.104550890624523,0.0450209006667137
632,0.0133526986464858,0.00485802674666047,0.0665342733263969,0.0802253782749176,0.102850362658501,0.0454227738082409
633,0.0115958312526345,0.00247890967875719,0.0605929307639599,0.077892579138279,0.0995765700936317,0.044562853872776
634,0.00700658326968551,-0.000509229314047843,0.0555416867136955,0.0752823650836945,0.0940487682819366,0.0442932322621346
635,0.000436694535892457,-0.00245435675606132,0.0527500994503498,0.0732526779174805,0.0859447717666626,0.0455957613885403
636,-0.00608784612268209,-0.0020234442781657,0.0526130795478821,0.0722408816218376,0.0769038200378418,0.0489501021802425
637,-0.0107538495212793,0.000887754722498357,0.0535533577203751,0.0718191117048264,0.0690284669399261,0.0529304854571819
638,-0.0135386865586042,0.00401961989700794,0.0529001355171204,0.0705246925354004,0.063250795006752,0.0546011328697205
639,-0.0142243271693587,0.00572156207635999,0.0506608225405216,0.0675301998853683,0.0615701265633106,0.0530660971999168
640,-0.0115687306970358,0.00670538935810328,0.0491404347121716,0.0633403211832047,0.0657298117876053,0.0497176162898541
641,-0.00516145257279277,0.00846913643181324,0.0500415861606598,0.0594597831368446,0.0742354765534401,0.0471125841140747
642,0.00309518212452531,0.0117815947160125,0.0525894276797771,0.0571777671575546,0.0835592597723007,0.047173298895359
643,0.00964966416358948,0.0151090966537595,0.054760504513979,0.0562020502984524,0.0906674116849899,0.0483347810804844
644,0.012264278717339,0.0159678738564253,0.056303333491087,0.0557513125240803,0.094489574432373,0.0475156158208847
645,0.0117963002994657,0.014425702393055,0.058087769895792,0.0559884756803513,0.0957514867186546,0.0446828976273537
646,0.0110860168933868,0.0135088851675391,0.0608730688691139,0.0583637803792953,0.0964550003409386,0.043895848095417
647,0.0115485647693276,0.014685295522213,0.0644131153821945,0.0631520822644234,0.0977455228567123,0.0477411188185215
648,0.0121254520490766,0.0157074276357889,0.0665857568383217,0.0680154263973236,0.0987595170736313,0.0537113323807716
649,0.0117299929261208,0.0143263582140207,0.0654087662696838,0.0706621184945107,0.0984155759215355,0.0580922067165375
650,0.0107182906940579,0.0115197841078043,0.0612012036144733,0.0713862329721451,0.0965301841497421,0.0596605539321899
651,0.0101424809545279,0.0104750394821167,0.0564939379692078,0.0726708471775055,0.0937801524996758,0.0597579218447208
652,0.0102025363594294,0.0123734781518579,0.0530788116157055,0.075055755674839,0.0908226817846298,0.0593272559344769
653,0.0108463698998094,0.0155448904260993,0.0501757152378559,0.0765385180711746,0.0887272506952286,0.0583147145807743
654,0.0126170674338937,0.0184093862771988,0.0469949543476105,0.0765865966677666,0.089140497148037,0.0575538724660873
655,0.0156942699104548,0.020962318405509,0.0449077226221561,0.0766429901123047,0.0922697111964226,0.0575044937431812
656,0.0193156879395247,0.0239150281995535,0.0458219349384308,0.0771923437714577,0.096332922577858,0.057222131639719
657,0.0218344274908304,0.0268782749772072,0.0493918098509312,0.0767152681946754,0.0993603765964508,0.0557933785021305
658,0.0221071373671293,0.0289710350334644,0.0528736710548401,0.0739302784204483,0.100336261093616,0.053572416305542
659,0.020930603146553,0.0307049378752708,0.0540085323154926,0.0692576318979263,0.099400207400322,0.0519259236752987
660,0.0195919033139944,0.032927256077528,0.0530566461384296,0.0636090114712715,0.0979409441351891,0.0512852519750595
661,0.0182317569851875,0.0349738113582134,0.0515608005225658,0.0579145438969135,0.0969521850347519,0.0506933405995369
662,0.0168006662279367,0.0363674834370613,0.0504190549254417,0.0537645071744919,0.0957196205854416,0.0505965836346149
663,0.0158322602510452,0.0381271615624428,0.0504582151770592,0.0520283728837967,0.0936200246214867,0.0524384491145611
664,0.015510662458837,0.0406757332384586,0.052715640515089,0.0522878281772137,0.0909424275159836,0.0556673780083656
665,0.0155653795227408,0.0435893200337887,0.0566880702972412,0.0543572567403317,0.087817408144474,0.0594099834561348
666,0.0161587223410606,0.0461559630930424,0.0610561147332191,0.0583117790520191,0.0851161852478981,0.0637654140591621
667,0.0179718788713217,0.0471175089478493,0.065235547721386,0.0640488937497139,0.0848110318183899,0.0678540989756584
668,0.0212047882378101,0.0457352548837662,0.0682799816131592,0.0703678950667381,0.0881987139582634,0.0695441141724586
669,0.0249232556670904,0.0423423051834106,0.0684240683913231,0.0743216052651405,0.0945092141628265,0.0671592578291893
670,0.028341906145215,0.0383447110652924,0.0649670735001564,0.0734225511550903,0.101467221975327,0.0616022758185863
671,0.0306882988661528,0.0347183421254158,0.0590476095676422,0.0674105435609818,0.106880880892277,0.0548476874828339
672,0.0307454820722342,0.0306717585772276,0.0524190999567509,0.0580340065062046,0.109486415982246,0.0473617874085903
673,0.0292478408664465,0.0264805480837822,0.0472429357469082,0.0486197620630264,0.110265307128429,0.0403624847531319
674,0.0282959043979645,0.0243123732507229,0.04604796692729,0.0426018424332142,0.112122640013695,0.0362061858177185
675,0.0285259354859591,0.0250617489218712,0.0491316467523575,0.0410910062491894,0.116219006478786,0.0355560593307018
676,0.0300284437835217,0.0282069556415081,0.0540185235440731,0.0428907424211502,0.121296435594559,0.0379362478852272
677,0.0326106026768684,0.0327505171298981,0.0582391060888767,0.0462942533195019,0.125804454088211,0.042650256305933
678,0.0346859022974968,0.0365707688033581,0.0604850985109806,0.0495130755007267,0.127981469035149,0.0474294945597649
679,0.0359779633581638,0.0387984775006771,0.0613732784986496,0.0523916333913803,0.127414897084236,0.050534151494503
680,0.0380651839077473,0.0409935750067234,0.0626533329486847,0.0565674602985382,0.126284375786781,0.0532322563230991
681,0.040724653750658,0.0433745011687279,0.0643280744552612,0.0616182498633862,0.126614302396774,0.0564565509557724
682,0.0421222075819969,0.0446550697088242,0.0654910206794739,0.0655370131134987,0.128700405359268,0.0593766532838345
683,0.0416142158210278,0.0449172258377075,0.0665544793009758,0.067940354347229,0.131513625383377,0.0617185831069946
684,0.0392143540084362,0.0443260036408901,0.0672890245914459,0.0688300803303719,0.132483288645744,0.0629968792200089
685,0.03557313606143,0.0428143702447414,0.0666462108492851,0.068164549767971,0.130122676491737,0.0628642290830612
686,0.0326966755092144,0.0420095473527908,0.06536865234375,0.0674579218029976,0.125918671488762,0.0632419213652611
687,0.0315713286399841,0.0436309389770031,0.0647642910480499,0.0687412172555923,0.12096244096756,0.066174179315567
688,0.0312413107603788,0.0470504686236382,0.0640134513378143,0.0721360296010971,0.114468798041344,0.0711121559143066
689,0.0306980479508638,0.0502064824104309,0.0615779124200344,0.0754354298114777,0.106774806976318,0.0757273510098457
690,0.0301048438996077,0.0519551821053028,0.0582615993916988,0.0766324996948242,0.100921466946602,0.0786716714501381
691,0.030214536935091,0.0520513206720352,0.0562390238046646,0.0753214135766029,0.0991419553756714,0.0803166404366493
692,0.0314217656850815,0.0502525605261326,0.0560572110116482,0.071951150894165,0.100182987749577,0.0812297090888023
693,0.0336133167147636,0.0470892935991287,0.0563602969050407,0.0674775764346123,0.101658344268799,0.0819646343588829
694,0.0365727245807648,0.0442626476287842,0.0560651160776615,0.0631431117653847,0.102828040719032,0.0830268412828445
695,0.0399644412100315,0.0430356301367283,0.0549417398869991,0.0597667992115021,0.104325875639915,0.0841836780309677
696,0.0428021252155304,0.0431032553315163,0.0531938634812832,0.0573129542171955,0.105101950466633,0.0849511176347733
697,0.0431774519383907,0.0431371331214905,0.050980556756258,0.0549152828752995,0.101899445056915,0.0846457332372665
698,0.0401368997991085,0.0419193916022778,0.0481364615261555,0.0520075708627701,0.0942603126168251,0.0822485759854317
699,0.0357751622796059,0.0399219803512096,0.0454807728528976,0.0497806146740913,0.0865959972143173,0.0780031755566597
700,0.0328543707728386,0.0388380512595177,0.0437564812600613,0.0496946647763252,0.0824495032429695,0.0732918977737427
701,0.0320575162768364,0.0396795347332954,0.0420222841203213,0.0508007518947124,0.0805762782692909,0.0686860084533691
702,0.0325149856507778,0.042176965624094,0.0396253913640976,0.0506796911358833,0.0781448930501938,0.0639305040240288
703,0.0325995460152626,0.0445938371121883,0.0368225872516632,0.0487096793949604,0.0743387266993523,0.0590378567576408
704,0.0307305678725243,0.0447813831269741,0.0337296836078167,0.0466669201850891,0.0703566521406174,0.0545053333044052
705,0.0267807301133871,0.0422075055539608,0.0309373550117016,0.0461654029786587,0.0677521601319313,0.050620760768652
706,0.0218112524598837,0.0381100662052631,0.0289025530219078,0.0471159480512142,0.0667587593197823,0.0473980456590652
707,0.0169622208923101,0.0339626781642437,0.027575334534049,0.0487834140658379,0.0660605430603027,0.0450999848544598
708,0.0135925859212875,0.030921433120966,0.0276249516755342,0.050280474126339,0.0644895434379578,0.0439930036664009
709,0.0129551813006401,0.0301702488213778,0.0289036519825459,0.0513017997145653,0.0623108670115471,0.0450988486409187
710,0.0139793595299125,0.0312508419156075,0.0288649331778288,0.0518602915108204,0.0601386688649654,0.0487660504877567
711,0.0139068057760596,0.0317401625216007,0.0255794711410999,0.0507053770124912,0.058023139834404,0.0520057044923306
712,0.012720956467092,0.0304203741252422,0.0206571239978075,0.0468927137553692,0.0567690953612328,0.0517038814723492
713,0.0130925802513957,0.027904849499464,0.017410509288311,0.0412701591849327,0.0578316636383533,0.0478058531880379
714,0.0167554840445518,0.025683606043458,0.0179432276636362,0.0360154397785664,0.0613765828311443,0.0431344024837017
715,0.0227021239697933,0.0249092727899551,0.0217530503869057,0.0327862538397312,0.0657224431633949,0.0406578108668327
716,0.0284112654626369,0.0248260013759136,0.0263704936951399,0.031079413369298,0.0690504387021065,0.039773665368557
717,0.0319966971874237,0.0243256166577339,0.0294717159122229,0.0292868353426456,0.0703285411000252,0.0381380617618561
718,0.0323201715946198,0.0234904941171408,0.0297314375638962,0.0273608323186636,0.0687400251626968,0.0354807935655117
719,0.0298093948513269,0.0234720483422279,0.027341365814209,0.027418028563261,0.0648506134748459,0.0339554026722908
720,0.0266692452132702,0.0256695281714201,0.0238592326641083,0.030235419049859,0.0603184141218662,0.0356532484292984
721,0.0246217995882034,0.0295730922371149,0.0210599098354578,0.0337745621800423,0.0557428933680058,0.0396506451070309
722,0.0237413998693228,0.0325787737965584,0.0198089256882668,0.0358003899455071,0.0516476333141327,0.0423853322863579
723,0.0241143144667149,0.0333465524017811,0.0194035191088915,0.0361561141908169,0.0495934225618839,0.0417234636843205
724,0.0265052542090416,0.0327342227101326,0.0191791485995054,0.0360504873096943,0.050697322934866,0.0387526527047157
725,0.0301114525645971,0.0313859321177006,0.0195439141243696,0.0356047637760639,0.0551036708056927,0.0353292636573315
726,0.0323954783380032,0.0289042629301548,0.0201621931046247,0.033626601099968,0.0611255541443825,0.0317845344543457
727,0.0321273244917393,0.0252953246235847,0.0196041110903025,0.0298463981598616,0.0657719820737839,0.0278396960347891
728,0.0300779733806849,0.0221160836517811,0.0167827885597944,0.025855453684926,0.0672790482640266,0.0246276501566172
729,0.0275001246482134,0.0212901029735804,0.012279867194593,0.023850854486227,0.0652621164917946,0.0243216045200825
730,0.0254202019423246,0.0230766367167234,0.00779794249683619,0.0249098911881447,0.0601951107382774,0.0277136284857988
731,0.0238761361688375,0.026293558999896,0.0042570922523737,0.0281030368059874,0.0535287633538246,0.0333878807723522
732,0.0224837716668844,0.0298193655908108,0.0022695823572576,0.0315493866801262,0.0477264113724232,0.0397323817014694
733,0.0216833110898733,0.0326629802584648,0.0025840075686574,0.0344596095383167,0.0447495095431805,0.0454005934298038
734,0.0222268998622894,0.0340778939425945,0.00500846980139613,0.0374890044331551,0.0447039976716042,0.0490280762314796
735,0.0232432875782251,0.0332401916384697,0.00733402231708169,0.0400721542537212,0.0455894730985165,0.0492425188422203
736,0.0230066981166601,0.0299358926713467,0.00714526930823922,0.0402816720306873,0.0449422113597393,0.04541190341115
737,0.0217349734157324,0.0259215962141752,0.00448662182316184,0.0379270985722542,0.0423341393470764,0.0392576605081558
738,0.021314013749361,0.0235393736511469,0.00109709764365107,0.0352603122591972,0.0393517166376114,0.033714272081852
739,0.0231525301933289,0.0237619336694479,-0.0011197708081454,0.0344104655086994,0.038255013525486,0.0305767189711332
740,0.0269901975989342,0.0258916113525629,-0.00193129852414131,0.0347898937761784,0.0394802242517471,0.0298193618655205
741,0.0313559323549271,0.0289822146296501,-0.00274665816687047,0.0345696732401848,0.0412721894681454,0.0305730570107698
742,0.034384697675705,0.0324134789407253,-0.00373352691531181,0.0335080362856388,0.0418340973556042,0.0321540646255016
743,0.0351178646087646,0.0354466326534748,-0.00359453447163105,0.0329249985516071,0.0406465977430344,0.0341026447713375
744,0.0341445580124855,0.0372169092297554,-0.00171197217423469,0.0335929542779922,0.0383793041110039,0.0355663038790226
745,0.0325955636799335,0.0374727584421635,0.00200152397155762,0.034782350063324,0.0356902480125427,0.0363723859190941
746,0.0305347479879856,0.0365978479385376,0.00760521879419684,0.035639800131321,0.0322708748281002,0.0372093096375465
747,0.0268536191433668,0.0346088670194149,0.0138106513768435,0.0356542356312275,0.0275649428367615,0.0377440378069878
748,0.0217038989067078,0.0320482738316059,0.0183766782283783,0.0342405140399933,0.0223723109811544,0.0377686880528927
749,0.0166532676666975,0.030274573713541,0.0200736690312624,0.0318973176181316,0.0184102803468704,0.0383033826947212
750,0.0132528468966484,0.0300793442875147,0.0197170730680227,0.0304044727236032,0.0171070117503405,0.0402048751711845
751,0.0121275102719665,0.0307284314185381,0.0189471337944269,0.0307202395051718,0.0181527864187956,0.0430465452373028
752,0.0128111783415079,0.0307424645870924,0.0187556147575378,0.0317143872380257,0.0200401395559311,0.0451630353927612
753,0.0149595597758889,0.0296135600656271,0.0193372704088688,0.03132488951087,0.0223627425730228,0.0447945073246956
754,0.0187858920544386,0.0281907171010971,0.0202962011098862,0.0290420912206173,0.0253163166344166,0.041934072971344
755,0.0240658652037382,0.027780769392848,0.0215987376868725,0.0266955960541964,0.0286932103335857,0.038654550909996
756,0.0290465597063303,0.0285544730722904,0.0231990665197372,0.0260268431156874,0.0318719707429409,0.0369855761528015
757,0.031814943999052,0.0297183338552713,0.0245175287127495,0.0262910518795252,0.0341715328395367,0.037606168538332
758,0.0316520370543003,0.0302500780671835,0.024781858548522,0.0250056143850088,0.0344497486948967,0.039544615894556
759,0.0293132998049259,0.0295875836163759,0.0236994810402393,0.0212598778307438,0.0317719914019108,0.0410710908472538
760,0.0265337638556957,0.0283767785876989,0.0224418602883816,0.0168157517910004,0.0271092653274536,0.0415008291602135
761,0.0242559127509594,0.0269748065620661,0.0219869799911976,0.0133219510316849,0.0227170828729868,0.0407370813190937
762,0.022285932675004,0.0249353423714638,0.0212279576808214,0.0109671587124467,0.0207040198147297,0.0386084951460361
763,0.0204745773226023,0.0224540252238512,0.018648199737072,0.00935646146535873,0.0222136583179235,0.0358275510370731
764,0.0195045880973339,0.0200916230678558,0.0141571210697293,0.00786965806037188,0.026664225384593,0.0334205068647861
765,0.0194943323731422,0.0174803975969553,0.00945066660642624,0.00637982320040464,0.0314777307212353,0.0315054729580879
766,0.0198671352118254,0.0141257606446743,0.00681680859997869,0.0056963162496686,0.0344677567481995,0.030211852863431
767,0.0209844913333654,0.0107842301949859,0.00586898671463132,0.00616226717829704,0.0352660045027733,0.0297601073980331
768,0.0223740767687559,0.00795936118811369,0.00349847273901105,0.00612965039908886,0.0326100289821625,0.0289124380797148
769,0.0225740410387516,0.00533340591937304,-0.0017253290861845,0.00417607137933373,0.0253119841217995,0.0264317486435175
770,0.0211508832871914,0.00274736038409173,-0.00902250967919827,0.000810894765891135,0.0151849845424294,0.0223183985799551
771,0.0185678601264954,0.00047389033716172,-0.0170776508748531,-0.00333693437278271,0.00537188909947872,0.0172125734388828
772,0.0163567364215851,-0.000169718143297359,-0.0231926795095205,-0.00700591364875436,-0.00227371347136796,0.013661801815033
773,0.0154675617814064,0.00137267715763301,-0.025802917778492,-0.00863092765212059,-0.00823246035724878,0.0144214509055018
774,0.0156608875840902,0.00469638919457793,-0.0256703924387693,-0.00778648816049099,-0.0126999942585826,0.019400954246521
775,0.0168828312307596,0.00922588165849447,-0.0229309126734734,-0.00533220916986465,-0.0143282106146216,0.0254422817379236
776,0.019067969173193,0.0133564034476876,-0.017795393243432,-0.00310879060998559,-0.0128047680482268,0.0285996813327074
777,0.022088672965765,0.0161519255489111,-0.012351768091321,-0.00189111498184502,-0.00903427414596081,0.0283895917236805
778,0.0249781645834446,0.0177390575408936,-0.00869938358664513,-0.00175021309405565,-0.00432079844176769,0.027334937825799
779,0.0262686982750893,0.0184290185570717,-0.00675864983350039,-0.00332335731945932,0.00029681040905416,0.0273666493594646
780,0.0258014257997274,0.0187297128140926,-0.00510689150542021,-0.00609359890222549,0.00464862398803234,0.0291424710303545
781,0.0238562375307083,0.0184957385063171,-0.00345916883088648,-0.00851830746978521,0.00800449587404728,0.0317443087697029
782,0.0208200607448816,0.0178730487823486,-0.00238734623417258,-0.00948471110314131,0.00923056155443192,0.0336753092706203
783,0.0177792720496655,0.0179405305534601,-0.00177068263292313,-0.00837610755115747,0.00797407142817974,0.0343184322118759
784,0.0150237334892154,0.0184571482241154,-0.00160479673650116,-0.00552350981160998,0.00448208907619119,0.0335518941283226
785,0.0123513657599688,0.0178859494626522,-0.00218434748239815,-0.00180552154779434,0.000367196509614587,0.0315131135284901
786,0.0105527089908719,0.0163947511464357,-0.00295586604624987,0.00233794120140374,-0.00214974023401737,0.0289413165301085
787,0.0106236655265093,0.0161133483052254,-0.00218819989822805,0.00677209813147783,-0.0019974666647613,0.0274930149316788
788,0.0126671409234405,0.0174111295491457,0.00140898511745036,0.0112261911854148,0.000671513669658452,0.0280268304049969
789,0.0154904695227742,0.0181905701756477,0.00637242291122675,0.0148083316162229,0.00402731355279684,0.0290299858897924
790,0.0167870484292507,0.0171680394560099,0.00863471906632185,0.0157240107655525,0.00542654283344746,0.0283084958791733
791,0.0156124215573072,0.0147254718467593,0.00542264245450497,0.0133863128721714,0.00456024380400777,0.0255813784897327
792,0.0132708474993706,0.0115862265229225,-0.00166374444961548,0.00984662957489491,0.00331340124830604,0.0220846757292748
793,0.0111852139234543,0.00826393160969019,-0.00856084935367107,0.00762033183127642,0.00302968849427998,0.0191287659108639
794,0.00953943189233541,0.005010352935642,-0.0122400615364313,0.00747779523953795,0.00368259404785931,0.0178501028567553
795,0.00759686622768641,0.00200501875951886,-0.0125480284914374,0.00807695370167494,0.00461960164830089,0.0185354519635439
796,0.00533571327105165,-0.000366678519640118,-0.011288333684206,0.00809385068714619,0.00528378458693624,0.0206832103431225
797,0.00314339809119701,-0.00230469694361091,-0.00993219949305058,0.0078655481338501,0.00471747107803822,0.02325146086514
798,0.000849050527904183,-0.00440322235226631,-0.00876210443675518,0.00840725935995579,0.00219526491127908,0.025060398504138
799,-0.00118767051026225,-0.00610970379784703,-0.00781477335840464,0.00973893515765667,-0.00141614850144833,0.0257763303816319
800,-0.002470358973369,-0.00668335426598787,-0.00852128583937883,0.00994725711643696,-0.00517441192641854,0.025249507278204
801,-0.0031457815784961,-0.00689609115943313,-0.0120471883565187,0.0074081108905375,-0.00928494427353144,0.0230797119438648
802,-0.00309170573018491,-0.0078320512548089,-0.016535134986043,0.00312439748086035,-0.0138962976634502,0.0198405813425779
803,-0.00243290280923247,-0.00939685106277466,-0.019866980612278,-0.00124316965229809,-0.0187672860920429,0.0170036498457193
804,-0.00125479092821479,-0.0105954688042402,-0.021793931722641,-0.00478017330169678,-0.0219919644296169,0.0154355531558394
805,0.00120738055557013,-0.0101660285145044,-0.0222317297011614,-0.0055808792822063,-0.0203981846570969,0.0156861003488302
806,0.00434774067252874,-0.00798388384282589,-0.021498080343008,-0.00260590948164463,-0.0141023192554712,0.0180189218372107
807,0.006446055136621,-0.00562678510323167,-0.0205729249864817,0.00137352466117591,-0.00640348484739661,0.0208128411322832
808,0.00685186451300979,-0.00445081759244204,-0.0202967580407858,0.00321887107565999,-0.000507072603795677,0.0222054626792669
809,0.00590784242376685,-0.00383448973298073,-0.0212175827473402,0.00293446192517877,0.00191340374294668,0.0225111022591591
810,0.00451506674289703,-0.0023560244590044,-0.0231835916638374,0.00156679749488831,0.00138216139748693,0.0223881285637617
811,0.00345364166423678,-0.000202662835363299,-0.0250281728804111,-0.000491476035676897,-7.73804567870684E-05,0.0212775692343712
812,0.00283411587588489,0.00171420001424849,-0.0254617556929588,-0.0025640744715929,-0.000996629125438631,0.0189959034323692
813,0.00219325954094529,0.00333921564742923,-0.0246468745172024,-0.00436946609988809,-0.00205732160247862,0.0161054339259863
814,0.000861048873048276,0.00422025891020894,-0.0239488836377859,-0.00717050954699516,-0.00473214685916901,0.012193763628602
815,-0.00135592243168503,0.00391319999471307,-0.0240499880164862,-0.0121363876387477,-0.00961140356957912,0.00671567814424634
816,-0.00360205536708236,0.00338938925415277,-0.0245997048914433,-0.0182580668479204,-0.0158636569976807,0.00102254829835147
817,-0.00446795485913754,0.00359446019865572,-0.0252346582710743,-0.0232728477567434,-0.0210523270070553,-0.00318555487319827
818,-0.00356045668013394,0.0047038490884006,-0.0266133043915033,-0.0263594184070826,-0.023147152736783,-0.0053268070332706
819,-0.00195399066433311,0.00687546143308282,-0.0306247510015965,-0.0288760457187891,-0.0223735552281141,-0.00517908483743668
820,-0.000671913905534893,0.00987320858985186,-0.0374520942568779,-0.0320072025060654,-0.0199093893170357,-0.00310249137692153
821,3.48338253388647E-05,0.012771850451827,-0.04362578317523,-0.0349067859351635,-0.0164678376168013,-7.34101631678641E-05
822,0.000314145960146561,0.014755611307919,-0.0454600937664509,-0.0362017452716827,-0.0127333998680115,0.0031782491132617
823,4.38956958532799E-05,0.0155695201829076,-0.0429478883743286,-0.0358360148966312,-0.0101741151884198,0.00608264096081257
824,-0.000786720716860145,0.0148404994979501,-0.0385798439383507,-0.0340123325586319,-0.00954415835440159,0.00814267992973328
825,-0.00187522824853659,0.0126773007214069,-0.0346177853643894,-0.031050069257617,-0.0101961242035031,0.00924356374889612
826,-0.00386644783429801,0.0112504865974188,-0.0328555144369602,-0.0285009518265724,-0.012089816853404,0.00939469784498215
827,-0.00712010869756341,0.0123538775369525,-0.0339507013559341,-0.0279468148946762,-0.0151222590357065,0.00839619804173708
828,-0.0106024388223886,0.0149848619475961,-0.0367063358426094,-0.0299855601042509,-0.0185276791453362,0.00598073517903686
829,-0.0131648378446698,0.0176280420273542,-0.03885418176651,-0.0335439331829548,-0.0218283329159021,0.00280021247453988
830,-0.0146284317597747,0.0195108186453581,-0.0383629091084003,-0.0358088947832584,-0.0248936470597982,0.000965374812949449
831,-0.0155151234939694,0.0202504955232143,-0.0348862111568451,-0.0341954044997692,-0.0279626064002514,0.00267484318464994
832,-0.016224255785346,0.0196407437324524,-0.0307098943740129,-0.0291734263300896,-0.0314754135906696,0.0073289992287755
833,-0.0161374676972628,0.0175390318036079,-0.0282699763774872,-0.0243220906704664,-0.0343304313719273,0.0114431157708168
834,-0.013641981408,0.0149624263867736,-0.027022797614336,-0.0224318448454142,-0.0337705537676811,0.0131192589178681
835,-0.00886324606835842,0.0130169223994017,-0.0254116374999285,-0.0238461494445801,-0.0294940881431103,0.0127196293324232
836,-0.00374759826809168,0.0121573060750961,-0.0229952018707991,-0.0268695596605539,-0.0236910935491323,0.0109333293512464
837,0.000550186436157674,0.0132392747327685,-0.019952779635787,-0.0286005474627018,-0.0179978609085083,0.00941811222583056
838,0.00311291101388633,0.0157663598656654,-0.0173792596906424,-0.027938473969698,-0.0140007622539997,0.00922596827149391
839,0.00366207002662122,0.0179100949317217,-0.0166068878024817,-0.0265419762581587,-0.0119489943608642,0.00963775347918272
840,0.00389997288584709,0.0186873376369476,-0.0173050891608,-0.0263435393571854,-0.00996675621718168,0.00967799220234156
841,0.00509084202349186,0.0176493395119905,-0.0178002137690783,-0.0276192147284746,-0.00786016322672367,0.00897917151451111
842,0.00660617556422949,0.0149851245805621,-0.01712716370821,-0.0293921753764153,-0.00734379421919584,0.00863742455840111
843,0.00709082325920463,0.0115876765921712,-0.0167799536138773,-0.0315625108778477,-0.00904152262955904,0.00994708202779293
844,0.00555837946012616,0.00803809147328138,-0.0189901031553745,-0.034526139497757,-0.0117075089365244,0.0122717004269362
845,0.00227317120879889,0.00465912651270628,-0.0237787384539843,-0.0373860448598862,-0.0131846154108644,0.0139286909252405
846,-0.00130540155805647,0.00227225665003061,-0.0298303961753845,-0.0389235466718674,-0.0125722903758287,0.0142373265698552
847,-0.003262207377702,0.00209680944681168,-0.0355611555278301,-0.0384408868849278,-0.01055081281811,0.014085816219449
848,-0.00292381318286061,0.00401201006025076,-0.0402627028524876,-0.0363846756517887,-0.00806007534265518,0.0141001269221306
849,-0.00178788637276739,0.00623865565285087,-0.0448999479413033,-0.0347089730203152,-0.00627664616331458,0.0135414078831673
850,-0.00131092278752476,0.00779180461540818,-0.0494180209934711,-0.0347846262156963,-0.00574912829324603,0.0121917063370347
851,-0.0020657517015934,0.00871364586055279,-0.0522046536207199,-0.0361814610660076,-0.00638544326648116,0.0105311907827854
852,-0.00373159884475172,0.00852279644459486,-0.0523671060800552,-0.0378268100321293,-0.00853466335684061,0.00833697710186243
853,-0.00369038246572018,0.00807073432952166,-0.0493901930749416,-0.0383411049842834,-0.0106670819222927,0.00632254220545292
854,-0.000522342976182699,0.0090710436925292,-0.0433141589164734,-0.0370431020855904,-0.0109712202101946,0.00575664825737476
855,0.00309607060626149,0.0108759459108114,-0.0362503752112389,-0.0352180823683739,-0.0115054994821548,0.0058597382158041
856,0.00500452239066362,0.0131336906924844,-0.0309991482645273,-0.0338221788406372,-0.0141498008742929,0.00629387935623527
857,0.00566781731322408,0.0173168741166592,-0.0291334316134453,-0.0316976942121983,-0.0174555145204067,0.00922925118356943
858,0.00568491872400045,0.022737231105566,-0.0299429055303335,-0.0280817728489637,-0.0192958991974592,0.0152497626841068
859,0.0060153822414577,0.0274505987763405,-0.0301990769803524,-0.0234132558107376,-0.018001239746809,0.0223130602389574
860,0.00816140044480562,0.031210046261549,-0.0269497707486153,-0.0177075546234846,-0.0135328201577067,0.0291627123951912
861,0.0115674026310444,0.0334773622453213,-0.0209961403161287,-0.0123465973883867,-0.00851983390748501,0.0347939804196358
862,0.0133748259395361,0.0328470766544342,-0.0161894913762808,-0.0103616584092379,-0.00652268435806036,0.0374172776937485
863,0.0118017857894301,0.0291513167321682,-0.0150596164166927,-0.0122388200834394,-0.00967244431376457,0.0367581695318222
864,0.00794514641165733,0.0236782003194094,-0.0166419222950935,-0.0154255144298077,-0.0167565923184156,0.0341727137565613
865,0.00386594841256738,0.0183451622724533,-0.0187735836952925,-0.0183468163013458,-0.0239466093480587,0.030817111954093
866,0.000572481018025428,0.0149628994986415,-0.0207012165337801,-0.0216901060193777,-0.0285547412931919,0.0276327431201935
867,-0.0017645024927333,0.0141204660758376,-0.0222328118979931,-0.0265014637261629,-0.0303004011511803,0.0249549616128206
868,-0.00355971674434841,0.0138575052842498,-0.0234931688755751,-0.0328118465840817,-0.0297682601958513,0.0217636507004499
869,-0.00540265394374728,0.0120124518871307,-0.0260527357459068,-0.0396572612226009,-0.0277534257620573,0.0173532962799072
870,-0.00640285154804587,0.00983911938965321,-0.0298378672450781,-0.045252937823534,-0.0240114666521549,0.0130755333229899
871,-0.00520941941067576,0.00901448912918568,-0.0325594879686832,-0.0476098284125328,-0.0181122738867998,0.0105521101504564
872,-0.00233119423501194,0.00888672191649675,-0.0333189219236374,-0.0461567305028439,-0.0115891313180327,0.0096384584903717
873,0.000592462776694447,0.0086191613227129,-0.0318589769303799,-0.0413056798279285,-0.00605177599936724,0.00979075487703085
874,0.00241270894184709,0.0084539633244276,-0.0280189942568541,-0.0339882969856262,-0.00206020148470998,0.0114975217729807
875,0.00263925269246101,0.00816377066075802,-0.0234102811664343,-0.0271764975041151,-7.3016868554987E-05,0.0141285322606564
876,0.00190484884660691,0.00709308637306094,-0.0196460671722889,-0.0234530996531248,0.000666567881125957,0.0156409088522196
877,0.0015587400412187,0.00577404489740729,-0.0172646436840296,-0.0223863013088703,0.00165725091937929,0.0155522283166647
878,0.00120297516696155,0.00436377711594105,-0.0172006916254759,-0.0230875890702009,0.00215051393024623,0.0142116965726018
879,-8.14984014141373E-05,0.00222304696217179,-0.0193841587752104,-0.0259070117026567,0.000677777046803385,0.0113648921251297
880,-0.00114219530951232,-0.000468098092824221,-0.0218348428606987,-0.030540693551302,-0.00141714501660317,0.00778135657310486
881,-0.000819636392407119,-0.00302079599350691,-0.0237531885504723,-0.0347421206533909,-0.0022503521759063,0.00558598013594747
882,0.000301446067169309,-0.00505284825339913,-0.0262777525931597,-0.0371355563402176,-0.00228567002341151,0.00518028065562248
883,0.00134531769435853,-0.00620703864842653,-0.0296636261045933,-0.0386372804641724,-0.00217988225631416,0.00506642227992415
884,0.00164908089209348,-0.00640479475259781,-0.0327187776565552,-0.03982774913311,-0.00190427922643721,0.00522071216255426
885,0.000802872877102345,-0.00565418787300587,-0.0338060334324837,-0.0400378257036209,-0.00168219546321779,0.00703222351148725
886,-0.000788657169323415,-0.0033796695061028,-0.0319812335073948,-0.0386744886636734,-0.00154387182556093,0.0111177694052458
887,-0.0025878194719553,-0.000330145034240559,-0.0280387289822102,-0.0362829864025116,-0.00157662353012711,0.0161484759300947
888,-0.00404689740389585,0.00143913622014225,-0.0238303430378437,-0.0341877602040768,-0.00207082531414926,0.0199141167104244
889,-0.00445713056251407,0.0014013588661328,-0.0217924118041992,-0.0333985574543476,-0.00291579007171094,0.0213601812720299
890,-0.00352906668558717,0.000718515366315842,-0.0226642098277807,-0.0336762852966785,-0.00295436242595315,0.0206009782850742
891,-0.00179448979906738,0.000567312294151634,-0.024673767387867,-0.0345084182918072,-0.00136598048266023,0.0182987712323666
892,-0.000420062890043482,0.00131707917898893,-0.0271816551685333,-0.0359790660440922,0.000447174126747996,0.0155264046043158
893,-0.000221162685193121,0.00230253371410072,-0.0305962953716516,-0.0373312421143055,0.000627816887572408,0.0131117263808846
894,-0.000438010058132932,0.00270780175924301,-0.0342954657971859,-0.0377966873347759,-0.000797997287008911,0.0119450520724058
895,0.00061531423125416,0.00259924842976034,-0.0374725386500359,-0.037869680672884,-0.00263666571117938,0.0130008524283767
896,0.00294650811702013,0.00206222431734204,-0.0399090573191643,-0.0380077883601189,-0.00419862382113934,0.0157024804502726
897,0.00510010961443186,0.00145630317274481,-0.0407686121761799,-0.037723433226347,-0.00519101833924651,0.0189003515988588
898,0.00580251635983586,0.00197003898210824,-0.0389662198722363,-0.0363772362470627,-0.00592301739379764,0.0233024246990681
899,0.00514148315414786,0.00467931386083364,-0.0349390543997288,-0.0337976962327957,-0.00660198228433728,0.0303276162594557
900,0.00477783847600222,0.00959554128348827,-0.0297414157539606,-0.0306035708636045,-0.00623096060007811,0.0387140847742558
901,0.0054066008888185,0.0145137831568718,-0.0246383920311928,-0.0287043079733849,-0.00453462451696396,0.0445060469210148
902,0.00614104745909572,0.0170502755790949,-0.0218097399920225,-0.029292481020093,-0.00263910437934101,0.0450518615543842
903,0.00612136907875538,0.0172395091503859,-0.0227049961686134,-0.0314175337553024,-0.00155955634545535,0.0409704186022282
904,0.0049416390247643,0.0156112434342504,-0.026196826249361,-0.0343420244753361,-0.00124395242892206,0.0337900593876839
905,0.00352203682996333,0.0132906371727586,-0.0290166214108467,-0.037256084382534,-0.000676771800499409,0.0256966482847929
906,0.00337513675913215,0.0121752740815282,-0.0283827595412731,-0.0384949147701263,0.000492741819471121,0.019184984266758
907,0.00425498140975833,0.0122744757682085,-0.0248007327318192,-0.038750309497118,0.00124474498443305,0.0140161169692874
908,0.00508182216435671,0.013329348526895,-0.0207492914050817,-0.0402632467448711,0.00104167871177197,0.00924081727862358
909,0.005447409581393,0.0155268274247646,-0.0176289901137352,-0.0431268587708473,0.000722804106771946,0.00558556662872434
910,0.00560149271041155,0.0184497516602278,-0.0156227713450789,-0.0455834716558456,0.00111271813511848,0.0044288756325841
911,0.00538627151399851,0.0221934039145708,-0.0145916594192386,-0.0461097285151482,0.00159222795628011,0.00678511429578066
912,0.00411399034783244,0.0260307695716619,-0.0141197284683585,-0.0441045835614204,0.00101997086312622,0.0117675736546516
913,0.00255756173282862,0.027899032458663,-0.0135890357196331,-0.0398104600608349,-0.000332775729475543,0.0174904521554708
914,0.00255778850987554,0.0268345102667809,-0.0122279152274132,-0.0341692008078098,-0.000348962174030021,0.0228884108364582
915,0.00485349865630269,0.0235653184354305,-0.00959683582186699,-0.0284531954675913,0.00332021550275385,0.0269256122410297
916,0.00818420108407736,0.0194176882505417,-0.00644959509372711,-0.0236618276685476,0.0097914095968008,0.0289399176836014
917,0.0108105856925249,0.0161112360656261,-0.00376070151105523,-0.0196356158703566,0.0154816349968314,0.0302966181188822
918,0.0126733714714646,0.015287253074348,-0.00156434159725904,-0.0158215835690498,0.0187331214547157,0.0328090786933899
919,0.014324308373034,0.0170157440006733,0.000948747794609517,-0.0125709185376763,0.0204028226435184,0.0358437262475491
920,0.015468287281692,0.0193789191544056,0.00460499711334705,-0.0106857661157846,0.021443547680974,0.037119884043932
921,0.015652185305953,0.019953902810812,0.00800078548491001,-0.0105563709512353,0.022237591445446,0.0352719686925411
922,0.0150319375097752,0.0184973366558552,0.00837027188390493,-0.0113875800743699,0.0225336384028196,0.0310862958431244
923,0.013704395852983,0.0162585228681564,0.00509773287922144,-0.012474955059588,0.0212262813001871,0.0260195601731539
924,0.0112760243937373,0.0131663456559181,7.49353830542532E-06,-0.0140972640365362,0.0181482639163733,0.0201674643903971
925,0.00881557911634445,0.00973094813525677,-0.00377989350818098,-0.0149055300280452,0.0153498873114586,0.0147260595113039
926,0.0088870981708169,0.00847566314041615,-0.00391074595972896,-0.0127510745078325,0.0149569725617766,0.0129169439896941
927,0.011847116984427,0.0104813687503338,-0.000734665431082249,-0.00796759035438299,0.0168193709105253,0.0157359298318625
928,0.0150688691064715,0.0140242977067828,0.0039533618837595,-0.00228394428268075,0.0189331788569689,0.0208517853170633
929,0.0164130888879299,0.0170329231768847,0.00856743473559618,0.0027115500997752,0.019481373950839,0.0254844389855862
930,0.0154918041080236,0.0184834636747837,0.0115137808024883,0.00529452925547957,0.0174174141138792,0.0281357746571302
931,0.0129671860486269,0.0183940455317497,0.0113986153155565,0.00473742187023163,0.0131136737763882,0.0285063870251179
932,0.0100680701434612,0.0166931804269552,0.00790386833250523,0.00130277161952108,0.00869205966591835,0.0263757649809122
933,0.00770098390057683,0.0126551715657115,0.00267480430193245,-0.00444846134632826,0.00592215964570642,0.0220896080136299
934,0.00631460174918175,0.00780575163662434,-0.0011839015642181,-0.010084381327033,0.00494290189817548,0.0187127403914928
935,0.00587747618556023,0.00575200561434031,-0.00206898152828217,-0.0122518111020327,0.00504027353599668,0.0192602071911097
936,0.00523875653743744,0.00698945252224803,-0.00124784908257425,-0.010326424613595,0.00496421102434397,0.0214477740228176
937,0.00310215796343982,0.00892079435288906,-0.000816574029158801,-0.00666013965383172,0.0038697374984622,0.0206944588571787
938,-0.000260822242125869,0.0101287821307778,-0.00216192123480141,-0.00382693693973124,0.00233275932259858,0.0161393005400896
939,-0.00342954928055406,0.0110862571746111,-0.00556161068379879,-0.00290549313649535,0.00091640540631488,0.0105286845937371
940,-0.00491335242986679,0.0127363195642829,-0.00874822027981281,-0.00304644252173603,-0.000114683803985827,0.00745378620922565
941,-0.00509060081094503,0.0148120848461986,-0.00938907917588949,-0.0032498452346772,-0.000964315491728485,0.00778486672788858
942,-0.00587160140275955,0.0164803899824619,-0.00861748121678829,-0.00371608464047313,-0.00262991478666663,0.00992788188159466
943,-0.00808270741254091,0.0179452374577522,-0.00914353411644697,-0.00468790391460061,-0.00589017244055867,0.0129858087748289
944,-0.0113419070839882,0.0196351744234562,-0.0126137463375926,-0.006462337449193,-0.010540415532887,0.0164389628916979
945,-0.0147714242339134,0.0217892471700907,-0.0184828098863363,-0.00924062635749578,-0.0152924805879593,0.0199202056974173
946,-0.0175275411456823,0.0237079318612814,-0.024453429505229,-0.0128357978537679,-0.018940057605505,0.0229711160063744
947,-0.0188213307410479,0.0239756591618061,-0.0280820000916719,-0.0167820267379284,-0.0205785613507032,0.0247855130583048
948,-0.0179365146905184,0.0231164004653692,-0.0285090412944555,-0.0197978653013706,-0.0197841115295887,0.025589307770133
949,-0.0148648004978895,0.0231922809034586,-0.0269256811589003,-0.0211041551083326,-0.0171109158545733,0.0263343695551157
950,-0.0107110477983952,0.0236627794802189,-0.0242260042577982,-0.0210186168551445,-0.0137601550668478,0.0264672711491585
951,-0.00732670212164521,0.0221016071736813,-0.0207395981997252,-0.0200569089502096,-0.0117669301107526,0.0254394467920065
952,-0.00571654085069895,0.018381342291832,-0.0171227902173996,-0.0192808751016855,-0.0124206636101007,0.0242948774248362
953,-0.0054167858324945,0.0140576139092445,-0.0136066693812609,-0.0189916305243969,-0.0143013400956988,0.0230024755001068
954,-0.00562937464565039,0.0105705233290792,-0.0111964922398329,-0.0186788756400347,-0.0149466507136822,0.0204115081578493
955,-0.00553153594955802,0.00852175615727901,-0.0114433532580733,-0.0193834416568279,-0.0133233889937401,0.0157963298261166
956,-0.00467376597225666,0.00765951815992594,-0.0139806931838393,-0.0213873405009508,-0.0107153058052063,0.0100735435262322
957,-0.00360864051617682,0.00740129966288805,-0.0168948452919722,-0.0226237159222364,-0.00965507887303829,0.00554282637313008
958,-0.00277857575565577,0.00678220950067043,-0.0189456604421139,-0.0225162971764803,-0.0113256983458996,0.00304540898650885
959,-0.00207101693376899,0.00510559650138021,-0.0199527014046907,-0.0228959526866674,-0.0147950574755669,0.00150898564606905
960,-0.00145097507629544,0.00274113798514009,-0.0198213011026382,-0.0244074631482363,-0.0184642896056175,1.94583499251166E-05
961,-0.000838085485156626,0.000768288562539965,-0.0185648687183857,-0.0255934651941061,-0.0212372392416,-0.00128296681214124
962,-0.00025665428256616,-0.000415006885305047,-0.0164497271180153,-0.0258735585957766,-0.0221655536442995,-0.00214004190638661
963,-5.48908101336565E-05,-0.00114097690675408,-0.0134710837155581,-0.025602500885725,-0.0201444067060947,-0.00291667273268104
964,-0.000343746447470039,-0.00131587963551283,-0.0100311366841197,-0.0241211745887995,-0.0156479477882385,-0.0038478085771203
965,-0.000368304055882618,-0.000348003988619894,-0.00708307465538383,-0.0206147618591785,-0.0103805344551802,-0.00398310646414757
966,0.000280081207165495,0.00196205964311957,-0.00537353008985519,-0.015716802328825,-0.00569087127223611,-0.00271034520119429
967,0.00106369738932699,0.00507349893450737,-0.00482949009165168,-0.010794342495501,-0.00256017618812621,-0.000892713025677949
968,0.00216064718551934,0.00832126848399639,-0.00428770622238517,-0.00618441309779882,-0.000363842264050618,0.00125891796778888
969,0.00390746677294374,0.010737631469965,-0.00336527987383306,-0.0018556157592684,0.00231549516320229,0.00385762029327452
970,0.00527122616767883,0.0115256747230887,-0.0031928364187479,0.00149937788955867,0.00497101852670312,0.00586807960644364
971,0.00491427630186081,0.0112692164257169,-0.00477369641885161,0.00320702395401895,0.00545497378334403,0.00691128289327025
972,0.00286484812386334,0.0109667470678687,-0.00754929520189762,0.00326027371920645,0.00240887748077512,0.00810632947832346
973,-0.000342952116625384,0.0109096858650446,-0.0102809406816959,0.00170611427165568,-0.00343891279771924,0.0098443990573287
974,-0.00384963001124561,0.0112845776602626,-0.0124545469880104,-0.000713865971192718,-0.00919411610811949,0.010767606087029
975,-0.0061431541107595,0.0118254022672772,-0.0135109750553966,-0.00252801179885864,-0.0117399524897337,0.00958637055009604
976,-0.00676104426383972,0.011354448273778,-0.0125334337353706,-0.00310244620777667,-0.0105828428640962,0.00752414437010884
977,-0.00635733362287283,0.00950751453638077,-0.00944424327462912,-0.00210762256756425,-0.00765728810802102,0.00670832581818104
978,-0.00528224091976881,0.00783384963870049,-0.00514581194147468,0.000720860378351063,-0.00466767977923155,0.00709796557202935
979,-0.00327159487642348,0.00813419092446566,-0.00034124226658605,0.00502516468986869,-0.00156600959599018,0.00781724601984024
980,-0.000890971685294062,0.00982399471104145,0.00395016744732857,0.00948634278029203,0.00149668357335031,0.00755161931738257
981,0.00108189648017287,0.011128987185657,0.00655345525592566,0.0120183639228344,0.00342620140872896,0.00558582786470652
982,0.00270348764024675,0.0113008189946413,0.00687683233991265,0.011116742156446,0.00346764433197677,0.00301985163241625
983,0.00351572781801224,0.00985190831124783,0.0041811871342361,0.0070952451787889,0.00151172652840614,0.000480251619592309
984,0.0026933467015624,0.00658379308879375,-0.00156528677325696,0.00105328788049519,-0.00156620272900909,-0.00252430653199553
985,-0.000137878596433438,0.00184446212369949,-0.00905444379895926,-0.00726021965965629,-0.00461396342143416,-0.00703563913702965
986,-0.00449116714298725,-0.00362078635953367,-0.016673507168889,-0.0178546756505966,-0.00719206407666206,-0.0131281260401011
987,-0.00887705758213997,-0.00847194436937571,-0.0233583338558674,-0.0289353001862764,-0.00942099373787642,-0.0189095325767994
988,-0.0120355505496264,-0.0117733525112271,-0.0286552272737026,-0.0383974388241768,-0.011730907484889,-0.0222855173051357
989,-0.0141076119616628,-0.0134956445544958,-0.032019104808569,-0.0445249415934086,-0.0142821688205004,-0.0224174819886684
990,-0.0159118101000786,-0.0135542005300522,-0.0328337401151657,-0.0466144122183323,-0.01657535135746,-0.0201487299054861
