,AF3,AF4,Fp1,Fp2,AF7,AF8
0,-0.00442016776651144,-0.00028817227575928,0.0157054010778666,0.0186031237244606,0.0159168094396591,0.0251660905778408
1,-0.00609894981607795,0.00100337970070541,0.0129383532330394,0.0183556824922562,0.0142738521099091,0.0242574922740459
2,-0.00641566282138228,0.00265623233281076,0.0110318306833506,0.0182346813380718,0.0129826478660107,0.0235384646803141
3,-0.00524512212723494,0.00370834534987807,0.0105298962444067,0.0189727377146482,0.0128299808129668,0.0229691602289677
4,-0.00312978681176901,0.00399335799738765,0.0111722694709897,0.0203891526907682,0.0142522417008877,0.0222261026501656
5,-0.000856801052577794,0.00411820318549871,0.0123877860605717,0.0218427050858736,0.0166060589253902,0.0215561259537935
6,0.000696288712788373,0.00386711349710822,0.0131231872364879,0.0229043923318386,0.0183938201516867,0.0212154183536768
7,0.00113530294038355,0.002651437651366,0.0124606341123581,0.0229881126433611,0.0186795443296433,0.0210629031062126
8,1.82951935130404E-05,0.000538653112016618,0.0106637477874756,0.0215986780822277,0.016726516187191,0.0211818683892488
9,-0.00245528854429722,-0.00232540396973491,0.00941048469394445,0.0186596512794495,0.012862247414887,0.0206271223723888
10,-0.00466422457247972,-0.00584456836804748,0.0102265691384673,0.0149956224486232,0.00906327180564404,0.0180305354297161
11,-0.00547949876636267,-0.00894313771277666,0.0130023984238505,0.0126449689269066,0.0065533728338778,0.0147875128313899
12,-0.00505424337461591,-0.0101159745827317,0.0161119643598795,0.0126014519482851,0.00544511014595628,0.0133178969845176
13,-0.00431864708662033,-0.00954180955886841,0.0175235737115145,0.0132451243698597,0.00559878163039684,0.0132744731381536
14,-0.00393276289105415,-0.00853276997804642,0.0172332059592009,0.0131988665089011,0.00665523484349251,0.0133421961218119
15,-0.00400280812755227,-0.00826232694089413,0.0159199945628643,0.012032869271934,0.0076269805431366,0.0132794557139277
16,-0.00471520004794002,-0.00948820728808641,0.013200169429183,0.00934283528476954,0.00759633257985115,0.0129283498972654
17,-0.00572051201015711,-0.0113558629527688,0.0100581673905253,0.00671662064269185,0.00702087720856071,0.0122597878798842
18,-0.00632709497585893,-0.0122784888371825,0.0084383524954319,0.00612980592995882,0.00682513695210218,0.0112479897215962
19,-0.00619975384324789,-0.0120226629078388,0.00900788325816393,0.006912000477314,0.00722091319039464,0.00947810895740986
20,-0.00556248473003507,-0.0113469306379557,0.0107548870146275,0.00737700378522277,0.00744911702349782,0.00703966338187456
21,-0.00521028367802501,-0.0110385539010167,0.0118188606575131,0.00658187596127391,0.00660302815958858,0.00439980300143361
22,-0.00520146219059825,-0.0110392197966576,0.0115832518786192,0.00466855615377426,0.00489656766876578,0.00232966640032828
23,-0.00480430433526635,-0.0107223484665155,0.0108314035460353,0.00245383661240339,0.00311704492196441,0.00147640169598162
24,-0.0039898781105876,-0.0102142309769988,0.00986585766077042,0.000323510204907507,0.00165802240371704,0.00123426935169846
25,-0.00305605516768992,-0.0102765159681439,0.0086014037951827,-0.0015204792143777,0.000792268256191164,0.000796331791207194
26,-0.001959762070328,-0.0111339716240764,0.00732605950906873,-0.00266272900626063,0.00066397909540683,0.000331237359205261
27,-0.00105507927946746,-0.0122336884960532,0.00612490391358733,-0.00325462757609785,0.000531671976204962,0.000231578756938688
28,-0.000613568292465061,-0.0127578619867563,0.00516246445477009,-0.00321314088068902,-6.85307313688099E-05,0.000949538603890687
29,-5.03711889905389E-05,-0.0119908722117543,0.00523239839822054,-0.0016010778490454,-0.00025113596348092,0.00300646061077714
30,0.000587546557653695,-0.0101243574172258,0.00630981102585793,0.00116025295574218,-0.000245156028540805,0.00581625709310174
31,0.000166681042173877,-0.00822696648538113,0.00676013110205531,0.0032592723146081,-0.0017773857107386,0.00812356173992157
32,-0.00144694733899087,-0.00715006049722433,0.00557814864441752,0.00391301698982716,-0.00469238171353936,0.00937715917825699
33,-0.00308487936854362,-0.00712379347532988,0.00378596386872232,0.00378846330568194,-0.00679011549800634,0.00932827405631542
34,-0.00411327416077256,-0.00797226652503014,0.00276276934891939,0.00370396138168871,-0.0068172225728631,0.00755341397598386
35,-0.00448823301121593,-0.00900516100227833,0.00331080076284707,0.00414027366787195,-0.00523847993463278,0.00451454799622297
36,-0.00440797070041299,-0.00989645998924971,0.00536836683750153,0.00516417296603322,-0.00352635094895959,0.00101390480995178
37,-0.00399660877883434,-0.0109934099018574,0.00795859098434448,0.00651138229295611,-0.00233705504797399,-0.00243936525657773
38,-0.00258031883276999,-0.0120120234787464,0.0107315424829721,0.00820295885205269,-0.000267525261733681,-0.00479034427553415
39,-1.03061915979197E-06,-0.0127804884687066,0.0138518651947379,0.0100520625710487,0.00376749015413225,-0.00574815832078457
40,0.00269990344531834,-0.0138191534206271,0.01716591976583,0.0114714512601495,0.0090402951464057,-0.0060093067586422
41,0.00416904222220182,-0.0149479974061251,0.0199827775359154,0.0123813655227423,0.013350279070437,-0.0056637953966856
42,0.0036520364228636,-0.01536216866225,0.0206825863569975,0.0128246480599046,0.0142703466117382,-0.00464691687375307
43,0.00138343404978514,-0.014608140103519,0.0173744540661573,0.011887508444488,0.0105799622833729,-0.00350441713817418
44,-0.00216759508475661,-0.0131301041692495,0.00981089938431978,0.00864612311124802,0.00246887491084635,-0.0028419226873666
45,-0.00611095456406474,-0.0122781461104751,0.00094408291624859,0.00406748801469803,-0.00738888746127486,-0.0025859025772661
46,-0.00923256296664476,-0.0131627954542637,-0.00508826551958919,0.000415604008594528,-0.0148871280252934,-0.00217107310891151
47,-0.0109047070145607,-0.0153444083407521,-0.00653655547648668,-0.000852439959999174,-0.0178916417062283,-0.00111201649997383
48,-0.0107891112565994,-0.017025439068675,-0.00465597398579121,0.000343719613738358,-0.0168619323521852,0.00065306230681017
49,-0.00945028569549322,-0.017330365255475,-0.00182971777394414,0.00303424568846822,-0.0139689622446895,0.00258869724348187
50,-0.00837902538478374,-0.0170054566115141,0.000378918863134459,0.00593860819935799,-0.011446276679635,0.00411284202709794
51,-0.00821126531809568,-0.0169492550194263,0.00157049868721515,0.00840964633971453,-0.00982037931680679,0.00476944819092751
52,-0.00843966938555241,-0.0175591204315424,0.00192049716133624,0.0101312920451164,-0.00860363338142633,0.00411876104772091
53,-0.0081290490925312,-0.0179140456020832,0.00187083100900054,0.0111194308847189,-0.00736935064196587,0.00269463914446533
54,-0.00700140884146094,-0.016536908224225,0.00164292997214943,0.0123733831569552,-0.0063746115192771,0.00189118611160666
55,-0.00549722742289305,-0.0131548726931214,0.00166640267707407,0.0151564506813884,-0.0059873485006392,0.0027483010198921
56,-0.00401963107287884,-0.00903463270515203,0.00246820179745555,0.0189626347273588,-0.00578864477574825,0.00485063111409545
57,-0.0030603501945734,-0.00574844935908914,0.00394196016713977,0.0218879245221615,-0.00513154733926058,0.00673034274950624
58,-0.00254896422848105,-0.00340172043070197,0.00570989586412907,0.0233577284961939,-0.00381256802938879,0.00791962817311287
59,-0.00187980593182147,-0.00196409015916288,0.00661778682842851,0.0236347392201424,-0.00268348096869886,0.00849620159715414
60,-0.000859727908391505,-0.00190498062875122,0.00569479633122683,0.0228521097451448,-0.00236938195303082,0.0084897531196475
61,0.000331057264702395,-0.00274797203019261,0.00361989624798298,0.0218217018991709,-0.00230047316290438,0.00839503668248653
62,0.00130639784038067,-0.00364480121061206,0.0014715192373842,0.0213128924369812,-0.00229907175526023,0.00840250495821238
63,0.00147104798816144,-0.00393678387627006,-0.000169257065863349,0.0214192569255829,-0.0030566391069442,0.00856392551213503
64,0.000742800650186837,-0.00333480862900615,-0.00114559952635318,0.0217265151441097,-0.0050002746284008,0.00916320364922285
65,-0.000373411225154996,-0.00275286054238677,-0.00187124882359058,0.021052161231637,-0.00778128439560533,0.00965285301208496
66,-0.000863185501657426,-0.00265321414917707,-0.00224227854050696,0.0188866443932056,-0.0100810136646032,0.00969675555825233
67,0.000859932217281312,-0.00178554793819785,-0.000817956635728478,0.016676127910614,-0.00964203104376793,0.0104222549125552
68,0.00496859336271882,0.00024958499125205,0.00295849028043449,0.0159390345215797,-0.00548096094280481,0.0124670518562198
69,0.00918108783662319,0.00213996903039515,0.00737998681142926,0.016624990850687,0.000198511625058018,0.0152079537510872
70,0.0108633497729898,0.00253112078644335,0.0102073233574629,0.0172073543071747,0.00385459745302796,0.0173024088144302
71,0.00947057548910379,0.00121073587797582,0.0102556254714727,0.0159837082028389,0.00362424156628549,0.0174956489354372
72,0.0071570766158402,-0.000514405022840947,0.00807896442711353,0.0129988798871636,0.000863707915414125,0.0156458541750908
73,0.00640758452937007,-0.00122068694327027,0.00513815553858876,0.0100827673450112,-0.00138205173425376,0.0124928718432784
74,0.00708158127963543,-0.00103248783852905,0.00264234351925552,0.00862682331353426,-0.0016850852407515,0.00890392623841763
75,0.00758732296526432,-0.000895676959771663,0.00149411661550403,0.00827167835086584,-0.000541563436854631,0.0052835438400507
76,0.0073540904559195,-0.000899089209269732,0.00188623159192503,0.00841080490499735,0.00100840628147125,0.00230645900592208
77,0.00635918602347374,-0.000698954157996923,0.00328407157212496,0.00920554436743259,0.00199867482297122,0.000657141674309969
78,0.004311703145504,-0.000763129501137882,0.00444219121709466,0.0106107164174318,0.00160385086201131,-0.000410154898418114
79,0.0015391242923215,-0.00154860713519156,0.00414243573322892,0.0120641412213445,-0.000232305799727328,-0.00181001657620072
80,-0.000958202697802335,-0.00263906829059124,0.00263435649685562,0.0130678089335561,-0.00237101782113314,-0.00345898908562958
81,-0.00327764288522303,-0.00378095800988376,0.000513745180796832,0.0134732257574797,-0.00473426561802626,-0.00523073272779584
82,-0.0058095189742744,-0.00471990602090955,-0.00226728082634509,0.0136220930144191,-0.00821741204708815,-0.00653264904394746
83,-0.00742827402427793,-0.00429211603477597,-0.00519883632659912,0.0141598414629698,-0.0123302331194282,-0.00600963365286589
84,-0.00728302076458931,-0.00189880200196058,-0.00728510040789843,0.0153100891038775,-0.0156790390610695,-0.00340199703350663
85,-0.00600178679451346,0.00127801229245961,-0.00783920381218195,0.016425609588623,-0.0170308072119951,-0.000276007660431787
86,-0.00478222873061895,0.00313134212046862,-0.00639807945117354,0.0163191203027964,-0.0167230255901814,0.00118168198969215
87,-0.00408718269318342,0.00295463157817721,-0.00306260818615556,0.0149091500788927,-0.0163166727870703,0.000859085179399699
88,-0.00361244846135378,0.00188242411240935,0.000422417448135093,0.0130838248878717,-0.0165984686464071,0.000628811016213149
89,-0.0031832498498261,0.000683800899423659,0.00178708543535322,0.0111040500923991,-0.0170899443328381,0.000777928449679166
90,-0.0023897725623101,-0.000484812073409557,0.00106446200516075,0.00959363300353289,-0.0163622293621302,0.000645204680040479
91,-0.00105082441587001,-0.00157572177704424,-0.00030922589940019,0.00964306388050318,-0.0140047175809741,0.000988137791864574
92,0.000104795835795812,-0.0032476473134011,-0.00197880365885794,0.0106316646561027,-0.0112460711970925,0.0021260364446789
93,0.000400266668293625,-0.0062049413099885,-0.00410558609291911,0.0108714839443564,-0.00927633233368397,0.0026243336033076
94,0.000269106705673039,-0.00953023321926594,-0.00637916708365083,0.0103264506906271,-0.00863422267138958,0.00168909458443522
95,3.18131424137391E-05,-0.0118698785081506,-0.00878413114696741,0.00978376623243093,-0.009653115645051,-0.000154515932081267
96,-0.000630816677585244,-0.0130510032176971,-0.011255051009357,0.00955856777727604,-0.0120177501812577,-0.0019209198653698
97,-0.00135061971377581,-0.0132222305983305,-0.0130571462213993,0.00959758553653955,-0.0143225640058517,-0.00268036196939647
98,-0.00185971520841122,-0.0125517463311553,-0.0141172939911485,0.00897147599607706,-0.015767814591527,-0.00294597540050745
99,-0.00241545215249062,-0.0110692344605923,-0.0148353110998869,0.0076122977770865,-0.0169110093265772,-0.00342234969139099
100,-0.00281794648617506,-0.00875791348516941,-0.0147848064079881,0.00688840867951512,-0.0180307701230049,-0.00363283068872988
101,-0.00279890396632254,-0.00635253498330712,-0.0133423283696175,0.00701491814106703,-0.018461886793375,-0.00364704197272658
102,-0.00207611732184887,-0.00453470973297954,-0.0105935148894787,0.0075545166619122,-0.0171361919492483,-0.00371009926311672
103,-0.000338011916028336,-0.00312425196170807,-0.00743635557591915,0.0087867546826601,-0.01376729644835,-0.00316470908001065
104,0.00162782554980367,-0.00188560481183231,-0.00546300737187266,0.010182173922658,-0.00993658881634474,-0.00182994757778943
105,0.00284285051748157,-0.000722659984603524,-0.00564451888203621,0.0108132259920239,-0.00709444377571344,-0.000298171275062487
106,0.00356213678605855,0.000359439000021666,-0.00704497657716274,0.010873450897634,-0.00496587250381708,0.000750957580748945
107,0.00419849995523691,0.000933197210542858,-0.00825180392712355,0.0107244979590178,-0.00334836263209581,0.00103840557858348
108,0.00463972380384803,0.000707295490428805,-0.00893268082290888,0.0101940790191293,-0.00285897916182876,0.000902920088265091
109,0.00453257421031594,-0.000326945155393332,-0.00937298871576786,0.00913967378437519,-0.00399947864934802,0.000465187098598108
110,0.00370957283303142,-0.00221435376442969,-0.0098932646214962,0.0077914260327816,-0.00573097262531519,-0.000525841431226581
111,0.00234340946190059,-0.0046041184104979,-0.0106814680621028,0.00649093836545944,-0.00635765958577394,-0.00184734049253166
112,0.000736076675821096,-0.00649443781003356,-0.0116209806874394,0.00581945525482297,-0.0061817835085094,-0.00245449552312493
113,-0.000394683738704771,-0.00692614400759339,-0.0120060872286558,0.00666582211852074,-0.00627781916409731,-0.00152424385305494
114,-0.000673582195304334,-0.00607310887426138,-0.0111823827028275,0.00869227666407824,-0.00703112967312336,0.000136970120365731
115,-0.000250806886469945,-0.00486295064911246,-0.00915891490876675,0.0106351003050804,-0.00827091652899981,0.00125674938317388
116,0.000569251598790288,-0.00385220535099506,-0.00620869128033519,0.0121163874864578,-0.00900805089622736,0.00184908276423812
117,0.000708403822500259,-0.00305213872343302,-0.00316356355324388,0.0129852537065744,-0.00899701844900846,0.00266633974388242
118,-0.000270201591774821,-0.00200489698909223,-0.00100589566864073,0.0130236828699708,-0.00872802548110485,0.00417687278240919
119,-0.00114575866609812,-0.000705374928656965,-0.00011297420860501,0.0126431444659829,-0.00781089020892978,0.00576712377369404
120,-0.00129299412947148,-5.61524684599135E-05,-0.000513682432938367,0.0121117476373911,-0.00643595168367028,0.00607638759538531
121,-0.0013424278004095,-0.0001284721220145,-0.00150291074533015,0.0115601764991879,-0.00567823089659214,0.00509043270722032
122,-0.00150914548430592,8.1958067312371E-05,-0.0020691379904747,0.0117775816470385,-0.00548264291137457,0.0042073898948729
123,-0.00132932490669191,0.000947265303693712,-0.00204917904920876,0.013101295568049,-0.00487419497221708,0.00419832114130259
124,-0.000619891274254769,0.00207899603992701,-0.00183123687747866,0.0148529699072242,-0.00359390117228031,0.00507006607949734
125,0.000350742600858212,0.00294686551205814,-0.00135501264594495,0.0164177622646093,-0.00204198248684406,0.00656683417037129
126,0.00148717395495623,0.00332851172424853,-0.000255765771726146,0.0175071619451046,-0.000233910206588916,0.00810431968420744
127,0.00272172526456416,0.00338674569502473,0.000979638076387346,0.0178919658064842,0.00162198359612376,0.00924747530370951
128,0.00384555105119944,0.00334148947149515,0.00163197063375264,0.0175381302833557,0.0029605571180582,0.00995620898902416
129,0.00424353033304214,0.00323516339994967,0.00129067723173648,0.0164601374417543,0.00318437977693975,0.00979012995958328
130,0.00330463983118534,0.00272262329235673,-0.000325829081702977,0.0147016905248165,0.00184234313201159,0.00816864799708128
131,0.00194727920461446,0.00152965902816504,-0.00246552051976323,0.0126991597935557,-0.000224177972995676,0.00570673402398825
132,0.00121922651305795,-0.000286159192910418,-0.00448932684957981,0.0104879103600979,-0.00206752866506577,0.00298983184620738
133,0.000743419106584042,-0.00264854985289276,-0.0062521193176508,0.00752621097490191,-0.00402293680235744,-0.000434299028711393
134,-2.53471662290394E-05,-0.0054842522367835,-0.00706009101122618,0.00412013335153461,-0.00654318789020181,-0.00434601493179798
135,-0.000730207364540547,-0.00811207294464111,-0.00704623525962234,0.0018011765787378,-0.00898835901170969,-0.00662454543635249
136,-0.000559033243916929,-0.00964046083390713,-0.00731427827849984,0.00152731884736568,-0.0101201552897692,-0.00523686921223998
137,0.000403639860451221,-0.00993973575532436,-0.00821680389344692,0.00256738252937794,-0.00948921032249928,-0.000602150277700275
138,0.00190425314940512,-0.00885924324393272,-0.00885753985494375,0.00417617103084922,-0.00705784419551492,0.00550321023911238
139,0.00390055240131915,-0.00633680354803801,-0.00873992685228586,0.00595415430143476,-0.00371183687821031,0.0107717579230666
140,0.00520580122247338,-0.00325521011836827,-0.00857463851571083,0.00701184524223208,-0.00187262869440019,0.0129090594127774
141,0.00486960401758552,-0.000444923643954098,-0.00865257438272238,0.00718732783570886,-0.00273065594956279,0.0118189677596092
142,0.00346309528686106,0.00153421727009118,-0.0083669675514102,0.00705695897340775,-0.00498944660648704,0.00905849505215883
143,0.00183576729614288,0.00203213840723038,-0.00721013220027089,0.00677450187504292,-0.00693550147116184,0.00581791857257485
144,0.000426479586167261,0.0014326007803902,-0.00555518176406622,0.00649408670142293,-0.00787606835365295,0.00307654123753309
145,-0.000639825244434178,0.000835919985547662,-0.0045054592192173,0.00633329432457685,-0.00816707126796246,0.00130341982003301
146,-0.000868859817273915,0.000999925541691482,-0.00447977334260941,0.00622524740174413,-0.00781168276444077,0.000175393666722812
147,0.000386723200790584,0.00229821470566094,-0.00437067309394479,0.00642771227285266,-0.00589214684441686,-0.000519110355526209
148,0.00224628718569875,0.00408475380390882,-0.00325531442649662,0.00698617845773697,-0.00290828151628375,-0.00106668681837618
149,0.00318554788827896,0.00515026226639748,-0.00173069129232317,0.00741212908178568,-0.000637742690742016,-0.00175486132502556
150,0.00330644194036722,0.00546765560284257,-0.000777041190303862,0.00744181917980313,0.000678302603773773,-0.00213276362046599
151,0.00359705067239702,0.00572489621117711,-0.00105006224475801,0.006828339304775,0.00192538648843765,-0.00211107055656612
152,0.00401108106598258,0.00585730047896504,-0.00252038426697254,0.00510422326624393,0.00316896964795887,-0.00245351507328451
153,0.00359492166899145,0.00509625114500523,-0.00439004832878709,0.00204746751114726,0.00347563391551375,-0.00395918684080243
154,0.00205969158560038,0.0029472887981683,-0.00597677007317543,-0.00218579708598554,0.00239159213379025,-0.00692007225006819
155,0.000135492286062799,0.000217964785406366,-0.00697860633954406,-0.00651166075840592,0.000702864082995802,-0.0102031556889415
156,-0.00167482218239456,-0.0019306056201458,-0.00750540802255273,-0.00955588929355145,-0.000995905138552189,-0.0124050164595246
157,-0.00307507743127644,-0.00312684499658644,-0.00782460626214743,-0.0108050089329481,-0.0024878557305783,-0.0133072398602962
158,-0.00345919094979763,-0.0032843966037035,-0.00800882652401924,-0.0109829381108284,-0.00360128632746637,-0.0132831139490008
159,-0.00270232046023011,-0.00269517488777637,-0.00794218480587006,-0.011163012124598,-0.00462028570473194,-0.0126563869416714
160,-0.00152111239731312,-0.00234642950817943,-0.00756434816867113,-0.011452266946435,-0.00541043700650334,-0.0121052004396915
161,-0.000330741982907057,-0.00252886256203055,-0.00689944764599204,-0.0116615146398544,-0.00516758440062404,-0.0125206029042602
162,0.000932944298256189,-0.00239669228903949,-0.00600819103419781,-0.011988933198154,-0.00386610883288085,-0.0138077531009912
163,0.00137036212254316,-0.00211268640123308,-0.00559450406581163,-0.0130548747256398,-0.00317572266794741,-0.0152935357764363
164,1.22246128739789E-05,-0.00283956108614802,-0.00638083182275295,-0.0154073387384415,-0.0045967111364007,-0.0166444610804319
165,-0.00212021986953914,-0.00447635073214769,-0.0075735142454505,-0.0180873181670904,-0.006960304453969,-0.0174151640385389
166,-0.00333923427388072,-0.00612838985398412,-0.00804427452385426,-0.0192966479808092,-0.00819528382271528,-0.0171363670378923
167,-0.00360191822983325,-0.00769405718892813,-0.00842813588678837,-0.0188311245292425,-0.0082377539947629,-0.0161289852112532
168,-0.00389491231180727,-0.00919617619365454,-0.00968440528959036,-0.0178752522915602,-0.00771840289235115,-0.0149435801431537
169,-0.00427034916356206,-0.00990573409944773,-0.0113034574314952,-0.017092851921916,-0.00629067746922374,-0.0133330691605806
170,-0.00418141251429915,-0.00936343334615231,-0.012511121109128,-0.0167057458311319,-0.0038667197804898,-0.0115624275058508
171,-0.00374822434969246,-0.0079857250675559,-0.0131173674017191,-0.0165363848209381,-0.00143612979445606,-0.010485696606338
172,-0.00303970091044903,-0.00614763610064983,-0.0128956334665418,-0.0154265826568007,0.000280485866824165,-0.0095800356939435
173,-0.00180235831066966,-0.0040707397274673,-0.0118663096800447,-0.0127960117533803,0.00152970151975751,-0.00817159563302994
174,-0.00015525912749581,-0.00171685556415468,-0.0102131739258766,-0.00900265667587519,0.002871636999771,-0.0060089360922575
175,0.00141714734490961,0.00107774429488927,-0.0078294463455677,-0.00443788338452578,0.00489731319248676,-0.00279917754232883
176,0.00287671969272196,0.00406631547957659,-0.00478533376008272,0.00013242635759525,0.00790669862180948,0.000844189256895334
177,0.00421650055795908,0.00676747132092714,-0.00200954708270729,0.00356863555498421,0.0109246606007218,0.00367137696594
178,0.00460273865610361,0.00849451310932636,-0.0011360184289515,0.00486379442736506,0.0118827363476157,0.00494353519752622
179,0.0039204889908433,0.00908036436885595,-0.00263763917610049,0.00387447117827833,0.0100114578381181,0.00518606696277857
180,0.00294919568113983,0.0088619776070118,-0.00529677094891667,0.00123669393360615,0.00656748469918966,0.00490230368450284
181,0.00194232387002558,0.00782085303217173,-0.00810653250664473,-0.00218295957893133,0.00317195802927017,0.00378935434855521
182,0.000966449675615877,0.00620312755927444,-0.010687256231904,-0.00516906566917896,0.000704614853020757,0.00211632857099175
183,0.000350526039255783,0.00443640537559986,-0.0122362254187465,-0.00700563471764326,-0.000828172313049436,0.000458559807157144
184,0.000267857918515801,0.00253642210736871,-0.012271786108613,-0.00844414718449116,-0.00181380682624877,-0.00115213834214956
185,0.00045541490544565,0.000841240689624101,-0.0116961058229208,-0.0103083560243249,-0.00232227286323905,-0.00259088142774999
186,0.000756008317694068,-5.54315556655638E-05,-0.0114169018343091,-0.0119417030364275,-0.00180105201434344,-0.00355385267175734
187,0.00112755037844181,-0.000615364930126816,-0.0112427538260818,-0.0127282524481416,-0.000443392404122278,-0.00455135758966208
188,0.00106610986404121,-0.00178318237885833,-0.010628187097609,-0.0134260756894946,0.000181830502697267,-0.0063914880156517
189,0.000709200685378164,-0.0029459404759109,-0.0088387755677104,-0.0139338187873363,-0.000311618205159903,-0.00783090852200985
190,0.000817765947431326,-0.00282240053638816,-0.00582825811579823,-0.0130552249029279,-0.000719068921171129,-0.00637301150709391
191,0.00127598294056952,-0.00154525821562856,-0.00290155503898859,-0.0110260043293238,-0.000830029661301523,-0.00180379580706358
192,0.00157717778347433,7.78353642090224E-05,-0.0012581180781126,-0.00923184864223003,-0.00134490081109107,0.00354669732041657
193,0.00151943636592478,0.00172076374292374,-0.00111540837679058,-0.00862776860594749,-0.00237308745272458,0.00705855619162321
194,0.0015011306386441,0.00337184057570994,-0.001769989146851,-0.00902795605361462,-0.0032127876766026,0.00750997290015221
195,0.00222849706187844,0.0048614707775414,-0.00216435804031789,-0.00943550188094378,-0.00309029431082308,0.00553307542577386
196,0.00322361732833087,0.00556032126769423,-0.00174631166737527,-0.00944230984896421,-0.00251761148683727,0.00236053671687841
197,0.00343555863946676,0.00509376637637615,-0.000773332256358117,-0.00944413617253304,-0.00235206889919937,-0.00120860931929201
198,0.00265112542547286,0.00390818947926164,-0.000293106189928949,-0.00980963278561831,-0.00276344432495534,-0.00456005521118641
199,0.00105319509748369,0.0029256867710501,-0.00171548337675631,-0.0105941332876682,-0.00471436092630029,-0.00702478317543864
200,-0.00062856829026714,0.00332907657139003,-0.00547202909365296,-0.0115386517718434,-0.00848629884421825,-0.00779641233384609
201,-0.00180861377157271,0.0050454861484468,-0.0105682918801904,-0.0129625704139471,-0.0124870920553803,-0.00687785632908344
202,-0.00292119150981307,0.00659600971266627,-0.0151857882738113,-0.0151067422702909,-0.0151974493637681,-0.00551607552915812
203,-0.00404754560440779,0.00762183405458927,-0.0175969395786524,-0.0168482474982738,-0.0158070717006922,-0.0044813402928412
204,-0.00489654624834657,0.00872638449072838,-0.0178911425173283,-0.0175103824585676,-0.0149099957197905,-0.0036564574111253
205,-0.00558791123330593,0.00968419015407562,-0.017577026039362,-0.0175716932862997,-0.0140991806983948,-0.00336599955335259
206,-0.00579815078526735,0.0101359402760863,-0.0171519108116627,-0.0170545168220997,-0.0135678015649319,-0.00408027926459908
207,-0.00518483202904463,0.0105043277144432,-0.0162416845560074,-0.0157213993370533,-0.0126646300777793,-0.00559933949261904
208,-0.00444119051098824,0.0111542958766222,-0.015461191534996,-0.0141805727034807,-0.0117570478469133,-0.00739918556064367
209,-0.0040114838629961,0.0117264352738857,-0.0155082093551755,-0.0133065655827522,-0.0112567078322172,-0.00887143518775702
210,-0.00334176165051758,0.0114738484844565,-0.0158741381019354,-0.013251350261271,-0.0107540991157293,-0.00984107237309217
211,-0.00166582386009395,0.0104998853057623,-0.0154704302549362,-0.0132601791992784,-0.00929221883416176,-0.0105162560939789
212,0.00127158791292459,0.00972183607518673,-0.013457446359098,-0.0127771571278572,-0.00624851416796446,-0.0106113022193313
213,0.00496507855132222,0.00931104831397533,-0.0103165823966265,-0.0124714113771915,-0.0022252919152379,-0.0101277753710747
214,0.00851824879646301,0.00881769042462111,-0.00741220032796264,-0.0130584174767137,0.00188151781912893,-0.00987900141626596
215,0.011045821942389,0.00827722251415253,-0.00559850037097931,-0.0142428036779165,0.0055775479413569,-0.00974124390631914
216,0.0122238537296653,0.00811810977756977,-0.00469267694279552,-0.0151184415444732,0.008470444008708,-0.0084189111366868
217,0.0125306071713567,0.00835332646965981,-0.00408197659999132,-0.0146790826693177,0.0105422846972942,-0.00527084665372968
218,0.0130087258294225,0.00859227497130632,-0.00318754022009671,-0.0125579154118896,0.0125427814200521,-0.00113815546501428
219,0.0142770167440176,0.00866275373846293,-0.00124249176587909,-0.00941149890422821,0.0150682339444757,0.00231425813399255
220,0.0154904406517744,0.00819785799831152,0.00143274629954249,-0.00649649044498801,0.0173675175756216,0.00373322307132185
221,0.0156598370522261,0.00682554906234145,0.00349535420536995,-0.00484800664708018,0.0184330381453037,0.00317417876794934
222,0.0147563898935914,0.00511535676196218,0.00393639970570803,-0.00484392559155822,0.017964156344533,0.0018859290285036
223,0.0132035538554192,0.00405489187687635,0.0025615612976253,-0.0061623421497643,0.0161399990320206,0.000904556887689978
224,0.0113545479252934,0.00365200219675899,-5.54654106963426E-05,-0.00802706461399794,0.0134361088275909,0.000555545499082655
225,0.00946736522018909,0.00339219113811851,-0.00315963919274509,-0.0096465228125453,0.0105486074462533,0.00128147914074361
226,0.00822975486516953,0.0039463615976274,-0.00588292023167014,-0.0101851429790258,0.00857176911085844,0.00375556759536266
227,0.00763810053467751,0.00522860372439027,-0.00775613496080041,-0.00989262480288744,0.00769610609859228,0.00664607435464859
228,0.0068958131596446,0.00560587830841541,-0.00882634706795216,-0.010066905990243,0.00703448941931129,0.00718673132359982
229,0.00623715156689286,0.00513272499665618,-0.00876403413712978,-0.0108676757663488,0.00638091424480081,0.00493639660999179
230,0.00627777120098472,0.00478904135525227,-0.00712868524715304,-0.0116723664104939,0.0063596754334867,0.00132656667847186
231,0.00653194962069392,0.00407764920964837,-0.00464837113395333,-0.0126409502699971,0.00712237413972616,-0.00279628857970238
232,0.00623167818412185,0.00226748757995665,-0.00322843785397708,-0.0143509693443775,0.00765220075845718,-0.00673895422369242
233,0.00522547401487827,-0.000751318701077253,-0.00456756399944425,-0.0172553062438965,0.00650140410289168,-0.0101698813959956
234,0.00377895752899349,-0.00457957992330194,-0.00838691368699074,-0.0212298519909382,0.00360542675480247,-0.0134343793615699
235,0.00250183045864105,-0.00772386975586414,-0.0123776830732822,-0.0250066164880991,0.000744417775422335,-0.0155917974188924
236,0.00218787370249629,-0.00851629208773375,-0.0141573790460825,-0.0270103644579649,-0.000186250021215528,-0.0152022251859307
237,0.00337893306277692,-0.00681810500100255,-0.01282555796206,-0.0264773759990931,0.00136127381119877,-0.012677202001214
238,0.00592479947954416,-0.00386759825050831,-0.00940569490194321,-0.0240541696548462,0.00443423353135586,-0.00924995634704828
239,0.00850536674261093,-0.00145040545612574,-0.00614247610792518,-0.0217706356197596,0.00727756600826979,-0.00587805593386292
240,0.00923139881342649,-0.00127262342721224,-0.00515498733147979,-0.0213761832565069,0.00842248927801847,-0.00359971728175879
241,0.00787695776671171,-0.00363640184514225,-0.00647676270455122,-0.0227380804717541,0.00788855087012053,-0.00313170626759529
242,0.00601923419162631,-0.00690992921590805,-0.0079265683889389,-0.0245048087090254,0.00682697538286448,-0.00436403322964907
243,0.00459130713716149,-0.00892667099833488,-0.00807988084852695,-0.0256340280175209,0.00588793121278286,-0.00626132637262344
244,0.00307755568064749,-0.009126259945333,-0.00798867363482714,-0.0261995606124401,0.00437272014096379,-0.0076570906676352
245,0.00158955564256758,-0.00822093058377504,-0.00860058516263962,-0.0263334289193153,0.00210624560713768,-0.00790112186223269
246,0.00127669051289558,-0.00645649991929531,-0.00921970698982477,-0.0254281591624022,0.000511162332259119,-0.00685378257185221
247,0.00237877550534904,-0.00398983061313629,-0.0091216629371047,-0.0233237575739622,0.000660872145090252,-0.00511017953976989
248,0.00378076639026403,-0.00174465298186988,-0.0086387237533927,-0.020893407985568,0.00190953782293946,-0.00382950296625495
249,0.00435512699186802,-0.000405842351028696,-0.008847801014781,-0.0190642215311527,0.002736602909863,-0.00374547182582319
250,0.0040643597021699,0.000551938894204795,-0.0102505534887314,-0.0176816862076521,0.00272251293063164,-0.00437540141865611
251,0.00304264947772026,0.00138661195524037,-0.0128640104085207,-0.0166569650173187,0.00174055725801736,-0.00507925217971206
252,0.00154355238191783,0.00146813620813191,-0.0161109510809183,-0.0167427211999893,-0.000544020964298397,-0.0059546884149313
253,0.000640000973362476,0.000764778233133256,-0.0184675250202417,-0.0182029604911804,-0.0030354845803231,-0.00688215205445886
254,0.00119269522838295,0.000150677966303192,-0.019056087359786,-0.0202714614570141,-0.00405989494174719,-0.00688679609447718
255,0.0025557295884937,-5.48987009096891E-05,-0.0185169205069542,-0.0223776511847973,-0.00352174462750554,-0.00586990872398019
256,0.00327590806409717,-0.00037721186527051,-0.0181067399680614,-0.0244674030691385,-0.00295393518172204,-0.0050148731097579
257,0.00308340322226286,-0.00112749764230102,-0.0184548888355494,-0.0262161679565907,-0.00341555988416076,-0.00490465387701988
258,0.00270797894336283,-0.00206686230376363,-0.0192482154816389,-0.027645530179143,-0.00445594964548945,-0.00548173021525145
259,0.00257690064609051,-0.00250623980537057,-0.0197959039360285,-0.0291132517158985,-0.00537976203486323,-0.00640735821798444
260,0.00294496072456241,-0.00204729242250323,-0.019539725035429,-0.0302283018827438,-0.00583393452689052,-0.00694233411923051
261,0.00363366981036961,-0.00154277519322932,-0.0190876461565495,-0.0306064393371344,-0.00626450683921576,-0.00684266351163387
262,0.00408703507855535,-0.00191855919547379,-0.0192207936197519,-0.0306408256292343,-0.00723732262849808,-0.00625150464475155
263,0.00433389004319906,-0.00310871913097799,-0.0191755779087543,-0.0306591168045998,-0.00800372194498777,-0.00528723606839776
264,0.00432248739525676,-0.00509230140596628,-0.0184443946927786,-0.0308872181922197,-0.00831209402531385,-0.00432303035631776
265,0.00351799745112658,-0.007953274063766,-0.0180189926177263,-0.0317338407039642,-0.00941783003509045,-0.00400521652773023
266,0.00179709959775209,-0.0114563684910536,-0.0190673843026161,-0.0338440947234631,-0.0120785729959607,-0.00573833333328366
267,-0.000298283935990185,-0.0153072578832507,-0.0214517395943403,-0.0375599935650826,-0.0151054030284286,-0.0106586674228311
268,-0.00202395534142852,-0.0190069898962975,-0.0239415131509304,-0.0418528169393539,-0.0165989492088556,-0.0179008916020393
269,-0.00318598002195358,-0.0220086444169283,-0.025768930092454,-0.0447061099112034,-0.0165350344032049,-0.0245264712721109
270,-0.00427037058398128,-0.0242309812456369,-0.0269335247576237,-0.0447932407259941,-0.0166713409125805,-0.0276597607880831
271,-0.0053630517795682,-0.0254374966025352,-0.0274585839360952,-0.0426418520510197,-0.0177844185382128,-0.0269320588558912
272,-0.00591398682445288,-0.0250708963721991,-0.0273363180458546,-0.0400139838457108,-0.0191319845616817,-0.0239471476525068
273,-0.00526076694950461,-0.022928774356842,-0.0264006815850735,-0.0377946570515633,-0.0198570229113102,-0.0204484146088362
274,-0.00338370003737509,-0.0195822548121214,-0.0246226843446493,-0.0355631373822689,-0.0195484757423401,-0.0177350398153067
275,-0.00113966420758516,-0.0160362105816603,-0.0223096553236246,-0.0330889262259007,-0.0181928686797619,-0.0160741563886404
276,0.00072547048330307,-0.0129283163696527,-0.0199419762939215,-0.030780129134655,-0.0163794383406639,-0.0147838806733489
277,0.00168498605489731,-0.010846690274775,-0.0186773147433996,-0.0291152205318213,-0.0153664276003838,-0.0139374388381839
278,0.00135805213358253,-0.0103851687163115,-0.0198172256350517,-0.0285175330936909,-0.0157097931951284,-0.0142579441890121
279,1.22144956549164E-05,-0.0114222792908549,-0.0232949703931808,-0.0294405277818441,-0.017011933028698,-0.0154884280636907
280,-0.00114872236736119,-0.0126986270770431,-0.02729207649827,-0.0316327959299088,-0.018733523786068,-0.0163590013980865
281,-0.00102963671088219,-0.0128363920375705,-0.0301879346370697,-0.033862579613924,-0.0206326153129339,-0.0162038840353489
282,-0.000124182231957093,-0.0119902035221457,-0.0318166241049767,-0.035160169005394,-0.0230955574661493,-0.0157450679689646
283,0.000273644196568057,-0.0109793432056904,-0.0327563025057316,-0.0357571728527546,-0.0259085409343243,-0.0158351585268974
284,9.74556460278109E-05,-0.00971378199756145,-0.0335021167993546,-0.0360319092869759,-0.0276860799640417,-0.0162912160158157
285,-4.83437725051772E-05,-0.00806944910436869,-0.0341257527470589,-0.035965833812952,-0.0279768817126751,-0.0157803632318974
286,-0.000796047446783632,-0.00684385560452938,-0.0349469222128391,-0.0362404882907867,-0.0282416362315416,-0.0131882606074214
287,-0.00265180598944426,-0.0065170656889677,-0.0361740365624428,-0.0376940779387951,-0.0292259063571692,-0.00904616806656122
288,-0.00456448411568999,-0.0063072913326323,-0.036839097738266,-0.0396267175674438,-0.0299441311508417,-0.00417353725060821
289,-0.00524720316752791,-0.00559492083266377,-0.0361978597939014,-0.0407761670649052,-0.0294223856180906,0.000930676993448287
290,-0.00418634666129947,-0.00473237782716751,-0.0351177155971527,-0.0410534292459488,-0.02700868062675,0.00504998676478863
291,-0.00199980731122196,-0.00393097242340446,-0.0346333682537079,-0.0407178588211536,-0.0233561955392361,0.00720523949712515
292,0.000126308805192821,-0.00276202824898064,-0.0345053151249886,-0.0395615957677364,-0.0206200312823057,0.00772395310923457
293,0.00155049411114305,-0.00112930266186595,-0.0341247543692589,-0.0380142591893673,-0.0200898349285126,0.00691952602937818
294,0.00164236791897565,7.40410450816853E-06,-0.034194502979517,-0.0375555157661438,-0.0220083687454462,0.00411895383149385
295,-8.44233218231238E-05,-0.000102642407000531,-0.0360336191952229,-0.0387167558073998,-0.0262061506509781,-0.000631206436082721
296,-0.00267568044364452,-0.000954364775680006,-0.0394250713288784,-0.0400400757789612,-0.0311061441898346,-0.00525110773742199
297,-0.00479568960145116,-0.00175942783243954,-0.0427825674414635,-0.0403077304363251,-0.0343936569988728,-0.00779366213828325
298,-0.00579463457688689,-0.00180201046168804,-0.0444507859647274,-0.0396124757826328,-0.0347768366336823,-0.00830884370952845
299,-0.00573134096339345,-0.000585107656661421,-0.0437320806086063,-0.0384106673300266,-0.0332140177488327,-0.0080325324088335
300,-0.00533936871215701,0.00112603616435081,-0.0413901843130589,-0.0376300998032093,-0.0322529189288616,-0.00846806541085243
301,-0.00483625754714012,0.00213412172161043,-0.0385824404656887,-0.0378734059631824,-0.032796960324049,-0.00952433981001377
302,-0.00438485248014331,0.00211031083017588,-0.0362978465855122,-0.038391325622797,-0.0339611805975437,-0.00924303382635117
303,-0.00496193207800388,0.00126508832909167,-0.0349654778838158,-0.038001861423254,-0.0351431518793106,-0.00652538426220417
304,-0.0068176630884409,-6.7163011408411E-05,-0.0337523110210896,-0.0365339778363705,-0.0359652005136013,-0.00230778171680868
305,-0.00835609529167414,-0.00140009191818535,-0.0312935188412666,-0.0357202552258968,-0.0359226763248444,0.000760888331569731
306,-0.00812302250415087,-0.00250694272108376,-0.0283374954015017,-0.0384761169552803,-0.0351422764360905,-0.000883532804436982
307,-0.0068412683904171,-0.00385632668621838,-0.0280912965536118,-0.0460823588073254,-0.0348809994757175,-0.00848996546119452
308,-0.00582973146811128,-0.00590096740052104,-0.031703095883131,-0.056459978222847,-0.0360895395278931,-0.0188509877771139
309,-0.0050153243355453,-0.00799992401152849,-0.0365215763449669,-0.0655329450964928,-0.0379522331058979,-0.0271893125027418
310,-0.00365074770525098,-0.00891574751585722,-0.0392774492502213,-0.0700559467077255,-0.0387605577707291,-0.030840277671814
311,-0.00216292589902878,-0.00886576902121305,-0.0393944717943668,-0.0702800676226616,-0.0381003320217133,-0.0311250351369381
312,-0.001286496873945,-0.00867618154734373,-0.0387985818088055,-0.0684889554977417,-0.0372236855328083,-0.0309399999678135
313,-0.00101145904045552,-0.00818678364157677,-0.0392134226858616,-0.0659034103155136,-0.0374636054039001,-0.0310141295194626
314,-0.0013056518509984,-0.00723382225260139,-0.0404628105461597,-0.0628425031900406,-0.0387524776160717,-0.0308365430682898
315,-0.00195770198479295,-0.00597429694607854,-0.0408775731921196,-0.0595958307385445,-0.040055587887764,-0.0299415327608585
316,-0.00320407748222351,-0.0050896480679512,-0.0399773791432381,-0.0569801926612854,-0.0412999391555786,-0.0285024326294661
317,-0.00512747140601277,-0.00490834610536695,-0.0386136248707771,-0.0553895235061646,-0.0427443347871304,-0.0268468223512173
318,-0.00671790447086096,-0.00452203303575516,-0.0373117104172707,-0.0542263686656952,-0.0441576726734638,-0.0242040306329727
319,-0.00696635153144598,-0.00323041365481913,-0.0365448258817196,-0.0534255914390087,-0.0448128171265125,-0.0201753117144108
320,-0.00567770842462778,-0.00142563134431839,-0.036542858928442,-0.052722129970789,-0.0439566038548946,-0.0153742581605911
321,-0.00364077650010586,-7.33972483430989E-05,-0.0371677502989769,-0.0516714937984943,-0.0426658056676388,-0.0110263414680958
322,-0.00165691180154681,0.000103855643828865,-0.0382447876036167,-0.0515120588243008,-0.0420416407287121,-0.00909334421157837
323,-9.76544033619575E-05,-0.000790203281212598,-0.0390554293990135,-0.0532928183674812,-0.0415879599750042,-0.00987453758716583
324,0.000910572940483689,-0.00207074731588364,-0.0382027477025986,-0.0557279996573925,-0.0407959185540676,-0.0112746534869075
325,0.00186116364784539,-0.00331378635019064,-0.0349953696131706,-0.057317104190588,-0.0393949598073959,-0.0123462462797761
326,0.00321617792360485,-0.00439666816964746,-0.0302482880651951,-0.0583492405712605,-0.0372341386973858,-0.0139478575438261
327,0.00419723382219672,-0.00571619020774961,-0.0258284267038107,-0.0602371953427792,-0.0354127585887909,-0.0168514680117369
328,0.00397886848077178,-0.00767992995679379,-0.0234111342579126,-0.0638626366853714,-0.0353502221405506,-0.0207749791443348
329,0.00356325227767229,-0.00927790999412537,-0.0230187363922596,-0.068129874765873,-0.0364396758377552,-0.0241947062313557
330,0.00404673488810658,-0.00983821414411068,-0.0240406021475792,-0.0713344365358353,-0.0375329740345478,-0.0263721253722906
331,0.00501843309029937,-0.0102424332872033,-0.0263428818434477,-0.073108583688736,-0.0386035554111004,-0.0277330800890923
332,0.00576338358223438,-0.0106435688212514,-0.0292994808405638,-0.0734619200229645,-0.0397181026637554,-0.0276594571769238
333,0.00583433359861374,-0.0104118809103966,-0.0317118130624294,-0.0722406506538391,-0.0409329272806644,-0.0253115147352219
334,0.00532531784847379,-0.0096453670412302,-0.0326422639191151,-0.0697039663791656,-0.0422910675406456,-0.0211361180990934
335,0.00515751214697957,-0.00847576558589935,-0.03185173869133,-0.0663253739476204,-0.0431110709905624,-0.0157046504318714
336,0.00532019603997469,-0.00750977313145995,-0.0307071823626757,-0.0634055286645889,-0.0433824025094509,-0.0103652672842145
337,0.00495139369741082,-0.0075601888820529,-0.0307274386286736,-0.0616968162357807,-0.0442985035479069,-0.00688461866229773
338,0.00435197819024324,-0.00767245702445507,-0.0311782602220774,-0.0597609132528305,-0.0461536943912506,-0.00426069786772132
339,0.00405922997742891,-0.006762963719666,-0.0308386348187923,-0.0568779557943344,-0.0480550043284893,-0.000721387914381921
340,0.00411576684564352,-0.00493826018646359,-0.0297701731324196,-0.054162684828043,-0.0488279424607754,0.00279541267082095
341,0.00448382087051868,-0.00287794065661728,-0.0285482779145241,-0.0526858605444431,-0.0482281669974327,0.00438131997361779
342,0.00491551170125604,-0.00164165429305285,-0.0274053532630205,-0.0525179244577885,-0.0472722090780735,0.00386198726482689
343,0.00504807801917195,-0.00168157659936696,-0.0266874376684427,-0.0533428713679314,-0.0468323715031147,0.00231630518101156
344,0.00469735916703939,-0.00254286895506084,-0.0271523781120777,-0.0555323325097561,-0.0470855794847012,8.82979511516169E-05
345,0.00384751614183187,-0.00370711321011186,-0.0289804842323065,-0.0593788959085941,-0.0480555668473244,-0.0032026250846684
346,0.00246725464239717,-0.00492024933919311,-0.0316816344857216,-0.0641283243894577,-0.0498334020376205,-0.00749810505658388
347,0.00142332189716399,-0.00553251011297107,-0.0342168882489204,-0.0679849833250046,-0.0516315139830112,-0.0114307329058647
348,0.00130218279082328,-0.00543974153697491,-0.0359584055840969,-0.0697626620531082,-0.0526336096227169,-0.0135908573865891
349,0.00103340635541826,-0.00595949310809374,-0.0375490188598633,-0.0701666325330734,-0.053199015557766,-0.0143733080476522
350,0.000181697891093791,-0.00765492906793952,-0.0393835082650185,-0.0701805129647255,-0.0538218766450882,-0.0144202942028642
351,-0.000666876556351781,-0.00944306328892708,-0.0409622639417648,-0.0701490566134453,-0.0549820475280285,-0.0135072618722916
352,-0.00154460233170539,-0.0104505578055978,-0.0418550670146942,-0.0703521072864532,-0.0570614524185658,-0.0116975968703628
353,-0.00303734070621431,-0.0108557101339102,-0.0426982045173645,-0.0711988210678101,-0.0599182955920696,-0.0101278433576226
354,-0.00546280154958367,-0.0110483802855015,-0.0446121878921986,-0.0728350952267647,-0.0631258636713028,-0.0103631559759378
355,-0.00809014588594437,-0.0111371660605073,-0.0473261661827564,-0.0748173221945763,-0.065666176378727,-0.0123347667977214
356,-0.00975877419114113,-0.0110545950010419,-0.0493099130690098,-0.0765502080321312,-0.0664888173341751,-0.0141327986493707
357,-0.0106799444183707,-0.0110650882124901,-0.0497937873005867,-0.0776389241218567,-0.0662465021014214,-0.0144678894430399
358,-0.0119472593069077,-0.0116071840748191,-0.0493612661957741,-0.077849879860878,-0.0666709914803505,-0.0135456919670105
359,-0.0134864086285234,-0.0123722059652209,-0.0485920645296574,-0.0773683711886406,-0.0680130943655968,-0.0121581703424454
360,-0.014428773894906,-0.0125770913437009,-0.0477852672338486,-0.0767786949872971,-0.0690332129597664,-0.0104318503290415
361,-0.0149429282173514,-0.0122965145856142,-0.0478591173887253,-0.0768035501241684,-0.0690944716334343,-0.00787927117198706
362,-0.0157690718770027,-0.0121445683762431,-0.0492159016430378,-0.0775198414921761,-0.068263940513134,-0.00461281510069966
363,-0.0166646111756563,-0.0117684965953231,-0.0501028411090374,-0.0770384594798088,-0.0664537027478218,-0.000932699476834387
364,-0.0169392675161362,-0.0107235191389918,-0.0489726364612579,-0.0735868066549301,-0.0641084983944893,0.00282682036049664
365,-0.0162575207650661,-0.00954061932861805,-0.0467990860342979,-0.0683829113841057,-0.0624071918427944,0.00627275789156556
366,-0.0150814447551966,-0.00896430760622025,-0.0450300872325897,-0.0637598484754562,-0.0622225888073444,0.00961929000914097
367,-0.0148092452436686,-0.00932514388114214,-0.0441687181591988,-0.060656875371933,-0.0640287920832634,0.0141533045098186
368,-0.0158577039837837,-0.00999421253800392,-0.0442819260060787,-0.0583613887429237,-0.0673367455601692,0.0218222104012966
369,-0.0171466059982777,-0.0097043476998806,-0.0450668781995773,-0.0556514300405979,-0.0699752792716026,0.031561978161335
370,-0.018572049215436,-0.00823055300861597,-0.0466265268623829,-0.0529557690024376,-0.0711667910218239,0.0383913479745388
371,-0.0210047140717506,-0.00669471547007561,-0.0489083826541901,-0.0521687157452106,-0.0723762810230255,0.0392645820975304
372,-0.0236007329076529,-0.00598984956741333,-0.0503228306770325,-0.0540991313755512,-0.0732005089521408,0.0362383984029293
373,-0.024790370836854,-0.00656430702656507,-0.0497723892331123,-0.0583903901278973,-0.0715838372707367,0.0318079069256783
374,-0.0246838871389627,-0.00861947331577539,-0.048297543078661,-0.0644049271941185,-0.0677870213985443,0.0259312856942415
375,-0.0243649370968342,-0.0119503140449524,-0.0476058050990105,-0.0708612874150276,-0.0643302276730537,0.0179606433957815
376,-0.0246519483625889,-0.0159878917038441,-0.0483452454209328,-0.0768125355243683,-0.0627885460853577,0.00744673702865839
377,-0.0251011662185192,-0.0189225301146507,-0.0494972541928291,-0.0816700384020805,-0.0626460388302803,-0.00406434806063771
378,-0.0245246719568968,-0.0199617724865675,-0.0494684390723705,-0.0846808552742004,-0.062697246670723,-0.0137222856283188
379,-0.0234037805348635,-0.0212229080498219,-0.0481005497276783,-0.0862196981906891,-0.062881775200367,-0.0205250456929207
380,-0.0232483819127083,-0.0240478552877903,-0.0465713106095791,-0.0872194617986679,-0.0634329691529274,-0.0244273263961077
381,-0.0241154879331589,-0.0273723807185888,-0.045327614992857,-0.0873715803027153,-0.0632190704345703,-0.0246870126575232
382,-0.0252019353210926,-0.0299425944685936,-0.0441413819789886,-0.0856630876660347,-0.0619350001215935,-0.0206554308533669
383,-0.0264079663902521,-0.031336784362793,-0.0438554063439369,-0.0828697010874748,-0.0615532733500004,-0.0137797091156244
384,-0.028089476749301,-0.0317494608461857,-0.0454348213970661,-0.081616684794426,-0.0635650902986526,-0.00671066250652075
385,-0.0299769155681133,-0.0310355871915817,-0.0477022640407085,-0.0826928019523621,-0.0668992102146149,-0.000410266948165372
386,-0.0313221104443073,-0.028735164552927,-0.0487132482230663,-0.0840227827429771,-0.0695738941431046,0.00511262519285083
387,-0.032095693051815,-0.02570222876966,-0.0483340844511986,-0.0840018019080162,-0.0706020519137383,0.00907015241682529
388,-0.0326781719923019,-0.0237181913107634,-0.0480982288718224,-0.0837412625551224,-0.0699335560202599,0.0106106726452708
389,-0.0329142026603222,-0.0240670554339886,-0.0496242940425873,-0.0855205208063126,-0.0684674605727196,0.00965756271034479
390,-0.0329372249543667,-0.0270381383597851,-0.0529706664383411,-0.0898880064487457,-0.0677929446101189,0.00715749058872461
391,-0.0326484851539135,-0.0313285067677498,-0.0560644865036011,-0.0944061502814293,-0.0677177608013153,0.00458058342337608
392,-0.0311230029910803,-0.0349418334662914,-0.0570468679070473,-0.0959159284830093,-0.0661682710051537,0.00220321700908244
393,-0.0286190994083881,-0.0366480574011803,-0.0562731996178627,-0.0939444303512573,-0.0626906156539917,-0.000738325179554522
394,-0.0263422541320324,-0.0364876352250576,-0.054938443005085,-0.0908127576112747,-0.0591688901185989,-0.00413441145792603
395,-0.0246744733303785,-0.035428810864687,-0.0542017854750156,-0.0889214649796486,-0.057356920093298,-0.00712484354153275
396,-0.0235802195966244,-0.0347287878394127,-0.0550081394612789,-0.0886251628398895,-0.0571226552128792,-0.00949237868189812
397,-0.0233513917773962,-0.0354797579348087,-0.0573537386953831,-0.0885427817702293,-0.0575454570353031,-0.0117305759340525
398,-0.0242788773030043,-0.0373305045068264,-0.0603530518710613,-0.0875489339232445,-0.0584146417677403,-0.0139090586453676
399,-0.0263844784349203,-0.0389887429773808,-0.0630095079541206,-0.0861477479338646,-0.0599904842674732,-0.0155501561239362
400,-0.0288587063550949,-0.0395018197596073,-0.064789205789566,-0.0849401950836182,-0.0621113777160645,-0.0154358334839344
401,-0.0303481556475163,-0.0385227799415588,-0.0652046278119087,-0.0835718661546707,-0.063992477953434,-0.0121700977906585
402,-0.0307932551950216,-0.0372503511607647,-0.0638706907629967,-0.0820999220013618,-0.0650896802544594,-0.00672458158805966
403,-0.031257588416338,-0.037359680980444,-0.0614519938826561,-0.0812903717160225,-0.0651970058679581,-0.00185136939398944
404,-0.0318841189146042,-0.0386570990085602,-0.0592910535633564,-0.0817630290985107,-0.0640188455581665,0.000997947296127677
405,-0.0320206545293331,-0.0394912138581276,-0.058244064450264,-0.0835864916443825,-0.0619708225131035,0.0025110375136137
406,-0.0320554189383984,-0.0388477668166161,-0.058695986866951,-0.0863496735692024,-0.0610576458275318,0.0041198842227459
407,-0.0328271239995956,-0.0371611155569553,-0.0607781000435352,-0.0891931354999542,-0.0628547444939613,0.00582510977983475
408,-0.0336841158568859,-0.0349397584795952,-0.0631988048553467,-0.0909573510289192,-0.0656326487660408,0.0063501475378871
409,-0.0333559438586235,-0.0319350063800812,-0.0640935599803925,-0.0909772738814354,-0.0667737424373627,0.00554723851382732
410,-0.0321500450372696,-0.0288296025246382,-0.0641010031104088,-0.0903089940547943,-0.0667790323495865,0.00388343632221222
411,-0.0313033014535904,-0.0274170953780413,-0.0644237473607063,-0.0909408181905746,-0.066941611468792,0.00133953441400081
412,-0.0309558678418398,-0.0279156137257814,-0.0641462057828903,-0.0928909778594971,-0.0665505826473236,-0.000933451112359762
413,-0.0311185922473669,-0.028996741399169,-0.0630590319633484,-0.0938875004649162,-0.0657712370157242,-0.00128722272347659
414,-0.0323019362986088,-0.0294265486299992,-0.0620049871504307,-0.0918052569031715,-0.0657327026128769,0.000723423843737692
415,-0.0340679921209812,-0.0288687609136105,-0.0612678043544292,-0.0870549902319908,-0.0659627392888069,0.00417898502200842
416,-0.0353427864611149,-0.0282892547547817,-0.0614827238023281,-0.0824150666594505,-0.0657904148101807,0.0082991560921073
417,-0.0355621688067913,-0.0280718300491571,-0.0628043562173843,-0.079583466053009,-0.0653031170368195,0.0136600295081735
418,-0.0344568938016891,-0.0276049822568893,-0.0637469068169594,-0.0778343975543976,-0.0640894323587418,0.0190389342606068
419,-0.0318096578121185,-0.0270890239626169,-0.0630955919623375,-0.076651968061924,-0.0615956783294678,0.0218446999788284
420,-0.0284023396670818,-0.0263890735805035,-0.0616046376526356,-0.0766922533512115,-0.0588974915444851,0.022420845925808
421,-0.0258561037480831,-0.0235272347927094,-0.0606378838419914,-0.0785181373357773,-0.0577407367527485,0.0231435112655163
422,-0.0259896703064442,-0.0172535814344883,-0.0610150173306465,-0.0825517773628235,-0.0589840449392796,0.0245103091001511
423,-0.0288724396377802,-0.00889118947088718,-0.062154334038496,-0.0875646397471428,-0.0613236911594868,0.0259330682456493
424,-0.0317799113690853,-0.00271603208966553,-0.0623745769262314,-0.0907556861639023,-0.0612044297158718,0.0275829154998064
425,-0.0327974185347557,-0.00281652249395847,-0.0611586645245552,-0.0906964316964149,-0.0565552487969399,0.0286452565342188
426,-0.0324187949299812,-0.0084725022315979,-0.0595996305346489,-0.0881935060024261,-0.0492209792137146,0.0278771538287401
427,-0.0315289013087749,-0.0172364544123411,-0.0591569542884827,-0.0855090171098709,-0.0434285178780556,0.0259036906063557
428,-0.0298607312142849,-0.0265635997056961,-0.0597224570810795,-0.0837050229310989,-0.0418862290680408,0.025158952921629
429,-0.0276075676083565,-0.0328089259564877,-0.0602712705731392,-0.0819745734333992,-0.0443551503121853,0.0268403366208076
430,-0.0258681885898113,-0.033611536026001,-0.0601369105279446,-0.0790719836950302,-0.0483149625360966,0.0306424871087074
431,-0.0240113753825426,-0.0300065036863089,-0.0587123893201351,-0.074391283094883,-0.0502428151667118,0.0360735915601254
432,-0.0216476917266846,-0.0259373430162668,-0.0570005550980568,-0.0696828290820122,-0.0496004335582256,0.0404312424361706
433,-0.0201951917260885,-0.0245776288211346,-0.0564562305808067,-0.068105548620224,-0.048075694590807,0.0404487513005733
434,-0.0199461504817009,-0.0258906222879887,-0.0561773963272572,-0.070768691599369,-0.045651912689209,0.0361059606075287
435,-0.0196344163268805,-0.0280880015343428,-0.0548261143267155,-0.0758580639958382,-0.0419736504554749,0.0298413373529911
436,-0.0180266611278057,-0.0298509243875742,-0.0525566041469574,-0.0809506326913834,-0.0378425866365433,0.0239514913409948
437,-0.0151923755183816,-0.0308590773493052,-0.0499030165374279,-0.0846928209066391,-0.0343602634966373,0.0192571636289358
438,-0.01261115539819,-0.0317142009735107,-0.0472808219492435,-0.0869607403874397,-0.0320665463805199,0.0153486020863056
439,-0.0106231616809964,-0.0323936529457569,-0.0448675155639648,-0.0876984372735024,-0.0299071203917265,0.0124423876404762
440,-0.00798994209617376,-0.0316104330122471,-0.0423967204988003,-0.086117334663868,-0.0264181513339281,0.0115102287381887
441,-0.00431104702875018,-0.0288455318659544,-0.0399424321949482,-0.082212820649147,-0.0217026378959417,0.0128585277125239
442,-0.000119409000035375,-0.0231128260493279,-0.0377514809370041,-0.0770591050386429,-0.0168776288628578,0.0165821108967066
443,0.00375595386140049,-0.0137443970888853,-0.0360975563526154,-0.0716633498668671,-0.0133430836722255,0.0222665462642908
444,0.00605264911428094,-0.0053330403752625,-0.0363380759954453,-0.0678212195634842,-0.0128068467602134,0.0278353113681078
445,0.00588636891916394,-0.0020023649558425,-0.0397055000066757,-0.0672714486718178,-0.0160176195204258,0.0313746780157089
446,0.00290234573185444,-0.00214548618532717,-0.0459316298365593,-0.069744661450386,-0.0221159532666206,0.0328489243984222
447,-0.00205830042250454,-0.00271592498756945,-0.0529799908399582,-0.0735087692737579,-0.0286331698298454,0.0339951999485493
448,-0.00594376586377621,0.000734716362785548,-0.0574198439717293,-0.0758114829659462,-0.0319191180169582,0.037765771150589
449,-0.0074766231700778,0.00939139164984226,-0.0585990995168686,-0.0746958032250404,-0.0317513234913349,0.0429955869913101
450,-0.0085861636325717,0.0166889820247889,-0.0588117241859436,-0.0696226954460144,-0.0316689424216747,0.0446350574493408
451,-0.0100724054500461,0.0166185554116964,-0.0589181520044804,-0.0611829534173012,-0.032790157943964,0.0439469888806343
452,-0.0113623049110174,0.0093376487493515,-0.0590393021702766,-0.0539916940033436,-0.0340333804488182,0.048003613948822
453,-0.0116643933579326,-0.000106428524304647,-0.0588906295597553,-0.0533327609300613,-0.0346127450466156,0.0594169683754444
454,-0.010370759293437,-0.00539896404370666,-0.0567555874586105,-0.0583584271371365,-0.033513605594635,0.0729542896151543
455,-0.00789524056017399,-0.00526484847068787,-0.0520657226443291,-0.0639652237296104,-0.0301057528704405,0.0815366879105568
456,-0.00481616333127022,-0.00396566418930888,-0.0460036918520927,-0.066322073340416,-0.0244114715605974,0.0827338173985481
457,-0.00236617168411613,-0.00702284509316087,-0.0401983745396137,-0.0660083070397377,-0.0178591962903738,0.0769947916269302
458,-0.00259516853839159,-0.0164962485432625,-0.0369581170380116,-0.0670439079403877,-0.0130014019086957,0.0655547454953194
459,-0.00579132651910186,-0.027567932382226,-0.0378424823284149,-0.0718480125069618,-0.0110286427661777,0.0518940612673759
460,-0.0095084710046649,-0.0344297476112843,-0.0416551604866982,-0.0790374949574471,-0.0111078899353743,0.0390782468020916
461,-0.0106697883456945,-0.0367230661213398,-0.0451788008213043,-0.0848926678299904,-0.0109372390434146,0.0284551978111267
462,-0.00854271743446589,-0.0366073548793793,-0.0467272289097309,-0.0863892212510109,-0.00914917327463627,0.0219382792711258
463,-0.00481185875833035,-0.0331917479634285,-0.0474840402603149,-0.0837769731879234,-0.00710153020918369,0.0229464210569859
464,-0.00128055107779801,-0.0254818685352802,-0.0487123504281044,-0.0799828246235847,-0.00656823394820094,0.0325199104845524
465,0.0011775076854974,-0.0178660806268454,-0.0501029491424561,-0.0785472020506859,-0.00770010054111481,0.0438902042806149
466,0.00309530249796808,-0.0140917850658298,-0.0498152300715446,-0.0803235173225403,-0.00937173049896955,0.0487727597355843
467,0.0052703688852489,-0.012425241060555,-0.0468440093100071,-0.0832896083593369,-0.0105911558493972,0.0461107902228832
468,0.00738924788311124,-0.0106222648173571,-0.042965229600668,-0.0860371738672256,-0.0108106378465891,0.0397093072533607
469,0.00944085884839296,-0.0088411858305335,-0.0399601310491562,-0.0882359743118286,-0.00935272499918938,0.0342571325600147
470,0.0120130758732557,-0.00754127092659473,-0.0378750562667847,-0.0888752266764641,-0.00642454391345382,0.0345032401382923
471,0.0145346103236079,-0.0050717405974865,-0.0365411303937435,-0.08686862885952,-0.00313939643092453,0.0442119985818863
472,0.0155380116775632,0.0011515507940203,-0.0362139791250229,-0.0823579132556915,0.000514741754159331,0.0613678656518459
473,0.0143727529793978,0.00835295580327511,-0.0368856340646744,-0.0759514421224594,0.00478766486048698,0.0771182104945183
474,0.0120861176401377,0.0104836467653513,-0.0378154367208481,-0.0690850093960762,0.00870544090867043,0.085268646478653
475,0.0109572997316718,0.00732386112213135,-0.037583701312542,-0.0639377012848854,0.0117994491010904,0.0864166617393494
476,0.0120780142024159,0.00186781364027411,-0.0354557484388351,-0.0608452185988426,0.0141521841287613,0.0828081667423248
477,0.0140632539987564,-0.00456427270546556,-0.0330090075731277,-0.0588385686278343,0.0150317186489701,0.0745267197489738
478,0.0150355370715261,-0.0111415302380919,-0.0325523428618908,-0.0573843270540237,0.0138582549989223,0.0611224807798862
479,0.0145708341151476,-0.0169931165874004,-0.0343912988901138,-0.0567202530801296,0.0113767525181174,0.0454271025955677
480,0.013213662430644,-0.0219315253198147,-0.0372378304600716,-0.0580030046403408,0.00882021617144346,0.031522236764431
481,0.0115498648956418,-0.0264666266739368,-0.0403232723474503,-0.0619109608232975,0.00665787234902382,0.0213671866804361
482,0.0129193505272269,-0.0302204191684723,-0.04253064468503,-0.0673636570572853,0.00539410999044776,0.0160929039120674
483,0.0203189700841904,-0.030771279707551,-0.0414880178868771,-0.0714684724807739,0.00546369003131986,0.0177230183035135
484,0.0287894643843174,-0.0264238882809877,-0.0373728051781654,-0.0715228244662285,0.00658952537924051,0.0277608837932348
485,0.0318539403378963,-0.0187966171652079,-0.0328399576246738,-0.0666648894548416,0.00998612307012081,0.0455611385405064
486,0.0294893272221088,-0.0106199057772756,-0.0289115030318499,-0.0572604387998581,0.0169555246829987,0.0667237564921379
487,0.0243769697844982,-0.0042831115424633,-0.0260015111416578,-0.0454661585390568,0.0251882094889879,0.0824737027287483
488,0.0187441054731607,-0.0020354250445962,-0.0248854793608189,-0.0357830002903938,0.0310064423829317,0.086541973054409
489,0.0148589052259922,-0.00482465187087655,-0.0253824815154076,-0.0326304472982883,0.0326209627091885,0.0811479315161705
490,0.014416616410017,-0.0101413568481803,-0.0265326499938965,-0.0358731225132942,0.030939856544137,0.0733319744467735
491,0.0167396813631058,-0.0133013231679797,-0.0277815721929073,-0.0415119901299477,0.0284124780446291,0.0678533166646957
492,0.0195213928818703,-0.0114622507244349,-0.0291059296578169,-0.0463470481336117,0.0266577117145061,0.0651988536119461
493,0.0216843504458666,-0.00324381073005497,-0.0297553166747093,-0.0483379773795605,0.0266468059271574,0.0648819133639336
494,0.0229380391538143,0.00850696209818125,-0.0295617524534464,-0.0471300669014454,0.0282251890748739,0.0654537975788116
495,0.0230185743421316,0.0154964784160256,-0.0297929272055626,-0.04475437104702,0.0297476351261139,0.0642994120717049
496,0.022146200761199,0.0140827456489205,-0.0309314969927073,-0.0424555279314518,0.030283235013485,0.0612390972673893
497,0.020314633846283,0.00780365942046046,-0.0321846604347229,-0.0394170880317688,0.0299071818590164,0.0584741532802582
498,0.0179282892495394,0.000894711818546057,-0.032668873667717,-0.035128653049469,0.0291884429752827,0.0583778657019138
499,0.015870351344347,-0.00411537522450089,-0.0319540724158287,-0.0310190767049789,0.0290991179645061,0.0618253834545612
500,0.0138882147148252,-0.00636690482497215,-0.0307973306626081,-0.0293973740190268,0.0292926989495754,0.0664816573262215
501,0.0117771672084928,-0.00592680834233761,-0.030209269374609,-0.0307293869554996,0.0284588746726513,0.0691074505448341
502,0.0102657657116652,-0.00376103399321437,-0.0296032708138227,-0.0330562815070152,0.0268509034067392,0.068411149084568
503,0.00969434157013893,-0.00152337446343154,-0.0278985798358917,-0.0340181700885296,0.0259802937507629,0.0652581453323364
504,0.0102058462798595,-0.000383297097869217,-0.0250730253756046,-0.032796386629343,0.0265356246381998,0.0616695582866669
505,0.0108649367466569,-0.00124243693426251,-0.0226447619497776,-0.0308557134121656,0.0270452070981264,0.0592056512832642
506,0.00991058815270662,-0.00380900874733925,-0.0221151113510132,-0.0292157903313637,0.0257860124111176,0.0599726140499115
507,0.00770362047478557,-0.00590151688084006,-0.0228420868515968,-0.027149984613061,0.0237726122140884,0.0654708445072174
508,0.00599720887839794,-0.00587002886459231,-0.0239897463470697,-0.0254814531654119,0.0228266958147287,0.0729775950312614
509,0.00563088478520513,-0.0026750722900033,-0.0258242897689343,-0.025660676881671,0.0232817642390728,0.0783998668193817
510,0.00664219167083502,0.00507266074419022,-0.0280513688921928,-0.0264623258262873,0.0251511596143246,0.0807093903422356
511,0.00829325336962938,0.0141160823404789,-0.029965378344059,-0.0259654819965363,0.0282086078077555,0.0807555988430977
512,0.0103769758716226,0.0179032422602177,-0.0302508343011141,-0.0233606472611427,0.0327037014067173,0.0796292871236801
513,0.0135794291272759,0.0152299329638481,-0.0274082832038403,-0.0191873610019684,0.0395622812211514,0.077358715236187
514,0.0171433109790087,0.00904993806034327,-0.022316699847579,-0.0157085526734591,0.0478888340294361,0.0727290883660316
515,0.0194346234202385,0.00254557211883366,-0.0177662167698145,-0.0142849385738373,0.0547809563577175,0.0666135251522064
516,0.0191923473030329,-0.00175093545112759,-0.0166041869670153,-0.014670523814857,0.056737843900919,0.0615008249878883
517,0.015938974916935,-0.00305892038159072,-0.0201282314956188,-0.0167579408735037,0.052307490259409,0.0592664703726768
518,0.011062323115766,-0.00232039578258991,-0.0265165939927101,-0.0203802175819874,0.0443144589662552,0.0608158186078072
519,0.00696717714890838,-0.00121370516717434,-0.032178521156311,-0.0249487608671188,0.0373204611241817,0.064155638217926
520,0.00545513769611716,-0.000595653138589114,-0.0342300459742546,-0.0289761479943991,0.0342244803905487,0.065737172961235
521,0.00658663082867861,-0.000131770793814212,-0.0322969071567059,-0.0303359478712082,0.0348643027245998,0.064526379108429
522,0.00854386575520039,0.000936216209083796,-0.0289695877581835,-0.0283201448619366,0.0367761328816414,0.0617585740983486
523,0.00963426753878593,0.00285824062302709,-0.0271249487996101,-0.0244651939719915,0.0383164286613464,0.0592960305511951
524,0.00908797886222601,0.00503819854930043,-0.0278092082589865,-0.0210166554898024,0.0390020795166492,0.0588060803711414
525,0.00666936859488487,0.00668972637504339,-0.0307917855679989,-0.0192002132534981,0.0380703024566174,0.0601607486605644
526,0.00349638937041163,0.00730782095342875,-0.0348886139690876,-0.0190767571330071,0.0360574908554554,0.0613301619887352
527,0.00176189269404858,0.0070075336843729,-0.0378613024950027,-0.0197479780763388,0.0355061441659927,0.0604991056025028
528,0.00250407564453781,0.00681405980139971,-0.0377013683319092,-0.0194137040525675,0.0374914668500423,0.0581609718501568
529,0.00468681007623672,0.00735826231539249,-0.0344875827431679,-0.0172136295586824,0.0398731045424938,0.0557727329432964
530,0.00686695985496044,0.00799483526498079,-0.0299979057163,-0.0138037782162428,0.0408275723457336,0.0537699311971664
531,0.00839221756905317,0.00824617873877287,-0.026130298152566,-0.00984443910419941,0.0408939532935619,0.0524725876748562
532,0.00927160680294037,0.0086211059242487,-0.0237422455102205,-0.00581213086843491,0.0420771054923534,0.0526085458695889
533,0.00963372457772493,0.00968742556869984,-0.0224458500742912,-0.00189359020441771,0.0457852408289909,0.0545827075839043
534,0.00901651475578547,0.01101706456393,-0.0221443939954042,0.00157259067054838,0.0503426194190979,0.0569514781236649
535,0.00704857381060719,0.0119402781128883,-0.0232537817209959,0.00385365379042923,0.0529436990618706,0.0572571791708469
536,0.00439920974895358,0.0127061791718006,-0.0252001713961363,0.00494594452902675,0.0531758964061737,0.0552944652736187
537,0.00200258148834109,0.0134884100407362,-0.0266098976135254,0.00545318005606532,0.0524385385215282,0.0529458448290825
538,0.00044803399941884,0.0138593055307865,-0.0266367215663195,0.00616824347525835,0.0518488064408302,0.05162488296628
539,5.19198001711629E-05,0.013381359167397,-0.0256513170897961,0.00751430029049516,0.0518082529306412,0.0509642548859119
540,0.000571947486605495,0.0120584415271878,-0.0249458737671375,0.00876383669674397,0.0518833920359612,0.0498838387429714
541,0.00124186603352427,0.0105398530140519,-0.0250772684812546,0.00889064930379391,0.0510978326201439,0.0479582622647285
542,0.00113633857108653,0.00971517618745565,-0.0252338442951441,0.00789622217416763,0.0489426851272583,0.0455850921571255
543,-0.000209320292924531,0.0103146694600582,-0.0247080866247416,0.00629328470677137,0.0457411706447601,0.04373824223876
544,-0.0027977239806205,0.0120383221656084,-0.023875629529357,0.00393467303365469,0.0421706847846508,0.0420539490878582
545,-0.00565624749287963,0.0139118880033493,-0.0232535488903522,0.00116469152271748,0.0393794290721416,0.0393007062375546
546,-0.00681292777881026,0.0153407668694854,-0.022734671831131,-0.000793956511188298,0.0390140414237976,0.0359442420303822
547,-0.00581181049346924,0.0160325411707163,-0.0222849287092686,-0.00123483885545284,0.0411576367914677,0.0336598008871078
548,-0.00400727428495884,0.0164298303425312,-0.0220506954938173,-0.000767576857469976,0.0440159291028976,0.033158116042614
549,-0.00228832056745887,0.0177039410918951,-0.0217298995703459,-0.000407883868319914,0.0466994717717171,0.0336798988282681
550,-0.00087136821821332,0.0198335442692041,-0.0208727046847343,-4.65557532152161E-05,0.0493494123220444,0.033837229013443
551,-0.000694434798788279,0.0202186647802591,-0.0199004206806421,-9.31954418774694E-05,0.0510949231684208,0.0317220911383629
552,-0.00200188555754721,0.0170351397246122,-0.0192808266729116,-0.00136931403540075,0.0514407716691494,0.0272576175630093
553,-0.0031320764683187,0.0122252544388175,-0.0189136676490307,-0.00300056650303304,0.0511951930820942,0.022758174687624
554,-0.00340114254504442,0.0083529083058238,-0.019263694062829,-0.00415070680901408,0.0505781620740891,0.0193756613880396
555,-0.00347105576656759,0.00626009330153465,-0.0203722063452005,-0.00489625986665487,0.0495598651468754,0.0169884208589792
556,-0.0029743395280093,0.00634083244949579,-0.0207256656140089,-0.00430080760270357,0.0491585358977318,0.0159839522093534
557,-0.00156333798076957,0.00843573641031981,-0.0193430911749601,-0.00121136952657253,0.0499212294816971,0.0169434919953346
558,2.80801996268565E-05,0.0115448907017708,-0.0172113105654716,0.00360716436989605,0.0509778149425983,0.0200349371880293
559,0.00116440479177982,0.0149606121703982,-0.0158013626933098,0.0082974536344409,0.0516738332808018,0.0250169243663549
560,0.00145574961788952,0.0179050508886576,-0.015784002840519,0.0112309753894806,0.0517202541232109,0.0303093586117029
561,0.000880382722243667,0.0191906448453665,-0.0166479162871838,0.0116426004096866,0.0509953051805496,0.0329612791538239
562,0.000120149932627101,0.018350824713707,-0.0175909753888845,0.00994989462196827,0.0499809049069881,0.0311434883624315
563,-0.000149315383168869,0.0160180237144232,-0.0186653733253479,0.00738687347620726,0.0490892268717289,0.0255144946277142
564,0.000130200234707445,0.0138755477964878,-0.0195173267275095,0.00576067576184869,0.0486032702028751,0.0194523259997368
565,0.000354557589162141,0.0132832499220967,-0.0190225765109062,0.00574727449566126,0.0486076772212982,0.0163710191845894
566,0.000384491169825196,0.013907634653151,-0.0167324393987656,0.00637465808540583,0.0494446642696857,0.0160719212144613
567,0.000851226388476789,0.0152055956423283,-0.0134581653401256,0.00734640518203378,0.0515150800347328,0.0170023739337921
568,0.00105495611205697,0.0167257059365511,-0.0111633902415633,0.00867122039198875,0.0530904829502106,0.0182174202054739
569,3.94593371311203E-06,0.0174539163708687,-0.0110012916848063,0.00991253834217787,0.0529911369085312,0.0187792237848043
570,-0.00158499414101243,0.0173279903829098,-0.0121547067537904,0.0111294891685247,0.052620068192482,0.0189172737300396
571,-0.00330245750956237,0.0170518476516008,-0.0141250425949693,0.0117899971082807,0.0520770736038685,0.0198762658983469
572,-0.00517400819808245,0.0168817937374115,-0.0169550608843565,0.0110189048573375,0.0506473332643509,0.0223289020359516
573,-0.00656939577311277,0.0168083496391773,-0.0199861619621515,0.00910343416035175,0.0491215474903584,0.0252914596349001
574,-0.00757576571777463,0.0164669342339039,-0.0223527103662491,0.00723396614193916,0.0478841215372086,0.0268611572682858
575,-0.00880079995840788,0.0154380826279521,-0.0235079508274794,0.00619344972074032,0.0464971475303173,0.0258409064263105
576,-0.00981433875858784,0.0139331156387925,-0.0241427980363369,0.00486956257373095,0.0453603714704514,0.0213904585689306
577,-0.00986930262297392,0.0127581087872386,-0.0251101925969124,0.00215041916817427,0.0450385771691799,0.0134519692510366
578,-0.00936366710811853,0.0122736608609557,-0.0253539755940437,-0.000912594783585519,0.0449962243437767,0.00362365739420056
579,-0.00915087107568979,0.0117986528202891,-0.0241122841835022,-0.00353855220600963,0.0443295836448669,-0.00626576505601406
580,-0.00963842868804932,0.0107326861470938,-0.0230203624814749,-0.00624851416796446,0.0426030941307545,-0.0148803377524018
581,-0.0107565289363265,0.00960361305624247,-0.0229566562920809,-0.00801531877368689,0.0400670655071735,-0.020660100504756
582,-0.0113465087488294,0.00924392975866795,-0.0219596363604069,-0.00666863191872835,0.038472019135952,-0.022555235773325
583,-0.00973597075790167,0.00947493407875299,-0.0179702248424292,-0.00272231758572161,0.0401007421314716,-0.0215966943651438
584,-0.00587945617735386,0.00976569857448339,-0.0114193418994546,0.000930584268644452,0.0444103106856346,-0.0201302338391542
585,-0.00138521450571716,0.0106640039011836,-0.00516215804964304,0.00218623201362789,0.0485010109841824,-0.018989335745573
586,0.00171968271024525,0.0126482648774982,-0.00185953197069466,0.000270990596618503,0.0503283999860287,-0.017291622236371
587,0.00200692564249039,0.0151371089741588,-0.00195134745445102,-0.00415938813239336,0.0499181486666203,-0.0145884361118078
588,0.000224696210352704,0.0175254922360182,-0.00455203279852867,-0.0089221652597189,0.0489976890385151,-0.0116746155545115
589,-0.00177392736077309,0.0193708147853613,-0.00799520406872034,-0.0124113522469997,0.0485626012086868,-0.0101556731387973
590,-0.00311192078515887,0.0207031555473804,-0.00998792145401239,-0.0144482776522636,0.0480300821363926,-0.0105549236759543
591,-0.00433608191087842,0.0214657299220562,-0.0102962469682097,-0.0160627607256174,0.0463013201951981,-0.0123854298144579
592,-0.0061764270067215,0.0212511736899614,-0.0105821825563908,-0.0183024778962135,0.0430271737277508,-0.0151512268930674
593,-0.0080987885594368,0.0205867756158113,-0.010681951418519,-0.0198980160057545,0.0394755527377129,-0.0165747236460447
594,-0.00924667902290821,0.020320488139987,-0.00923634693026543,-0.0186138283461332,0.0370098240673542,-0.013973219320178
595,-0.009421874769032,0.0203274060040712,-0.00625200942158699,-0.0145936459302902,0.0360716506838799,-0.00886285677552223
596,-0.00914142746478319,0.0201022569090128,-0.00297924550250173,-0.0111999399960041,0.0362071022391319,-0.00582096772268415
597,-0.00906991679221392,0.0200204476714134,-0.000842299428768456,-0.0119744706898928,0.0362185873091221,-0.006768933031708
598,-0.00938543491065502,0.0201561134308577,-0.000499721034429967,-0.0167470201849937,0.0354537144303322,-0.0101283090189099
599,-0.0097889443859458,0.0197684857994318,-0.00122082536108792,-0.0220138877630234,0.0346610322594643,-0.0132441343739629
600,-0.00991104636341333,0.0187042895704508,-0.00177606078796089,-0.0250676535069942,0.0345797464251518,-0.0154064409434795
601,-0.00980584695935249,0.0172155350446701,-0.00185430212877691,-0.0264991596341133,0.0348964631557465,-0.0183653570711613
602,-0.0101841893047094,0.0157709270715714,-0.00241175410337746,-0.0281657986342907,0.0345050245523453,-0.022363904863596
603,-0.0114903096109629,0.0148796970024705,-0.00454337894916534,-0.0301229748874903,0.0328263714909554,-0.0257805585861206
604,-0.0131379654631019,0.0140851847827435,-0.00804971717298031,-0.0318552777171135,0.0307279136031866,-0.0281571187078953
605,-0.0145969176664948,0.0128833167254925,-0.0115283979102969,-0.0342499054968357,0.0292729996144772,-0.0297103095799685
606,-0.0156353320926428,0.0118650095537305,-0.013290461152792,-0.0374269485473633,0.0291867200285196,-0.0295077431946993
607,-0.0163733530789614,0.0112437624484301,-0.0124503597617149,-0.0400857701897621,0.0301660597324371,-0.0281031243503094
608,-0.0172008387744427,0.0104320393875241,-0.00984238833189011,-0.0421524383127689,0.0311554260551929,-0.0276733469218016
609,-0.0176219753921032,0.00964728929102421,-0.00696168653666973,-0.0443557426333427,0.0318034403026104,-0.02820067666471
610,-0.0166908595710993,0.0101499184966087,-0.00399316614493728,-0.0457118935883045,0.0321273133158684,-0.0288099329918623
611,-0.0147947464138269,0.0118802487850189,-0.00109064299613237,-0.0454490445554256,0.0320468097925186,-0.0303387306630611
612,-0.0135065400972962,0.0129431756213307,0.000694791960995644,-0.044937439262867,0.0310584753751755,-0.034221850335598
613,-0.0134725896641612,0.0125414449721575,0.00130047835409641,-0.0451020672917366,0.02874362654984,-0.0403601303696632
614,-0.0141483405604959,0.0118077229708433,0.00148154911585152,-0.0453612133860588,0.0253215357661247,-0.0469448603689671
615,-0.0151876658201218,0.0113237407058477,0.00169651675969362,-0.0455598086118698,0.0214137807488441,-0.0525682084262371
616,-0.0159547943621874,0.0104038901627064,0.00269321934320033,-0.0460215583443642,0.019090298563242,-0.0564500540494919
617,-0.0153061859309673,0.00923075061291456,0.00486067682504654,-0.0460073947906494,0.020361565053463,-0.0569929517805576
618,-0.0134738404303789,0.0093227457255125,0.00665547093376517,-0.0448067560791969,0.0236691329628229,-0.0528002418577671
619,-0.0120855262503028,0.0111397337168455,0.0061697936616838,-0.0435865186154842,0.0257293190807104,-0.0455361716449261
620,-0.0124941151589155,0.0128361759707332,0.00313953123986721,-0.0439421124756336,0.0248295199126005,-0.0398814976215363
621,-0.0145893357694149,0.0127971731126308,-0.000869297829922289,-0.0454016290605068,0.0214353948831558,-0.0392744317650795
622,-0.0170489083975554,0.0114644421264529,-0.00343230389989913,-0.0463511273264885,0.0173987224698067,-0.0430286042392254
623,-0.0193559881299734,0.00970329716801643,-0.00378296989947557,-0.0468539781868458,0.0136220846325159,-0.0485950596630573
624,-0.0219211000949144,0.00764749944210052,-0.00335117196664214,-0.0482158288359642,0.00971701554954052,-0.0548395924270153
625,-0.0242677815258503,0.00564304273575544,-0.00336451642215252,-0.0502161383628845,0.00586774293333292,-0.0612287037074566
626,-0.0258253253996372,0.004185501486063,-0.00377105618827045,-0.0511166006326675,0.00287035736255348,-0.0667596980929375
627,-0.0266020260751247,0.00312351086176932,-0.00356206228025258,-0.0496507920324802,0.00152492243796587,-0.0711135864257813
628,-0.0261546652764082,0.00251374859362841,-0.00186660524923354,-0.0460306480526924,0.0024081168230623,-0.0742064267396927
629,-0.0247138682752848,0.00259795552119613,2.75181482720654E-05,-0.0422145016491413,0.00424195500090718,-0.0759446024894714
630,-0.0235149338841438,0.00299178552813828,-6.80871889926493E-05,-0.0403204709291458,0.00490114651620388,-0.0768136605620384
631,-0.0230111349374056,0.00368862599134445,-0.00193290039896965,-0.0407257974147797,0.00469720596447587,-0.0768586993217468
632,-0.0234197657555342,0.004804034717381,-0.00396091630682349,-0.043437447398901,0.00456080352887511,-0.0766431167721748
633,-0.0249362885951996,0.00592710310593247,-0.00532476231455803,-0.0475227646529675,0.00379215343855321,-0.0772238150238991
634,-0.0266748331487179,0.00682425126433373,-0.005781767424196,-0.0504841580986977,0.00200157682411373,-0.078328900039196
635,-0.0274998098611832,0.00696275103837252,-0.00560344941914082,-0.0519898124039173,0.000594877346884459,-0.0795336291193962
636,-0.0274601764976978,0.00549837807193398,-0.00550817511975765,-0.0535335056483746,0.000624449923634529,-0.0801533386111259
637,-0.0281189531087875,0.00243890192359686,-0.00614309031516314,-0.0557850748300552,0.000363291561370716,-0.0794155821204185
638,-0.0302376840263605,-0.00106695387512445,-0.00709505006670952,-0.0588896423578262,-0.00171899260021746,-0.0780502408742905
639,-0.0322220399975777,-0.00355561310425401,-0.0068754069507122,-0.0625628530979156,-0.00417439639568329,-0.0770540907979012
640,-0.0324892774224281,-0.00426732888445258,-0.00493577215820551,-0.0657046064734459,-0.00502537796273828,-0.0766148790717125
641,-0.0315649844706059,-0.00373966852203012,-0.00317306048236787,-0.0670797154307365,-0.00477744871750474,-0.0770894587039948
642,-0.030672674998641,-0.0030028794426471,-0.00331645854748786,-0.0663434341549873,-0.00503223342821002,-0.0790315419435501
643,-0.0299069322645664,-0.00247461535036564,-0.00453465757891536,-0.0639055073261261,-0.00580526189878583,-0.0819076523184776
644,-0.0286885555833578,-0.001991534139961,-0.0058020600117743,-0.0603928901255131,-0.00643235491588712,-0.0844145938754082
645,-0.0268495362251997,-0.00150244473479688,-0.00739632919430733,-0.0571733377873898,-0.00707932002842426,-0.0862205699086189
646,-0.0245664715766907,-0.00120658928062767,-0.00903815403580666,-0.055300772190094,-0.00809478852897882,-0.0872062891721725
647,-0.0223556626588106,-0.000984686892479658,-0.0094564612954855,-0.0535379908978939,-0.00913872011005878,-0.0861803218722343
648,-0.0214670747518539,-0.00102637836243957,-0.0085747642442584,-0.0505817830562592,-0.00984411593526602,-0.0831203982234001
649,-0.0222990065813065,-0.00184084288775921,-0.00761218322440982,-0.0471769943833351,-0.0100102815777063,-0.079685814678669
650,-0.0241857338696718,-0.00350675918161869,-0.00715645449236035,-0.0447963513433933,-0.00978275761008263,-0.0769608169794083
651,-0.0268984083086252,-0.00548507086932659,-0.00636007357388735,-0.0439128652215004,-0.00980420224368572,-0.0750841572880745
652,-0.0299760177731514,-0.0067403893917799,-0.00435188692063093,-0.0439604297280312,-0.0104235392063856,-0.074166402220726
653,-0.0324605740606785,-0.00669123185798526,-0.00202077650465071,-0.0449017696082592,-0.0122600719332695,-0.0744869261980057
654,-0.033595833927393,-0.00539088994264603,-0.000958173186518252,-0.0469088964164257,-0.0156325381249189,-0.0757718235254288
655,-0.0336096249520779,-0.00351415365003049,-0.00156900135334581,-0.0487838685512543,-0.0196876935660839,-0.0774717181921005
656,-0.0333509892225266,-0.00191545370034873,-0.00240134098567069,-0.0480559915304184,-0.0232253111898899,-0.0783324688673019
657,-0.0329317823052406,-0.00104059570003301,-0.00186277343891561,-0.0435934253036976,-0.0251667574048042,-0.0774901062250137
658,-0.0326484739780426,-0.00116329931188375,-0.000728449551388621,-0.037337601184845,-0.0260743256658316,-0.0771211609244347
659,-0.033065851777792,-0.00201370054855943,-0.000230130623094738,-0.0314994789659977,-0.0271469373255968,-0.0793297588825226
660,-0.033589743077755,-0.00293113221414387,0.000601294217631221,-0.0265387389808893,-0.0275534894317389,-0.0832915008068085
661,-0.0333577394485474,-0.00331584899686277,0.00307170976884663,-0.022758400067687,-0.0262692552059889,-0.0873536542057991
662,-0.0323121175169945,-0.00304553983733058,0.00684008002281189,-0.0204665865749121,-0.0238987728953362,-0.0902471095323563
663,-0.0307269785553217,-0.00253182696178555,0.0109358904883266,-0.019062664359808,-0.0213545169681311,-0.0909961685538292
664,-0.0289962999522686,-0.00186437915544957,0.0147704500705004,-0.0180001091212034,-0.0188959110528231,-0.0902516692876816
665,-0.0278603546321392,-0.00112427701242268,0.017910148948431,-0.0176368299871683,-0.0168030727654696,-0.0896991491317749
666,-0.0277809463441372,-0.00073014252120629,0.0199541077017784,-0.0186680257320404,-0.0155837088823318,-0.0892990529537201
667,-0.0289418566972017,-0.00104824337176979,0.0206175167113543,-0.0221292618662119,-0.0158383678644896,-0.0888912305235863
668,-0.031171876937151,-0.0014927638694644,0.0203550774604082,-0.027481384575367,-0.0176769737154245,-0.0892860665917397
669,-0.0329220183193684,-0.000523208756931126,0.0206226706504822,-0.0310442838817835,-0.0195434428751469,-0.090348482131958
670,-0.0327311344444752,0.00197029788978398,0.0224678236991167,-0.0305436477065086,-0.0197668932378292,-0.0908656641840935
671,-0.0312015675008297,0.004046939779073,0.0251775048673153,-0.0277708489447832,-0.018551729619503,-0.0901321396231651
672,-0.0297651067376137,0.00419589877128601,0.0274443626403809,-0.0250834487378597,-0.0169344376772642,-0.0892475545406342
673,-0.0280576478689909,0.00344605045393109,0.0295932572335005,-0.0223325230181217,-0.0149797629565001,-0.0884693115949631
674,-0.025176489725709,0.00324695371091366,0.0323858708143234,-0.0187853034585714,-0.0123419752344489,-0.0868747159838676
675,-0.0223926547914743,0.00277536292560399,0.0349541231989861,-0.0161417163908482,-0.00965803489089012,-0.0854288414120674
676,-0.0211148262023926,0.00103904632851481,0.0362876504659653,-0.0160364285111427,-0.00818168930709362,-0.0855183154344559
677,-0.0212307926267385,-0.00158661347813904,0.0367825105786324,-0.0175800360739231,-0.00911742076277733,-0.0871967226266861
678,-0.0219562109559774,-0.00389431184157729,0.0375241152942181,-0.0191334299743176,-0.0126448543742299,-0.0895544737577438
679,-0.0222603511065245,-0.00442023249343038,0.0388219840824604,-0.0196556318551302,-0.0171323455870152,-0.0910302102565765
680,-0.0218886472284794,-0.00266216928139329,0.0399419069290161,-0.0187344271689653,-0.0208441447466612,-0.0907895192503929
681,-0.0217741280794144,0.000457796268165112,0.0402567125856876,-0.0171169545501471,-0.0235882289707661,-0.0901844799518585
682,-0.0227133389562368,0.00320415594615042,0.0398117192089558,-0.0164330117404461,-0.0255183577537537,-0.0916033014655113
683,-0.0242359824478626,0.00469898525625467,0.0393403992056847,-0.0165666118264198,-0.0262939389795065,-0.0949735045433044
684,-0.0254904627799988,0.00540040712803602,0.0390860550105572,-0.0157837569713593,-0.0258722230792046,-0.0975427255034447
685,-0.0262715071439743,0.00556418392807245,0.0383425951004028,-0.0144709786400199,-0.0250438936054707,-0.0976464822888374
686,-0.0267034284770489,0.00469534192234278,0.0372308194637299,-0.015024634078145,-0.0249834749847651,-0.0966735407710075
687,-0.0269614048302174,0.00270711723715067,0.0369788706302643,-0.0178372468799353,-0.0256475582718849,-0.0966631770133972
688,-0.0263998750597239,0.000994172412902117,0.0389373898506165,-0.02035859413445,-0.0251448210328817,-0.0969427525997162
689,-0.0243789497762918,0.000541363202501088,0.042706523090601,-0.0207396987825632,-0.0227971244603395,-0.0962533205747604
690,-0.0223567187786102,0.000141199139761738,0.045864176005125,-0.0196547452360392,-0.0207264386117458,-0.0954485088586807
691,-0.0215793792158365,-0.000824908434879035,0.047778595238924,-0.0177240390330553,-0.0196432713419199,-0.0948017761111259
692,-0.0212116166949272,-0.0014044753042981,0.0501178354024887,-0.0148317934945226,-0.0181185863912106,-0.0941209495067596
693,-0.0205475445836782,-0.00157844333443791,0.0529887564480305,-0.0122986380010843,-0.0162057243287563,-0.0950863361358643
694,-0.0195607580244541,-0.00183202920015901,0.054230622947216,-0.0122875589877367,-0.0149328662082553,-0.0986083522439003
695,-0.0178681015968323,-0.00159515894483775,0.0527700260281563,-0.0146114015951753,-0.0139025058597326,-0.102196887135506
696,-0.0154177928343415,3.6434914363781E-05,0.0504654571413994,-0.0164601914584637,-0.0113307451829314,-0.102610297501087
697,-0.0132409017533064,0.00297509599477053,0.0494264662265778,-0.015601608902216,-0.00673236977308989,-0.0994884073734283
698,-0.0119029385969043,0.00582214258611202,0.0500528700649738,-0.0121579077094793,-0.00212292629294097,-0.0951411798596382
699,-0.010707663372159,0.00753567321226001,0.0521901361644268,-0.00784513354301453,0.00026399758644402,-0.0918164327740669
700,-0.00926012452691793,0.00841290503740311,0.0547872669994831,-0.00412205513566732,-0.000387064530514181,-0.0898402780294418
701,-0.00756887998431921,0.00915783271193504,0.0559805147349834,-0.000877714424859732,-0.00301754544489086,-0.0874046236276627
702,-0.00537999486550689,0.0102567616850138,0.0552565567195416,0.00289046228863299,-0.0056505398824811,-0.082737997174263
703,-0.00279067945666611,0.011213687248528,0.0529944151639938,0.00680761458352208,-0.00738156912848353,-0.0771558433771133
704,-0.000904615968465805,0.0109855392947793,0.049432959407568,0.00862319488078356,-0.00875723920762539,-0.0737591162323952
705,-0.000905817141756415,0.00953574385493994,0.0458125397562981,0.00723779993131757,-0.0106835914775729,-0.0738546624779701
706,-0.00227687531150877,0.00770583236590028,0.0443090870976448,0.00411571562290192,-0.0127059118822217,-0.0767124891281128
707,-0.00386827997863293,0.00600924948230386,0.0458427779376507,0.0011996905086562,-0.013782580383122,-0.080885224044323
708,-0.00571490405127406,0.00427006930112839,0.0486268065869808,-0.00111603422556072,-0.0148635534569621,-0.0850428640842438
709,-0.00756167573854327,0.00291045987978578,0.0506054498255253,-0.00298552378080785,-0.0168290343135595,-0.0877233296632767
710,-0.00833321735262871,0.00267505017109215,0.0520523749291897,-0.003541104728356,-0.0179350730031729,-0.0878640189766884
711,-0.00812989566475153,0.00265950243920088,0.0537222288548946,-0.00273996591567993,-0.016636410728097,-0.0871490612626076
712,-0.00774400448426604,0.00177227822132409,0.0552409812808037,-0.0018019083654508,-0.0135698653757572,-0.0878775343298912
713,-0.00742175290361047,0.000472565356176347,0.0561337806284428,-0.00136438303161412,-0.0100593790411949,-0.0897393524646759
714,-0.00716563453897834,-0.000547487114090472,0.0565058663487434,-0.00137493631336838,-0.00681932270526886,-0.0912913680076599
715,-0.00680062128230929,-0.00124258536379784,0.0566147528588772,-0.00132279843091965,-0.00413301680237055,-0.0915452465415001
716,-0.00602098694071174,-0.00170542590785772,0.0567450635135174,-0.000789429352153093,-0.00184802385047078,-0.0892184153199196
717,-0.0047006718814373,-0.00168477394618094,0.0574509464204311,0.000342652783729136,0.000708772975485772,-0.0827534720301628
718,-0.00347108813002706,-0.00130386091768742,0.0588646531105042,0.00228944537229836,0.00340575282461941,-0.0741292610764503
719,-0.00322931865230203,-0.00145453435834497,0.0605561099946499,0.00503359362483025,0.00519583746790886,-0.0687502548098564
720,-0.00375580228865147,-0.00207751826383173,0.0627174526453018,0.00873369444161654,0.00596474437043071,-0.0686780363321304
721,-0.00424947310239077,-0.00199433392845094,0.0659048706293106,0.0133808022364974,0.00643340731039643,-0.0716895312070847
722,-0.00422334391623735,-0.000320978520903736,0.0699439868330956,0.0179955419152975,0.00662766490131617,-0.075278215110302
723,-0.00356286740861833,0.0026758792810142,0.0736302882432938,0.0211124308407307,0.0057785683311522,-0.0782443359494209
724,-0.00267424690537155,0.00553173013031483,0.0753219947218895,0.0219227783381939,0.00310393795371056,-0.0802189633250237
725,-0.00164066813886166,0.00743443705141544,0.0749659314751625,0.0214804541319609,-0.000506064970977604,-0.0804721638560295
726,-0.000541552260983735,0.00857992563396692,0.0736439302563667,0.0210875831544399,-0.00310999597422779,-0.0788782462477684
727,-8.47396004246548E-05,0.00883696507662535,0.071874275803566,0.0205302909016609,-0.00423081731423736,-0.0768894031643867
728,-0.000477567955385894,0.00813100952655077,0.0708868950605392,0.0198706742376089,-0.00403320882469416,-0.0755134969949722
729,-0.00126849464140832,0.00727004231885076,0.0724314078688622,0.020368505269289,-0.00248358212411404,-0.0735744684934616
730,-0.00215027597732842,0.00702528329566121,0.0764327719807625,0.0222853496670723,-0.00044196710223332,-0.0704146102070808
731,-0.00316391582600772,0.00731753511354327,0.0808107703924179,0.0242430362850428,0.00065389764495194,-0.0675660818815231
732,-0.00394453434273601,0.00805906765162945,0.0835379585623741,0.0251750852912664,0.000487693381728604,-0.06577168405056
733,-0.00381558923982084,0.00985919404774904,0.0843686982989311,0.0254553686827421,-1.39247613333282E-05,-0.0643646121025085
734,-0.00342738488689065,0.013187381438911,0.0842039361596107,0.0267905835062265,-0.000642672064714134,-0.0626069009304047
735,-0.00407980382442474,0.0168561413884163,0.0838850662112236,0.0304986201226711,-0.00180591444950551,-0.0599512495100498
736,-0.00549661694094539,0.0189275126904249,0.0844369977712631,0.0359251350164413,-0.00299983634613454,-0.0559577271342278
737,-0.0066599864512682,0.0189805123955011,0.0861773788928986,0.041525986045599,-0.00398424966260791,-0.0507780872285366
738,-0.00736878020688891,0.0180552117526531,0.0880587548017502,0.0462554953992367,-0.00521900458261371,-0.0459487438201904
739,-0.00808706693351269,0.017238512635231,0.0890955254435539,0.0493157058954239,-0.00662113400176167,-0.0434270203113556
740,-0.00953218713402748,0.0170642733573914,0.0886885821819305,0.0498822629451752,-0.00790277123451233,-0.0445532724261284
741,-0.0116873942315578,0.0177714210003614,0.0864240303635597,0.0479520820081234,-0.00883258786052465,-0.0491582937538624
742,-0.014197438955307,0.0189119707792997,0.0823796167969704,0.0442176535725594,-0.00967545155435801,-0.0552052445709705
743,-0.0168693214654922,0.0192159097641706,0.0775775611400604,0.0391792878508568,-0.0105306738987565,-0.0606996454298496
744,-0.0182149317115545,0.018289502710104,0.0741946175694466,0.0335740335285664,-0.00984521303325891,-0.0647335425019264
745,-0.0165666695684195,0.0173338763415813,0.0739628449082375,0.0287782661616802,-0.00631785858422518,-0.0666601732373238
746,-0.0125005543231964,0.0172664094716311,0.0757117792963982,0.0259032398462296,-0.00106865004636347,-0.0663295388221741
747,-0.0081467954441905,0.0179599411785603,0.0763824656605721,0.0249925442039967,0.00333277555182576,-0.0642970725893974
748,-0.00543294427916408,0.019235372543335,0.0745796710252762,0.0252747870981693,0.00456686411052942,-0.0608360543847084
749,-0.0048860409297049,0.0207456611096859,0.0711247771978378,0.0259867627173662,0.00231198407709599,-0.0559764355421066
750,-0.00521630747243762,0.0221201125532389,0.0676835551857948,0.0269646383821964,-0.000794225314166397,-0.0504693426191807
751,-0.00508464593440294,0.0235095955431461,0.0655093044042587,0.0286619458347559,-0.00216345628723502,-0.045512679964304
752,-0.00415647681802511,0.0251168273389339,0.064819373190403,0.0315865725278854,-0.00186678383033723,-0.0411929748952389
753,-0.00246267695911229,0.0270730070769787,0.0655424296855927,0.0358537323772907,-0.000413152534747496,-0.0369646772742271
754,-0.000844506255816668,0.0289111994206905,0.0671776011586189,0.0408915095031261,0.00221346039324999,-0.0332714803516865
755,-0.00042529113125056,0.0293832048773766,0.0683272555470467,0.0452122241258621,0.00508638843894005,-0.0309524387121201
756,-0.0012150303227827,0.0281507968902588,0.0679943040013313,0.0474200285971165,0.00697209406644106,-0.0308631155639887
757,-0.00224334374070168,0.025858337059617,0.0667580366134644,0.0471876412630081,0.00798912346363068,-0.034151341766119
758,-0.00252682715654373,0.0230313818901777,0.0657513961195946,0.0452116541564465,0.00913204904645681,-0.0403790660202503
759,-0.00199656002223492,0.0204660017043352,0.0653755515813828,0.0429746396839619,0.0105232931673527,-0.0461931489408016
760,-0.00115355721209198,0.0192029345780611,0.0658444091677666,0.0421300642192364,0.0116521613672376,-0.0481701157987118
761,0.000169842067407444,0.0195150766521692,0.0676610022783279,0.0434554703533649,0.0127523578703403,-0.0458390451967716
762,0.00237268023192883,0.0203521586954594,0.0708215981721878,0.0460013411939144,0.0146370036527514,-0.0411435663700104
763,0.00506902625784278,0.0212537795305252,0.0746679753065109,0.0485848411917686,0.0176028907299042,-0.0358227901160717
764,0.00750723527744412,0.0231834650039673,0.0780044868588448,0.0511460602283478,0.0209710765630007,-0.0311321821063757
765,0.00901634246110916,0.025817634537816,0.0796407908201218,0.0532115995883942,0.0236393064260483,-0.0292082037776709
766,0.00934055168181658,0.0273252706974745,0.0802919119596481,0.0544046349823475,0.025432962924242,-0.0307437982410192
767,0.00878460612148046,0.0266005843877792,0.0815142765641212,0.0556169226765633,0.0268187653273344,-0.0335308834910393
768,0.0081059392541647,0.0246844962239265,0.0832999050617218,0.0575936771929264,0.0280728526413441,-0.0345578975975513
769,0.00770134991034865,0.0238476749509573,0.0846132338047028,0.0599939599633217,0.0293066371232271,-0.0325397737324238
770,0.00704427948221564,0.0248071365058422,0.0845779106020927,0.061628445982933,0.0303759165108204,-0.0281546395272017
771,0.00628562783822417,0.0271719787269831,0.0832260921597481,0.0621792450547218,0.0314816981554031,-0.021405728533864
772,0.00636816304177046,0.0309770107269287,0.0817205533385277,0.0634945556521416,0.0329970233142376,-0.0127933630719781
773,0.00728895189240575,0.0352615900337696,0.0814616680145264,0.0661889687180519,0.0351765267550945,-0.00582548184320331
774,0.008374591358006,0.0378869064152241,0.0823058560490608,0.067442961037159,0.038205474615097,-0.00378034124150872
775,0.00945416279137135,0.0376356020569801,0.0828274264931679,0.0654684975743294,0.0414688400924206,-0.00647536758333445
776,0.0104822302237153,0.0348497144877911,0.0826019048690796,0.0616558380424976,0.0438014976680279,-0.0117853889241815
777,0.0114704612642527,0.0307493880391121,0.0823815017938614,0.05794907361269,0.0450542941689491,-0.0180152468383312
778,0.0127784926444292,0.026745893061161,0.0828220397233963,0.0556102059781551,0.04616829007864,-0.02377057261765
779,0.0144160389900208,0.0234852954745293,0.0838448852300644,0.054602712392807,0.0475967712700367,-0.0272046513855457
780,0.015975758433342,0.0211967695504427,0.0847175195813179,0.053423248231411,0.0487358868122101,-0.0271773841232061
781,0.0166605692356825,0.0200856998562813,0.0842079818248749,0.0507797710597515,0.0483172200620174,-0.024950573220849
782,0.0162771716713905,0.0199480820447207,0.0820265114307404,0.0473458357155323,0.0462397113442421,-0.0228487178683281
783,0.0162317175418139,0.0207458529621363,0.0801181793212891,0.0452980883419514,0.0444560348987579,-0.0211890861392021
784,0.0174305848777294,0.0223677009344101,0.0803886353969574,0.0463350564241409,0.0443613566458225,-0.018630038946867
785,0.0187282655388117,0.0241249445825815,0.0825325772166252,0.0504796281456947,0.0451996028423309,-0.0143678896129131
786,0.0189585741609335,0.0258176811039448,0.0853497982025146,0.0563704483211041,0.0462657548487186,-0.00898456852883101
787,0.0185995437204838,0.0275279954075813,0.0881835743784904,0.0622785203158855,0.0481187477707863,-0.00417875126004219
788,0.0182622410356998,0.0287120435386896,0.0904756113886833,0.0668187066912651,0.0505265630781651,-0.000870214018505067
789,0.0169932432472706,0.0284216497093439,0.0908359959721565,0.0687828361988068,0.0514759160578251,0.00107340421527624
790,0.0137066198512912,0.0257694646716118,0.0879673287272453,0.0671265721321106,0.0493930764496326,0.000670945679303259
791,0.00990032032132149,0.0218680035322905,0.0835794359445572,0.0628191009163857,0.0460952781140804,-0.00280657224357128
792,0.00859047938138247,0.0195325259119272,0.0815023705363274,0.0593717582523823,0.0453560948371887,-0.00737552344799042
793,0.0103902462869883,0.0197826121002436,0.0833395346999168,0.0591919012367725,0.0483050905168056,-0.00984747335314751
794,0.0133638270199299,0.0215993896126747,0.0875971764326096,0.0611569695174694,0.0526808723807335,-0.00859716162085533
795,0.0161168742924929,0.0240457970649004,0.0919617563486099,0.0630707889795303,0.0560365132987499,-0.00534193171188235
796,0.0187023635953665,0.0266388189047575,0.095019094645977,0.0642181932926178,0.0580454878509045,-0.00340971420519054
797,0.0212696064263582,0.0286291632801294,0.0964621305465698,0.0649832710623741,0.0593388117849827,-0.00421456666663289
798,0.0235118698328733,0.0293562170118093,0.0968432724475861,0.0659127458930016,0.0604622550308704,-0.00700395228341222
799,0.0248862411826849,0.0289224199950695,0.0973525047302246,0.0676635354757309,0.0624661557376385,-0.0100089097395539
800,0.0246906336396933,0.0283010844141245,0.0993799567222595,0.0715904608368874,0.0661530345678329,-0.0103156669065356
801,0.023289492353797,0.0286595895886421,0.10454698652029,0.0785770863294601,0.0721241980791092,-0.00557375606149435
802,0.0217070113867521,0.0293016638606787,0.113648191094399,0.0870345756411552,0.0806939378380775,0.00274049653671682
803,0.0201349649578333,0.0287141427397728,0.125090301036835,0.0948247611522675,0.0902129709720612,0.0108826886862516
804,0.0184443481266499,0.027486015111208,0.134650409221649,0.100919976830482,0.0965522453188896,0.0163919143378735
805,0.0168638397008181,0.027636768296361,0.137388795614243,0.104199022054672,0.0955233573913574,0.0188496056944132
806,0.0158478263765574,0.030265960842371,0.13179537653923,0.103489547967911,0.0869983807206154,0.0188291054219007
807,0.0158760342746973,0.0347458980977535,0.121950060129166,0.0995703041553497,0.0760389417409897,0.0176193285733461
808,0.0176771730184555,0.0394715443253517,0.115043461322784,0.0956213772296906,0.0693403705954552,0.0173099096864462
809,0.0211763139814138,0.0427655689418316,0.115255363285542,0.093949943780899,0.0694048926234245,0.0184587389230728
810,0.0248263813555241,0.0440062880516052,0.120220229029655,0.0940477028489113,0.0729972496628761,0.0200328379869461
811,0.0268291775137186,0.0434990786015987,0.125059142708778,0.0941627398133278,0.0758936107158661,0.0215395111590624
812,0.0265645440667868,0.0422006621956825,0.12820827960968,0.0936039537191391,0.0771235972642899,0.0236485674977303
813,0.0253663528710604,0.041488990187645,0.131758093833923,0.0933139994740486,0.0787669494748116,0.026855269446969
814,0.0248430240899324,0.0414121709764004,0.13685117661953,0.0940372124314308,0.0822109133005142,0.0297825802117586
815,0.0252319127321243,0.0414308458566666,0.141658306121826,0.0954948514699936,0.0859603956341743,0.0315739661455154
816,0.0262865666300058,0.0415389835834503,0.144087702035904,0.0970144122838974,0.0883716717362404,0.032930638641119
817,0.0276504494249821,0.0411430485546589,0.143795430660248,0.0975217223167419,0.0896194130182266,0.0332701727747917
818,0.0288799740374088,0.0401215590536594,0.142339318990707,0.0966901257634163,0.0903951674699783,0.0322959236800671
819,0.0299720596522093,0.0397884137928486,0.141827255487442,0.0956981629133224,0.0912093594670296,0.031501766294241
820,0.0310186520218849,0.0410998128354549,0.145072981715202,0.0954883992671967,0.0924644023180008,0.0318373404443264
821,0.0318659208714962,0.0434777997434139,0.156463027000427,0.0961885526776314,0.0944675877690315,0.0334695875644684
822,0.0324561558663845,0.0456233881413937,0.177632719278336,0.0985159501433373,0.0974800884723663,0.0371079184114933
823,0.0331701934337616,0.0471842251718044,0.204878717660904,0.10407616943121,0.101372487843037,0.0445251204073429
824,0.0343284383416176,0.0485052242875099,0.23258513212204,0.112745620310307,0.105422988533974,0.0555202960968018
825,0.035394761711359,0.049662034958601,0.256299883127213,0.121925264596939,0.108146533370018,0.0663996040821075
826,0.0354931876063347,0.0507276207208633,0.273148506879807,0.129189521074295,0.108288496732712,0.0735356137156487
827,0.0345730930566788,0.0518658682703972,0.281988203525543,0.13297276198864,0.106515146791935,0.0752909034490585
828,0.0328640639781952,0.0530366897583008,0.284541964530945,0.133050009608269,0.104360997676849,0.0725261270999908
829,0.0306007079780102,0.0538272336125374,0.284518957138062,0.131142809987068,0.102853380143642,0.0680783167481422
830,0.0287761576473713,0.0540214851498604,0.284641951322556,0.128861099481583,0.102693133056164,0.0644795969128609
831,0.0284055601805449,0.0541126243770123,0.285629332065582,0.126958429813385,0.104234233498573,0.062980093061924
832,0.0291786063462496,0.0544078387320042,0.286967515945435,0.125632032752037,0.106684885919094,0.0633729845285416
833,0.0299876630306244,0.0545723959803581,0.287968814373016,0.124982789158821,0.108151152729988,0.0652590692043304
834,0.0304534286260605,0.0545134022831917,0.288899600505829,0.125787302851677,0.107737720012665,0.0688226968050003
835,0.0307446401566267,0.054786890745163,0.290607839822769,0.12789398431778,0.106185786426067,0.0733695477247238
836,0.0304372496902943,0.0553827248513699,0.292904406785965,0.12943209707737,0.104465007781982,0.0765075832605362
837,0.0289979726076126,0.0556619204580784,0.294605642557144,0.129006758332253,0.103121742606163,0.0760055556893349
838,0.0270874928683043,0.0560391806066036,0.294681817293167,0.127037763595581,0.102245226502419,0.0729729607701302
839,0.0255335308611393,0.0568546056747437,0.292560905218124,0.124354511499405,0.101293332874775,0.0703747048974037
840,0.0245341490954161,0.0577875748276711,0.28902992606163,0.122105397284031,0.0997448489069939,0.0703528374433517
841,0.0242422670125961,0.0592394843697548,0.286124914884567,0.121859788894653,0.0978147983551025,0.0736659839749336
842,0.0243863221257925,0.0612613260746002,0.284910917282104,0.123447649180889,0.095740407705307,0.0786000415682793
843,0.0243262201547623,0.0628904029726982,0.28485095500946,0.125239759683609,0.0931347757577896,0.082560233771801
844,0.0237185638397932,0.0633898079395294,0.285203725099564,0.126526147127151,0.0898082479834557,0.0846905931830406
845,0.0228562671691179,0.0629006326198578,0.285722643136978,0.128104269504547,0.0866148173809052,0.0855838134884834
846,0.0222741290926933,0.0620825402438641,0.286232888698578,0.130844697356224,0.0845734551548958,0.0867926999926567
847,0.0225151237100363,0.0613638609647751,0.286398649215698,0.134212091565132,0.0842284709215164,0.0903748497366905
848,0.0239027477800846,0.0607945658266544,0.28628146648407,0.13746602833271,0.0858267471194267,0.0957975834608078
849,0.0251130014657974,0.0597579479217529,0.286115437746048,0.140370801091194,0.0879798755049706,0.0985856503248215
850,0.0248158052563667,0.0578268989920616,0.285723477602005,0.142028838396072,0.0886675044894218,0.0958524197340012
851,0.0236008446663618,0.0552850291132927,0.284633904695511,0.140991121530533,0.0873103067278862,0.088912308216095
852,0.0221890211105347,0.052556648850441,0.283069044351578,0.137243568897247,0.0841106995940208,0.0803134366869926
853,0.0209857318550348,0.050714697688818,0.281961470842361,0.133013725280762,0.0802793279290199,0.0729021653532982
854,0.0200919285416603,0.0501205511391163,0.280656814575195,0.129605323076248,0.0767816677689552,0.0683041885495186
855,0.0196028780192137,0.0504066087305546,0.277925819158554,0.126752659678459,0.0734925717115402,0.0666782483458519
856,0.0199233945459127,0.0515688247978687,0.274201154708862,0.124640941619873,0.0708919316530228,0.0678732469677925
857,0.0204514972865582,0.0529571361839771,0.270037949085236,0.123338408768177,0.0692504495382309,0.0719713717699051
858,0.0208237189799547,0.0545512139797211,0.265569239854813,0.122516497969627,0.0683828815817833,0.0796556398272514
859,0.0215040538460016,0.0573418773710728,0.261416971683502,0.121684968471527,0.068271279335022,0.0885309875011444
860,0.0219986196607351,0.060991182923317,0.258128017187119,0.120596766471863,0.0680199488997459,0.0927567854523659
861,0.0212340801954269,0.0640840828418732,0.255326718091965,0.119983531534672,0.0664457306265831,0.0897074565291405
862,0.0188718028366566,0.0659115016460419,0.252095550298691,0.120743907988071,0.0639330446720123,0.0819601118564606
863,0.0155650144442916,0.0663202926516533,0.248310968279839,0.122897155582905,0.0621070750057697,0.0731566920876503
864,0.0124057456851006,0.0653598606586456,0.244759440422058,0.125581845641136,0.0618750788271427,0.0655900686979294
865,0.0103716226294637,0.0637185573577881,0.241936087608337,0.128019258379936,0.0628422796726227,0.0608788542449474
866,0.00955501291900873,0.0618658475577831,0.239384084939957,0.129874691367149,0.0638211593031883,0.0596729703247547
867,0.009663425385952,0.0596927329897881,0.236649855971336,0.131016314029694,0.0643298029899597,0.0609860420227051
868,0.0104413786903024,0.0573139004409313,0.233752474188805,0.131955236196518,0.0646587535738945,0.0640932321548462
869,0.0113574676215649,0.0553841218352318,0.230599254369736,0.133262991905212,0.0644955784082413,0.0697142630815506
870,0.0119147980585694,0.0543878450989723,0.226886168122292,0.134521394968033,0.0635241717100143,0.0764953047037125
871,0.0119173554703593,0.0541713312268257,0.222546577453613,0.135359913110733,0.0619558356702328,0.0803235173225403
872,0.0122627122327685,0.054663747549057,0.218850716948509,0.136557281017303,0.0608762577176094,0.0797577425837517
873,0.0138820875436068,0.0558810122311115,0.217366218566895,0.138725370168686,0.0613119304180145,0.0772415921092033
874,0.016245324164629,0.0574336163699627,0.217584833502769,0.140592098236084,0.0625379905104637,0.0753212720155716
875,0.0180936977267265,0.0584171302616596,0.217431858181953,0.140257880091667,0.0628633126616478,0.0741883888840675
876,0.0185337234288454,0.0578857697546482,0.215458527207375,0.137578010559082,0.0612641498446465,0.0731019675731659
877,0.0175192132592201,0.0557871609926224,0.211846351623535,0.133679017424583,0.0579807832837105,0.0720304250717163
878,0.0159231014549732,0.0534073673188686,0.208247467875481,0.130048602819443,0.0542176738381386,0.0710953772068024
879,0.0148650016635656,0.0521381236612797,0.205590575933456,0.12819042801857,0.0511832870543003,0.0704039111733437
880,0.0150394774973392,0.052164901047945,0.202574148774147,0.128704428672791,0.0493448488414288,0.0693987458944321
881,0.0159727558493614,0.05243119597435,0.197634130716324,0.130641043186188,0.0483648888766766,0.0666021108627319
882,0.0165287218987942,0.0517759993672371,0.191140189766884,0.132582470774651,0.0476971752941608,0.0619880184531212
883,0.0166215226054192,0.050137247890234,0.184865087270737,0.134494379162788,0.0471505038440228,0.0575980916619301
884,0.0161353424191475,0.047583345323801,0.179044038057327,0.136311709880829,0.0461188033223152,0.0546175986528397
885,0.0146335437893867,0.0443733781576157,0.17239436507225,0.13662788271904,0.0438227839767933,0.0527837760746479
886,0.0127415051683784,0.0416978374123573,0.1652652323246,0.134752556681633,0.0410099104046822,0.0522461049258709
887,0.0112806214019656,0.0401748567819595,0.159512296319008,0.131469279527664,0.0391255803406239,0.0535282604396343
888,0.0107286740094423,0.0395679511129856,0.156139567494392,0.1281848102808,0.0386835485696793,0.0565752126276493
889,0.0111366668716073,0.0399689488112926,0.154624208807945,0.1264269053936,0.039478737860918,0.0600509718060493
890,0.0119666242972016,0.0417464450001717,0.153762459754944,0.12675878405571,0.0410331301391125,0.0621372051537037
891,0.0129489889368415,0.0444892011582851,0.152679175138474,0.128543600440025,0.0426458232104778,0.062545470893383
892,0.0141348456963897,0.0464839637279511,0.15061791241169,0.13093364238739,0.0438224859535694,0.0612631253898144
893,0.0151185635477304,0.0460987985134125,0.146668612957001,0.133260518312454,0.044213842600584,0.0579466074705124
894,0.0152982017025352,0.0436062142252922,0.140471577644348,0.134923234581947,0.0432420782744884,0.0548815280199051
895,0.01471590064466,0.0406521037220955,0.133188560605049,0.135701671242714,0.0411003157496452,0.0560248382389545
896,0.0135776931419969,0.038703590631485,0.127090588212013,0.136266008019447,0.0382624045014381,0.0629004165530205
897,0.0122683187946677,0.0385186821222305,0.123903505504131,0.137792259454727,0.0350213870406151,0.0738292187452316
898,0.0120530854910612,0.0401927307248116,0.1245251968503,0.141147643327713,0.0328634493052959,0.0850644633173943
899,0.0136802913621068,0.0433331578969955,0.128364488482475,0.146077379584312,0.033064778894186,0.0926947221159935
900,0.0165108218789101,0.0471406131982803,0.132559657096863,0.150369927287102,0.0345973111689091,0.094922311604023
901,0.0202726107090712,0.0515288859605789,0.134449943900108,0.152047365903854,0.0363173335790634,0.093064196407795
902,0.0252793673425913,0.0569962784647942,0.133974328637123,0.151966318488121,0.0390094071626663,0.089856393635273
903,0.0309929437935352,0.0631045177578926,0.13280263543129,0.152171283960342,0.0435428246855736,0.0862650871276855
904,0.0362696535885334,0.0689254105091095,0.132208362221718,0.153459787368774,0.0495797358453274,0.0816629081964493
905,0.0398652218282223,0.0730042457580566,0.13184130191803,0.154965475201607,0.0555298030376434,0.0760196447372437
906,0.0413846671581268,0.0738850384950638,0.131066039204597,0.155604407191277,0.0593989081680775,0.0704115331172943
907,0.0421287305653095,0.0722264871001244,0.130404785275459,0.155580252408981,0.0613097287714481,0.0664311721920967
908,0.0431919395923615,0.0699580907821655,0.129695519804955,0.155663013458252,0.0625863820314407,0.0658438801765442
909,0.0441254451870918,0.0679685026407242,0.127352401614189,0.155984058976173,0.0630024150013924,0.0698491558432579
910,0.0445562601089478,0.0663914456963539,0.123145245015621,0.156287342309952,0.0622976273298264,0.0769574046134949
911,0.0447408147156239,0.0653942376375198,0.118897952139378,0.156047359108925,0.0612444020807743,0.082840234041214
912,0.044212318956852,0.0648547559976578,0.115692704916,0.154485866427422,0.0602495931088924,0.0842200666666031
913,0.0424216240644455,0.0646417811512947,0.112699046730995,0.151532933115959,0.0595735795795918,0.081909641623497
914,0.0403719581663609,0.0654874816536903,0.108832970261574,0.148623213171959,0.059600617736578,0.0796405375003815
915,0.0394570082426071,0.0685652568936348,0.103953696787357,0.14722216129303,0.0602442361414433,0.0799442902207375
916,0.0389346219599247,0.0731303617358208,0.0985116586089134,0.146519243717194,0.0604738406836987,0.0819863602519035
917,0.0377014242112637,0.0765979811549187,0.0936928540468216,0.14533606171608,0.0596177503466606,0.0835858061909676
918,0.0364865176379681,0.0772316679358482,0.0905210673809052,0.144450426101685,0.0575139299035072,0.0825776010751724
919,0.0353295840322971,0.0753852725028992,0.0874332711100578,0.144255086779594,0.0526021607220173,0.0775863826274872
920,0.0331464819610119,0.0725207328796387,0.0820093527436256,0.143698453903198,0.0446253716945648,0.0692766904830933
921,0.0305099152028561,0.0695726796984673,0.074820302426815,0.141936168074608,0.036739993840456,0.0599695481359959
922,0.0294550880789757,0.0668452084064484,0.068586565554142,0.138690531253815,0.0317441150546074,0.0531238839030266
923,0.0304773021489382,0.0643200948834419,0.0648716539144516,0.134599342942238,0.0298095811158419,0.0516916997730732
924,0.0324398539960384,0.0621642060577869,0.063687838613987,0.131778508424759,0.030521197244525,0.0558399446308613
925,0.0344821810722351,0.0609921663999558,0.0644530430436134,0.1319749802351,0.0333951115608215,0.0637926012277603
926,0.0358838327229023,0.0610033459961414,0.0657548531889915,0.134005695581436,0.0366512201726437,0.0728914812207222
927,0.0362506620585918,0.0615739226341248,0.0665504485368729,0.135378047823906,0.0388440936803818,0.0801751837134361
928,0.0375286228954792,0.0618697963654995,0.0670280531048775,0.135229036211967,0.0400054454803467,0.0841462314128876
929,0.0429569743573666,0.0617257356643677,0.0675487816333771,0.134300261735916,0.0407878756523132,0.0845630988478661
930,0.0505165755748749,0.0612106844782829,0.0679503679275513,0.133613139390945,0.0414717569947243,0.0811881795525551
931,0.0535230822861195,0.0599726364016533,0.0673841536045074,0.133456543087959,0.0414614155888557,0.0748060569167137
932,0.0497754737734795,0.0578390024602413,0.0652350410819054,0.133352115750313,0.0404847823083401,0.0675393342971802
933,0.0426793172955513,0.0548644475638866,0.0615459568798542,0.132484808564186,0.0390393100678921,0.0601175799965858
934,0.0361596085131168,0.0515537858009338,0.0570043809711933,0.130889773368835,0.0380590185523033,0.0522980056703091
935,0.0317024365067482,0.0491918623447418,0.0530222170054913,0.129383698105812,0.0380013883113861,0.0456334054470062
936,0.0285612884908915,0.0488966256380081,0.0510413907468319,0.128549084067345,0.0383346639573574,0.0420574136078358
937,0.0264149829745293,0.0504325479269028,0.0517195984721184,0.128796800971031,0.0384722277522087,0.0407670475542545
938,0.0258898455649614,0.0526064448058605,0.0543200001120567,0.129791557788849,0.0381722487509251,0.03958385810256
939,0.027020338922739,0.0546167716383934,0.0564064905047417,0.130716294050217,0.0373583734035492,0.0376753322780132
940,0.0293305553495884,0.0562630034983158,0.0555409900844097,0.131480634212494,0.0366255566477776,0.0350609868764877
941,0.0324745066463947,0.0576099120080471,0.0520975477993488,0.132781326770782,0.0371586382389069,0.0341174080967903
942,0.035432256758213,0.058762539178133,0.0481600314378738,0.134814217686653,0.0385235957801342,0.0380088165402412
943,0.0366072431206703,0.059824500232935,0.0447017811238766,0.136295273900032,0.0391796603798866,0.0440405793488026
944,0.0357486605644226,0.0610365308821201,0.0417060777544975,0.136589527130127,0.0394172295928001,0.0470579862594604
945,0.0344061888754368,0.0625087469816208,0.0392382889986038,0.137330278754234,0.0410481952130795,0.0474694222211838
946,0.0344560295343399,0.0640048310160637,0.0376519598066807,0.139488890767097,0.0449796542525291,0.0488305054605007
947,0.0360613167285919,0.0650147348642349,0.0369328260421753,0.141327753663063,0.0490422435104847,0.0517151616513729
948,0.0369650758802891,0.0649314001202583,0.036194946616888,0.141064003109932,0.0494925975799561,0.0534465424716473
949,0.0358836725354195,0.064546026289463,0.0352999195456505,0.139473974704742,0.0465071573853493,0.0527778752148151
950,0.0342102870345116,0.0650243684649467,0.0350358039140701,0.138198673725128,0.0431906394660473,0.0509683191776276
951,0.0337984897196293,0.0655311793088913,0.0354988053441048,0.137844771146774,0.0411416068673134,0.0497309938073158
952,0.0355515368282795,0.0651770904660225,0.0363906398415565,0.138785749673843,0.0417064502835274,0.0509930141270161
953,0.0384997874498367,0.0640942752361298,0.0366178043186665,0.14041268825531,0.0456221364438534,0.054275780916214
954,0.0408739931881428,0.0628833919763565,0.0338931307196617,0.140993237495422,0.0505378171801567,0.0562938749790192
955,0.0420402251183987,0.0625609755516052,0.0272896476089954,0.140013411641121,0.052310649305582,0.0549231395125389
956,0.0418942160904408,0.0627404078841209,0.0187168307602406,0.137396574020386,0.0484029836952686,0.0496991463005543
957,0.0404725857079029,0.0616202875971794,0.0107014970853925,0.132349744439125,0.0402619354426861,0.0409719720482826
958,0.0384559072554111,0.058567438274622,0.0040072831325233,0.125298872590065,0.0314038507640362,0.031133683398366
959,0.0362487062811852,0.0543046407401562,-0.00214804382994771,0.117834337055683,0.0232608746737242,0.0231070294976234
960,0.0337642729282379,0.0498887673020363,-0.00799264945089817,0.111086517572403,0.015853900462389,0.0179479252547026
961,0.0310768820345402,0.0462431684136391,-0.0132666155695915,0.105691872537136,0.00983476359397173,0.0157266296446323
962,0.028647406026721,0.0440021306276321,-0.0181980095803738,0.103261984884739,0.00567414332181215,0.0170393586158752
963,0.0270723029971123,0.0431960821151733,-0.0229325592517853,0.105258636176586,0.00325108412653208,0.021220849826932
964,0.0269601922482252,0.0426743067800999,-0.0269431713968515,0.109763912856579,0.00260562845505774,0.0247446354478598
965,0.0294813923537731,0.0422930978238583,-0.0293252896517515,0.113940767943859,0.00419697538018227,0.025273384526372
966,0.0338362120091915,0.0425166860222816,-0.0308004897087812,0.116396479308605,0.00740756653249264,0.0234645381569862
967,0.0364630967378616,0.0423452034592628,-0.0328483954071999,0.116695933043957,0.0109985703602433,0.0209855362772942
968,0.0357094407081604,0.0419088564813137,-0.0350152254104614,0.116304583847523,0.0148353353142738,0.0196353569626808
969,0.0330131538212299,0.0422483049333096,-0.0362545140087605,0.116793379187584,0.0182889308780432,0.0208693407475948
970,0.0301826130598783,0.0429187379777431,-0.0366400144994259,0.118338875472546,0.0198827832937241,0.025436757132411
971,0.0275118704885244,0.0428118072450161,-0.0368702784180641,0.120181031525135,0.0189596861600876,0.0315470658242702
972,0.0241448115557432,0.0413865372538567,-0.0375193953514099,0.12099876254797,0.0164275355637074,0.0361361913383007
973,0.020745363086462,0.0390284135937691,-0.0384706892073154,0.120242260396481,0.0151836192235351,0.0376652926206589
974,0.0194590780884027,0.0366400852799416,-0.0390721820294857,0.118163369596004,0.0172632057219744,0.0354609116911888
975,0.0210767928510904,0.0350807756185532,-0.0389661751687527,0.115318901836872,0.0210304968059063,0.0300786402076483
976,0.0237966999411583,0.0345199927687645,-0.039248388260603,0.111850649118423,0.023114325478673,0.023204293102026
977,0.0253919288516045,0.0350903496146202,-0.0407740212976933,0.10787945240736,0.0223345793783665,0.0178194474428892
978,0.0251153223216534,0.0362458601593971,-0.0425866581499577,0.103883020579815,0.0201863758265972,0.0163766723126173
979,0.0229391735047102,0.0360086709260941,-0.0444539524614811,0.0994582176208496,0.0181569308042526,0.0169341377913952
