,AF3,AF4,Fp1,AF7,AF8
0,0.007395135255742416,0.010145309707986466,0.01216532480180758,-0.0009007378066741924,0.00862588290772871
1,0.00918223644297201,0.010754888351862835,0.01356872855406431,0.00254985847288456,0.007827288883298297
2,0.012996117880967663,0.015190964671110975,0.017532628095789395,0.00622857980509094,0.011232806704250985
3,0.014430888268566002,0.018362541614420393,0.019074250643283424,0.00805084711601178,0.014068745820105796
4,0.012620881555411925,0.018528924517472206,0.017008600383607766,0.007733536837778696,0.01504751250091651
5,0.010146842957463058,0.01747340903930901,0.014178118897214043,0.006411275874851162,0.01622486975267248
6,0.00944052649382096,0.017467098790097328,0.013382336121323151,0.005221186209790486,0.01915263072417791
7,0.008704319331361093,0.016475760570167017,0.013050181984784207,0.0033504434338039635,0.020789776351309637
8,0.004086492807841833,0.010486236498019474,0.008884847362207026,-0.0007350259046705723,0.016699760262626203
9,-0.0004050922775913079,0.004382380609529275,0.004942348525153705,-0.003765225643643159,0.0120895516258929
10,-0.00010179996593605118,0.0037193664234920743,0.006876476871442139,-0.002006921665581154,0.01257295853078946
11,0.0021036982330315543,0.005805837432393095,0.012033171928852969,0.0029443174899089347,0.014792533763960294
12,0.0027415826923292133,0.006954666854718922,0.015722662246555167,0.008028309535488614,0.014802349699663363
13,0.0015127251495957697,0.006652203818539369,0.01629540625847402,0.011703236677486942,0.012763587023782786
14,5.500853453635362e-05,0.0057340955616652055,0.01505667510311479,0.014211407358159124,0.010420106665432005
15,3.423303881752479e-05,0.004991831421433883,0.014258488905967447,0.01674025056365352,0.008711307989287096
16,0.0010392358290471182,0.004572188787519684,0.014525467261388033,0.02000748223166772,0.007234543329695991
17,0.0024028054953161414,0.004879444397366678,0.015768575888678832,0.02404808290568629,0.006664114758102399
18,0.0030736102972740613,0.005164353582305453,0.016319100946919563,0.026869762698892716,0.006987850179490662
19,0.0016641258877202426,0.0040148250184823394,0.014548557994742962,0.026459940951439928,0.006354081282756461
20,6.288260954848254e-05,0.00332363243079073,0.013935621376505614,0.024734297831193738,0.006288161958940714
21,-9.257116130604412e-06,0.004511590493035692,0.01687524122767284,0.0241966697369966,0.008403334992150879
22,-3.691935887226492e-05,0.006160069515325589,0.020000647436541907,0.024128889434728667,0.010549340685741931
23,-0.00047935898818421966,0.00836894620801354,0.021410312241536947,0.02352046796748499,0.012020737779264788
24,-0.001187540380066713,0.010829684238357411,0.02134005406946189,0.022300065730307236,0.012777658400961534
25,-0.0031302069033246455,0.011955749031458884,0.019077906710985987,0.019483559391342425,0.012197087035690531
26,-0.006603565074121022,0.011749740197682856,0.014580938152141095,0.014176036946857432,0.01120608096038078
27,-0.010750474141501891,0.010230916697492928,0.008878544915227894,0.008214378027419993,0.010015990943777807
28,-0.012452154061466872,0.009506493639819846,0.005672052598559419,0.005618873236177951,0.010120911854778742
29,-0.01071795233215109,0.01096536992655279,0.006524559576931595,0.00742678550601836,0.012115742882998598
30,-0.010988700857881341,0.009081638697135163,0.005256606552463643,0.010134557560852143,0.010354996695277986
31,-0.016450152016395776,0.0003634442955186387,-0.002449739138797559,0.011125937529990242,0.001994218689722249
32,-0.022981453347779738,-0.010411315298595882,-0.012669718056672125,0.010893729740348213,-0.00788152319576217
33,-0.025383103008034272,-0.01667428949168863,-0.01887061399409502,0.010782474383278246,-0.013344873122668419
34,-0.021146787320358185,-0.014503657869690155,-0.01657327526826493,0.012588319204140197,-0.010788227492937749
35,-0.011560789656463021,-0.004701540193213244,-0.006184836521905661,0.01757212677057483,-0.0007589493874403669
36,-0.0029688628845549723,0.005375977563108408,0.00471823758412754,0.024090960976059183,0.008754760082323903
37,-0.0008669723108409559,0.008474215426594102,0.007994933047836314,0.029311565044630068,0.009560013498719615
38,-0.0015272812591976838,0.008132653258005686,0.006846721662889132,0.03380996628484044,0.0057996821038229
39,0.0006047029660611324,0.010682330121392244,0.008779789736117982,0.03948158729933246,0.005192120481509391
40,0.004353542391383112,0.014984351482874001,0.013855636400088587,0.04525084591025442,0.007321644102831044
41,0.006242248544404155,0.017206557016669285,0.018028533252959465,0.04838066361540545,0.008294367340020705
42,0.003898404782257685,0.014326060897975943,0.017064675039930886,0.046818312552527414,0.004484590085224137
43,-0.0020372426898318586,0.0063737410729885246,0.010246619503049144,0.04129526478139874,-0.004209064765366931
44,-0.00740834513563727,-0.002199067910514167,0.0024040008660401917,0.03513733286219029,-0.012641816313488064
45,-0.008354292531177197,-0.006121774615039949,-0.0011417189018843067,0.030530021626207958,-0.01470520669457053
46,-0.004852432851879876,-0.004269391507227406,0.0005407802620420712,0.027505174707356552,-0.009247911468556342
47,-0.0005755024174030209,-0.0007815810197627721,0.003924806382652662,0.025181293181676632,-0.0014516290241938083
48,0.0013432678230080053,-0.00011609110810043839,0.005156948372268302,0.022644490352967183,0.0028293487863434497
49,0.0013264672269597281,-0.002285168801133849,0.003921260053779616,0.0205457677087585,0.002478580640190174
50,0.0003053101972101051,-0.005670268767108225,0.0009787692495785046,0.020011134675892776,-0.0009347003001543863
51,-0.0032025220394665847,-0.011013507975974363,-0.004826662827413343,0.02032752720353439,-0.007336536032497854
52,-0.00840920653555928,-0.016821441641942606,-0.011666144873797924,0.018382116884925408,-0.014155469888343755
53,-0.010254530895686242,-0.01775918475303899,-0.013369923634015395,0.01816926250375053,-0.015218159309728897
54,-0.007694609008286795,-0.013679918191937474,-0.008811551512689064,0.020964109841988893,-0.010501740095025046
55,-0.0038874829230022183,-0.008543289577705003,-0.0019328993367271922,0.022762789543993942,-0.004644510866420324
56,0.0003904193646309282,-0.0030480759075778466,0.005018976982574587,0.023527980577050946,0.0011236147559414386
57,0.005226958391408025,0.0029019960402597448,0.010617987538333267,0.022635184091760317,0.006532155864096459
58,0.011497516170816251,0.01004886719839489,0.016064918804147742,0.021159727690850016,0.011933541677843162
59,0.019056382423004954,0.01798022470792408,0.02270416350414362,0.020548920090007163,0.017028932693705316
60,0.022856183468020586,0.021249500083977763,0.026227552614557142,0.019933057589752473,0.017470958496682856
61,0.019357951059694182,0.016249488495678966,0.023020638845345918,0.0173075771674417,0.01057455333014215
62,0.012037423685930315,0.006759151191123292,0.015696926441373778,0.01435998441129316,0.00026848902723197705
63,0.005803942373654047,-0.0016568539193878191,0.007715506567686642,0.012748829891848723,-0.00797449455827417
64,0.0015365906926777684,-0.007404509688830537,-0.0006344619731311912,0.00888575018124008,-0.012956683568024697
65,-0.0006406785582828707,-0.00998714707197927,-0.007621134148259129,0.0015419131023379047,-0.014164543936417702
66,0.0011634796992166412,-0.007648314252166408,-0.00881103686065473,-0.006665330010370735,-0.009233642947614388
67,0.00589198484444428,-0.00179858357056463,-0.004258558383410664,-0.013780869303737715,6.104089212287952e-05
68,0.007801499398628709,0.0015865675184710314,-0.0008391651935260575,-0.013342531480578134,0.006050108683197189
69,0.002818983598063756,-0.001496137195742259,-0.004331753789553014,-0.011939765896864046,0.0032915252118819417
70,-0.005809344681488375,-0.007380062237570348,-0.012206243036418535,-0.012231308626754698,-0.00424200455112554
71,-0.011087897554104378,-0.009061482723833123,-0.017271024754911976,-0.008530107750329115,-0.008057628830791882
72,-0.011661119641578623,-0.005648242104326006,-0.017400024049842342,-0.004453637982971588,-0.005998972691460194
73,-0.009773802517518056,0.0004261363418176815,-0.014070887712508055,0.0005056941631353416,9.069186511369939e-05
74,-0.007346837915653882,0.006502518632586759,-0.010094660980784336,0.006246493547530747,0.0067603400161118125
75,-0.008535573675531302,0.006771400097573344,-0.011587347442769336,0.008905571357870203,0.0065809503432037305
76,-0.01249162777641715,0.0021072219402748947,-0.01762749067411954,0.006464339511838388,0.0004020122462780762
77,-0.014318582690802899,-0.0009140178455824309,-0.021972161604869065,0.004481662481682773,-0.004225795262514189
78,-0.015304447232065593,-0.0031958963880409316,-0.025683882299243052,0.0035995376237184596,-0.008472325670961945
79,-0.016532823970740993,-0.005997046608844327,-0.029503190940707427,0.0022602480524199966,-0.014113049013296146
80,-0.014659452626689863,-0.005248939098856809,-0.028973189573336208,0.004959084887518318,-0.01633300807637406
81,-0.00972463509606768,-0.0005896240099439638,-0.023385649473042693,0.010997453945950074,-0.013527012870126025
82,-0.005519108782828544,0.0033089359077315395,-0.017335477930660075,0.01741046014573993,-0.009923901964899312
83,-0.0037231376070218946,0.003777822733093947,-0.014846620438111562,0.02321128967524593,-0.008614641265853328
84,-0.0027572084178261167,0.0025093452451640857,-0.015295774468451366,0.021301213055593585,-0.008456082624286404
85,-0.0008525514910154475,0.0020852183110972463,-0.015242579429466132,0.01794770766889522,-0.007049702146557807
86,0.0018409301797604398,0.0031705731881634938,-0.01360892082670153,0.017030671986714062,-0.003733021632190863
87,0.002892361312666698,0.0031542447288883044,-0.013723230811328466,0.01414738735613789,-0.0015582745414024401
88,0.0011629373928518296,-0.00011526163519176017,-0.017488007912599277,0.01207071331720464,-0.003134157334783199
89,-0.002615850434209648,-0.005895687560948819,-0.023142946453857942,0.009007933974086963,-0.007735439128246383
90,-0.006042731323380782,-0.010128973407887478,-0.026249201555062718,0.004208282140084762,-0.011125289588206742
91,-0.005254596474662499,-0.008515576405370383,-0.022521683108065727,0.001466964720193234,-0.008886829734946512
92,-0.0014248398817710867,-0.004115307570771272,-0.015607467506930534,0.0038646456921648843,-0.004374650054820759
93,0.0023031417361730104,-0.0003631462787108804,-0.010272035636130977,0.006671253429567863,-0.000803684631818579
94,0.0063707787767207915,0.0044733449028692375,-0.0048547492990836496,0.008612528502901552,0.0043149407964320945
95,0.009496500213773275,0.008312760210671318,-4.8465217027803895e-05,0.011191709353596138,0.00843414289479439
96,0.00973974263224374,0.007678796698525713,0.0012276487108254955,0.01186743302439196,0.0073129135134345465
97,0.006976530197294506,0.002734003862112202,-0.0015068361691907162,0.011897781552223348,0.001278730586580578
98,0.0010924399416989469,-0.005420485114272691,-0.007978620785218573,0.01146460615006316,-0.008413808592279508
99,-0.005987359259337518,-0.013742101015049243,-0.0156772379690934,0.009413361656860688,-0.01872600738649776
100,-0.012132282701787423,-0.01944942718915623,-0.022219968193057858,0.008350562471066357,-0.026702860987421723
101,-0.015219163602299817,-0.020742107705899654,-0.02571539769242699,0.006708220878218443,-0.03032692321783823
102,-0.01343737090313263,-0.017747167944929823,-0.024619602905346157,0.004611903410578338,-0.029631459826629514
103,-0.0075523191719106516,-0.012747572328540058,-0.01990451730315904,0.005106209303371469,-0.027044647383469386
104,0.001764066744317208,-0.00497887480248483,-0.011738888189298573,0.007653929978477417,-0.021802924918019464
105,0.012432345879128717,0.00526799043919576,-0.0013800666565361127,0.011512311418237544,-0.013478169554133092
106,0.019482264638359476,0.01278416941845104,0.006173815292145782,0.0153130048903127,-0.006494314486034419
107,0.019018065225645225,0.012984675277332016,0.006524119934925657,0.017187348215243953,-0.005641529721516097
108,0.012150868322484734,0.007249630232482283,0.0007363066470912368,0.0156531137289695,-0.010535662896348703
109,0.0051531662334647005,0.0020597027671990964,-0.004748498108170896,0.013706546891650205,-0.015361472708296044
110,0.0032322951502417535,0.00169242315061066,-0.005421218763294846,0.013578844632596112,-0.015561398240972352
111,0.004516737441219664,0.0032712836938659897,-0.004231368943792492,0.012792826557087822,-0.013642931937263096
112,0.005250610565790673,0.0033568044238882233,-0.004841116515677205,0.010082051047065601,-0.013056504646806515
113,0.005375873026961804,0.002880340154334984,-0.006177781686209519,0.006124480276457618,-0.012540452576969055
114,0.005015726000970821,0.002425245023374689,-0.007195678209747783,0.002522245413085233,-0.010754435576435687
115,0.003113348025801722,0.0010711645119076633,-0.008692844391778686,-0.00014873907096599092,-0.008616077511056416
116,3.4415168538497836e-05,-0.0007627550107190944,-0.010560578256975445,-0.0021911512082372613,-0.0068974529675339255
117,-0.0009081222872740242,-2.876496580916118e-05,-0.009976022389331067,-0.0028529394557922053,-0.003363392936323559
118,0.0013943128129487268,0.0037315076385825356,-0.006391231548134388,-0.0023580820319282973,0.002217106948537821
119,0.003707505506703056,0.007010571033673726,-0.0034669365771747276,-0.0023717237249330212,0.0061962558378455355
120,0.003691279801971316,0.007434658629755491,-0.003985692748837349,-0.003669496650231074,0.00636071836977556
121,0.0006433231432995284,0.0037031073705266434,-0.008947376019626968,-0.006417509371703704,0.001543813696701066
122,-0.0050853047370908195,-0.003692658441980029,-0.017061884114621312,-0.010839601354925489,-0.007357348596957552
123,-0.01123310548398603,-0.011051236952970238,-0.024872237988334957,-0.016003504140115584,-0.016140588728145288
124,-0.01461657013312927,-0.014206561390124616,-0.02910368632383311,-0.019280383048665372,-0.020450444159512884
125,-0.012527830962956727,-0.010544040208306186,-0.026954765839479807,-0.018331769145808457,-0.017227112412849188
126,-0.005359500571939762,-0.0012052546653758551,-0.018470047411641145,-0.013871544946374941,-0.0069776185367857
127,0.0010953801093101603,0.006706731723053496,-0.010387797036897,-0.009653629735613446,0.002871485558096012
128,0.0018615385270910549,0.007854713982030253,-0.008822462138653994,-0.008355114638980735,0.00580002888525021
129,-0.0009721836779487522,0.005607517734444212,-0.011105808976109,-0.00913601790558768,0.004989282997054341
130,-0.0023353532574111988,0.006219553487942219,-0.01090838469112081,-0.010180098927904602,0.007711616122508648
131,-0.001396064475394173,0.010209625963613,-0.006958653082298183,-0.011236912367273996,0.014528574363079323
132,-0.0011783067408826934,0.013151886338450835,-0.003270068627211021,-0.012445287596141129,0.01972266565616376
133,-0.003034354647288347,0.012920361451203836,-0.002165898690312734,-0.013520198073876976,0.020600837833971077
134,-0.007760064938573306,0.008480665676212066,-0.004486688781208979,-0.01569595744386944,0.01638558962160452
135,-0.015310026376337046,-0.0007271707110600815,-0.010833475396899097,-0.019617591515733758,0.006780166697122534
136,-0.021057410188497376,-0.009580950118844654,-0.0168738146568934,-0.02278687653058329,-0.002515491650664671
137,-0.021197741598959267,-0.012638225064520102,-0.0180128177539911,-0.023662162418809134,-0.005895855130294455
138,-0.01784930746411519,-0.011350464861064573,-0.015899799683748474,-0.023411156096823933,-0.005394363038046784
139,-0.013753369234627985,-0.008471302674932766,-0.012836091494254796,-0.022121626257241157,-0.0041904169590416505
140,-0.008156582823604699,-0.003164437736802427,-0.007611655848520067,-0.01830304194872711,-0.0013091404667826716
141,-0.0013799279238181797,0.0036965748305531725,-0.0008788755563107775,-0.011982023852476268,0.002864685585476382
142,0.003821424362870173,0.008844587959332729,0.0038894712618112053,-0.005184701389027029,0.005244859996098825
143,0.006718990778893531,0.011726523417714838,0.0058161569540178025,0.0005277735680801525,0.004921861805183578
144,0.0078682986621113,0.01268361872492751,0.005941669140938509,0.004815125812736019,0.0022353049899411547
145,0.0066464348334842075,0.010761813275632167,0.004487501169324171,0.007234085026397441,-0.0028050780403488206
146,0.0037967184085973566,0.007388875294534696,0.0026747042595884197,0.00799632216667522,-0.008069851552104948
147,0.002099338734095714,0.006175175176946745,0.002692658862822045,0.008665308790166248,-0.01036168752297176
148,0.002278678940070579,0.007300379885899755,0.004362851818364854,0.00978901707139367,-0.010130683967551398
149,0.002432953274445688,0.0074810708692700754,0.005446443305656041,0.011020386378199108,-0.010772642248275174
150,0.002263467828939431,0.006274277043187772,0.005789753590087925,0.013374111585507328,-0.01218287503422653
151,0.003882301777391206,0.0070507823226466735,0.0078027942568260275,0.017924181004531636,-0.010580599841644847
152,0.006708530272203072,0.009710369805948488,0.010803699186259483,0.02334199780033485,-0.006753191331854668
153,0.008439417812438291,0.011846042982490528,0.012137767766202182,0.02791842286275523,-0.003960904355671778
154,0.010040020265697822,0.01508439159260287,0.013072488125879748,0.03165017765518443,-0.0005232740803824136
155,0.012683323269571882,0.020412135555809067,0.014984339299430185,0.03433285507269158,0.005178368386950118
156,0.014482783417882585,0.024367181680912724,0.01548760179530993,0.03541097650794235,0.010005610887840126
157,0.01289613439989009,0.02337387242441162,0.012456835722027798,0.035657423498701796,0.010102298070936535
158,0.007439454000199405,0.01724066654252611,0.006778202319703038,0.03658015544592973,0.005002761742543731
159,0.0006810873837315248,0.009312387110140123,0.0012582279439921889,0.03884405743451923,-0.002204619098711575
160,-0.004755142194936388,0.0024622606502019075,-0.002590249743864733,0.04145640551000208,-0.00893343610780757
161,-0.007548518822915863,-0.0011451717176665724,-0.004461827104293125,0.04289641940099703,-0.013100090715046689
162,-0.007389587701297197,0.0001590373947485718,-0.004363234803808396,0.04156332553562605,-0.012887054255992627
163,-0.005489461001477531,0.004808147208812478,-0.0030642015511309546,0.036775919484301534,-0.009185763872047857
164,-0.0014364416592664328,0.011953060863209653,0.001314585387260882,0.031853399663498164,-0.0022534887890910973
165,0.0037079206879433156,0.01953792426749765,0.008520624225587187,0.02905538375494595,0.0057618024941783405
166,0.006461289774483167,0.02336852518113872,0.013257517578790469,0.02578068209022754,0.010114436124124111
167,0.0070692606699233945,0.024114494263882225,0.01360108637143456,0.020510320319650298,0.010868158908888616
168,0.008261507220656555,0.025681395433074152,0.012402753747907232,0.01485121131875497,0.011773247812235094
169,0.009813847483138542,0.027570340433510854,0.010186876088087183,0.010321987757839124,0.012341268233377686
170,0.0102761683776606,0.027283686116133948,0.005704016137063693,0.007326608256804843,0.010747760602639773
171,0.009282944635625425,0.025120342403504893,0.00040682341887805535,0.005707820040040507,0.008718000982785952
172,0.00564518845947255,0.02084978504888448,-0.00486853212730562,0.004590149126745551,0.005925578905995942
173,0.00025895717634985267,0.015287322974013839,-0.010667075633016516,0.0024897442412090856,0.0015892765875955086
174,-0.003648949197764533,0.011863571805471939,-0.015887710652521935,-0.0012497873408792149,-0.0013420740634416165
175,-0.004516338519507657,0.012891355253771908,-0.018064230849133476,-0.004960824508218338,-0.00018339787405866935
176,-0.00299826239029673,0.017979742166449757,-0.016117106723257817,-0.006874026766877912,0.004651200838217072
177,-0.0004655276564303968,0.025118226962816032,-0.011502351171214441,-0.007404994259054755,0.011533747614621654
178,0.002973647875445511,0.03257595632136017,-0.005786273079517063,-0.006848441590285012,0.01929090974461095
179,0.006234104067114702,0.037442500608703765,-0.0012627952972909075,-0.005157916756925823,0.02467015112761693
180,0.005924407023340762,0.03614794189328685,-0.001849201620522544,-0.004331737357390056,0.02328930062059535
181,0.00333364292147787,0.0315757065711603,-0.006153760025229317,-0.0053211249067473265,0.017975244169930793
182,0.0030346711716069483,0.02972592936789755,-0.008472981949730054,-0.006775806460410328,0.015208736855439643
183,0.003345461331431326,0.02871825062774664,-0.009714318154692413,-0.00898688142323601,0.012995504015927101
184,0.001288734364005033,0.02504019229876795,-0.013199701159030262,-0.012067761364896934,0.00729778311992868
185,-0.0011302333317530359,0.020751159820801158,-0.016821541741162717,-0.014129430106323051,-0.00019298631679103275
186,-0.002566417497474017,0.017163011005167955,-0.018506208492193414,-0.014877773904717857,-0.007819683916960439
187,-0.0013468918085433911,0.01642788675347664,-0.016589050928388718,-0.014974385724407586,-0.012058853690590288
188,0.0045772130042799125,0.021311929127094415,-0.009552099939411323,-0.014729509765737371,-0.009403464821110291
189,0.010139077605413624,0.026299080024023938,-0.0027927931359037666,-0.01695866385634769,-0.005923422880663681
190,0.010553245955392932,0.02588782928024447,-0.001001364887603891,-0.023294281098084887,-0.006957802169474741
191,0.00782727722200691,0.022245296934522388,-0.0015933927078873714,-0.030320378862523104,-0.009533095785545556
192,0.003332775476257512,0.01689125221380282,-0.0036417102020708703,-0.03510265782563566,-0.01229174105084413
193,-0.0011613206001166543,0.011563865354279636,-0.006522832384393892,-0.03711580732941442,-0.0144603314459885
194,-0.003028859241791051,0.008938968202207723,-0.00757581363822933,-0.03718067470404554,-0.014421177329098648
195,-0.002303770600710953,0.00880935399398458,-0.006082179651722523,-0.03671628285476653,-0.01329512437019111
196,-0.0001749937023739876,0.009548825292750546,-0.002957457549513229,-0.03544524700585432,-0.013208289597429408
197,0.00020757422774560628,0.007682543221452711,-0.0018175812197959293,-0.03388835283483041,-0.017044968480352873
198,-0.0024356111066090188,0.002170226551294841,-0.004193176411421454,-0.032475186529675265,-0.02409148907192071
199,-0.005146591965177241,-0.003689416566128428,-0.006892478489658054,-0.030111975272592805,-0.029537971195726823
200,-0.005532095544452722,-0.007254820702833359,-0.007361170921023695,-0.027003981510539034,-0.030473437986806382
201,-0.00337280909509761,-0.007860019757975857,-0.005119024851427222,-0.024066681479790655,-0.027071283359212616
202,-0.00012457845205703614,-0.006654142823833538,-0.0013357240496135844,-0.021883582227258377,-0.021740606173427202
203,0.00423285321319779,-0.0035353307679944824,0.004249685440202757,-0.0199831828533022,-0.014955052981493794
204,0.008625711445411273,-0.0005487839920572334,0.010147628350416955,-0.018709293666447163,-0.0093440938838369
205,0.007124551443717129,-0.0050472912688768684,0.009122813074062007,-0.020494071025237204,-0.013056242551328777
206,-0.0007197203948773683,-0.016570924948098104,0.0004691311837291273,-0.024830609407373944,-0.02484083134018665
207,-0.008152499593008398,-0.026089475232979532,-0.00787073388040798,-0.027961053540722446,-0.03427547565592585
208,-0.012036483392753441,-0.02960049551334838,-0.011544640053856838,-0.028709959763422655,-0.03697376879776349
209,-0.01398305672794493,-0.029710691821364432,-0.011903652328212836,-0.029121694522415042,-0.03539997128293479
210,-0.015996228554699038,-0.030053605120416344,-0.01189752884446712,-0.030603563239675644,-0.033037020456704216
211,-0.017994986908810105,-0.0313607115389682,-0.012400478481460505,-0.03226932328048141,-0.03067342189422457
212,-0.018217554370539988,-0.0317801246797865,-0.011825666885614526,-0.033885865191517914,-0.026684423137456427
213,-0.016397121675741203,-0.030558091404600692,-0.009741516883603868,-0.03449024428561164,-0.021228810262495318
214,-0.014763369661012203,-0.02955891772544614,-0.008445592411877619,-0.03451798959990994,-0.017354022698286987
215,-0.013828024134836013,-0.029228408149057167,-0.008337165843664097,-0.03465598035893626,-0.015412974975759261
216,-0.0123176795804687,-0.02879195053698469,-0.007804663931724152,-0.0337235816982095,-0.013626955543630108
217,-0.011448590262736775,-0.029795989403982526,-0.007901353237632046,-0.03302716894421827,-0.01322851668644998
218,-0.011164786403208605,-0.030829058596254656,-0.0080873081761325,-0.03263846923385661,-0.013152628514007786
219,-0.008643979451026216,-0.028005487884178667,-0.005232401794896383,-0.030704348296120416,-0.009656377114454906
220,-0.003668101696248903,-0.022575105608293778,0.00041745903920625127,-0.02604849179461818,-0.003509655862687783
221,0.00069701172092969,-0.018948421313193,0.005261919367838164,-0.021067743948525383,0.0013025878826847695
222,0.0015521291766556649,-0.019322067476892107,0.006267917293987553,-0.018821712807112895,0.0023372099534948805
223,-0.0023402964368897587,-0.024219525397042144,0.0020221886189159353,-0.020237541251084137,-0.0012150083910968431
224,-0.009830183185351879,-0.03252655270110505,-0.00653164978179788,-0.02523364309541146,-0.008258086688969669
225,-0.01730205000098357,-0.040618016278071364,-0.015335054606543925,-0.03126262095955652,-0.014958436609704253
226,-0.022315924499628867,-0.04584704387501215,-0.02120831133543841,-0.0367013564877627,-0.01852290934987778
227,-0.02470298531684997,-0.04783795687525261,-0.023904946382380804,-0.041433813954069365,-0.018825142360336097
228,-0.02311703293939816,-0.04472296341203639,-0.021603865530564925,-0.040745026586917345,-0.014270171397865114
229,-0.01712699457953836,-0.035734960415925714,-0.012968819208012782,-0.035587468145668356,-0.0041578608626388035
230,-0.00989520114650598,-0.02493230982291762,-0.0020507308534533507,-0.02981679602978854,0.00738157612889853
231,-0.003828910829636505,-0.01583654023460328,0.007262311349505586,-0.024323894228960453,0.016564371060916117
232,-6.37473075771958e-05,-0.010224078811995552,0.013429815227824155,-0.021446833263660765,0.02174176497450186
233,0.00011638536482513769,-0.009605612481680664,0.01514310133605346,-0.02068757813676606,0.022054273422988657
234,-0.0019297870521927908,-0.011966213055410882,0.01398677514142197,-0.02055331881124813,0.019881586848097363
235,-0.0047151157882165074,-0.015129848064276655,0.011331173674523494,-0.02191696907954342,0.017117154085852876
236,-0.010232475631495163,-0.02109522751063701,0.004748106454691759,-0.027791619965502376,0.010775578952888285
237,-0.0181123567642145,-0.029483748390074244,-0.004664109573558671,-0.0337752009146141,0.0004709626365575776
238,-0.023222562434956528,-0.03489270946204866,-0.01069323655769132,-0.03402867583359856,-0.007816858548415276
239,-0.021941148924475972,-0.033553798271969214,-0.009649073532804914,-0.02941369820239101,-0.008873163267875938
240,-0.015098818148929466,-0.026652123641642194,-0.0027679304942625983,-0.021509848282108175,-0.002942002329520212
241,-0.006016169304398172,-0.01816432912648116,0.006030562022624818,-0.012766046556487248,0.005624728831507052
242,0.0013545699968610736,-0.012342803894410174,0.012235559674657611,-0.0054931796219670394,0.011583597877802315
243,0.0033581598769056864,-0.01252113858968215,0.01201360162905095,-0.0016315505843855608,0.011439512945273443
244,-0.0015352523217944114,-0.018004443414206286,0.004314002495594867,-0.003609968892935526,0.004731885403590221
245,-0.010094245144441058,-0.026483083995532612,-0.006536974138137726,-0.008212824257227126,-0.005072906655909907
246,-0.016477022755309902,-0.032353059916779274,-0.013924274962044575,-0.011523248796076857,-0.012146005654589545
247,-0.0182670390105035,-0.03179730929203415,-0.015600160479554799,-0.013650939306996216,-0.01398596092667608
248,-0.01717913647938855,-0.02801790347017687,-0.013902319941137452,-0.01493449789626385,-0.013316614650615937
249,-0.016366816279412222,-0.02515154716639601,-0.012671651252399498,-0.016238763475196403,-0.014401344798491816
250,-0.017858189682393555,-0.025225433530283867,-0.014483697868877786,-0.017824913856638924,-0.018779608226754715
251,-0.021748534481717003,-0.027800784132775206,-0.019253168090202798,-0.01895837140799399,-0.025175136486342467
252,-0.026246216646730824,-0.030589674031593246,-0.024553378704646373,-0.018212880588612278,-0.03049731434560228
253,-0.027864470130861144,-0.028711507975427902,-0.026569392865181927,-0.015484309789894176,-0.030565948057978364
254,-0.02527283295108487,-0.020728588167949688,-0.02406785893369434,-0.012301641215347922,-0.02474970627062947
255,-0.02044388281234865,-0.009972181796228006,-0.019413685045729535,-0.01100683850241203,-0.016479239649116875
256,-0.01585392173045717,-0.00299349530330293,-0.015329172525392515,-0.012902398509615316,-0.009580090790906772
257,-0.01380386492486444,0.0038449759376908096,-0.01377789097371624,-0.016715215563516385,-0.007268779714314737
258,-0.014364938797805643,0.007517931282497733,-0.014222965357210487,-0.020442435155537654,-0.009162715434575034
259,-0.014222658163112889,0.012081617675069432,-0.013065508985932913,-0.021750332145737544,-0.01072645577701379
260,-0.010834702843096514,0.01553562515695981,-0.007742034923977651,-0.019320759714078185,-0.0087496554929849
261,-0.006979215864592343,0.017301042087620688,-0.001781656780394849,-0.014834120198405309,-0.006109120682542968
262,-0.0073960556498957565,0.014266565979038377,-0.0013991240025401886,-0.0111655499178708,-0.008102171330757873
263,-0.011193542390417801,0.005908860555269964,-0.005995094594869482,-0.008533036132923482,-0.013899352943730209
264,-0.014139761175781418,-0.00044518675751153573,-0.010104865209177187,-0.0053698329505028775,-0.018602275735273965
265,-0.013600553494830372,-0.0024864975490220907,-0.009993465834300256,-0.0011137386193900939,-0.018594550832800295
266,-0.009870308278007842,-0.0014915067411392952,-0.0060521814217613795,0.0036421045787586735,-0.013819375956813245
267,-0.006005465636542303,-2.086583479588299e-05,-0.0015932169816989688,0.007376204348757639,-0.007532631563528821
268,-0.0048755807886304,0.0004595140827611097,0.0003855629059979833,0.008088927256246136,-0.0031838955140288372
269,-0.006062696958649563,-0.001427765822412104,-8.14216211859341e-07,0.005676721903470397,-0.0006602831594468493
270,-0.0071980689444000375,-0.0033251739392600394,-0.00019718211960906683,0.0025369529942718986,0.002970588210776583
271,-0.0077026218675396154,-0.003549805163159216,0.0006517325853276802,0.000581247707303717,0.007848607682763208
272,-0.007532519271438188,-0.003825193740657893,0.002702353459834286,0.0004279395143666706,0.012868441578400296
273,-0.006131923483542895,-0.0028274160240205955,0.006700593265409151,0.002090776902361231,0.018269225466027772
274,-0.004753318756052364,-0.0013453604053614613,0.010800169432957973,0.0038965716353248784,0.022631782621355505
275,-0.006612914545944885,-0.004097440618821825,0.010029818630800377,0.002296908092672889,0.022336828107487165
276,-0.01138070460889258,-0.007439525252294098,0.004148190974281697,-0.0035386057140689756,0.01814961000581513
277,-0.014310963755791481,-0.008636821397437891,-0.0009032797161342357,-0.009766380290562402,0.015360837611945375
278,-0.014112594161818282,-0.008355222143801237,-0.0030029464923282813,-0.01395022554076411,0.015231187185102328
279,-0.014247186008437268,-0.008758865645166189,-0.005307679712155711,-0.0175842402913627,0.014345090739485688
280,-0.01657857844287682,-0.013041684210292037,-0.009410414532001763,-0.02187380298337392,0.010762574736308976
281,-0.018256317106035265,-0.01682264301748511,-0.01229150109375002,-0.02523963345833629,0.00775734596690299
282,-0.015989912523905248,-0.015006629046799835,-0.010752374141725972,-0.025492651427565804,0.009648120897386647
283,-0.010833263966868336,-0.008974393741634869,-0.006298416746839788,-0.022924740867785395,0.01533040767238579
284,-0.006559700861402203,-0.004692873548027376,-0.002521452600653896,-0.02006101169675575,0.019614749539593038
285,-0.0048871468994523435,-0.0036749757514210786,-0.0006970740761448312,-0.018063787292453476,0.01977875264839327
286,-0.004364874776140771,-0.004062909706050204,5.638519838015678e-05,-0.015262812625965407,0.01791928891226768
287,-0.0033744566319475868,-0.0045506625306548105,0.00048271388618989627,-0.010382018761362043,0.016768173808215867
288,-0.00219925222190243,-0.004933023867854114,-0.0001598753305112232,-0.004744790869650001,0.015571834651789861
289,-0.0023310690625463963,-0.00708203883309841,-0.0027139626814051375,-0.0007260690148806258,0.012414167863528001
290,-0.0042054755732393,-0.010281498413494003,-0.00586933348604779,0.0003568268120055254,0.008628533214002514
291,-0.006952006393271916,-0.012356228599305411,-0.008281252724720573,-0.0017284065321601018,0.006280282499315009
292,-0.008268645245991994,-0.012183965552814376,-0.008851219214797874,-0.0058846989416945494,0.006391939389508058
293,-0.006416064106666966,-0.00874989172086437,-0.006632895047113536,-0.010045177902154761,0.008956240154793115
294,-0.004738696046160722,-0.0059694425405928155,-0.004970813701896394,-0.014043895122005256,0.009909992577253102
295,-0.00697880898132496,-0.007813236362076708,-0.007422003943154285,-0.01884589651375107,0.006129977086732372
296,-0.010920477767891635,-0.01106303042058707,-0.011284324243865659,-0.023341236722503735,0.001181667948007479
297,-0.011709712858922498,-0.010247511498038805,-0.011049098157455297,-0.025151726130073153,0.0007800614432466126
298,-0.007104403890547727,-0.0036028896866896077,-0.004570712868669212,-0.02346146044014698,0.006546033799994172
299,0.0014361344183505531,0.005702391781024491,0.005550957211271329,-0.019458790050315856,0.014931456520566773
300,0.009105414321734112,0.011390696824275614,0.013098209932123343,-0.015357141466650312,0.019144509527165683
301,0.011766888054314,0.009311228479153779,0.013477721734264477,-0.012902425728596316,0.014949271537345016
302,0.010378735887783347,0.0016643472089535028,0.00866192270049013,-0.01201181174565987,0.005139372403755504
303,0.00858635676132434,-0.006257959735904368,0.0036640762046289996,-0.011492988584100916,-0.004120943828575113
304,0.010097310107749542,-0.008818192560327554,0.0028572788501749265,-0.010306149464719142,-0.007242849902001701
305,0.014274398244494203,-0.005945063015000116,0.005240064233084358,-0.010023800946590127,-0.005532216993019828
306,0.01637466749338354,-0.0036784262241300316,0.005556990460438519,-0.012701649625083968,-0.005631543711532927
307,0.016221898895002418,-0.0029921115364420913,0.004165659926005704,-0.015458216271606916,-0.0074866397957050225
308,0.015543815405218755,-0.0021834187311709392,0.003246259597059229,-0.015624584009578325,-0.008475770476680218
309,0.013620837585503314,-0.0025945171570346632,0.0016453712279081495,-0.014404587301915099,-0.009824371680850852
310,0.011793823163838072,-0.0034449584950002375,0.0006184953526108931,-0.011897199194465751,-0.011032448809951577
311,0.01052810986950353,-0.004023487642989593,0.0010079984218443773,-0.008491377792243023,-0.01217690766125619
312,0.006858291085435914,-0.006915557458238551,-0.000582890021372906,-0.006261596326418946,-0.016468575063566762
313,0.002210272846005183,-0.010667060308458492,-0.00364222950405205,-0.004246161566529074,-0.0219136171081217
314,0.002237550353536639,-0.010144553659739016,-0.0029704164764789527,0.00016479470313003047,-0.022040605920347428
315,0.0071919595680470395,-0.005707528323854067,0.0016001370203028342,0.006128194653167245,-0.016798696242071153
316,0.012003177461680972,-0.002244283246056923,0.005579811853522612,0.01142182996762706,-0.01227378997727872
317,0.013286340218931894,-0.0025280113508033045,0.00620626306614398,0.015593633787097466,-0.012322767254380806
318,0.013194008537564248,-0.0035763280231842316,0.005682442843580626,0.019955642479240452,-0.01369409746950675
319,0.014728973612960402,-0.0021451406758651492,0.007215161617518618,0.024900757512906817,-0.012705478027350784
320,0.017120465467866657,0.00056549321764095,0.010324001122629576,0.02807577415492753,-0.010644383963046958
321,0.019752831526602926,0.003782878248268109,0.013824786996674885,0.02828911599877013,-0.008351868378708376
322,0.022637493641276915,0.0070295605317817105,0.016602859335821715,0.027267353112908503,-0.0063573751128521185
323,0.02363044587845175,0.007788038961189463,0.01679653166832346,0.02626225234096158,-0.006716987896234495
324,0.020677865097288556,0.00436716408247503,0.013941142727572839,0.02498642647367029,-0.009644867334543861
325,0.017683351898302765,0.0010169496796806037,0.012736252540264297,0.025395640115894305,-0.009866031520141033
326,0.02003461972638761,0.0034461444605106677,0.01830166078475885,0.029735785269978384,-0.0027164630178401284
327,0.024971686021909866,0.009389898530797464,0.02691495861351277,0.03532833546050517,0.007358505934357916
328,0.02745776581659471,0.01417714373404677,0.031439082902030596,0.03847420782376615,0.014392242937179056
329,0.02673612352116012,0.01662712038545899,0.028963988870486908,0.038030621077490986,0.017206205263942703
330,0.02239255469947412,0.01487402254123859,0.01900844174567732,0.03402550173458919,0.014169056879512905
331,0.01585799587855278,0.009328936263925067,0.005765883803069869,0.02896086073368871,0.0059680596230421235
332,0.011275318574221212,0.0043721908049055395,-0.0035637141915820657,0.026244850418084113,-0.002361831599035989
333,0.010033586623111065,0.002490478102082089,-0.007037535231020554,0.02613231197282874,-0.0072161310888086486
334,0.0109066821491777,0.00345559873416965,-0.006680543501948766,0.026969085714986005,-0.007829321092395926
335,0.012561718608567394,0.005672160013132339,-0.004578276171186214,0.02713322820383442,-0.005942256253547283
336,0.014341539877722107,0.007639081054924912,-0.0020145656913386667,0.026001644980234738,-0.003603714511720589
337,0.015551899457212958,0.008158402863449285,2.14314251483545e-05,0.024193553189467473,-0.002189201273496191
338,0.014909168022469567,0.005842012335085114,0.0003651318407184651,0.022149378327959667,-0.0030671272453704343
339,0.01417876950852161,0.003487840477697063,0.0016021678564310529,0.02083757778669936,-0.0029791234332703716
340,0.016856601568608357,0.006196156794019755,0.007351620602810888,0.021324563537575815,0.002966440369661342
341,0.02032209805760271,0.01094925710362589,0.013012236182033874,0.021662399041034668,0.009670732673365797
342,0.01923666235795255,0.010841397027649701,0.012004201265438458,0.019288475726223733,0.008923063903328038
343,0.013752774821637559,0.005969749883765263,0.0059198757838491815,0.015019650040477317,0.0021412591814586567
344,0.005927105852127029,-0.0013338473208051242,-0.0021096061200264974,0.010511571252155485,-0.007060632115184233
345,-0.0013307016477631215,-0.00806412417511757,-0.009193311082929593,0.007514405353463327,-0.015422427222324654
346,-0.0038033403404086827,-0.009276942320725498,-0.010231770297151662,0.008255100835793469,-0.017161355534551392
347,-0.0022190015525315734,-0.005925350466737497,-0.005928050289529301,0.01226501121687903,-0.012772512767588836
348,0.00027473871935422924,-0.0019611009736150626,-0.0009179442721770849,0.01739573118177739,-0.007019618651905728
349,0.0029566282994287246,0.0020848855193503065,0.0034560153586005835,0.02214469089251641,-0.001564553361254171
350,0.004476821157262076,0.00520066756184466,0.006042736080896899,0.02482737622838738,0.0018513758879675746
351,0.003306129488127369,0.006267993773761186,0.005731051520446307,0.024143184434276772,0.0025815722977081943
352,0.0008118568235156548,0.006748781620255031,0.004836848056300901,0.021792836601171893,0.0029443178603379455
353,2.6418426150418505e-05,0.008704452150860787,0.006899473536231665,0.02144605781587106,0.004843182548411642
354,0.0014002531283736888,0.01172177294311832,0.011254944848599156,0.02350940600641757,0.0072812563756037806
355,0.0012325068408127375,0.01156224385566967,0.012461788835463733,0.025345063830229032,0.00596196754374661
356,-0.002520350024409437,0.006239233867991846,0.008046047591915793,0.02611320104169702,-0.00048020631953198985
357,-0.005809973916851028,0.0008315287875360226,0.0030467766759817395,0.02734674673937022,-0.005942410480868619
358,-0.0040108953797874354,0.0007980640424773219,0.0030201828022804506,0.030183270501185737,-0.004797492683584612
359,0.00027422815112038867,0.003428175291439882,0.005362778334337105,0.03269746870951981,-0.0008406396072932691
360,0.001871260143806987,0.0033559528638136475,0.004907936901150804,0.032322195326957216,-0.0003644847913994774
361,0.002065506236390163,0.0024485577940141097,0.0037925521190151734,0.030059005716138662,-0.001728149582460373
362,0.0037786092914056527,0.0038893059827820836,0.005304911119046422,0.02721028915020676,-0.0017692938216332839
363,0.004946394721031286,0.005034657341426727,0.006357812787193658,0.022668886359821942,-0.0030290909991265796
364,0.003176641283487405,0.0035342046457505724,0.004203994451413186,0.016530420416175275,-0.007358410070085871
365,-0.0008822687048186609,0.00044997597915072906,0.0004578111657688248,0.01102010448774494,-0.013059967384626201
366,-0.004240742356511027,-0.0015549890767885318,-0.001528855050438462,0.008526149451377973,-0.017087654261579953
367,-0.0031285331500517264,0.0007725495965393584,0.0013121724003808928,0.010049727643800846,-0.016040241412344943
368,0.0027165030128468285,0.007629247256590281,0.008428519917592596,0.013900327655119723,-0.009833028784852784
369,0.009810166294175676,0.015835649161026463,0.01640251577170619,0.017072172610468127,-0.001741533906029577
370,0.013780585791102366,0.020914572395572116,0.0214092782336178,0.017325988758490105,0.00393520996163313
371,0.012495711334448502,0.020260174935815757,0.021232959070564817,0.014329811554433226,0.004793361026493328
372,0.008022176365440455,0.015613630837817187,0.01736610553007241,0.009593235088029261,0.0025775122013646594
373,0.0045369735344195725,0.011273384358548619,0.01378009153362387,0.005522392228943369,0.0014308393622460627
374,0.004668007044141654,0.010518144832900986,0.01361404706338771,0.004265655006405072,0.0039880247991914055
375,0.006239546795623604,0.011218232064262219,0.01517772598041509,0.0049753609225522905,0.007031569659309257
376,0.004934610940801442,0.008383369409987523,0.013804213962344406,0.004289080922812774,0.005398537081778626
377,0.001247165267364773,0.002774387068056671,0.009906603878747828,0.0011450013489308925,0.0007687066580812901
378,-0.0009563489899798311,-0.0005713595866479094,0.008109156055901259,-0.002501482011772734,-0.0012190116694611925
379,-0.001309298067539468,-0.001079286354129119,0.008699473964511182,-0.00559816071487173,-0.00033397559423737933
380,-0.0014883307448295279,-0.000983619308195237,0.00936610793416248,-0.008030412056668853,0.00033716054007625854
381,-0.0007408636298151987,6.720646175579085e-05,0.010412727627444234,-0.008552076914726238,0.000775847562003656
382,0.0003382046046823133,0.0009585290304315537,0.010319689757692223,-0.007234949876311267,4.395755756050465e-05
383,0.00014451034504862117,0.0002616928523884325,0.007335874919430636,-0.005457299754820944,-0.002904280727370507
384,-0.0001783236093274813,-0.00025807447415547515,0.0038964436083315256,-0.003427311498981504,-0.005516417114884819
385,-0.00011198953372433484,-0.0002440581416118042,0.001766908152363403,-0.001050987561213113,-0.0067983854995238655
386,-0.0004056170147634414,-0.0004379210639564803,0.0006365151333629736,0.0012824854719121637,-0.007597630567555357
387,-0.0016654557521574222,-0.0009460431836875597,-0.00021805917354927965,0.0028714715922690307,-0.008248591149168089
388,-0.003469803221358358,-0.0014911471412491714,-0.0005541098270671985,0.003435374542479456,-0.00816256624562901
389,-0.005377328767312496,-0.002107069577198726,-0.0003873716811617214,0.0028015783907193925,-0.007373326798132076
390,-0.007928709405135365,-0.0031430778172277535,-0.0010907197177328094,0.0008591123716590215,-0.007052742431090224
391,-0.009235931848725811,-0.0025838578521081533,-0.001334573058646675,-0.0013719924244759774,-0.005766879603166324
392,-0.007484974490750867,0.0005567536461084888,0.0006079196127534587,-0.002980965811900133,-0.0024475567134060535
393,-0.004120080893859211,0.0038936504375712477,0.003510568162221431,-0.0038754065845199802,0.0005098050696407013
394,-0.0012036487695050472,0.005231810952022944,0.0056131824751475545,-0.004252213992019317,0.0005855730099281401
395,2.8793014330808838e-05,0.0037796495485289097,0.005638580899865586,-0.004490552697221963,-0.0026085568546382488
396,-0.0001839799050250448,0.0005918119660724392,0.003739637739180757,-0.004856606754329006,-0.006687403483438702
397,-0.0014436062446987043,-0.003045133597332834,0.00034271938069265346,-0.006325063859904282,-0.009966540092723072
398,-0.0043951853744047,-0.007684200039303611,-0.005485441990899631,-0.010335716058796228,-0.013911234804832296
399,-0.008070652898232986,-0.012452300612683487,-0.01251668642475171,-0.0162026507248494,-0.01793905973379354
400,-0.01013880072045292,-0.014978479582960155,-0.017431260029133935,-0.021579252469938456,-0.01914213054622406
401,-0.010454198249202656,-0.015565222225759102,-0.019411571020260206,-0.02559586428619203,-0.017488632447016626
402,-0.008921296972404626,-0.014068023620812477,-0.01802663368230144,-0.02780029449407983,-0.012797560356189308
403,-0.004618453765772571,-0.009449692829978292,-0.012559326573191866,-0.027278780477823634,-0.00450564891475218
404,0.0010300461750298183,-0.0037555256620000026,-0.005051067627823114,-0.024437690725045036,0.0043634922873601635
405,0.005530231763375603,0.00029903173552816344,0.0019418564780348578,-0.020210246607449616,0.010271056030010902
406,0.0061634122913117656,-9.009621131295129e-07,0.005628387455875316,-0.015893842676760386,0.010506605864895588
407,0.0019088120330991404,-0.005585787425892172,0.00399391055602067,-0.0131624779564002,0.00491793327097261
408,-0.0036958823052497484,-0.012244639104200539,-0.00048330735375186606,-0.012280788440407867,-0.0015639069510123343
409,-0.006398787529722215,-0.015348842116535075,-0.0033493979557771654,-0.012266544254169032,-0.004045787840938099
410,-0.0046652454313404835,-0.013667286657517926,-0.0015071319882177796,-0.011668225771014904,-0.0013352066850227332
411,-0.00015280149143190907,-0.009256181296476764,0.004498605379260896,-0.009830361300801293,0.004361054539458371
412,0.0033537474636165664,-0.006219973465754478,0.009957005290571563,-0.008113708672114535,0.008713950763135424
413,0.0043379293386313095,-0.005970042583033492,0.012296983014800826,-0.007421871088174481,0.009986996222108165
414,0.0037720478067565476,-0.007152305558302609,0.01314022076314143,-0.007061671217694154,0.009564853349937352
415,0.0031086326720109496,-0.0081395673246544,0.014852078156203858,-0.006056839426156703,0.009613302504289977
416,0.0029995127687979994,-0.008257791414263279,0.01773371842949721,-0.004464253830925615,0.010913147222056305
417,0.0020811901811789695,-0.009149573907359689,0.0193059583077912,-0.004040120924541859,0.011649532235463096
418,1.0373017964008818e-05,-0.011485813857885567,0.018952299402594873,-0.0056345894940840364,0.011113106070458833
419,-0.0014680434645256443,-0.013410263037427367,0.018661655405809063,-0.007764629158427606,0.010332643778193323
420,0.00018249265869104073,-0.011830493627733774,0.020677109973702448,-0.007974957143044251,0.011764984279840133
421,0.005508972527980807,-0.005837304005981997,0.02562049942147866,-0.005864547935158894,0.017197835084243975
422,0.010777402763696988,0.0009667280136873631,0.03044529213140054,-0.004324444802078234,0.024043978355691976
423,0.012813125441282042,0.005432771227497529,0.03246097961698576,-0.005512367554477433,0.029088107827087355
424,0.011545940147373068,0.006574239262179149,0.03164480635070438,-0.008935657667306657,0.030564371745150642
425,0.007955241300669618,0.004365573507750001,0.028638883269184685,-0.013468208186947965,0.027648973839420537
426,0.003482265130641172,0.0002687309403876897,0.024371419815154196,-0.01828882896469016,0.021597145426915588
427,-0.0010925000122737158,-0.0043628848453829885,0.0194197719413052,-0.022604312298759845,0.014416120407971078
428,-0.0068837905779227096,-0.00996331046442787,0.01321420485009431,-0.026007954870154833,0.006518183520392507
429,-0.014492093824579924,-0.01685432259919279,0.005768451225144104,-0.028468052181044583,-0.002158265942332129
430,-0.021814948499995712,-0.023076594015706796,-0.00094617632480573,-0.029688009162961746,-0.009650648542359485
431,-0.02454228318920089,-0.02422368467868218,-0.002838873437475866,-0.028371150408558123,-0.011204349955072804
432,-0.018946394719085772,-0.016705556652185434,0.0037760586673473446,-0.023179617342436704,-0.0027562513342637633
433,-0.007956185796586832,-0.004331574287931809,0.01507019491418728,-0.015992875917333567,0.011531729711186219
434,0.0009512789844376057,0.004854239425845992,0.022362784523139046,-0.01107733450281686,0.022385080658986905
435,0.003636686972521959,0.006350754456711866,0.021620460133688416,-0.009919735042428277,0.024694547898891653
436,0.0024827457087343496,0.0023460657721966964,0.01648251392742675,-0.009187262314689118,0.02129736069513963
437,0.0020922670492033806,-0.0015093149366535298,0.012618411941594658,-0.0061766545725054555,0.018313095411555343
438,0.0026017958787595105,-0.0036536413208300956,0.010382480049868591,-0.0024941868583293766,0.016530592496550298
439,0.002025824001834243,-0.005391666493173209,0.0075688613795548455,-0.00035196876026751943,0.014017225712819277
440,0.0011689234702171858,-0.005795365089060392,0.004981258607673488,0.000436198605197466,0.012245437147901536
441,0.0013889989336445987,-0.004315443726046598,0.0040811271147249695,0.001360742088198936,0.01218533167763186
442,0.0011980650154141007,-0.0038877097134954095,0.0028881854478592117,0.0025988549013921704,0.010568500032621532
443,-0.001169349498186364,-0.006445053646510085,-0.0009455247156388946,0.003346008343753066,0.005224320026898933
444,-0.005426254231760227,-0.01040623680761399,-0.006635845677445124,0.003650588357503309,-0.0020221992558573727
445,-0.009812587663582983,-0.013064715879418258,-0.011321595801182981,0.004588745756379196,-0.007820270143376083
446,-0.01139235582662968,-0.011329909593986926,-0.01170706630097401,0.007744934298672406,-0.00843347283073571
447,-0.010501875726169702,-0.005836618618977058,-0.008607300086446779,0.012532297271208944,-0.004604414946045933
448,-0.011924222001525939,-0.0025024371874283803,-0.007608900517454907,0.015523710594070721,-0.0026986312945035964
449,-0.016038407262716433,-0.0031564603241791547,-0.009865630698516195,0.01601065541891529,-0.004575214060851974
450,-0.0180278256564491,-0.003704720869967885,-0.011548253292039267,0.0166972387831661,-0.006529048291847219
451,-0.014748404349001754,-7.385849136851101e-05,-0.009620181479219912,0.01917479710570369,-0.005105420080454194
452,-0.0075374753805217375,0.008247542989369982,-0.003669477074998674,0.022371199399589446,0.00044698594571218587
453,-0.00010285161779397148,0.017944268127046758,0.003977794012762179,0.025273590591577622,0.007536475702916454
454,0.005362148228643907,0.02505181464895133,0.010573342806652952,0.029196212402113488,0.01243789973081955
455,0.0074378146842317425,0.02657577155610648,0.013028099151137411,0.033574908927720554,0.011731039292920154
456,0.006766031298427532,0.024066212809374748,0.01115274877338641,0.03607418706340294,0.006904517628445393
457,0.006015432178583134,0.02188769858839573,0.008508720105979924,0.03680977240659128,0.002882242867250786
458,0.005992853637550977,0.021442437819987923,0.007332503178721393,0.03709519121785576,0.001407037978384404
459,0.005331359757087523,0.021360445618020744,0.006701300234452735,0.03706816957966446,0.0007392178139180988
460,0.0032191684051976997,0.020636416525279245,0.005134033647897587,0.03642011881437311,-0.0005553675510516357
461,0.0019849663811696604,0.02123711479466726,0.00450629187619313,0.036011860013651795,0.0001267188845747164
462,0.0018889570626683346,0.022441801605779015,0.004784022772375003,0.03576639309515963,0.0027079455852179737
463,-0.0008464779894505724,0.019029289010283945,0.0013196708574754238,0.03437083912284196,0.0015312106662054203
464,-0.0053352608536211925,0.012026639236152116,-0.004974308657251176,0.032422224915348574,-0.003082690821687685
465,-0.007949922339301758,0.006809695040648686,-0.009316469495981467,0.030305250824377905,-0.006627916862327583
466,-0.008596784577296806,0.0047266340859467995,-0.011058072496796809,0.027196642178644568,-0.00830170186449414
467,-0.007422375969757195,0.006128697484800273,-0.010137437656402746,0.024099505453650062,-0.007025208315857973
468,-0.005180731051533775,0.009566181643694204,-0.00713850941632059,0.02219731026988171,-0.003261910824002895
469,-0.0031912355057182235,0.01324962496903995,-0.0035558468037614087,0.02146421385515078,0.0008548918561503663
470,-0.00107119930191652,0.017456125832585354,0.0005428798179570027,0.021418394141389886,0.00562465893721043
471,0.0012073307596625785,0.02140406500709344,0.0041389404939710436,0.020966407954100895,0.010850287974672896
472,0.002565638295996983,0.023438212681344616,0.005315276699031272,0.01890965179864861,0.014552165147959928
473,0.0007182366951441674,0.020700919534532382,0.002042621412170427,0.01419166805392454,0.013481327028833508
474,-0.002809172768266139,0.015222894306417824,-0.003052705787265976,0.008676992211776351,0.00980292532855439
475,-0.0018773688635833033,0.014337111968544163,-0.0027597100834260073,0.006704266357565596,0.011321097628775898
476,0.0029096060304712188,0.01764927183767692,0.002323122737425883,0.008234607491064515,0.017383750253235804
477,0.006597129103749706,0.020265580732084967,0.0071940771389851985,0.009550697369783206,0.022767657753304988
478,0.008859099711095319,0.02238736488120177,0.012140119296132646,0.00921223461169333,0.027135001804706713
479,0.009993026455565115,0.024170647256558545,0.016956550464266366,0.007491327838238778,0.0297812762968059
480,0.010302184532613135,0.02456626775580034,0.01964916927669354,0.004754743662042937,0.029766422694780338
481,0.010554441109530169,0.022583411504860717,0.018492086834412877,0.0017441453782076225,0.02633814828364129
482,0.010396749422523548,0.017810704318808455,0.01312328039432341,-0.00036113775348924293,0.019759659598774893
483,0.010272499813846328,0.012492101274136138,0.006822197618045286,-0.00040355428307167307,0.013915828490238735
484,0.009561465521851619,0.009744467021267184,0.0016009184981845305,0.0005444868447418223,0.010259770305090475
485,0.007540569018704632,0.007712509634328145,-0.0027553553210248618,0.0007172314867633537,0.007498757156869727
486,0.0057472909259997755,0.006428341523002779,-0.005205754000012625,0.00025637868803062236,0.0061781742534535765
487,0.004852434095459787,0.007130203289335807,-0.005517321570304901,-0.0006094798595765883,0.006293922092757066
488,0.0037592832221402047,0.007599936122912813,-0.005357183502894864,-0.002625742397246109,0.006366924494713228
489,0.0029845749424803627,0.009926350931345028,-0.004376882896835304,-0.005411806251151782,0.007942043827644732
490,0.0039042252690458528,0.015524561876336418,-0.0014256246389093704,-0.007489260826072126,0.012439332821578135
491,0.00525926154164216,0.020187166991255612,0.0010178771162871142,-0.008536030959303989,0.015700139143506812
492,0.005522682824498696,0.020470788398857888,0.000539639884334112,-0.00918642382317124,0.014817616782742123
493,0.005183392547460402,0.019612026079562018,-0.0017706329045905345,-0.009717844882157453,0.012538578896859645
494,0.006441789203276971,0.021749894198681823,-0.0021841088934218132,-0.008387511650625458,0.013752132195758136
495,0.009836102475200045,0.026640264726335464,0.0007709533848659104,-0.004206641984449738,0.019152710299323795
496,0.012416737426544682,0.03125497653341431,0.003440576380758274,0.0002889208675226617,0.023104339201541414
497,0.013508844107106066,0.03378919069286696,0.0038395338934319287,0.003411912229889616,0.023095778419839584
498,0.01616609719110518,0.03742181037137721,0.005106986233831733,0.006071105177274519,0.024139874171351557
499,0.020166970470971622,0.043126164301738205,0.008298630233242048,0.008058991700059663,0.027956324506518065
500,0.020441246878600886,0.042005815114729714,0.008458545004867314,0.007391378144813558,0.02791840032266614
501,0.01675914651190461,0.03547091602402367,0.004250924425447615,0.004104478623986462,0.02258103440672439
502,0.014271005715260158,0.030798098362415764,0.0004967683977300751,-0.00044985588847569247,0.01820105809127218
503,0.014227446698455616,0.028064182467754224,-0.0009980696401395313,-0.005734353541320835,0.0170625540387834
504,0.013569727851901213,0.025612993581587643,-0.0028016753631808977,-0.011059888166943258,0.016408349855510436
505,0.010206790680653647,0.020114724616527156,-0.006729883184886429,-0.01639766148095094,0.013961212173267432
506,0.0057663708576184,0.01217007232973733,-0.011129144039883234,-0.02190820531314196,0.010783625268151036
507,0.003051085954663726,0.00560753225790483,-0.013390462101841279,-0.026455072731445154,0.008974790262851235
508,0.0030879235701584545,0.0037148366222055813,-0.01252898788024727,-0.028051962281347338,0.008711188218829708
509,0.004799298195941897,0.0043236232155836815,-0.009195266731583137,-0.026346607443107396,0.008818632284116164
510,0.007114364150931183,0.006606706558765879,-0.0041352075723558816,-0.02335791099563862,0.010390632661633764
511,0.009648189088275753,0.011368363886308816,0.0016275101469567707,-0.02051221953571427,0.014645236071151018
512,0.011206264145092947,0.01475360451453282,0.0059931453837037095,-0.01757270484517964,0.01868614589205981
513,0.011300605824722188,0.015565870321672996,0.007447456935428534,-0.01434119943054532,0.01983683197346578
514,0.00917790226407209,0.012662975464802757,0.00398481375272111,-0.011803168218193128,0.0161554992420328
515,0.004490594478992624,0.004915690207613519,-0.004242106651465187,-0.010201841500181578,0.00744886456083358
516,0.00042694676421251444,-0.001799016104200887,-0.011967893374393097,-0.008135962659175492,-0.0008810249183588147
517,0.0006222925576839806,-0.002592680680124191,-0.01422053781388517,-0.00499841907388347,-0.0027001670833675336
518,0.00658628283704014,0.003912849464457277,-0.009490808671589804,-0.0007568970230049858,0.00429883982612467
519,0.016493129760631362,0.014763299351782784,-0.0007334749405971067,0.004244149162369066,0.016417424399635117
520,0.024879431142460176,0.02204779438038272,0.005293984348110131,0.008001315511219135,0.025456754805526834
521,0.03016436322113435,0.025150032473745736,0.007731052821865827,0.010358776629462182,0.030509220431411334
522,0.034752729640646685,0.028830802370351034,0.01131563607915454,0.012882766703192059,0.03673668102519995
523,0.037638093020858424,0.032089325269685234,0.01588259628149305,0.014666873289169628,0.04312118972574759
524,0.03687446781820276,0.03160296037224784,0.01812546126331467,0.014234686962792103,0.045708984240613204
525,0.03142061469549946,0.026394496044866503,0.015005830239347075,0.011274554460602017,0.042137852638838104
526,0.022195346346248555,0.017682281182376674,0.006653282850145342,0.006568762777535794,0.03367540917790688
527,0.013263274358740536,0.009532838344628699,-0.002213182188636105,0.0019317203058889882,0.025415342600637512
528,0.005309632639428546,0.0022219272016518734,-0.01050225598507396,-0.0022052340780472778,0.01735281733354393
529,-0.002229906601895704,-0.005755898452452725,-0.018810583161561447,-0.005930658896961626,0.008022783965150139
530,-0.006242635646670298,-0.010788064895792485,-0.023846919860841156,-0.008235384713691389,0.0014808434646716346
531,-0.00581705407643122,-0.011147292099033514,-0.024230783018956613,-0.00897056768719435,-0.00011300881895743241
532,-0.0036321491993540666,-0.009376249589650072,-0.022034787601329674,-0.008915881008387886,0.0012323536699823982
533,-0.0028384231152153647,-0.0088053934316287,-0.020088344811970985,-0.008821780014262945,0.0024457316773318326
534,-0.005077974408195245,-0.011604231994998252,-0.02023557851149344,-0.008899249172668962,0.0008547953204173963
535,-0.008503583790170398,-0.01612921610421588,-0.020916745680746487,-0.007417857993344396,-0.0028933716673605523
536,-0.009850013399079037,-0.01810956250762642,-0.01883548636594672,-0.0020091804957117886,-0.00500587744539688
537,-0.008027043586652403,-0.015364908427701156,-0.013261211733150589,0.006777746755047383,-0.002772918989014045
538,-0.002914832545891813,-0.008385800620982525,-0.004892804842922626,0.016854586949291858,0.003819008890415286
539,0.003730124172049869,-0.0002990631125174701,0.003963682539375133,0.02575465390144013,0.01121268616937221
540,0.0075614941629369315,0.0037727576285801496,0.008789525102767311,0.030698889738024905,0.014377628755912102
541,0.007720358053968439,0.0028219336965893097,0.00929907912757662,0.032150428869940434,0.013292134591110408
542,0.0067608905452590864,0.0002199161298970845,0.008859973532898545,0.031900282603960155,0.011535375610091282
543,0.004237792839905793,-0.0037990807611735854,0.006190196598934811,0.028899620798398036,0.008349685849564624
544,-0.00100000793413542,-0.010847662167415914,-0.0009007414342170048,0.02313878766551494,0.0013973326176057162
545,-0.006389023027535263,-0.01861101025854542,-0.00912283457011816,0.017937338128967507,-0.006856650733149921
546,-0.009786472264222284,-0.024623815209025467,-0.015474677484831596,0.01534890231331955,-0.013780557611585979
547,-0.00946616654693432,-0.026079733158457474,-0.017301808692811366,0.016149433478221713,-0.016403947269901475
548,-0.0033787693947128087,-0.0193630635019178,-0.011389730530058732,0.020825105007863522,-0.010915870315464959
549,0.006978064450602544,-0.006183488267299339,0.0008573431496299549,0.027821807154377744,0.0011639872136084187
550,0.016593208430751648,0.006450149971450151,0.013651970493064524,0.03429142321187045,0.013245326321147206
551,0.021105547795455808,0.01312127449305362,0.02109636866761141,0.03755365479433581,0.02004503775281165
552,0.019934296570562286,0.013459312719151816,0.020838069173098942,0.035998123643176984,0.020734105589254873
553,0.01478470981303056,0.008695926803537484,0.014238606439438192,0.03100640023462047,0.016416256735754052
554,0.007999287820988844,0.0003932805507292918,0.004750282884505159,0.026671793033886122,0.00926019343365932
555,0.0037418149526566823,-0.0063436502087838905,-0.0018057491058439874,0.02625160739744517,0.004917782806499476
556,0.004195910425397515,-0.007739930553413993,-0.0017720939821278267,0.02931293804481588,0.006502992652318467
557,0.005262935488928112,-0.007898217139703121,0.0008347933267239293,0.032080853318686396,0.008685715712665487
558,0.003848090349451212,-0.010543213150790478,0.001823697578605178,0.032466358035798115,0.007835279916865933
559,0.001061565903103662,-0.014982983758956188,0.001002466154213267,0.03115578199387151,0.0051437472551435865
560,-0.0006988209682938054,-0.01880002562533419,0.0001032221316421621,0.029132241892817382,0.003014436311991851
561,0.0010751883201483468,-0.0182714185839471,0.002377950964648337,0.02698923052243561,0.005271370866940963
562,0.003976793625860785,-0.014954452211759955,0.005978065447845591,0.023082989191880746,0.00985820067241177
563,0.002797631102016463,-0.014551224515442975,0.005337728846573791,0.015530432607270198,0.010169748441418044
564,-0.0024637438189105483,-0.017627865440815026,0.00045982864770250764,0.006674949118141962,0.005782542489356334
565,-0.005850787259144257,-0.01883671657098017,-0.0024468648760578,0.0019384133984893842,0.0031536481355467516
566,-0.001724484061951603,-0.013426436981414375,0.0025898503375190616,0.004001772637803693,0.008138498743523872
567,0.006048286785496389,-0.006135853730149624,0.012045475167806768,0.00904621140242241,0.01589589685443476
568,0.007733692201729491,-0.007108433540545525,0.015434640088973117,0.011018879985849628,0.015113740662662528
569,0.002556150680068095,-0.015515035918610165,0.010688055320344694,0.008895441037945921,0.006337148327233888
570,-0.0026991268958345056,-0.022011609454896722,0.004690672027321224,0.005478667752866582,-0.00014926094401373398
571,-0.004356817803476378,-0.02254549590163249,0.0023195437304493654,0.0029377306267958352,9.095749087353307e-05
572,-0.00415949987402961,-0.020384685784929087,0.0024024657324210486,0.0021779711823947867,0.0029368726398345635
573,-0.004873212500223298,-0.019051837416095122,0.0017655443565282253,0.0029053437300852014,0.003885046910010414
574,-0.005613098690906627,-0.01759346979568149,0.0006963719000936748,0.004770005218329479,0.003714047190838192
575,-0.004425914373234154,-0.014561641473965523,0.0013051527484234096,0.007971290505314433,0.00502129760911052
576,-0.0004484369684636135,-0.009018626300807868,0.0057999073560106055,0.013401667589325216,0.010324545791068772
577,0.004281796199942531,-0.002331404153359693,0.01276621050949386,0.020569077086861766,0.018065859833781714
578,0.00640124134202535,0.0014631858787880335,0.017287263954790473,0.026397111689482815,0.02278157124766618
579,0.007653811741648827,0.002662471237877253,0.01986805561996518,0.029138073900358368,0.024422771191751062
580,0.010571333458326174,0.004196071358779885,0.024059218706509712,0.029090661360645594,0.026332945834179562
581,0.012431851827387583,0.005273375727109079,0.027923737028881037,0.02633932519019658,0.027746279187385592
582,0.009919987319837835,0.0032319677356920933,0.027288330890948776,0.021307247424039298,0.025924678929210285
583,0.00381025921389601,-0.001859318143992956,0.022294204988556908,0.01557584806849518,0.02086325577431235
584,-0.004467773619845423,-0.00943340562029617,0.014025314238738635,0.00992516412729354,0.01282032562392508
585,-0.014048152496875953,-0.01911175788455939,0.0031946035155195457,0.004525903218631406,0.002379120108347335
586,-0.02112571785669913,-0.027121539965770665,-0.005463179650929742,0.0011741614071396475,-0.00547443468865819
587,-0.022753000105093107,-0.03007378917233526,-0.00759468641239991,0.0012293343948653786,-0.0068424977546726615
588,-0.019674850742800117,-0.027531868813753115,-0.0030928300814666155,0.0041023878504779085,-0.0022055732402317075
589,-0.013710442918462074,-0.020867118214782605,0.005584860929357652,0.008340047155628165,0.006463448596677851
590,-0.007395297106542883,-0.01351189584953747,0.014293815186713297,0.012230162434251377,0.015756189905535515
591,-0.003654043689834033,-0.009039569840485095,0.01956879900344669,0.014603516986805332,0.021575200708085013
592,-0.0036510950670625175,-0.00859539548216558,0.02069774270789988,0.015133151688764347,0.022333846362696384
593,-0.004976271649740796,-0.009651393067559277,0.02005170776736464,0.014329989055584545,0.021239811799476593
594,-0.005420297430858116,-0.01010036601969569,0.019468699533134588,0.012991073512108387,0.02108240525340666
595,-0.006232325136868726,-0.011554105745843365,0.017407550109928765,0.01150918150269986,0.020330028900263898
596,-0.008490288798044166,-0.015105978925911232,0.012552809135340312,0.009884805750424016,0.01809152047829254
597,-0.010635355520376283,-0.018512181249238854,0.007230340451979043,0.008221299888978451,0.016661586409264937
598,-0.011690380724214,-0.019825610016628997,0.004280698766349305,0.006611611942636442,0.01707081215387097
599,-0.011565628747716954,-0.018243947427669643,0.004991643126772452,0.006313751716887422,0.018977658597388477
600,-0.010819765670376529,-0.015188671353974007,0.008034506939124853,0.009265674182543192,0.02061599878835256
601,-0.012544323486007739,-0.015289059102562987,0.008282379422515024,0.014040703393283683,0.017669063266049723
602,-0.01686598932191381,-0.01884757730428149,0.004457010635243038,0.0179617055103971,0.010509743854395487
603,-0.018521237493411835,-0.020351160911534147,0.0025300932530100215,0.020984716511552745,0.005664861856338593
604,-0.01585028948796523,-0.018604752520624823,0.004832615498824908,0.022610721236552396,0.005223950738864107
605,-0.01271433275309509,-0.01740902021716513,0.007219355501343083,0.02127847856574739,0.0055153335973514555
606,-0.011552062934908888,-0.017924141102709016,0.007365149355953604,0.017150523541439477,0.005142857693423004
607,-0.013477623621130166,-0.020912681232501874,0.004210424737751505,0.011095928422566037,0.002768055450101186
608,-0.018644706900076222,-0.026667665843389757,-0.002359340072202934,0.004048927835290825,-0.002814680789256325
609,-0.02399692784761529,-0.031430453819755455,-0.008946987563009875,-0.002453264792607078,-0.008497928542306908
610,-0.025868532570649076,-0.031568891039998624,-0.012192149922647829,-0.007339717528006385,-0.010894462346546393
611,-0.023607380856520015,-0.027466897148507058,-0.011265410986525047,-0.010589828618006376,-0.00969216015364003
612,-0.019376545592022124,-0.021860160445276364,-0.007355112574317047,-0.012219093855391225,-0.006570650579744596
613,-0.01454752301640915,-0.015495750000478077,-0.0016636569353126371,-0.011741892710284998,-0.002146263012159356
614,-0.008870205444998128,-0.007605243350166791,0.005430536106745583,-0.008934707646845834,0.004003057766567221
615,-0.003990471730716993,-0.0005058490701519019,0.011795477672944527,-0.004638246413803603,0.009308818223970394
616,-0.002415825020857099,0.0027398211036011155,0.014428855043859863,-0.0005229841487497927,0.010505570260049776
617,-0.004608255834606725,0.001972041424431438,0.012122130022532278,0.0016102398505616635,0.007753359012582573
618,-0.007961003070962641,0.0005367120902847348,0.0074793651401121024,0.001929479552920627,0.005355748930530086
619,-0.0080561216735613,0.0032168303722513096,0.005826041889162555,0.003278577213797875,0.008300494523446894
620,-0.004637771418425722,0.009517232254415456,0.007575607488113647,0.007090450299893525,0.014954854240367597
621,-0.0029539342300149048,0.013111165014740685,0.00689923890768445,0.011091901018935098,0.017833977229120286
622,-0.00665653799927614,0.010084069792374632,0.0007147536905803196,0.012603080789451073,0.013239676614095652
623,-0.012633903380664703,0.003804932305878697,-0.00661803718382547,0.012359230631405722,0.005795638884073444
624,-0.015272403248755674,0.000403523623900386,-0.009045463173821985,0.01341542625862018,0.0023928576506230554
625,-0.013619286504018923,0.0015897806512293405,-0.005906392023347751,0.016605561892824767,0.0043209469572954105
626,-0.012501152245430814,0.002153812243583152,-0.0028963445545952993,0.019265328197674216,0.005409498954848819
627,-0.013314187441416912,0.0005726947623623252,-0.001735517859426675,0.019913408340152962,0.004029547113269917
628,-0.011347966806521321,0.0019739111758304336,0.002399628435905675,0.020421321751236593,0.005445667949951825
629,-0.006403395348999821,0.005504242778720513,0.008855567250371623,0.021791999662927986,0.008437171823278857
630,-0.004827475899978503,0.004039662914251788,0.010399862478997135,0.021931729956285468,0.005948410095905217
631,-0.009853459073160235,-0.004527635516005652,0.0039168517137914294,0.01917463940887974,-0.003754344801715549
632,-0.01618470795943797,-0.013012677564392207,-0.00440083395929171,0.015232277967415844,-0.013277879246245159
633,-0.017769996444936813,-0.01500843320542216,-0.007861400076674005,0.01249430878476037,-0.016392407347829863
634,-0.014867933664459142,-0.011897403897447471,-0.006881468262664585,0.011483652517926367,-0.014789007736627719
635,-0.010852635602246847,-0.007833874939998963,-0.004832326907497215,0.01227437937861905,-0.012399967044960027
636,-0.007405681029186321,-0.0044151782686536085,-0.0025129437405747995,0.01519381459250113,-0.010125048482775349
637,-0.004514149204408893,-0.0010779636853992984,0.00090293481425192,0.01920551094917214,-0.0067856638305194596
638,-0.002375159171817094,0.002235529855620229,0.0048354707997240115,0.022480101108130802,-0.002068356505076589
639,-0.0007534057278059104,0.0052672596340000485,0.008309592478726667,0.02462743566264586,0.0033405000909545223
640,0.002424460363813383,0.009667874570709313,0.012720673482341637,0.0273009556076035,0.009850088953925733
641,0.007601132387452195,0.01604150274353845,0.01849979216548087,0.0313945417712393,0.017055885230854648
642,0.011673145781211286,0.021200663669050414,0.022333392389956467,0.035239243338735744,0.021855747228135186
643,0.012214470718008356,0.02206706588074863,0.021614738139511563,0.03729741524258846,0.02171417362867543
644,0.009092859455663361,0.01838019053985317,0.01667566974292468,0.03724693409747439,0.016455944155956803
645,0.004499514026738904,0.013233108792774144,0.011055491600264054,0.036110380087639754,0.009111710178612573
646,0.00020770314271661405,0.009042698357178802,0.00750377946252828,0.034433377457124575,0.002184666164969261
647,-0.003782400509516862,0.006010259047808305,0.005302815920087336,0.03062790948073665,-0.0040677404690775435
648,-0.006978621644746403,0.003929365198277053,0.00336679816661686,0.024332884211200046,-0.009337781518285055
649,-0.008730011515688798,0.0023519500521001434,0.0017937799651034615,0.017427096785898426,-0.013272081785701113
650,-0.009623537882641853,0.0009444281549356246,0.0006685486765410051,0.01106721944071848,-0.016199369795148817
651,-0.010969102510641095,-0.0006720530030744944,-0.0008027997259193407,0.005425032565910242,-0.0192721165903824
652,-0.0114293013026216,-0.0005644001540639962,-0.001230419645939001,0.0017521724368208588,-0.02068428307289579
653,-0.007778469891051632,0.0042392994128355056,0.0024122187336217695,0.001738297217835972,-0.01677982669895326
654,-0.0013694527837852409,0.011218008914109194,0.008501276220401694,0.0045475421561329945,-0.010271796312857927
655,0.0029154765700257963,0.014525551367586764,0.011729805059708708,0.007487456916566636,-0.007966936244164573
656,0.0046173329400845,0.014505561677731541,0.011410148820122146,0.010240104615367117,-0.009630715377404
657,0.0057193900188781885,0.01448482567147228,0.009993936708866339,0.013542288319199633,-0.011435914531740197
658,0.005641605369123686,0.013491119882597609,0.007678215256380848,0.015771836570815132,-0.013793002124094024
659,0.0042693654682838585,0.01071443016168646,0.005210101100795572,0.015678259798277833,-0.016915967492542892
660,0.0026289550671971065,0.007504362934198777,0.003548144645870847,0.014010521492688109,-0.01948959032096678
661,0.0014662095567315493,0.005210941804848831,0.002338415310627683,0.01192023721897736,-0.020392781413227794
662,0.0025014195774070123,0.005851588662036033,0.0024580822441755677,0.010948826083284952,-0.018088173130334364
663,0.006065271751350008,0.009884949341635368,0.004155296782358452,0.011388397896282808,-0.013643433115701886
664,0.009121501846627267,0.014417005236699375,0.0052564374661401925,0.010941997214172935,-0.010574037723442812
665,0.008140225505390859,0.01501100559622928,0.0028268546974529033,0.007219942712651865,-0.011617589719003528
666,0.0026324209213453684,0.010170561040075363,-0.003911932197348523,4.284820863956495e-05,-0.016783031950626685
667,-0.003878428195263776,0.004044391518817795,-0.011294923666579793,-0.008104245832928408,-0.02230913034264168
668,-0.006170360189228042,0.0029294996948131063,-0.013216102972979593,-0.012944394898822577,-0.022511350826483256
669,-0.0030976420605974024,0.008212873665701698,-0.007958848743036937,-0.013150463839485364,-0.016352538291555054
670,0.0007935062436824749,0.014924291784699303,-0.0007368321999136892,-0.012062236109619462,-0.009555729083344986
671,0.001554425147658766,0.018016231254439723,0.0027346236919684754,-0.01219169999250634,-0.007577268253210224
672,-0.0013079180860357685,0.015971471390230238,0.0007903087420114471,-0.013372169787902672,-0.01140129258708466
673,-0.006517130785149471,0.010661698371772424,-0.004846971945541281,-0.015105531632314212,-0.018102056297874043
674,-0.012601060864791763,0.004333669030944869,-0.012350608373507606,-0.017210777432405736,-0.025155473595597416
675,-0.017475253956473098,-0.0014608736564185243,-0.019714063714684447,-0.0185332402134923,-0.03160768987226224
676,-0.018386085452810817,-0.00367745258879698,-0.023102532196064306,-0.01754997708437899,-0.03371412144159912
677,-0.014554709857825957,-5.8934428164886137e-05,-0.020141762632744975,-0.014029980257542334,-0.028999239993683423
678,-0.009059873724615697,0.00646680805138741,-0.013817920636760045,-0.008974346101525997,-0.02110454074164123
679,-0.006000644223837505,0.010350180681626017,-0.009613666203686996,-0.004402883070761056,-0.01681742801118401
680,-0.006351021581659962,0.009689971064706978,-0.009443646946162225,-0.0023383470532726165,-0.018964717868595157
681,-0.008477331608874204,0.007016114029284279,-0.011275718788724045,-0.00357775495755273,-0.023904544855799795
682,-0.01019856921036689,0.005448455404856688,-0.012259665925667015,-0.007053086722244888,-0.027059552102176296
683,-0.010921260739074573,0.004589481640078089,-0.01203090668648978,-0.011233991233235808,-0.028113903385526003
684,-0.011993955168265782,0.0017466154975091914,-0.012970288418179751,-0.01595637953500528,-0.03007207315368771
685,-0.013454891059493811,-0.002551007123130156,-0.016126704872113738,-0.020917295800899394,-0.03339352840978894
686,-0.012426063959853026,-0.003181382615082392,-0.017999338646502543,-0.02426894156145391,-0.03354770756283264
687,-0.009028942690501314,0.0007722118606947619,-0.016820497972913385,-0.025567736120783894,-0.029681304983701116
688,-0.008419329076496576,0.003238487998196425,-0.01688172370244174,-0.027435119433845117,-0.02769103481737976
689,-0.011740404773344747,0.0019224900187949472,-0.019694596278474964,-0.030254212142092264,-0.029521631396472944
690,-0.014055521112288836,0.000745240729991952,-0.021364757540040805,-0.030306450463984193,-0.03078067046156724
691,-0.012271990283360025,0.0028938827939085105,-0.019802321975601972,-0.026320656678256053,-0.028222257232678107
692,-0.007767618022140183,0.00787911476987544,-0.01609506744569279,-0.01908853325946113,-0.022041296243827044
693,-0.0024799730148758973,0.01416777927110013,-0.011000787154668122,-0.01255191423863357,-0.014363876851614615
694,0.001256205261227583,0.019506022593426733,-0.006348002345308262,-0.00897744341417606,-0.007830632483069914
695,-0.0001962092002087334,0.019433857569203565,-0.006428713960835637,-0.008776185116993558,-0.006356333412878278
696,-0.0052467076154409965,0.015007837513641934,-0.01071531753092951,-0.01200366385454915,-0.00898177793353022
697,-0.006888107483730089,0.014390972880021375,-0.01216978175443082,-0.014967606299199016,-0.007500592975834263
698,-0.005232430111145451,0.017417611177613212,-0.010282219032961497,-0.017072913093265526,-0.0026896531356903563
699,-0.005384960322933107,0.0178050580116564,-0.010339618442639486,-0.01976054695723681,-0.001401669687334502
700,-0.006523340022078824,0.016729239019670473,-0.011919075003424736,-0.022049332531978296,-0.002036374116249424
701,-0.006322525745802242,0.016678546445240253,-0.012805968531221497,-0.02135773272173798,-0.0008608461924272266
702,-0.005202156976905439,0.016482683250168974,-0.01297385378651301,-0.017213586356771456,0.0008068576181725868
703,-0.0048503269732696605,0.014377435237615746,-0.0137234648684131,-0.011300084927392444,-0.0001432526463814754
704,-0.007481108194951288,0.00860072495945095,-0.01795495163703264,-0.005886862846255427,-0.0025435324970242176
705,-0.012382109715720204,0.0008409583550573725,-0.02520522807964645,-0.0020729649505822224,-0.00938522389912667
706,-0.015722778438870245,-0.0035873836813471427,-0.030238155529549896,0.0018540483108332724,-0.011814382216001857
707,-0.015946695334902908,-0.0029957995805474625,-0.031094937616502158,0.007753522604176157,-0.008215740007033234
708,-0.014089809294540756,0.00017277248464406277,-0.030301058568040197,0.009608442982549469,-0.006472457126363231
709,-0.011221840694458644,0.0039015567161407856,-0.02958378001363438,0.00964443027034518,-0.0059071225785072975
710,-0.008092285684605946,0.007431182350597141,-0.029134039912365014,0.008675036532734957,-0.003737332122345273
711,-0.004824866944532811,0.01038376174877641,-0.028262625193923554,0.004490971844442546,-0.001200124390618111
712,-0.0006688537900846629,0.0130134999965038,-0.025563728774444044,0.002087926144288194,0.0031830216542528197
713,0.0040686418580620255,0.01519956640715721,-0.02158613614390975,0.0004936687561848853,0.0063650191493269705
714,0.006860997259678105,0.014872515145220797,-0.019626119421015917,-0.003495017598210191,0.004081941944450508
715,0.008511660935022652,0.013108465119354026,-0.01859018045407191,-0.008578295149654814,-0.0007993302461903826
716,0.010067321675564926,0.011039560285194311,-0.016685439581443216,-0.011872318575685244,-0.0033988195059225113
717,0.0089094195447568,0.006331510237324673,-0.01734994482383546,-0.017200539859327988,-0.007044783877478951
718,0.006792028606201914,0.0012402885858613375,-0.019974057644160017,-0.02404858952016478,-0.011117575288835547
719,0.0056692574369622386,-0.002904142797430462,-0.022605824836546697,-0.028944252706387556,-0.014607292824313625
720,0.003578393909918244,-0.009046413399725483,-0.026625658251128333,-0.03398217535722127,-0.021847645996512437
721,0.0021549436177422995,-0.015079643708007242,-0.029477240686746713,-0.03765985385049843,-0.029473188889437892
722,0.003143410233255149,-0.01791998891384791,-0.028750395230692873,-0.03946736030091772,-0.033660898054100094
723,0.004897680389004308,-0.018326173622616463,-0.026156370426612112,-0.042179845451644264,-0.03584909067019494
724,0.006872468356526491,-0.016849114087301303,-0.022711154480308846,-0.03792537725580923,-0.03271517614148872
725,0.00923924935804415,-0.013868921507186696,-0.018857169734512878,-0.029771133306874826,-0.027551924334111643
726,0.010595147216231357,-0.01165568418229258,-0.01627039848724172,-0.02211110259216554,-0.02460637947002594
727,0.008599447817739332,-0.01298785791457898,-0.01675757891122359,-0.014811208315295268,-0.02471123023032745
728,0.004206562778896349,-0.016837210091203716,-0.019212863554707228,-0.012588392056932473,-0.028276134523964686
729,0.0017118419329295177,-0.019104557057879175,-0.01992176032035515,-0.011421633047180567,-0.02976370909208683
730,0.002026881702508621,-0.0189453070356165,-0.018044457028847737,-0.007421183041938574,-0.02768214197233722
731,0.003587571655316833,-0.017907439111450024,-0.015248439523919697,-0.0015517098786486218,-0.024935413691300274
732,0.006640754329516199,-0.01582641958392973,-0.01171886386813565,0.0024721462418187336,-0.023436044408117113
733,0.010939251689538344,-0.01275619872859282,-0.0074078624585837355,0.006682908992044879,-0.02130597234810008
734,0.01481597612241479,-0.009743482573986698,-0.0031725210317124245,0.011600206856063857,-0.018404015861856474
735,0.015848284741986008,-0.008495634437204577,-0.0012199405023306075,0.013790354991835722,-0.01734236760480979
736,0.012763115434334992,-0.010333633646466564,-0.0032107433712153916,0.014337188298479983,-0.018027754788713497
737,0.0076782404800358,-0.013897062013679738,-0.007515133866249958,0.013676830080820856,-0.01944635322720353
738,0.0027545726139074547,-0.017716822831835302,-0.012442459680253082,0.012346584003897734,-0.020945595142896373
739,-0.000582273496148653,-0.01984977556803699,-0.01623446594633673,0.011983402520619973,-0.02052211050301418
740,-0.0011395736960813925,-0.018139215601346636,-0.016877297309360415,0.008222862752005814,-0.017967711045575815
741,0.00017709936873911355,-0.01381847045262678,-0.01515813052422692,0.0043091628306777185,-0.014006681431561953
742,0.0027559673456515037,-0.007941002509825884,-0.011439041403148276,0.0028642973318964093,-0.009267674156733675
743,0.005904192333157564,-0.001491597757008144,-0.006137268320393301,0.0011907208227252628,-0.005460564355573927
744,0.006198462762965176,0.0011345670000033866,-0.0033282457117872464,-0.0005311669964385921,-0.005637243397084757
745,-0.0002981519993460336,-0.0046716612957172715,-0.007965770346062231,-0.005960683693363505,-0.014075543615236023
746,-0.013227008338903308,-0.018288382355035673,-0.02053733066255449,-0.016596681425166345,-0.030239581270899405
747,-0.024992155861544886,-0.03157515410137463,-0.03309337963249678,-0.026375171491284585,-0.04553494660399253
748,-0.02812096037679448,-0.036675426925650456,-0.03697247077558222,-0.026888927416487005,-0.05133958666175602
749,-0.02363635483991414,-0.03419545577873886,-0.03295740477121011,-0.021579840465448457,-0.048980684421145594
750,-0.015772628682560106,-0.0279069150045764,-0.025644111213776438,-0.016425843339897106,-0.04244560136949051
751,-0.006315313000574644,-0.018671132391817676,-0.016262255132945685,-0.011840685247734253,-0.0323526022914364
752,0.002351615337588591,-0.008303273184975358,-0.006084303708422854,-0.00867735582166966,-0.02195570388170284
753,0.006990603578251996,-0.0016240288042958756,0.0009553757777307018,-0.005783649740928377,-0.01645627210234267
754,0.009158352935080202,0.001109558378690615,0.0045881096284162695,-0.0015617830688923666,-0.015235395438822599
755,0.013525073313895295,0.005004205451799107,0.009118928824540523,0.005049083546277155,-0.01243206958454645
756,0.020203090093808898,0.0113708519408815,0.015136849546939998,0.013297899867079011,-0.006581622817743236
757,0.025499266273312997,0.01681406476140195,0.019483977469247384,0.019677394346957536,-0.0012366687150210994
758,0.02601173087299955,0.017183047592374046,0.019008836441653264,0.02150689106981589,-0.0005953779609167128
759,0.021464616471665206,0.011516879775657619,0.012963302213104967,0.018919942566361182,-0.005495805079769884
760,0.015017074367284161,0.003124358775257306,0.004780733769876929,0.013674397654688754,-0.012329475046892746
761,0.010216397362877352,-0.0042048025843427405,-0.0011666814027308302,0.007789187701923074,-0.01758092166229754
762,0.008804096456931495,-0.007709951749018849,-0.0034702397010241866,0.0026460083014193977,-0.019452519533360902
763,0.008547238086145808,-0.008416658279549226,-0.005133691703517286,-0.0022427341858287588,-0.019450083136217364
764,0.006228002693660847,-0.01027345790749941,-0.009339649993733027,-0.007223734096221507,-0.020825715512594652
765,0.003668791775987356,-0.012400763934575816,-0.013155172443576477,-0.009965591208651807,-0.022005460693227744
766,0.0044296708790010735,-0.011107303530000326,-0.012123236535717133,-0.008928088888699285,-0.01993185052773327
767,0.007374296011474749,-0.007860067113698204,-0.00836163177839714,-0.005772239754100337,-0.017010226362444026
768,0.009426796456633066,-0.005784360856682753,-0.00632902945847526,-0.0032730694833649292,-0.01596785096491748
769,0.008796524533011012,-0.006042824499614137,-0.007823503360347395,-0.0008229728268874235,-0.017025254199003876
770,0.0032131129960872038,-0.010633899215961234,-0.014453388174200575,8.477632754774333e-06,-0.022486144728788873
771,-0.006309203630143818,-0.018328184085496232,-0.024419811936710892,-0.0006115025487777926,-0.03175688549968684
772,-0.013221823142316798,-0.02254348579314474,-0.030460604951836813,-0.002790666532688375,-0.03765154325118217
773,-0.014871006068113486,-0.02107196136875048,-0.030520863941620725,-0.005522653967793661,-0.037269807918062635
774,-0.015119813381513072,-0.017845358159390895,-0.029689696958230736,-0.009818819109347683,-0.0348380350031263
775,-0.015404740147789994,-0.014486174630245848,-0.029381794106278038,-0.014544665104763882,-0.032490308343584885
776,-0.01338149147241592,-0.010101398479814803,-0.026887417145021887,-0.014004899454305402,-0.02966395613185053
777,-0.0070672464027229,-0.0032871114149852863,-0.019977823394014216,-0.0072263245486311745,-0.024988546341967552
778,0.002560367686564345,0.00570313858711494,-0.009383228037774013,0.0016425165274485008,-0.018408294410760584
779,0.010901733388082339,0.012394477023338854,-0.00040699338075603724,0.007360777381031393,-0.013957509069727096
780,0.015150715000748514,0.014662584349232738,0.0031991763320774152,0.008145216621738442,-0.012902852602258848
781,0.015180922323817807,0.01312861960318767,0.0012727617080285285,0.003654509663290624,-0.014167291820512008
782,0.012016630331877156,0.008313951721595884,-0.004431633666158213,-0.004620407697164207,-0.017704902244882432
783,0.008813822852431284,0.003413803953203661,-0.009816803863670997,-0.013029155824052117,-0.020678792919971975
784,0.006759023505736349,0.00042632334818788205,-0.012816274747279985,-0.02040393665124867,-0.021575440439589692
785,0.005294414883740585,-0.001362001193481129,-0.014004130745922034,-0.02599250508580968,-0.022030093319439198
786,0.005898854421011897,-0.0013158022872286402,-0.013254181281560752,-0.028813320464025606,-0.021693285197953213
787,0.009390208221712487,0.0013113395261026778,-0.01107578189817454,-0.03024380464282972,-0.019656677610300755
788,0.01387444464249087,0.005094704724180738,-0.009294575897521128,-0.027024227000241763,-0.017272440730899973
789,0.015439145396553616,0.005785613080523668,-0.010821475598211073,-0.02321770753361744,-0.018770234575343384
790,0.011529117173559708,9.520289520564621e-05,-0.017489016771892248,-0.020634949583972554,-0.027175946046113803
791,0.0053835397476454765,-0.008533604204767637,-0.02555145477799666,-0.015841518448611914,-0.03813773437435806
792,0.002209613794535722,-0.013932094175946342,-0.029618277650008844,-0.011737444397945803,-0.04489447781929295
793,0.0032774379323849616,-0.014097147129895097,-0.028919661967338008,-0.00883722137268816,-0.045560043356464935
794,0.004480967266405395,-0.013251715874355752,-0.0283639454159978,-0.007847128739248223,-0.044728950379352546
795,0.003515307041448,-0.013623005904374996,-0.030320931874997674,-0.009230351624873434,-0.04468567258439647
796,0.003253132882774051,-0.012408900719688599,-0.03129483094066535,-0.012265829290991808,-0.04255677649280796
797,0.003731579259594059,-0.010305445603747018,-0.030885552719578425,-0.013539885308178483,-0.03946352015013689
798,0.003668920419473172,-0.008822582236467027,-0.030179632960710898,-0.01209771704071503,-0.037084834193610874
799,0.005594763645517143,-0.0061786813328055966,-0.027087883250676136,-0.008127393337280825,-0.03353003549826689
800,0.011215387135260093,-0.0011016276854755775,-0.020975600907263532,-0.0003159586780318415,-0.027599355099101244
801,0.01802484283683594,0.005052637056823737,-0.014948678835452847,0.006973593906736135,-0.020581686243060168
802,0.022515615008526196,0.00949610022548265,-0.012349836081469575,0.010004340688487864,-0.015289948659751694
803,0.023613544455707704,0.010931863149993507,-0.013241706144809861,0.01032877006028316,-0.012827710295128183
804,0.02224335182603925,0.010068721107065156,-0.015282709903053323,0.008155780305235972,-0.011411415384389053
805,0.020854984180273137,0.009772283459145083,-0.015533767056447894,0.007228885773278682,-0.007510093500739395
806,0.021871289321654625,0.012782298311044195,-0.01236312671316387,0.009705972886410306,0.0007492601276531943
807,0.023022650356098198,0.016044477115502442,-0.008994866369149238,0.013033231935843326,0.008663738883395482
808,0.020879462418199258,0.016024252492547315,-0.00871839828771961,0.01633971064454289,0.01162332569209401
809,0.016405992891393578,0.01434376272426622,-0.010282283627199365,0.01822603898207106,0.011265326824837663
810,0.01074118513964019,0.011374398088643288,-0.013640194137108914,0.017030538980076924,0.008470881994714798
811,0.004616520695774726,0.006804848969160985,-0.019153193236362786,0.012733114943574065,0.0037958872902707727
812,0.0017095533851934227,0.004929529837570957,-0.022420168959535188,0.00841185166948999,0.0025047862188196414
813,0.003865946288316572,0.008867457714353799,-0.01971383409631142,0.004960688803476709,0.007709953998871604
814,0.008675579712962853,0.016452888178247742,-0.0128643462227255,0.0020405911985029385,0.01588067381874515
815,0.011883459688809639,0.022237165313200257,-0.008051167377411442,-0.0010116454784989033,0.02033006813841177
816,0.01025039222650173,0.02139641713351649,-0.010650819782621782,-0.00603923247103784,0.01715157600055849
817,0.006945064599385716,0.01699807053099312,-0.01678320065254218,-0.010089790642801197,0.011641690621580162
818,0.007648639724675939,0.01589806521587351,-0.017937464348385664,-0.009079207215755197,0.011648539222943484
819,0.013266086231866543,0.020044917898948064,-0.01156430462089053,-0.003045338304533198,0.01818708139739202
820,0.01932002996192552,0.025419438910549378,-0.003066783115520461,0.00408707240318994,0.025573815583567708
821,0.01947532981835124,0.025056764304560553,-0.000986026374805231,0.007254971972555485,0.02601982542543073
822,0.014226075464998027,0.018882715868327772,-0.005824099944403719,0.0057970959993899635,0.019627130604166522
823,0.008644868677676264,0.012317015179437547,-0.011818067358277685,0.002105493988208428,0.011976023042677746
824,0.005470046379587873,0.008521051015591124,-0.014911488455949876,-0.0024467696897104434,0.006842008865210074
825,0.006656132962323822,0.00902218516876158,-0.012225164962068363,-0.00523593247671702,0.006862633475173961
826,0.011736160996936203,0.012509917330959318,-0.004696449730102354,-0.0032812037820135294,0.010908501327649105
827,0.01663570877224814,0.015502345594951873,0.002511735006794221,0.0020084886709099852,0.014863184056713243
828,0.01813615547042506,0.015770594870388205,0.0057216389781413,0.00750242431393352,0.015622528203918497
829,0.017552462375584235,0.014601618759816372,0.006525979416395611,0.013222357805253387,0.014218258956236927
830,0.017126759152884443,0.013801394447481637,0.007464647511994564,0.02003431886388637,0.012966579598360818
831,0.016589734199304575,0.013089458402672383,0.008296015525117165,0.026861872704072687,0.01194869789190326
832,0.014805110032195649,0.011912864791536198,0.008395650725850846,0.03192259559518461,0.01093533523450986
833,0.010358951621220507,0.008660686610065403,0.0064715756067946755,0.03370061378072082,0.008547953311243571
834,0.004874846931459381,0.004813839146500818,0.0029671914011650843,0.03222442437670461,0.006071448061755236
835,0.0026002742075900884,0.005193290964514316,0.001254260839525668,0.029390017881382523,0.007804534629609567
836,0.004120793462118683,0.009366142832137762,0.0021355957261640964,0.027296991286031882,0.012773012295627774
837,0.006142513506546753,0.012446874813590383,0.0029934567234250167,0.026302665009375923,0.015629740573492708
838,0.0063132834962693575,0.01239694063049518,0.0018879933888764668,0.025169399472438368,0.014285226741360787
839,0.00630278926226015,0.011971376094343475,0.0005543815309396556,0.02414069392778153,0.012395744414316524
840,0.007738598737283196,0.012965342220772039,0.0010326886819921055,0.02408045624325805,0.012967103210190081
841,0.007928009010714138,0.01261971420752016,0.0013074268212090443,0.024002541220113423,0.013407461346511513
842,0.005263590169311215,0.0099995060341396,-0.0001342647687910846,0.02345704673067141,0.011722095952559746
843,0.0023108926298364934,0.008096250467712555,-0.0012776697694077614,0.02396249409264411,0.009962475175224859
844,0.00016426196462672373,0.0072647584791315865,-0.0016552281883314517,0.025987355695027768,0.008412814121523298
845,-0.002156981117975614,0.005964977647974048,-0.002345181041205347,0.028293481865738178,0.005996737767848179
846,-0.00403196993499929,0.005350398111919367,-0.001742994312250947,0.029993533969414066,0.004951405932745039
847,-0.004468589552318775,0.00680195883099711,0.0016583197407169237,0.030610222080481756,0.007367241502876401
848,-0.005087013760260661,0.007949113856365748,0.0043616364531306176,0.029114187265606672,0.010057529527406132
849,-0.006707586947108578,0.007877721072670832,0.0037785748179997186,0.02568166243363586,0.011046610020010488
850,-0.007013312234283241,0.0100587973881256,0.003266932448974151,0.02225370729646386,0.013546126604696965
851,-0.0048354133253709014,0.014893979225763201,0.005401197650368066,0.020284971638646957,0.018281057464544902
852,-0.0031812092465557345,0.017424310672715118,0.0069692868403408645,0.019238080096809152,0.020898150997023888
853,-0.004872360758662251,0.015106057429299095,0.005088390475631831,0.017642629715029903,0.01971834616999996
854,-0.007255092240645626,0.012011732233193174,0.003221187382344952,0.01640720116317025,0.019200527858716756
855,-0.008316823127258769,0.010482115591502797,0.0037760240440904637,0.016918693243761353,0.020352134129141435
856,-0.009102836132839359,0.009203671655127263,0.005311323258942007,0.01901813887973497,0.02012561634392484
857,-0.008513663244355771,0.009555935329725745,0.008415184551533778,0.0225145326753554,0.01984997900830151
858,-0.006297877773251842,0.01219744810881348,0.013103582969696895,0.02609324632170792,0.02128747893915948
859,-0.0057523659028413665,0.013382883478190789,0.015661996937618713,0.026985791824981335,0.021513997898423058
860,-0.007588754486680773,0.011566565430093108,0.014463421106336855,0.024655242785474513,0.019206532585730345
861,-0.00856145647765804,0.009721483107640056,0.012228276791121652,0.021834451351950054,0.017084115644294694
862,-0.0073026760069962535,0.009523557128269291,0.011109373130702944,0.020464936475486462,0.01693119008152014
863,-0.005595937519478778,0.009275273612020197,0.011201213994966264,0.020440069185803118,0.017699771277158965
864,-0.00606776505050544,0.0062071592279682435,0.011223451249611202,0.020843598404818992,0.016423945190412206
865,-0.007385677788723717,0.0023060719195958927,0.012197707146541625,0.02150619501405732,0.014489086269145385
866,-0.006134137535219426,0.00188483363456037,0.0161969858536806,0.022628343480057152,0.01615003938935968
867,-0.004848703240235331,0.002303744786520531,0.01937907394018911,0.022747637869822653,0.018497175673848218
868,-0.007376382633238673,-0.0009959320027843842,0.01568931558794409,0.021005171427940936,0.014969753613281532
869,-0.014091092412116075,-0.00878572168830166,0.005598617146569534,0.017736576377026456,0.005825100384155199
870,-0.023207686173355377,-0.018805481074554254,-0.007909365112153663,0.013347702053584692,-0.005511165494488254
871,-0.028808821573119356,-0.023971580734867,-0.018194502455897835,0.010312485851332983,-0.011867674088232631
872,-0.026103154029247205,-0.019154753115069843,-0.0181224407683443,0.01143758496963708,-0.00701625876025032
873,-0.017625979508665904,-0.007451351680849583,-0.009378300152432352,0.016210150609194472,0.005272752418073548
874,-0.008809221746705793,0.004909018255302969,0.0013923055260051174,0.022008073243875007,0.017677473857165272
875,-0.00343126085720553,0.012299573164362703,0.0077902094813652395,0.02706460423131887,0.02391381950010101
876,-0.002264980540002369,0.012877943409800505,0.008264837510046572,0.030782965394164488,0.022679128728364053
877,-0.003300228015189043,0.009423214093243492,0.004964615236848416,0.03271157913603331,0.01676210012636716
878,-0.0038514716466271784,0.005731333476595004,0.0016663964581403862,0.03313546243525151,0.01009515379447496
879,-0.0029665281491156213,0.004010883619725064,0.0005360067252698664,0.032491727600723365,0.005091533378379382
880,-0.002233082670592579,0.002692086295106652,-0.0011485157671031984,0.03034119850698158,-0.00045631493184262426
881,-0.0011356642104752132,0.0014516999358701323,-0.0036475587866878338,0.02804964040759905,-0.006173373141699105
882,0.0020232537618246798,0.002409065077752018,-0.004520529676262715,0.02789789701538874,-0.00907293044915544
883,0.005913549366097889,0.005245780366454404,-0.004096719184727818,0.02953125994165449,-0.009115818203028182
884,0.007946570209191437,0.007320907173573449,0.000120635058148446,0.028325894437043923,-0.006419849588456344
885,0.006755636094303535,0.00680290125771208,0.0032301879870303106,0.024492579565736996,-0.0055480434034446465
886,0.004869313861694774,0.00644782268773816,0.00532402231608286,0.020999378898579852,-0.005591599018722059
887,0.004966764897179743,0.008416203490906072,0.011057846051093043,0.01947073388079949,-0.0029586195176653355
888,0.004923486224097491,0.009176815147777639,0.0151999958589378,0.020242924516747134,-0.0017570781249430407
889,0.002443586523815287,0.0060148569278885,0.015978440167294224,0.020051738825234717,-0.0035166425840361397
890,0.0004203894715365157,0.0028978781009337986,0.0179362764781387,0.017836839603447983,-0.003996281111582297
891,0.0013209567550593198,0.0030352351480453506,0.023516888617545955,0.014504726074966983,-0.0008737007897096594
892,0.002168330662297954,0.0030752871711169326,0.0272392116504341,0.010889746534098846,0.001986916461496892
893,-0.0006566761511073651,-0.0006339724877105671,0.026333394143661617,0.006007306227356742,0.0020905832181814157
894,-0.007409138045354699,-0.007870732178404189,0.02174338864208497,-0.0002182009639506668,-0.001513513479985377
895,-0.014329748927210296,-0.014524403957654896,0.017364549949350175,-0.005539891991770238,-0.006588311897310573
896,-0.017127838989099125,-0.016460877686947283,0.019730965231195545,-0.009811827073713529,-0.007550792632941885
897,-0.015351950709368472,-0.013649733819122094,0.028045569768899686,-0.011012581148174662,-0.002699825771273088
898,-0.013315012249882909,-0.010853732220481183,0.03681354377581297,-0.012698546408321234,0.002900458897537185
899,-0.01548816326405069,-0.013510377072436235,0.040462614447552135,-0.01695124537930112,0.003699997214449715
900,-0.02003961605647466,-0.020444738669409452,0.03426783858428852,-0.017598352426302217,-0.0001044159237929725
901,-0.02261126547725353,-0.026886602805259126,0.027117606535816376,-0.013557965766913233,-0.004236864018743599
902,-0.022371888444591925,-0.030889744988127563,0.02313778921490452,-0.007503407498501948,-0.006847662184439659
903,-0.01928051821421871,-0.03106574614556801,0.020601592070626777,-6.095832527859342e-05,-0.005982021413955608
904,-0.013204100986976339,-0.026797093127695047,0.02334995565321024,0.00690589796012056,-0.0003031890294442151
905,-0.006364514945621566,-0.020510773945237957,0.02761978370318247,0.013455994434038823,0.00723569533050649
906,-0.0020477097238442484,-0.01587415095105509,0.027905233813426175,0.018204086025977072,0.012475099691177634
907,-0.002522138399314553,-0.016157945363950293,0.022165422376660394,0.019173731018509596,0.012371644648245713
908,-0.006334959370449032,-0.020432440887388718,0.014745858425217636,0.015963618234103676,0.00829351821532041
909,-0.008790463686378615,-0.023315626597736096,0.009049995867765455,0.01194466336305158,0.00553521796652328
910,-0.00863498293028822,-0.022992124579350803,0.005993662410562841,0.00859503965172264,0.005649341400082776
911,-0.00923723056693525,-0.02353863811856728,0.003129716498692142,0.0046227499934256705,0.004104651275947032
912,-0.01156460701431183,-0.02678592744193688,-0.003988624347534304,0.0008288539532000074,-0.00113949403766542
913,-0.012465333009090144,-0.028881378173483695,-0.011704466206570932,-0.002164722811557543,-0.005408553784947149
914,-0.009789889880727138,-0.02671465490542486,-0.015232051102034794,-0.0037243772454890944,-0.0049229516925516055
915,-0.005118410164333395,-0.022057567864493928,-0.015697791903443017,-0.003924943455334528,-0.0015659970143575336
916,-0.0017943168737409127,-0.017545978095426042,-0.012310984433945259,-0.002510868381973736,0.00019400528595107984
917,-0.0007214696098960298,-0.01515109880538137,-0.009418264865358838,-0.0017876914764127898,-0.000320617439891785
918,-6.798232554694476e-05,-0.01390597375624031,-0.006990263711291397,-0.002059878184629811,-0.0009923550095105838
919,0.0003923117227318434,-0.013290192797527169,-0.002579972733393391,-0.0021921776265631018,-0.0016678225759055876
920,-0.000849293275634049,-0.015003248612456457,-0.0004579428446934831,-0.003978624183452845,-0.003054033121618801
921,-0.002943523562525621,-0.01680160298782903,0.0006670542999558301,-0.006403834737725758,-0.0035781258524762243
922,-0.004372015268430104,-0.016427479245979325,0.003160860033737681,-0.0075979885308909,-0.002101841336574402
923,-0.005868402076448206,-0.015808375171868956,0.005586625205185874,-0.0073836027012101815,-0.000712417201095686
924,-0.008193897946581137,-0.01629067550757958,0.005235065093130145,-0.007604344012486981,-9.003980037887706e-05
925,-0.01169782559085931,-0.01765238861016921,0.003105251279421131,-0.008798761657029525,-0.00045280007464564064
926,-0.016036727864371034,-0.020455643688173177,-0.0003706819582823221,-0.009688622138186768,-0.0030545668364660513
927,-0.01915717453926952,-0.02283410843381995,-0.003925284588350306,-0.009605691166759175,-0.006452529771963436
928,-0.018902706507717956,-0.021398180382059845,-0.003096399554640624,-0.007616882085893189,-0.007740090097935734
929,-0.01520048535938177,-0.017065864137601295,0.000896672819598662,-0.0034925814166273566,-0.006498920793188517
930,-0.00965805771163174,-0.012532495603403889,0.0044395645213615356,0.0022134427818972834,-0.0037840520343577592
931,-0.004463361731418366,-0.00885452768435493,0.0060102958975945565,0.007828329327567999,-0.0005706204246108462
932,-0.0008212032358884748,-0.008021741534574502,0.006833331519447363,0.010976379718143876,0.004795855645135095
933,0.0011062143796221266,-0.008872187544186927,0.007510492056774402,0.012582623623132885,0.009742099906547827
934,0.0004973824245175308,-0.01161410568503053,0.006536837155224981,0.013116198241402534,0.010804629948273657
935,-0.0023462373473803946,-0.016289663651324664,0.004195658558266596,0.012073846354072871,0.00883167868889593
936,-0.005736326441090021,-0.019888696728095668,0.0022298284605399457,0.010831932327252691,0.005438144145743225
937,-0.008462551872722962,-0.022357392020105452,0.00222322594040717,0.010936841553030548,0.0032831696220611993
938,-0.010536290921149154,-0.025638488983072773,0.003925484079565782,0.012910972492656062,0.0028441950976063482
939,-0.012688760015640746,-0.030553238742156215,0.005605790410136804,0.015503433531610126,0.002585784444439143
940,-0.014903099946335234,-0.03504614326092208,0.005779976015834495,0.017527552298553732,0.0010189529296729394
941,-0.0158091592618181,-0.036648449827276885,0.005065644454640557,0.01867754010558398,-0.00014408887692498866
942,-0.014767767994316854,-0.03493283438917148,0.004523043656958376,0.019530655765342866,-0.00032383916413229
943,-0.012822120220734099,-0.03161242124192934,0.004248799818630673,0.020242810679814233,-0.0006772377815025423
944,-0.010432571246447954,-0.028199864888810846,0.005569520775099684,0.020999403652412298,-0.00015370073045092896
945,-0.005961866114400517,-0.023069045042375017,0.0112237611916579,0.023653521056475647,0.003246946866682358
946,0.001616824877042625,-0.015273100493960622,0.02176457434469099,0.029221732526507515,0.010287068468044535
947,0.009443105906317053,-0.008406994972275811,0.03315152506059353,0.0363168297630423,0.017321565538231814
948,0.013486115317435567,-0.005013472218707635,0.03680071073597881,0.040073716333118146,0.01670304141871426
949,0.011663742389546417,-0.006228996640619928,0.0323497152730641,0.038155673512071275,0.010418105206634228
950,0.005767600787157945,-0.010498856448304408,0.021609387339156357,0.031084653000016404,0.002145487878205873
951,0.0008321953549275217,-0.012541321204845152,0.008579989322697639,0.021824882598704243,-0.0049852228924073365
952,-0.0010644200776587349,-0.010568539068756436,0.0006920609325734382,0.01429694960492473,-0.00688741475059286
953,-0.0022738380781243002,-0.007877618179208382,-0.004673889393620481,0.008227271693351164,-0.008568923969252636
954,-0.0049263977000781195,-0.007744927504766155,-0.01264228935817525,0.0027684139427273306,-0.015261191369841302
955,-0.007929897133158946,-0.009291663384357076,-0.022138157790298048,-0.0014223174225788103,-0.024892727324303355
956,-0.00810264819454345,-0.008329584871835669,-0.027033051906982315,-0.003079041957086764,-0.029924511398418657
957,-0.004914748399765965,-0.0034729965136614123,-0.027716380726426945,-0.003293373979498682,-0.0302246957176113
958,-0.0008548442875703545,0.002542246151376389,-0.028099681660677986,-0.0036654338078224973,-0.029761295339757535
959,0.0024890793340491394,0.007990199738208553,-0.029218019945251122,-0.004186562728194255,-0.028741540780809406
960,0.004796877170600471,0.012626997395709088,-0.03148676176772178,-0.003761332693664658,-0.02671401552115447
961,0.006569806179715553,0.01985563264471847,-0.03329963586532016,-0.002711618560613991,-0.020855215061745168
962,0.006014371368436078,0.028327254117257398,-0.03569862374747584,-0.0029172731465566233,-0.012117263525367065
963,0.0038781652878224445,0.03406935919057773,-0.03960579915217778,-0.004804731528471665,-0.004757867707283801
964,0.0047483822396886515,0.03732670005839075,-0.03725521731079426,-0.0061327555856091984,0.0035970324346903887
965,0.00936532834262332,0.0398558154812649,-0.029794869628927714,-0.00431499848571028,0.008061574576945903
966,0.013271446063486483,0.03981519155979052,-0.02403299031048413,-0.0008116754154484687,0.003162002277738758
967,0.014739856631385627,0.03721276257583824,-0.020274119797125473,0.0021352926031236587,-0.0068481572209271886
968,0.014856678568494442,0.03391827694316069,-0.01760501527144909,0.004943710620117398,-0.01731570640487666
969,0.012370760275862987,0.029130955199523308,-0.016166603064588735,0.005947027595488697,-0.02609340264651555
970,0.006273623423515158,0.023678959629373823,-0.017491462714173844,0.00412735522698074,-0.032576312805473656
971,0.00025463007428895633,0.020937489900193743,-0.020475228151125187,0.001945015355442781,-0.032722928260234416
972,-0.0004606793217497435,0.02122605008836509,-0.022860607047497154,0.0015504933596386476,-0.024085287110112732
973,0.004272730918067075,0.021830227887727587,-0.021567330101518793,0.0014172963614217918,-0.009628575666012464
974,0.009821758690551326,0.0206992470252157,-0.01666661894454431,0.0007021364134908093,0.0016627105327656475
975,0.01206572579102632,0.01791906979481862,-0.010976384562153987,0.00104719111635014,0.00356971115751041
976,0.010397488025002538,0.014579178088631482,-0.005572450708246642,0.003149387735734135,-0.0008281777975155097
977,0.007268433299382415,0.01193321711133352,-0.0007528047772062488,0.0062487596029410135,-0.006155557618228317
978,0.004630752463981503,0.010160642055771583,0.0038733859842124286,0.008104560443339102,-0.00843322165883336
979,0.003003849257523555,0.009098458145968057,0.008555786112387711,0.007193979735130417,-0.0057978867868727834
980,0.0031368413303086828,0.0107371046060001,0.009430051952079374,0.0029838719790035518,-0.002511945444562905
981,0.004791113839614746,0.0165855067549102,0.009279675208223124,-0.0019367300450316457,0.003033527705757953
982,0.005691753703357176,0.022797468279135535,0.009059286010192928,-0.0069910585618108935,0.009181501402630035
983,0.00454764466003539,0.024512253625519943,0.006590840718447051,-0.012238000648472889,0.011183684631858735
984,0.003046577561383246,0.02278295642025054,0.004766629000130113,-0.015326558528541565,0.011663734135327774
985,0.002931790899427096,0.020853184481136787,0.0036301323862594193,-0.016870036337232334,0.01121419761407863
986,0.0037390225933165975,0.019227563426465536,0.0021115804521443828,-0.018323861444979817,0.008986498675496592
987,0.004278848227244809,0.01730861581982213,0.0005583782731695495,-0.019632546186658925,0.005371717972843617
988,0.004922069972282699,0.016276350507821054,0.0016306980579270957,-0.01953172354295703,0.0037363304745195777
989,0.004973145735790798,0.015625957803040387,0.003358609737113598,-0.01901543640231298,0.0024854643915338823
990,0.002328355201809619,0.012728660721439276,0.0020818489020369008,-0.01974837809310399,-0.001603327736266258
991,-0.0016865852799615184,0.008694797018351418,-0.0011878656604807712,-0.021240537266223745,-0.006128650635209131
992,-0.003841918415973165,0.006210477609448082,-0.004619500692857298,-0.02258715382529519,-0.008682570188795253
993,-0.0030757998452349794,0.0053734137097486735,-0.006592805045343026,-0.023010884994661182,-0.008571879103084473
994,-0.0005003775502857007,0.005299779184108309,-0.00707652061858904,-0.022575268441294115,-0.007160295324618903
995,0.001520551041512784,0.004760374169692886,-0.00807698083330231,-0.02211527797842874,-0.007489294695004282
996,0.0016908912448223797,0.003130028204292689,-0.008420297769153106,-0.019249212225446986,-0.00826871467264121
997,0.0015457366408371121,0.002204060522750599,-0.007830188229627442,-0.015838023817658916,-0.008736686061181869
998,0.001507213597162339,0.0022645973949809504,-0.006879765142317137,-0.013383954542766632,-0.008841682719570892
999,0.0004941616426986223,0.001759156844837396,-0.006292637420464393,-0.011369672521423102,-0.008556782296939364
