,AF3,AF4,Fp1,AF7,AF8
0,-0.019676290028668508,-0.05861136052356827,-0.006893013710996172,-0.011324255633466118,-0.005412253286005419
1,-0.01706816818587229,-0.042149455620675486,-0.006673764844452413,-0.006211293829245067,-0.0015657494510470308
2,-0.013980748171968807,-0.025131903153121665,-0.0052996073252749255,-0.002078506429681837,0.0018788459480004146
3,-0.013464769048449088,-0.0108585367128212,-0.00554854576408566,-9.058327586104374e-05,0.0011061323734007176
4,-0.014031416832967308,-0.010334137353423065,-0.005950897884113852,0.0010383087649018803,-0.0006482060624363742
5,-0.013800865520583704,-0.0133645764256612,-0.00532531136578545,0.0018822470026558917,0.0002859315005463204
6,-0.013781047570677817,-0.015006654178053365,-0.0057677961528853645,0.001461640108671043,0.0028116467255021533
7,-0.01523896055272669,-0.020963985824621865,-0.008528880487065325,-0.0007746240818294237,0.004853072057488307
8,-0.018103748819601525,-0.024441093221148298,-0.012638962955633107,-0.004312484550811145,0.005164765176239555
9,-0.020962588927331872,-0.028049356451383903,-0.01570371971268977,-0.007480363672855184,0.003757015610706155
10,-0.023217276024271167,-0.03510415888599144,-0.016790612139705664,-0.008967691469705566,0.0005268929881811705
11,-0.02572645924484465,-0.04361419817156237,-0.017395020395765137,-0.008898071409638374,-0.004826881204083409
12,-0.027164595128806836,-0.04442480524623317,-0.01674306772152019,-0.007027763549410909,-0.008723745391019336
13,-0.024738152379161056,-0.03774610411623569,-0.012365845999475844,-0.002953945028425031,-0.006687786307873133
14,-0.019706832951456678,-0.027780379069348257,-0.006064870258349124,0.0018330209839174764,-0.00046492008522515616
15,-0.016383370727116275,-0.017537021511981457,-0.0024763028980811955,0.005129476923999858,0.003950355837907368
16,-0.01625623321340285,-0.012850257398525645,-0.003165456802459121,0.006509528216076102,0.003444884990456156
17,-0.017805569853852413,-0.009443424022380352,-0.006447478956754245,0.0068725429672551195,-0.0007472529174919689
18,-0.02033886219209915,-0.002781866437542105,-0.011454513431345601,0.006473286907213001,-0.006694434278623297
19,-0.023676066995378994,0.008452241538595393,-0.017924219911617384,0.005578351201081485,-0.01220457710513559
20,-0.026529808812932935,0.009328651663751792,-0.023680912143918823,0.00548618396229235,-0.01438129853387088
21,-0.02820935383846848,0.009315543295310057,-0.02685234175395355,0.0063865514829345126,-0.012345882933236657
22,-0.02988363792379824,0.011649067167118662,-0.02844857795388127,0.0065730612220976535,-0.008593553697271904
23,-0.031622267566357165,0.007093004080937533,-0.029231684289296955,0.005080422862353221,-0.004885652444214673
24,-0.03110055871294414,0.005845540394548631,-0.02726547600120155,0.003209063874282102,0.00017287835275886848
25,-0.028473736391453234,0.002175874243889926,-0.02284873197901855,0.0025184460152093244,0.005947482797802691
26,-0.02633952162330371,-0.011350395507475367,-0.019182988437428616,0.0028310599069237457,0.010438156059191616
27,-0.02453811045741781,-0.030175326717955468,-0.0164513781147108,0.003955796944838976,0.015427842418942852
28,-0.022868551350617845,-0.014121135845659653,-0.014200791369076203,0.006046710350762722,0.021005481898336394
29,-0.022741535403999324,0.011629263755828415,-0.013187420383387851,0.008872327017733455,0.023982859000523327
30,-0.024050178592128244,0.02787697822708484,-0.012803049230823232,0.01225995975992169,0.024013344528265167
31,-0.025629264378031882,0.03431415119611229,-0.012511212890198175,0.015946297979692242,0.023226540531843722
32,-0.025564263996894505,0.027641645786517045,-0.011271389369710718,0.019992457667639973,0.024319828058956397
33,-0.02500304604171383,0.019035895793554372,-0.010740414538562898,0.0230861224662367,0.025536254874541014
34,-0.02802606313775673,0.019913213621876653,-0.015175529584944258,0.02322863102214587,0.02107081189538669
35,-0.033391160798062994,0.022527503694556198,-0.02257255428393198,0.021442278088097563,0.012157386993976432
36,-0.03459146471221518,0.013529805919604393,-0.025456327475584656,0.020805834999415827,0.007218045762592603
37,-0.028403958996576766,0.0014228114288899558,-0.01994933863267429,0.022781029732289796,0.010408906578282681
38,-0.018315233353234785,-0.008288481396170042,-0.009506949783762866,0.025816806354953772,0.018223717069233963
39,-0.009565622635893486,-0.0196585259620585,-0.0006420688968270125,0.02728265196987503,0.025736006418159298
40,-0.005445392037851139,-0.023732252644167163,0.0016889016096726605,0.025644451230253766,0.029056559720601952
41,-0.006628375792623649,-0.025234779533015606,-0.004060595119560562,0.020813368155881404,0.025893935407709796
42,-0.010797593185109812,-0.028754373616538535,-0.014746250495071235,0.0141738202668305,0.018115373220989942
43,-0.013515110474689427,-0.03115564941763049,-0.023158874877359174,0.008713400175620936,0.011461317766067786
44,-0.012326979372425956,-0.028519377492224406,-0.024872492271455496,0.0064544070168487165,0.009559990864764278
45,-0.010492386742982612,-0.023427388252310142,-0.023505462634928455,0.005588816130903534,0.009146123017952177
46,-0.010343696131593572,-0.01741097595871927,-0.022111047288878843,0.004144626023379679,0.0076071836247575825
47,-0.00852413883273079,-0.009317012011082995,-0.01827035781735839,0.0033532293503549006,0.008225744532220905
48,-0.0035789685810293567,-0.001998081166437237,-0.011954602663445887,0.003601888812043443,0.012267830502567391
49,0.0019030153293411146,0.006062598416529214,-0.005731509190734203,0.0035561799517269716,0.01722714984855368
50,0.005664357291506236,0.016314991752305694,-0.0008643903718448016,0.0031032139791001075,0.020942798429943666
51,0.007201266487032109,0.027765612245561577,0.0017313741209853326,0.002319859735442266,0.022312173114410427
52,0.008492642777888705,0.025823068920020814,0.0031212788705843302,0.0013029360755440116,0.022830281286501854
53,0.010400601565998735,0.018978178309651775,0.0042570807228632076,0.0006133115871894265,0.02323880217716571
54,0.011486502959363374,0.013971497250374098,0.004042914444755405,0.000592654155653371,0.02217400020036026
55,0.011833104272377529,0.006032404420434287,0.0026680016856808833,0.0019031624122036804,0.019882780256718035
56,0.013524654947901128,0.003131598931203184,0.002181467460747023,0.005474302693496371,0.018452934888224908
57,0.017401762648180878,0.001194452224910195,0.003456358476192807,0.010706729709110862,0.01881505858553544
58,0.021162892184043387,-0.003981109991823334,0.0042277355238645896,0.015000791443785235,0.018841735176825632
59,0.023126426288818402,-0.009549787651256787,0.0032738780769305167,0.017207743328991026,0.017249043670427677
60,0.023674031204717474,-0.008647128672320637,0.0022160791343381592,0.018824257778289385,0.015611741003092441
61,0.024046408162699803,-0.005519034694903186,0.0031190732815431486,0.02148319157471911,0.016267538515118484
62,0.025511776920532154,-0.0031041065115748174,0.006803023137916869,0.02538664308745916,0.019589274892923496
63,0.02893313486351631,0.0007347648498620232,0.01303334431703117,0.02955538001297999,0.02459678392450398
64,0.033250607262203705,0.0017920014592301315,0.019852643528654276,0.03201589178678263,0.029179078263218413
65,0.035157849928339584,0.002072849816905832,0.02367462779121935,0.03094937155486699,0.03013764847672212
66,0.0343230957199704,0.0038287918347224875,0.024358560532253246,0.02701068516810163,0.02853673614928037
67,0.03270043404470957,0.005640363845299758,0.0233094650494616,0.02175974829307547,0.02739603435700653
68,0.0313916821894714,0.004847496416112701,0.020942469346636728,0.01643218247426128,0.027358422782334843
69,0.029900772190356,0.003138463296894051,0.017348653344865333,0.01214657072648273,0.026024539596874546
70,0.026418936704018462,0.0016233181998404152,0.011651346657759784,0.008985559732825894,0.020443829067048613
71,0.021909188069308482,-0.0005019024614203988,0.005151908073601949,0.007331491898721517,0.013159007602332554
72,0.018504108200725258,-0.001505068813727681,-1.4251966710265368e-05,0.008164835561896108,0.007364631779643071
73,0.017058319821762282,-0.0023048442817014954,-0.002456940322446834,0.011391056534628819,0.003372157806020539
74,0.018037923736034148,-0.003779142445705147,-0.0008821783658102965,0.0156369294729407,0.0016240571350481685
75,0.020575195236184052,-0.005322936506129477,0.0035680719942637433,0.019436877059422843,0.0014423815592692817
76,0.023389375280870418,-0.0061374887871238305,0.008431266280168777,0.022367416823556033,0.0017609597048517918
77,0.024562935145454143,-0.006752746212993479,0.010607355521420591,0.024216508016392243,0.00047041369706538066
78,0.021960375418107133,-0.007486236803048353,0.007119914226267567,0.024596235039135547,-0.005206732977948927
79,0.01692165947643045,-0.008104580149856142,-0.00025599964260448587,0.024106573229513786,-0.013579490168179234
80,0.014171178566607578,-0.00916218874938608,-0.004890666002072977,0.024255159145586513,-0.018351965092828947
81,0.015284734419590907,-0.010359451716251734,-0.0038875766559670726,0.025542523015652102,-0.017239528997598064
82,0.017405850778625245,-0.011417635557164272,-0.00042047555920651927,0.02727895905348759,-0.014084217663042924
83,0.01939738252028313,-0.012528176398869263,0.0037180135188135018,0.02921025331887321,-0.010670473510143434
84,0.020399839483146304,-0.008954518785138003,0.007174713233935208,0.028079340127768904,-0.007951527232199159
85,0.019590105001462754,-0.003399300749013445,0.008775532825853662,0.024381850973714304,-0.00689538654189796
86,0.019679440652952074,0.0019002488586906644,0.010769981879380965,0.020787636801804153,-0.00495367712438822
87,0.022382566541468887,0.008515180975833682,0.014116031393629234,0.017118898966086322,-0.0003275536125670953
88,0.026218708113959224,0.01398345268677001,0.017486599347584095,0.013528124692346294,0.0061849436800933385
89,0.02955932693264817,0.019552551805953892,0.02026691275406548,0.009693710279441702,0.012634609138885635
90,0.031210070622841344,0.023603421117817835,0.02165340277644165,0.005925698826424856,0.016026261268941053
91,0.030349894177443618,0.02269332839563281,0.020822356070094177,0.002638066611564944,0.014646341879202504
92,0.027166840349649914,0.017024934877812724,0.018297498652377404,0.0001513671601444917,0.009786652140956044
93,0.022921730939831502,0.010457346378479095,0.015257294934496774,-0.0023585074868422385,0.004371954710157561
94,0.020436988211321314,0.006375418034531689,0.013803658497741381,-0.00412054975331488,0.0016189036785166566
95,0.02222174471070426,0.00575903951684093,0.016116056012417196,-0.003389565894074454,0.0029580664687297573
96,0.025723226899009917,0.0071514798366094055,0.01950696108873406,-0.0023168909220087205,0.004245642601940036
97,0.025460951610772425,0.003775579737739359,0.017963710952213337,-0.0036646897445651943,-0.0010261058035261911
98,0.02088852281940215,-0.0054350726100095784,0.010928517418652842,-0.006769254005827019,-0.012592783069602532
99,0.01747793511944602,-0.012544070993740436,0.0047836106813520666,-0.008860447546582023,-0.02221604591838797
100,0.017719554773334038,-0.013735238007619206,0.004728197248254524,-0.0028691034005590772,-0.022669491685520595
101,0.0200875478007055,-0.00998355923498466,0.007759575297101903,0.004486775080944571,-0.016466897540277997
102,0.021814223908835223,-0.005415507148894443,0.009081749712299525,0.007961423544351151,-0.009783030075375641
103,0.023582656447806907,-0.0012033415291355589,0.010290370775539974,0.012287591432542943,-0.003082078255590788
104,0.025483222960331026,0.0022410627044119184,0.0112944263201717,0.015403332744388374,0.0017978362926157746
105,0.022533811433892846,-0.0003760911020324371,0.007275134522730243,0.015835638512762498,-0.00015909135731871432
106,0.01461332240804503,-0.008140506571975018,-0.0012417791704632613,0.015003938623046447,-0.007261505829789519
107,0.007688478934489582,-0.013662033039707184,-0.007676204461966173,0.015703985465149065,-0.012264088121382176
108,0.006840826695349362,-0.011369554488991265,-0.007240159268723126,0.01774167006979974,-0.010946391122290889
109,0.009801137345783792,-0.004796693320333821,-0.0016026112732456142,0.02206424347087245,-0.006158909366019286
110,0.011025255708678215,-8.783717353252402e-05,0.003764971158370754,0.027023885359557503,-0.003808674481126302
111,0.0083150003710994,0.0009220476454059374,0.005727299711120937,0.02988214145271861,-0.0058239598291958666
112,0.003446073724259364,-0.0002361820087786568,0.005883903942062424,0.03296775751841494,-0.008523755284282121
113,-0.0008794573339390976,-0.0006751202828832537,0.00659481044675075,0.03622293734139463,-0.00878428968283061
114,-0.0053058793601110455,-0.0007803165215998149,0.007125602678579581,0.03894667228853056,-0.008203256071481448
115,-0.01025935235884836,-0.0005292066221348552,0.006886537579307592,0.04245727203519962,-0.00779379784785314
116,-0.009404176466977955,0.0007137060552615348,0.006839696688608218,0.041082619576644955,-0.0062841781772980075
117,-0.0060654383626120925,0.0031832951027878516,0.007143854822495409,0.03715935380652811,-0.003269234432433687
118,-0.0032428377004934798,0.0060733246117683605,0.007365369687525577,0.03292023144958445,0.0007183299944722655
119,0.0015331524722904885,0.009019539951581945,0.008210587154988916,0.027190289042384925,0.005304225167642782
120,0.0056534724254727045,0.012234028017689006,0.010629663074056852,0.02426562833579427,0.009300006607881512
121,0.008577551998093236,0.01295148495502655,0.013396807476763644,0.02290107865969617,0.010067951771299944
122,0.008975016308567946,0.008014795704766623,0.012830270337845822,0.019456632927842752,0.005049614179004235
123,0.006513496830350171,-0.0006016887991234555,0.007856390378179421,0.013059598192234541,-0.003927871383712916
124,0.0037485667203968134,-0.006383175730524449,0.0030685873901353184,0.009195961388095418,-0.010720600800629117
125,0.004639740231887786,-0.007991071359418333,0.0010896705526115887,0.00881148122673508,-0.013557455731966874
126,0.008203638783321449,-0.008212468751978954,0.00031720892247349416,0.009714289739315374,-0.015230549302713283
127,0.0113910137877968,-0.008620930548630584,-0.001128721626384856,0.010987117681439968,-0.017763292139286034
128,0.015787981455134444,-0.007370542800019112,-0.0032224244582854393,0.01039662053835926,-0.019842757685287548
129,0.02102870681295007,-0.00549338662323838,-0.00449631434566593,0.00939059670369677,-0.018519063477336242
130,0.025560517237340017,-0.0031707745156953045,-0.006170088317557814,0.0072957782129006365,-0.015516918156943789
131,0.02915761053616765,-0.002428725947245351,-0.008483391041957975,0.00321706450022641,-0.013374677054890708
132,0.029349319206369868,-0.0016170941582967216,-0.007675352130268374,0.0012794431175893572,-0.00988021996403416
133,0.029121902027007204,0.0009733129507440098,-0.0034918689130693905,0.0013988512508119797,-0.004363227457332502
134,0.02856395979760395,0.0030588376098135135,-0.00017704326845544266,0.0013941787422263562,0.00016809923261183862
135,0.025288815315019492,0.0028725060082028793,0.00033338295262061126,0.0015123874758101248,0.0022679973280872435
136,0.022498585639678832,0.001831642017213354,-0.0004289869980470454,0.001899247653859442,0.0025828832096951963
137,0.02063742991261285,0.0015075604464859793,-0.00012130508461639605,0.003164030546533858,0.0030362446955662227
138,0.0186201911698349,0.002137765748722592,0.0013128201598532933,0.0045789668039232095,0.004427418565664544
139,0.015733925810491003,0.0019388347834147128,0.0016909202697043665,0.00492915370821603,0.004697728697342389
140,0.015472509397171673,0.00207243536890871,0.0020208993388724926,0.0042574618175683894,0.004917041543964418
141,0.018659515337383116,0.004856958350680511,0.005429841695876796,0.004669834815862683,0.008234702034265002
142,0.022125955222283108,0.008097661611299751,0.010555588591712049,0.00608037788695843,0.012008390982929528
143,0.023915137800493362,0.008926758484850642,0.014273842549933646,0.0072233312371804,0.012178327430560838
144,0.02234171281220633,0.006072497588041141,0.014887844738396674,0.008515343170874903,0.007606371298443864
145,0.017328927620152177,-0.0010935962660311208,0.010952608157649193,0.008914081615691351,-0.0016317474740345156
146,0.01110384468708322,-0.00941235062836405,0.004564469114259311,0.007797349614794251,-0.011383021096789691
147,0.007492420831548439,-0.013588178202114456,0.0003785828819659479,0.0060718174744656475,-0.01594571473175384
148,0.009849066827666791,-0.010879831170007645,0.0007099900070945503,0.0042338974948854585,-0.01398911075441161
149,0.015992569692003713,-0.0037784974365679107,0.004697310987479592,0.0022238726029681286,-0.007886043486102792
150,0.02222977147798766,0.004448095798325671,0.010213617166445475,0.0004866106234064906,-0.0005070364837857568
151,0.02597138996925588,0.010863168037541735,0.014475841658701603,-0.0006630895094894906,0.005043097834847639
152,0.025042946461176552,0.012524476561681253,0.01474392134366146,-0.0019646588453409194,0.00625188497364092
153,0.021978620536471687,0.012702075847599177,0.012868949773330142,-0.0041423785343668255,0.0061848294630263865
154,0.019949257210308536,0.015382223575279097,0.012186872727141963,-0.00759064729658513,0.008536126067059164
155,0.017565886447906572,0.017365668858706218,0.01098901916815888,-0.011471397451829327,0.009861721014091208
156,0.013040494624746006,0.015491867561426073,0.006947817828701167,-0.014169256241601688,0.007133958577172553
157,0.009251741135263277,0.013426768090892825,0.002480325826299208,-0.014717777867670395,0.00419593056850245
158,0.008861346495157275,0.015577317751612259,0.0007601750132590468,-0.012976544326004723,0.0050268285502918075
159,0.010032013891891579,0.02033762553881091,-3.8871390509821556e-05,-0.011053698521526953,0.0075474379931830225
160,0.010751725729018523,0.023924398044244854,-0.0025084683946540397,-0.011359536352417994,0.008295256527834492
161,0.010686411966604994,0.025355478362176238,-0.0050761730074882225,-0.013483764035065684,0.006611968902458611
162,0.009268597367311908,0.02490168285297086,-0.00617599694774724,-0.01598990604940223,0.002275744668983327
163,0.007108642036498667,0.02414920014697512,-0.005624397681513192,-0.017778180215871235,-0.003390588071412528
164,0.0067324871383542696,0.022392484304795988,-0.0025040997948959968,-0.017489219367348652,-0.007190111755837883
165,0.007880279140299698,0.02134398903192339,0.001650152691649577,-0.015573824149833939,-0.009200661709507054
166,0.007486513074818728,0.01929352288598273,0.0035233854891155553,-0.014357390480208114,-0.011689957117850149
167,0.00452519971189282,0.01389289694642832,0.00316141188132555,-0.014485307271602747,-0.014404135466802463
168,0.0006984324172918715,0.009134404203449556,0.002772896478047931,-0.015177671410323178,-0.015530729608708093
169,-0.001604907923344195,0.0062632523668278385,0.0034857989681247375,-0.01613115374984193,-0.014309358538787535
170,-0.0018305334787197722,0.004048284361633651,0.0043855199961886715,-0.01756139914155943,-0.012163686888628076
171,0.001410590194581139,0.004494814650781832,0.0070988531790934445,-0.018509601664977567,-0.007603627670448585
172,0.008499630100974402,0.010057040804690056,0.013237174949710622,-0.018647054804942387,0.0006077521174287384
173,0.012964109509237414,0.012700914719098916,0.015823199299104328,-0.021616260360322524,0.00513100233855349
174,0.011345279966617225,0.007864860948775788,0.010350231252411293,-0.028343941203917554,0.0017233378557777283
175,0.007006148439104114,-0.00034486082382534334,0.0010844686401049158,-0.034887608702498865,-0.005800612870098651
176,0.002125271622686241,-0.010461573793777717,-0.00809339292971568,-0.039720850086512154,-0.014172601350442895
177,-0.0017421073145704113,-0.01953047819330796,-0.014000172779570013,-0.04307744592266059,-0.02042834139176837
178,-0.002272165825750715,-0.02409449621331821,-0.01340624402692915,-0.043877990715262084,-0.021640491464235797
179,0.0006396772376072577,-0.024428975695711265,-0.006702457722953723,-0.04178400586835384,-0.01838021121202322
180,0.0030303443765352833,-0.021696890620231245,0.0009347718784235894,-0.0389061547869487,-0.015367581308196357
181,0.002945403223432956,-0.01959521064921785,0.0058435176485786096,-0.0370272587503396,-0.014263541120110405
182,0.0035281261544674422,-0.016532053963238615,0.010057346739713709,-0.03528525202679063,-0.010681688628924487
183,0.006329178115146148,-0.009949749845317886,0.015778159406054263,-0.03262418446998147,-0.0022877144259541627
184,0.008892782177687901,-0.00433100104079976,0.02104925838438558,-0.03001925452518264,0.007138523176365035
185,0.009641441254886016,-0.00155267014645266,0.023215428324974915,-0.02847586826422123,0.013737958123945442
186,0.008871662564699501,-0.0006605975871015989,0.022050765894006227,-0.027833150645990866,0.016717820460396222
187,0.006048471141583071,-0.0027723002980907475,0.01800284428454257,-0.02855723134680971,0.015280231885161057
188,0.0018798200467423176,-0.009044184954699677,0.012839464589940466,-0.030939972068652136,0.010185511718765188
189,-0.0024917706155593968,-0.017285210014818617,0.008030659781158677,-0.03430014695102088,0.0030361090509090248
190,-0.007352565198084262,-0.02710626423618897,0.0026115254642740237,-0.03749834660655165,-0.006239088593375583
191,-0.011822176952715582,-0.037784233210770006,-0.003705010434404986,-0.039339981886612294,-0.016665895437224146
192,-0.013281183146846051,-0.04162640692117957,-0.008539743482622852,-0.038892338680438364,-0.02460107073539
193,-0.00942067718446758,-0.04141864476311895,-0.00844848682596585,-0.03500015978959892,-0.026065980316931657
194,-0.0017478314610506408,-0.03606461902897035,-0.004014055166177364,-0.02813583643016728,-0.022227636691792323
195,0.005022380557580848,-0.030863892487699746,9.856334241421397e-06,-0.020959684208586467,-0.01897355728176685
196,0.008073838822008053,-0.029259683550057067,0.0006508192218121617,-0.015171913910923415,-0.019664775130708783
197,0.008027932190003738,-0.03043299329977459,-0.001521013461889262,-0.010691282639428529,-0.022841453100178537
198,0.007798356461495472,-0.03058957662281576,-0.0036664363264498428,-0.006952227087106506,-0.024261666333301797
199,0.008390716390942606,-0.028964342310929474,-0.004896576729940801,-0.004423826906503053,-0.023126020549501768
200,0.007829082359561668,-0.028867118024808822,-0.006473035069391051,-0.0037813307628521745,-0.022916422577011004
201,0.005097928659460536,-0.031598354439803106,-0.00778185971327622,-0.0035068797395865184,-0.0249554650728075
202,0.000679555982391621,-0.03636369069374882,-0.008294270575591352,-0.001603779295515984,-0.028281492394603303
203,-0.0028645444297549848,-0.039849612639335244,-0.007298569385815048,0.002489009791290711,-0.02993024744998069
204,-0.0022917445005273605,-0.03831208459040182,-0.0030150267215850886,0.00860875298089524,-0.026861682178462597
205,0.0012242888550683488,-0.03391963771351593,0.002637676865868127,0.014931483845541214,-0.021274045048142017
206,0.003998704398437487,-0.030905533965128743,0.005649010901530167,0.018622191094443522,-0.01700704249342893
207,0.005217104289154388,-0.02991644897156725,0.0055507196388554746,0.019133742880153966,-0.014425640937403589
208,0.005734745422108524,-0.030160903284666994,0.004062376705231433,0.01776668973492514,-0.012658214568895928
209,0.006109880683956259,-0.03070351192434047,0.002475353074822281,0.015893375846447188,-0.011431177241436058
210,0.006898617080524787,-0.030549102163477622,0.0018298410004669438,0.014964156569222635,-0.01066820014473725
211,0.0074225915720456895,-0.03051321005209533,0.0017300170519163535,0.015519075184976134,-0.011001972105705948
212,0.006741370564586384,-0.03068959010330617,0.0008022118439252533,0.01714352449941803,-0.01247091440418122
213,0.006960309326737842,-0.029188120668743503,0.0006515268919918864,0.02007047930036229,-0.01237665549636091
214,0.009931726408643538,-0.02543152538823688,0.0030217906350428663,0.024026919240538406,-0.010118381564014482
215,0.012554019422417299,-0.023391848415039728,0.004304857720739526,0.02680843963908078,-0.010466073954354563
216,0.012182394021693467,-0.025989094027199025,0.0015291714846965,0.027167267886200882,-0.015691430927641924
217,0.009900089744920086,-0.030503729075462237,-0.0037373155281115876,0.025795747534526722,-0.022989580389667325
218,0.007255049931749917,-0.03434820589931477,-0.00915992058235034,0.023811765650885452,-0.029547674715882665
219,0.0055121516554852085,-0.03674667054628589,-0.012520771240548552,0.02274298738974985,-0.033719472688506086
220,0.003867680605775356,-0.03892247229433153,-0.014594657529207862,0.022396932442965603,-0.03607979642115525
221,0.0014802382909102762,-0.04031867797296205,-0.017280138313948475,0.021311455771106675,-0.037036682211963746
222,0.00024497224586726495,-0.03911705084590566,-0.019427636308479407,0.020089579051909147,-0.03563004799829046
223,0.0014146636949999996,-0.03574497350989448,-0.019786641773511516,0.02022256344360596,-0.03223514956631179
224,0.004165231883007996,-0.030754498550535563,-0.018696958456676266,0.021824974063701954,-0.027529460695192957
225,0.007052261583574158,-0.02592257384047441,-0.01697321104778723,0.02451250739696262,-0.022919948123321786
226,0.00992029726861582,-0.02209411729455357,-0.014257056613555164,0.0283415355877864,-0.01937514042150013
227,0.013608916310346043,-0.0177143936095245,-0.009772481385149084,0.032962388935636945,-0.015521855993355751
228,0.017936319684611384,-0.01289570969332245,-0.00411157710356208,0.03747520578903275,-0.010131450995395972
229,0.020046176196905855,-0.009808330264466236,-0.0006979482048375161,0.04012424267633416,-0.005898600032611801
230,0.017446809306386833,-0.010912027541278077,-0.0023676441097224116,0.03974691910169508,-0.006166445379818857
231,0.013249219784762054,-0.013414720840549609,-0.0051169737823966496,0.03855315978131422,-0.008359682951858221
232,0.010362916728194276,-0.013958988667923968,-0.005614486562370772,0.03814606562577502,-0.010261148747334454
233,0.006792443329893598,-0.015323386342528642,-0.007198850431251965,0.036445561563128906,-0.01419382938990394
234,0.0026387405561002783,-0.017880853738104253,-0.010310147720825348,0.032770899502195104,-0.018805659179814836
235,0.0008480053548015035,-0.01769582268819301,-0.011053183149260374,0.028647716400839456,-0.019185716323575405
236,0.0010915602396815445,-0.013550498527337532,-0.00957603597785468,0.02403191238354685,-0.014877768238105627
237,0.001359006519068293,-0.00846885476668381,-0.008564318889323864,0.01877733689008186,-0.009189621822988428
238,0.0020035825765531267,-0.003641861032757068,-0.007665392283606751,0.014197573794451752,-0.003700754283258095
239,0.003443951613752405,0.0010418138788830982,-0.005780619421486511,0.010799741147754905,0.0010101758580663678
240,0.0038776571187023505,0.003171218268309815,-0.004038637492988617,0.00798460158604789,0.0026925193495393484
241,0.002937821493240615,0.002827882782930552,-0.0025797265840567657,0.0059113234466546885,0.001240325341608025
242,0.002868357682824118,0.003185886259936288,4.897542893025577e-05,0.004993247827303585,-5.3596912206040996e-05
243,0.005101820887360423,0.006062450992795893,0.004650842735089037,0.00487972204627376,0.0013946622606072726
244,0.008943185504213922,0.010854179022526226,0.010798537372703972,0.004834959805308447,0.005472255206000086
245,0.011574921072787644,0.014869980739492458,0.015062229498140529,0.00368693952215535,0.008487728085114742
246,0.00996835351437035,0.014657694540334037,0.013187523166098355,0.0006880078590150426,0.0060340033247606555
247,0.004551650690642246,0.009945087114393254,0.005573403512409991,-0.0035090970110114045,-0.0012467206086345356
248,-0.0011504811510120478,0.004767812970926477,-0.0032051261359014303,-0.007903652018210208,-0.008098065422185214
249,-0.004068501018699813,0.0030596041083371635,-0.008770532568224637,-0.011876493747934947,-0.010140596532708846
250,-0.003227005372752781,0.0057048841511002256,-0.00907153589647954,-0.01505587550412112,-0.006978917274059157
251,-0.00018063435155066766,0.010627568721905593,-0.005535298538052381,-0.01783881925779325,-0.0017758523849376931
252,0.0027279242671736145,0.01551695817108324,-0.0012212701805985608,-0.02047427533270123,0.002727470536677553
253,0.0052181854110450905,0.020298740015050082,0.003133792449208861,-0.02147315200910536,0.006972194322424969
254,0.00810385911309354,0.025931413068114775,0.008011077418020878,-0.019937621831086525,0.012599915977614742
255,0.01017902796960183,0.03140664719407489,0.01154805146681345,-0.017896382113732595,0.018633415689058984
256,0.00971236853309811,0.03445637279006126,0.011718959501159565,-0.017107336299428632,0.022235147348886035
257,0.0066097160947497305,0.03376644626394995,0.008345100200950917,-0.01734313666350572,0.02127628442467194
258,0.0026905859569652914,0.03058859389652105,0.003203319512344492,-0.017599560451400476,0.01651277564277148
259,0.0005016365714853997,0.028203611672188336,-0.0004910596457162978,-0.016947243952107394,0.011777368800696067
260,-0.0009209838962486434,0.02610119703664374,-0.0031020925861868828,-0.01612094721661396,0.0075642976560221535
261,-0.0029375500717637336,0.022740441208069728,-0.005905492890017984,-0.015323640361790137,0.003338727216820978
262,-0.005183889660302695,0.01870535127126794,-0.008586076680085535,-0.013844794637200673,0.0001594000199754272
263,-0.007396191705150596,0.014687672581582297,-0.011299033031403114,-0.011559043048520103,-0.0021238019727895063
264,-0.008232121472412727,0.012485788150480017,-0.013153157590610197,-0.007687949331984584,-0.003196938933565708
265,-0.008094570470188203,0.012114757685910419,-0.014104929862096608,-0.002685126206146743,-0.003845653480907355
266,-0.009021825108069587,0.011690833637280988,-0.014892973477278828,0.0017927834485302054,-0.005700546157881473
267,-0.011162614125426204,0.010441212678427899,-0.015171056413822886,0.005329082149550517,-0.008750963137850138
268,-0.012782173360420025,0.009080155960788565,-0.01381737530640324,0.008406455267993853,-0.011319369138849655
269,-0.012593497956270447,0.008720921267300868,-0.01038184120499769,0.010912133105908847,-0.011898232075229906
270,-0.010755343903358191,0.010071815606371966,-0.006146744403241894,0.011844432086603065,-0.010165525960161003
271,-0.007470357524203441,0.013972756266457166,-0.002108330978415532,0.011004256344497648,-0.005175182844107482
272,-0.004505787398537385,0.018637900386006774,0.00038068952234309036,0.00901549182908903,0.002008193757741072
273,-0.005435768858891484,0.01965227733252265,-0.0012390401564055934,0.006034692407650083,0.006652380741157642
274,-0.009830402906683423,0.01722418389666636,-0.00562463153681587,0.0031013914298649334,0.007549512467916477
275,-0.014111072616709106,0.015140553328564533,-0.009116022139488856,0.0015183223891162907,0.007236345829489834
276,-0.015610449834129075,0.016588118436289323,-0.009850091326920277,0.0006386393282440256,0.00880856427733826
277,-0.013253060073739113,0.02301901602625569,-0.007240325898959824,-0.0010250400220134656,0.014436898769680464
278,-0.009789599878845274,0.030237145966576093,-0.003873468352990348,-0.004050310319380782,0.020336112046438225
279,-0.009142297745132972,0.03224830345285934,-0.003021364177731844,-0.008179487207790102,0.021220497979164206
280,-0.011679695366734648,0.028631008628823458,-0.00450871734997603,-0.01289246906953084,0.01746314632819127
281,-0.01496456485285134,0.023775236101142214,-0.005955519337904771,-0.01731641864035108,0.013225338509614491
282,-0.017000075467736023,0.021589388410390323,-0.005918474258012695,-0.02114693393300429,0.01178528874235754
283,-0.01679783148000432,0.023214040708364192,-0.004202809834766352,-0.0245279306731889,0.014124768907905936
284,-0.014992728529116543,0.026610296216579628,-0.0013553955722382703,-0.027146660435564123,0.018231087867554435
285,-0.013719458386048754,0.02835714942429378,0.0014439055850197172,-0.028673915041232484,0.020342556591024914
286,-0.013879367766172468,0.027002444352107108,0.0031503725975998926,-0.0290037578338613,0.01844611665058534
287,-0.01459243645814004,0.0236569391802505,0.0034920444577957906,-0.028456850022032056,0.013580882625456805
288,-0.01446649490122198,0.020942731337599944,0.003347745070595063,-0.02813656235260679,0.00912704378753981
289,-0.013002398094755755,0.020492097629235075,0.0036621096839493375,-0.029105522039868725,0.007285438691413696
290,-0.01173953559794674,0.020670000792988037,0.004003464012850228,-0.03146599318826097,0.006132765346562263
291,-0.013225133108105278,0.017922734027340678,0.002333134706523977,-0.03483570812009857,0.0019059664804100356
292,-0.01669431455782024,0.01465516127563471,-0.0012345564797495861,-0.03795212419712579,-0.004627723820865576
293,-0.019862860815097333,0.01191817844214677,-0.005281832323969752,-0.039352000587893274,-0.010424997044937673
294,-0.022858521570777758,0.008243313372643321,-0.009949570674670066,-0.038517314325287,-0.01566666114548138
295,-0.025420984701693083,0.005012111702012357,-0.013808140155240315,-0.035553557272793565,-0.020168704717001613
296,-0.02697123372243214,0.002190240641791414,-0.01592453821163139,-0.03185555166954212,-0.023314879020101646
297,-0.027034029229818506,0.0006425541000968371,-0.016957135849245013,-0.028784292206814107,-0.024579757611147904
298,-0.02461978824454112,0.00206870835572983,-0.016375784761281938,-0.02593605973800891,-0.02254835169516295
299,-0.01999789503346054,0.005720806748416721,-0.013474014092758705,-0.0223811147597798,-0.017626912141460813
300,-0.014970062908817064,0.00812997091037193,-0.00917859113396576,-0.01856765602864728,-0.012437937847172115
301,-0.011625299366785146,0.0075747864162149054,-0.006023512274571917,-0.016904821505772306,-0.009693271067767814
302,-0.009556115853890917,0.005493677685236,-0.004297805248364997,-0.018431025733599657,-0.008470159865286965
303,-0.007031627267134052,0.003975146469588987,-0.0020448352684541765,-0.020271235000970035,-0.005965638289464895
304,-0.0037054468427202935,0.004953413427834479,0.0018379681690484212,-0.019460188070962073,-0.0007016652190484931
305,2.0520786489809023e-05,0.008625859420709814,0.007205731398325574,-0.01659321652732988,0.007218948426948839
306,0.0019173193422809423,0.011555530458733294,0.010778302622743182,-0.01442774751143321,0.013363935988963347
307,-0.0010460920367555428,0.009307711012892649,0.008100312852832829,-0.015114595792969051,0.01260184729555034
308,-0.008817293956064017,0.0006481258969883136,-0.0007455601010586805,-0.018725218677308343,0.006052113108723849
309,-0.016520521104498507,-0.007959520480130745,-0.009917666615724715,-0.02280351608321142,0.000793739529326661
310,-0.019295251830622737,-0.010948879560355262,-0.014183360634919337,-0.024932710621759998,0.002028057633492538
311,-0.01880330867759745,-0.010452974947326808,-0.015417987921025902,-0.026151962667090942,0.006816900704658066
312,-0.018052852495679398,-0.00892495015238733,-0.016505871278756037,-0.02797805291494744,0.010847134437392778
313,-0.016349766581802115,-0.006215326540664876,-0.015351020944948038,-0.029296243921832405,0.014523593203233253
314,-0.01490181390144933,-0.0038081332480584054,-0.011815214891441083,-0.029547058268540653,0.016958901108095278
315,-0.01597952103447445,-0.00395591081705765,-0.009097372773587404,-0.028932702481678018,0.015850326933195602
316,-0.018223925447386796,-0.005299589591637475,-0.008185297152024585,-0.026657791237790225,0.012307572234397665
317,-0.019855691428391414,-0.006731227823511611,-0.008550832219611334,-0.02281020359238908,0.008777990467984042
318,-0.019777626512749318,-0.00655148635133182,-0.008675134389579937,-0.01822124396223622,0.00792009086912242
319,-0.017705424268855404,-0.0037426728220146463,-0.00753380164764119,-0.01331886039959399,0.010092289527808836
320,-0.016542194134601885,-0.0011643620697914727,-0.008150030758042085,-0.009453849799334767,0.01079669714225921
321,-0.01692796123986202,-0.0006463530161747038,-0.011721330166368579,-0.007562597772891972,0.008328637568188167
322,-0.015565776126626329,0.002890050969330154,-0.014237941747236135,-0.006754873132000352,0.006336702702036306
323,-0.013238913860886582,0.008408134345045644,-0.014401262914066432,-0.0073146088270048875,0.005223068838476565
324,-0.012593676239853562,0.010077697641247715,-0.013448507448674131,-0.009511450753716084,0.0032550972183661305
325,-0.011833605940265828,0.01027859539637479,-0.009881188294657641,-0.010936258417632112,0.0024209525390944224
326,-0.009090635981871657,0.011881830049337318,-0.003554815635803901,-0.010868780680885697,0.003989855527905261
327,-0.007198104881898487,0.011183922497732824,0.0002750644964946556,-0.011975769505633262,0.003601757310409202
328,-0.00901820698820081,0.006431836429050478,-0.0021977830209098377,-0.01484003119291141,-0.0020343904938636796
329,-0.012501786292440887,-0.00032122191608743156,-0.007705347502276472,-0.016723214864848228,-0.009136978182657253
330,-0.01580094718564572,-0.007602091730600129,-0.013011210581354783,-0.016319116875605433,-0.015012303485005683
331,-0.018619321315390104,-0.014780980325013734,-0.01725344382351956,-0.014069328847685922,-0.019989822152587815
332,-0.018927382270385366,-0.018164368110294253,-0.018394400420402204,-0.01000777445907844,-0.02228192744599767
333,-0.016065046153306287,-0.016864430259344327,-0.015793373268029223,-0.005052292501011515,-0.020934560960342682
334,-0.011652262913271856,-0.012687461084528596,-0.010918600853267315,-0.0011075221766594164,-0.016960193079731824
335,-0.008736386801913482,-0.009362966622158688,-0.007378107068812353,0.0001484896088795446,-0.013552319604469384
336,-0.008928985303665963,-0.01037425678372658,-0.0076967225385539,-0.001623477436819642,-0.013040216677031782
337,-0.009234916735707366,-0.01204133835051803,-0.00814206058623661,-0.004435642762107533,-0.012111182399486444
338,-0.006585848352254667,-0.009804837188198502,-0.004047700026146796,-0.005582791009140821,-0.00730903970229966
339,-0.001708135853085232,-0.0044672198539377405,0.004257140350123897,-0.004156899425265508,0.0004594144409335988
340,0.0013822877980691913,0.003951352105612353,0.011718381484751947,-0.0015450208144370632,0.006891327202985088
341,-0.0006887394130986238,0.008366944905262694,0.012937534638498581,0.000252953720576005,0.007504017419973159
342,-0.005600123737821769,0.008351469947984054,0.009119465587047258,0.0005222043417575025,0.0037514948082936583
343,-0.008874155879027417,0.009949857509869459,0.005546588194850316,-0.00019354217171207338,0.00045669629199327324
344,-0.009668272902562166,0.011595791350390384,0.0042045824209911336,-0.0013125534968981144,-0.0013659799412340853
345,-0.00994884379589079,0.012759283414647844,0.0037156515534090585,-0.0026949471075346644,-0.0037126949057922866
346,-0.012009546845590658,0.01292104677238081,0.0016911850599576066,-0.004298751798084173,-0.008306359994825742
347,-0.015013884869468612,0.01231644747136726,-0.0016080333307319627,-0.0052608216386334445,-0.013496960059468441
348,-0.015859661181064338,0.011164626468722615,-0.003138003189100732,-0.004548744546292691,-0.015748779750012674
349,-0.014347872031880534,0.010089071036457103,-0.0022586954260637496,-0.0028591631412825183,-0.015166454906108674
350,-0.010613500551500335,0.009719087309074972,0.0012104469146569645,-0.0010453112005863142,-0.012123423600684845
351,-0.0036654264671511427,0.011010243642664841,0.008401176325580613,0.0011526315173988786,-0.005256882233933838
352,0.0033887983741582237,0.013032381070260373,0.01585000651964734,0.0029313813768213418,0.0019316142658704987
353,0.006252317444806213,0.01141130259480998,0.018742573805722664,0.0029993245088221804,0.004558707948116424
354,0.005912576455282198,0.007968495635641799,0.01870736034591557,0.002045736312998024,0.005317855531693909
355,0.005009418167933548,0.007309953173721331,0.019157422481582823,0.0011908157566507993,0.00847754906198607
356,0.003034822796262574,0.004816815509596137,0.018961454068096302,-0.0002283449866478693,0.011896980843215815
357,-0.00014601139998953784,0.00029886794035093256,0.017231516528938753,-0.002385328331507252,0.013411078786633278
358,-0.003767896699290954,-0.004235776083933452,0.014542534056367712,-0.004589960721809664,0.013652879008257329
359,-0.00791078073101007,-0.009800436938507502,0.010457511555364996,-0.00729661825924635,0.012957333686083308
360,-0.011330581180366383,-0.013591809781845578,0.0062626409191910955,-0.01079539391890522,0.0129400546307369
361,-0.013966683344554922,-0.01606431630720336,0.002948312897990119,-0.015302406501202993,0.013595301899560897
362,-0.017667640652390078,-0.019979440729176963,-0.0006755413717951142,-0.02060072478833395,0.011777653261004897
363,-0.021577885054465958,-0.02408712868290054,-0.0033865146952173682,-0.02395916682986925,0.007637501394087592
364,-0.022971938730032563,-0.02344631497562634,-0.002069671897883994,-0.023161204495168806,0.005484029494473724
365,-0.021990332802400463,-0.01913808996043508,0.0021607560066352434,-0.01946694691088863,0.0060341469007110194
366,-0.021333965896259844,-0.015789918055023448,0.004638269812665525,-0.0152241676708761,0.0055709576586572915
367,-0.021512989962862446,-0.013644235279087188,0.004178399224786846,-0.01131070864336763,0.0039231810022200145
368,-0.02026395508516654,-0.009749541611098866,0.003983476337405255,-0.007125880137315387,0.005062611782998627
369,-0.0169664372872444,-0.001806122898478394,0.0051368509991114855,-0.0023200301828353756,0.009846856131413636
370,-0.013990539365220132,0.007411932795615118,0.005236285821227209,0.002200175521772675,0.014446188862579926
371,-0.012151783403503504,0.015833094736896605,0.004670291979085991,0.00565577509249074,0.01742122646225626
372,-0.009960775841536219,0.018137158461017926,0.006302215515555257,0.008124119268079509,0.020527278963939397
373,-0.008705863172046814,0.016229580221706747,0.008929766585686522,0.009501435455640209,0.021915073730755
374,-0.00959440190825327,0.012157955930596214,0.01063743986252181,0.010741558816849173,0.0202360886959061
375,-0.010855505324137383,0.006890501737592275,0.012527152258215093,0.013797787472211913,0.01831084665253684
376,-0.012598257862942728,0.004786978507963628,0.013604450319613414,0.018033628629304587,0.016861010951446646
377,-0.014741511714062227,0.003582275112835935,0.012712871873639089,0.021640468982581408,0.015723567507141187
378,-0.014573426787208583,0.0026310075203838227,0.012421353044603883,0.024914425742417198,0.016652149040451536
379,-0.012268722502467596,0.0013243914865286777,0.013151689942258477,0.028189476415920678,0.018033236989213254
380,-0.010304943427512488,-0.00021803532339382568,0.012613325511847578,0.03051566434255165,0.016480907064125715
381,-0.008565809187368963,-0.002173337037834459,0.011549470122445825,0.03156857260583051,0.013265051422579964
382,-0.005086933763762978,-0.0017335866355878652,0.013133482536707023,0.032461040575749736,0.012984047492672285
383,9.357102803719187e-05,0.002835218757036389,0.01807862638941176,0.03369463608761994,0.01726073791305407
384,0.0036810156750696765,0.004521641426920746,0.022208508499353765,0.03420428611930363,0.021542194758306252
385,0.003673460272357309,0.003808536492678254,0.0219228545989625,0.034347595013728666,0.021042625793991625
386,0.002513020473268282,0.0016902444811270588,0.01993357722683167,0.03649150692106893,0.017009461772330706
387,0.002811228187648839,-0.0003554568090743933,0.020245698629281623,0.04081313994853418,0.012799316310468023
388,0.0021731318666782305,-0.0018189648408172498,0.020400502873561415,0.043236858229472756,0.00668287382997745
389,-0.0017320199517258373,-0.005419601100539584,0.01687318998780081,0.040686581067544574,-0.002154166726224026
390,-0.006247055005857532,-0.008213732124322014,0.011194236659321788,0.03514979525618119,-0.009040766055141218
391,-0.008523601146446324,-0.006603990045577824,0.005740900628510105,0.030514373833850198,-0.01175598885020235
392,-0.00790990428681538,-0.0027600745540443798,0.0018275498046468937,0.028707975791944118,-0.011653009330882055
393,-0.006368263945777245,0.000748187173866497,-0.001614800639328441,0.028268305735815128,-0.011888256079964373
394,-0.007201795148716952,0.0012574222265754897,-0.007026914555761958,0.026393828452610575,-0.015273601973218955
395,-0.009499431997958276,0.0004037103472874718,-0.01217260727301446,0.02260278629583873,-0.01870185653820959
396,-0.01021320914911773,-0.00023440437104311102,-0.013807532086127984,0.01844737069977597,-0.01873452817357249
397,-0.008590533978450783,0.00016775047495185013,-0.012497378293545462,0.015696445478608632,-0.01634884981518689
398,-0.005828474056597878,0.0017566929126688758,-0.010256797105549928,0.015260936548875791,-0.012849688200992927
399,-0.004916629993154344,0.0022549524076832506,-0.010173450002387919,0.016255952844360766,-0.010253002900050753
400,-0.006884680322822422,0.0014103405767914095,-0.01318716558147693,0.017607265603651508,-0.009658728914580087
401,-0.009492148480182795,0.00023549361664907146,-0.01616149460404033,0.01903443296939346,-0.009680808960433026
402,-0.011085762091377514,-0.0013831695413553142,-0.016506177787027777,0.02033738454476423,-0.010140721937841032
403,-0.011859921712005925,-0.004438963783166701,-0.015061858803048242,0.021586718535496072,-0.012387623201127558
404,-0.011399173385007691,-0.005763364660022529,-0.012561758849780993,0.02319863037662516,-0.014246359172972884
405,-0.008749516286603882,-0.003765095891907515,-0.008473796818929439,0.024714049420318338,-0.012255057371514179
406,-0.0052888134088066325,-0.0011540222050778256,-0.004622493474025905,0.025674970638037916,-0.008440015712807331
407,-0.0020775411209013202,0.0010914040252158188,-0.0021407233253923994,0.027343143377037124,-0.004353541160750606
408,0.0006538703784412053,0.003286125387947804,-0.0006320425923279541,0.03019836942448201,0.000960238058311644
409,0.000723793064463492,0.004514468681153845,-0.001884790590475306,0.032819593440083686,0.0046748153626843736
410,-0.0017500436163687958,0.004805419957073024,-0.00575072749845569,0.03469055877846101,0.005352356368647338
411,-0.0035052992807612974,0.006212287983584631,-0.008779689850406254,0.036590566227246886,0.005922032398270419
412,-0.0038957342283572347,0.007707949029684334,-0.00897944936230343,0.037963493321896906,0.007333567151911721
413,-0.0050233464219860404,0.006986749231641413,-0.007270261840496745,0.036925393938039876,0.007178220622908026
414,-0.007614411799413843,0.0032723212953251093,-0.005747977586668919,0.03325767218886352,0.0037103457993378696
415,-0.01002625203270345,-0.0016883277901501158,-0.004765981458433836,0.02897219778761762,-0.001473349721125141
416,-0.010379362523189507,-0.004399723125141718,-0.0031854019904752023,0.02596152517522645,-0.00486088665506591
417,-0.008181829894941825,-0.00326544224887482,0.0002805724338750999,0.02470133765648501,-0.0034247990086621297
418,-0.004724435354745379,0.0005799708197209017,0.006136655652875142,0.02450615505146747,0.002977297355484005
419,-0.0031805287959674657,0.002811344962400949,0.011057197560406747,0.024099981114036412,0.009510083112220232
420,-0.005464522225838469,0.0018198783384856866,0.0112916202827168,0.022916465236250547,0.011931537937870494
421,-0.00922610390024789,-0.000667357014082307,0.00839028238480032,0.021869098766956946,0.012350477194413723
422,-0.012102562206943729,-0.002681596173636982,0.004925707525781277,0.021761933527248208,0.012948201390956579
423,-0.014817192496920121,-0.004376966952871873,0.0007319126355887113,0.022089868833569257,0.01238760181882723
424,-0.017657097508319425,-0.005927682409376636,-0.003522953238138207,0.02204415205265231,0.011007209388745894
425,-0.019048679199663566,-0.004925401936475393,-0.005094974677588792,0.021627462295849584,0.011261952937964292
426,-0.018511248204068645,-0.001645102284261779,-0.00281260116382312,0.022122769868012575,0.013075166915201233
427,-0.017726804270983255,0.0007235543097579771,0.0006989019941358052,0.024676824433652624,0.013323930887839655
428,-0.016788613058921455,0.0012698421488510346,0.0035487617384455227,0.029084706413711425,0.011881795417666879
429,-0.014571056684259147,0.0020914309766307372,0.0061669474102414,0.03403572035942748,0.011256519658126527
430,-0.0138264585636573,0.000971125004833347,0.006179953153753697,0.0369435179891937,0.009485655896797791
431,-0.016589142484178282,-0.00400049550273703,0.0024532108874843546,0.03680556955410105,0.004883628574919036
432,-0.018430902718036775,-0.007304905628294676,0.00017220839059817918,0.036139005353308266,0.00240663627766818
433,-0.01628813324042068,-0.0062040327165417625,0.002305071445061125,0.036674252791867826,0.004584230897024661
434,-0.012781435943863759,-0.0038507963661638966,0.005967143373577049,0.037611004474259316,0.00754184362104446
435,-0.00996954560699323,-0.0019395431562549458,0.009047044109878003,0.03799042346144404,0.009442531870939809
436,-0.007975407445123628,-0.00033701436013280515,0.010640215411053746,0.03678187920449712,0.011068336234416354
437,-0.006906039927461223,0.0008764019806562187,0.009301573328579725,0.03306919343266867,0.01229264004615051
438,-0.006359120080064912,0.00189738188240528,0.005267999289272088,0.027277996646421856,0.0131802159808366
439,-0.005289123563897812,0.002686795042104575,0.0014487440297570801,0.021801750113112587,0.014014560752904666
440,-0.0029474370749593003,0.0030061315684742867,0.0009921698388799098,0.019897819416491297,0.0147916773542605
441,0.0006533726925671756,0.004119088520062474,0.0052142254730192196,0.02258902385509187,0.016552032930165796
442,0.00421174524537681,0.006422851723385565,0.012601433560547739,0.027089550416339137,0.01914487554894107
443,0.005243552010951695,0.0069422969222104865,0.018579435290765823,0.02936092574118335,0.019086357739531233
444,0.00361602405814372,0.004387896419841785,0.02013164071817258,0.028657699164728996,0.015118145992235132
445,0.0024565930072859626,0.0021070036906312727,0.01893564636012176,0.026952362201670438,0.011549969962829055
446,0.0030078148303089116,0.0022980453702824643,0.016948602980854856,0.024195846100791556,0.011507265589678156
447,0.003021112447923323,0.0025398434892655044,0.013089052492866819,0.01886072318652907,0.012210116914387037
448,0.0013566051635292345,0.0006106394337603799,0.007342676800446049,0.012218445480592175,0.011013962035820921
449,-3.088739360133805e-05,-0.0005141941551075993,0.0037989437412533954,0.00792248937346373,0.009718300660593059
450,1.1150200345415945e-05,-0.00014672124500244132,0.0050762804715382545,0.007660958609161204,0.00980366319440375
451,-0.0005199166947175704,-0.0006312825832839933,0.008458937125890834,0.009310452415810043,0.009814910844718954
452,-0.0032515257648958146,-0.003166599072740671,0.010756767188121212,0.009991320433619165,0.008827914757421871
453,-0.0061051966915262705,-0.0055298396201460785,0.012558709008031913,0.009575293613609613,0.008755406873223586
454,-0.005903002689461844,-0.004158410776559133,0.016363306259913123,0.009425917000731188,0.012259893027017514
455,-0.004061248789039603,-0.00046426224383621414,0.020671765120202943,0.008922716048783506,0.017232145949634802
456,-0.003987175649096544,0.0006758897795109269,0.021039919380918502,0.006520698051400098,0.01905576547230634
457,-0.004667296303925855,-0.0005444245278400261,0.01742961716175969,0.002801815190026971,0.018399150551508803
458,-0.0034860681533025544,-0.001023180949598245,0.013239033202559888,-0.0006310492146603969,0.019064862408363047
459,-0.0015342407202537575,-0.000867471586930208,0.00957796786081271,-0.0035948912856394472,0.021228380034682144
460,-0.0014523852180671124,-0.002058492340023176,0.005724162804537876,-0.006762513552725462,0.022144538638058833
461,-0.0033742662261093868,-0.004223127863669049,0.002362216727477409,-0.01019651547878102,0.020829220475014766
462,-0.005010149429104786,-0.00521156578316252,0.0019796018561022834,-0.012396061609906257,0.019018095333672998
463,-0.0035674448833784905,-0.0030322440037925174,0.0068765917625829695,-0.010856482839903845,0.01951088522975831
464,0.0003085882351351546,0.0012503310157317108,0.014639834722244971,-0.006566479921650706,0.021930163548465893
465,0.0029773867896864723,0.0038884568521621414,0.01971962183737832,-0.0037307418450784535,0.023198007805128686
466,0.003026946272964835,0.003710056199133997,0.020553768058934153,-0.0042262908209551924,0.023200582013826562
467,0.001086731835107464,0.0015432925110021966,0.01881590285588003,-0.007342945963604234,0.02285215943582195
468,-0.0017069874219895103,-0.002131869666696447,0.01634639888525308,-0.01133943060084793,0.02181299973537782
469,-0.002817075528924447,-0.004133640620199303,0.015954044221883738,-0.014124267564669488,0.021955324153235
470,-0.0014417106923398535,-0.00272255522530607,0.018068713496402048,-0.015334346591209361,0.024244915514698373
471,-0.00026604520242848263,-0.0005739152764887696,0.01909787133175882,-0.016032093145408457,0.025611646209304766
472,-0.001562213924482464,-0.0001563701420162083,0.016738565761665374,-0.01679876007380638,0.024181673099478194
473,-0.004740996684495082,-0.0012751331970407905,0.012753121079258748,-0.017421063636583183,0.021573206344705373
474,-0.007305503299655963,-0.0016854661392623075,0.010317711319987707,-0.017295177271986508,0.019790136043727327
475,-0.006906697266492803,0.0007125204851928166,0.011005091174179348,-0.01595773633954343,0.0198267664343789
476,-0.003449134965268688,0.006230277090259188,0.013952519833722782,-0.01391320088241587,0.022233112635516437
477,-0.0010252050719045066,0.010692309998257273,0.014777675643941245,-0.013287192384813165,0.02400655800764764
478,-0.0021510625530641214,0.010977400195071573,0.011037761832531351,-0.014939635004741337,0.022585468734152087
479,-0.003604798609917986,0.010085028285934612,0.006482015187148782,-0.017167434404972842,0.021076341194464266
480,-0.0029259146189598542,0.010527438443012392,0.004327755673241742,-0.018753424835583864,0.021427570945250263
481,-5.3492234863514056e-05,0.013480051756124233,0.005139793339004999,-0.01931806727336907,0.02374270756555785
482,0.003667252121166288,0.01944344661351731,0.007618884728490228,-0.01935697520396476,0.027785782072292833
483,0.004534819161093531,0.025461501345918482,0.007529060338632961,-0.02112507316029316,0.029949386748704114
484,0.0004530715599552264,0.014756151357260563,0.0020926953398531026,-0.024210246912091664,0.027251649471813955
485,-0.006209660924944071,-0.002040498363607258,-0.005975829440145657,-0.0294081541930381,0.02099461850009871
486,-0.011434991945241548,-0.01481561981169966,-0.011373360098164078,-0.0343405445509133,0.014683261999038341
487,-0.012535848647670909,-0.02631330992586671,-0.010800749677337632,-0.03391224990516629,0.012250729502867855
488,-0.009380233033602093,-0.027372077071736816,-0.004681467526138542,-0.028799327613179923,0.016524551881487055
489,-0.0051170563606836045,-0.023388121026035023,0.002502230507060038,-0.022504931625749448,0.025201075418959797
490,-0.0032176681914003677,-0.022450337683761194,0.0061514410570202415,-0.018092203628097547,0.03166204847821805
491,-0.004261057063764587,-0.023917596985873892,0.005756855749055166,-0.015915127630291744,0.03196027562866882
492,-0.007050265515453889,-0.01925701609247605,0.003206471714448512,-0.01519863538559736,0.027627816216287772
493,-0.01078239683243941,-0.011264760100480397,-0.00015147850165651532,-0.01360389929214471,0.02158872903174637
494,-0.015236494481320986,-0.003668980415722139,-0.0038483381404647906,-0.01016742314439994,0.015557109778304193
495,-0.019398647825961717,0.0049297485412466225,-0.006899129684791611,-0.005956546645415286,0.011682220483093236
496,-0.023465188292801822,0.007731267792606245,-0.009958429712966278,-0.0019130850471419157,0.009269537875300979
497,-0.027580215035479985,0.005167350891799254,-0.01415946133783321,0.0009531511206111256,0.006199209592987488
498,-0.028612734543001728,0.0026338819244013686,-0.016650070458309272,0.00479618754038209,0.005196630921618934
499,-0.024612404001357658,0.0014256660743922453,-0.014151774976394407,0.012035634361003703,0.008927323164712272
500,-0.017883719082988716,0.001285451101731825,-0.007998720975514894,0.01631439763952897,0.01456113300275143
501,-0.011990399988452556,0.0030478238593678233,-0.0024157836935206046,0.01712240325658399,0.018180510730909143
502,-0.008679368028319413,0.002549960744025926,0.0002887873615240339,0.015372963073484975,0.01935780106133813
503,-0.008987324483954595,0.0083152196112462,-0.0009671607097710476,0.009884608960418099,0.01824980258895672
504,-0.01180373012350783,0.007180642720754477,-0.004778196593108316,0.004866940238991011,0.016086365164348193
505,-0.012387693563683652,0.005805093319750748,-0.005096499061189168,0.002146270747169486,0.017246878563014226
506,-0.009937221924512359,0.011193237487186026,-0.0003631888999878923,0.0007270881493244057,0.021582713672920254
507,-0.008642464243255715,0.018615992127926424,0.0038081703337319384,-0.0012283937030161604,0.023664917898210625
508,-0.009172405676567465,0.0148493373216373,0.004889598269599772,-0.002345815089627643,0.022782799104130412
509,-0.009433252324620296,0.007989915314253306,0.004735756728661089,-0.0025921854693192995,0.021255644314319717
510,-0.009981347422351494,0.0037710991451393016,0.0036785352593085748,-0.001896443751500541,0.01817421849494075
511,-0.011787104491738266,-0.0019589862300788616,0.0014589851268974367,-0.0007897337327603137,0.01380477395153195
512,-0.0138114717790561,-0.00048478743792857343,-0.0009499711129679578,-0.002474107147676159,0.011014107837335486
513,-0.013794436051041584,0.0025210960726217073,-0.0010352127015532807,-0.00393294241026005,0.012379581973827053
514,-0.011194982121248016,0.003827894421275204,0.0022561136373257704,-0.0035813385733147345,0.017064497825748974
515,-0.007525819966259013,0.006097804650369565,0.007060498327576373,-0.002329000778938868,0.02171819929909842
516,-0.003478556611323155,0.0038590790311780264,0.012662330622948827,-0.001173104606997434,0.025510514106477027
517,-0.00027913713046614754,1.389523270434247e-05,0.018034147097678806,-0.0006772087890090995,0.027771024270559018
518,-8.392484916744967e-05,-0.0026164000679731016,0.020214891709249283,-0.0016840641205669385,0.026355231103055102
519,-0.003739123693882042,-0.005924627164317714,0.017099372662945717,-0.004952957591130838,0.020298036181876932
520,-0.008856926643577451,-0.007721098086544817,0.010695766262892797,-0.009377261434997586,0.011964088811514648
521,-0.012146581970043063,-0.00907120436856586,0.0052001185500541855,-0.013286166124960726,0.004996623027928012
522,-0.012073014533451519,-0.011145668394159433,0.0032966084012869615,-0.015541726488089682,0.0020202233467125153
523,-0.00817728853980653,-0.013137470808877784,0.005715831245443356,-0.016113385188432056,0.0045476703906816435
524,-0.00397118553711158,-0.011688464434623994,0.007977043525496143,-0.017240921028420075,0.007724857573130729
525,-0.003370973582817897,-0.008915194961404692,0.00508179087241344,-0.019816908100706077,0.0055661655412386395
526,-0.0037413826866192633,-0.006329642001158212,-8.493083363975292e-05,-0.021711860270223902,0.0014875463415096421
527,-0.0017409400100825998,-0.0029087974693786356,-0.003293262152879464,-0.022393578389125438,0.0005158629379763307
528,0.0009697553341872808,-0.0005281197973453064,-0.005598263977484924,-0.023750643012790344,0.0009776613206748707
529,0.004199535877456231,0.0017943621309945371,-0.006357436190251389,-0.025873670091229897,0.0022233950991698997
530,0.010192444536066844,0.004973008924614412,-0.002719349857908967,-0.0277313167264024,0.0066278179209076134
531,0.016600187586953485,0.008342966513750693,0.00282381190916276,-0.030471067920183077,0.011761411641232332
532,0.01948395519275294,0.007673634484264888,0.00568448032148069,-0.030932354905049444,0.012840944683976232
533,0.01830562634156313,0.005606506338581957,0.004200619702018837,-0.03168505101325027,0.008552570168143828
534,0.014999763639609186,0.004070193785391426,-0.0007976113185378447,-0.033512293301221616,0.0009273155338369412
535,0.013241169080792621,0.0017530167873038276,-0.005686155058516792,-0.03315301102433514,-0.005397419934304112
536,0.014151624809767437,0.000904800426506759,-0.008171753478815302,-0.033337324078845376,-0.008249045976231368
537,0.01538111732138379,0.00033546069261198674,-0.009673507177380787,-0.0334260447809761,-0.010481423210069635
538,0.014942964214666055,-0.0010728636700019745,-0.013072408892271205,-0.03158773622864748,-0.015323345521442234
539,0.01110295700049014,-0.002529128104951967,-0.021344689089533384,-0.029926066142196457,-0.024105094111152355
540,0.005728356098109706,-0.002417132392081496,-0.031423542447260464,-0.031317935658898115,-0.03327012323579744
541,0.0033377303952500706,-0.0018122722200952844,-0.036943161787167174,-0.03254149630890686,-0.037464739609594046
542,0.006002342402859353,-0.0013999012707558304,-0.035461887835064355,-0.030577500363216784,-0.035084482235569515
543,0.012448788217296327,-0.0007022079513597699,-0.02841114666568231,-0.025518816565753846,-0.027784310058075877
544,0.02022787270446767,-0.000672055120215815,-0.018538201824521622,-0.01719420674787054,-0.017508707401474255
545,0.028055960968195574,-0.0007829135047158782,-0.007854465596135861,-0.008095990391412082,-0.005502181671206934
546,0.03277319686169073,-0.0005644868639971717,-0.0010103260975359515,-0.0016375047839924624,0.003619124738167738
547,0.03145006058433269,-0.0003429663928386766,-0.002070011660289403,0.0006206838078184115,0.005625323828490374
548,0.02578531415683699,-0.00019131542541365513,-0.008942836901659758,-0.002517182510634724,0.002120540362618016
549,0.020277848731533304,-5.142069193178275e-05,-0.016368110201817304,-0.007105708775935399,-0.002036711034684235
550,0.017287912640811674,8.171426348701848e-05,-0.021552607129744057,-0.01020881995840229,-0.0046099533902718435
551,0.015837361164100203,0.00019159329229547756,-0.024449677573473775,-0.012796025565837473,-0.006487129784964536
552,0.015077348586846546,0.0003928668137169088,-0.02444219882877524,-0.014644153158938427,-0.00766631993218984
553,0.014961413648397976,0.0006187948598285601,-0.021638959858448752,-0.01602308380314329,-0.008080151574999998
554,0.015396564110861391,0.000807722192827722,-0.01795573308562957,-0.016314494658550612,-0.0088919835778679
555,0.01616787688027772,0.0009977513951339692,-0.014390850388534692,-0.014103027886435972,-0.010542341339903422
556,0.017659701166734335,0.001168717335278017,-0.00982839026148202,-0.008973157411633449,-0.01052050401519964
557,0.020717243457558897,0.0013376423270383094,-0.003399059120488079,-0.004361351244510491,-0.006074487427137947
558,0.02496866882412548,0.0015168403002606074,0.0033460454631624404,-0.0022140369469238826,0.0013431507196125538
559,0.02874979231276962,0.0017008305614858927,0.007354957131832116,-0.0020272448701442753,0.007612357702282918
560,0.03109888248962503,0.0018797492767802144,0.008291574829156859,-0.004013196175558149,0.010908770489090645
561,0.03232629371452638,0.002056880614347712,0.009459010343537801,-0.005550454735993232,0.012552212539822796
562,0.0326381501867074,0.0022395668150950168,0.012591536079466408,-0.004227658697408605,0.013697759415518715
563,0.032143792797186994,0.001545366829379172,0.01645861668688175,-0.0008039485037254503,0.014252430211572657
564,0.0322892820086039,-0.0008257119284874237,0.02075417523026081,0.0037107282364540256,0.01503969074081207
565,0.033890027342264456,0.0010431249364324024,0.0254616520329515,0.008847924388892932,0.01695790958385089
566,0.034274298104404785,0.0016832156023714254,0.027831459194529146,0.01294033689072541,0.017788096705644355
567,0.03131941523431347,-0.00018864722292955585,0.02588888436814183,0.015320780122407974,0.015585459928129793
568,0.027540257404153074,-0.004083822893259927,0.022508021665024476,0.01777574421599141,0.013218079625229119
569,0.026393985381729795,-0.004363180216388771,0.0215766784246979,0.021339955444141107,0.014181773772036846
570,0.026929493253823857,-0.0011905620954915702,0.021949374106610797,0.02452982502949642,0.016306089543739237
571,0.025605540079015967,9.111434461488392e-05,0.019570806051813883,0.02486965013318224,0.014907455498845179
572,0.022617779202715946,-0.0021980103720121527,0.015101911742129753,0.02195396219328625,0.011162462218475227
573,0.020613674662673342,-0.003265259915677869,0.01257395587430787,0.017860597171611942,0.009306260590894285
574,0.020299128501749593,-0.002094889379540293,0.013161668044949225,0.014783742101756437,0.009736370943596204
575,0.021875837460978105,-0.0006527118135280902,0.016242050812706212,0.014073286668553175,0.010739379195776002
576,0.024852593984999418,0.0036616234677321583,0.019692380570350988,0.015654474346732044,0.009878130309189393
577,0.027363509666276507,0.003420822518062498,0.019654593177839085,0.017485486873239697,0.005523705495629496
578,0.02810785213224909,0.0018271523609034825,0.014931560045004285,0.01730707852332809,-0.0013294950439682793
579,0.027069936904103847,0.0014809946194021054,0.008611374073312588,0.014208164300228676,-0.007860315343543624
580,0.0254670645999395,-5.354051601497353e-05,0.004996519113501415,0.009568835541340616,-0.011588821529478035
581,0.02452832979450933,-0.0008480619122676216,0.005815284830989515,0.006809198514567159,-0.013436113244371882
582,0.02413085556870438,-0.0008381413060934897,0.008767862154106546,0.0072611106172714305,-0.015510307719274039
583,0.023096769924711925,-0.003096271102526901,0.009511751523043798,0.00881021520150617,-0.01842858038317644
584,0.02116506340618071,-0.005658437768188789,0.006195845202053689,0.009554917976442498,-0.021552707517567767
585,0.019946593341205313,-0.0072203269039045935,0.0015658905169698767,0.009385080748736549,-0.022782804382836107
586,0.021588338162958756,-0.005599684404354392,0.0004438266566323883,0.009526980468774865,-0.01935988313345109
587,0.0257234836139187,-0.00034232908856068016,0.0041834925721118054,0.011012588374937132,-0.012115809276591167
588,0.0286895569534526,0.005408802102959519,0.00829891700769947,0.012755413778859128,-0.006950992085644841
589,0.0282426030147033,0.007170836345556576,0.008719054019459464,0.01355641642554819,-0.007446571419520486
590,0.02540464320607783,0.005338020497230852,0.005764850044637789,0.013880074961343527,-0.011986964380650812
591,0.02327933494305568,0.004406396442650388,0.0031033720839035777,0.01432610986863145,-0.015737545566168125
592,0.024094906988034407,0.00612311840051941,0.0037611682351455546,0.014405549579433621,-0.015258527136232276
593,0.025592956165552974,0.008073488808418343,0.0053312341940887605,0.012630853626235911,-0.014388015484813414
594,0.02511816418253974,0.007584965974262554,0.004663593556285402,0.00880784021839008,-0.017299159771217366
595,0.022681413849318093,0.005117016727538708,0.0019977871407548023,0.004553390762833586,-0.023250923592159568
596,0.01943587153712903,0.0006367986025752578,-0.0013002014898035653,0.0013927476544341765,-0.030140806795719087
597,0.016312808221053427,-0.003702870044197031,-0.004718180229448912,-0.00023142604349008473,-0.03643553305859788
598,0.013828530720881017,-0.006876032329391403,-0.007960562379170701,-0.0007280512464240467,-0.040622996354104345
599,0.012366289317726507,-0.009352009544597068,-0.01002876249787591,-0.0006830504162553866,-0.04164639510858231
600,0.010795092846877146,-0.011096433818415536,-0.011568126381187843,-0.0010951348664049775,-0.041720700679674386
601,0.009150744244904729,-0.01264466584417895,-0.012386505881614161,-0.0016350281224666835,-0.041997928192593764
602,0.008915183304050183,-0.013107993518920141,-0.011084448410546647,-0.0006188151987332601,-0.040647252306665986
603,0.00909883914531288,-0.013607284280234314,-0.009651891312155854,0.0021131749710258277,-0.03855114744633773
604,0.008369877629339858,-0.014758001350822236,-0.009772120683059235,0.006048837109799279,-0.03747716061041951
605,0.008272330632507697,-0.015074507766014015,-0.008944396098827832,0.011113838729479728,-0.03552746927402052
606,0.0101114795474708,-0.013104708385035592,-0.005194305923346656,0.016019545091624163,-0.031235817824661397
607,0.01206943750981567,-0.010640133762570357,-0.000582592631072713,0.01881970624281323,-0.02726544560520237
608,0.012711197048228552,-0.010537442341229265,0.002656549064072633,0.01946215720366975,-0.025392720895806395
609,0.012935404425360454,-0.011486968471650401,0.004929652599398446,0.019273606126389935,-0.023973407071094282
610,0.013455279221551356,-0.012180847273943028,0.00689692052420574,0.01936122863976939,-0.02175137518891948
611,0.013572356801135955,-0.013441538106238828,0.007426121258079196,0.020095427120532132,-0.019869696372175453
612,0.013326200605972855,-0.013174766981084687,0.006379224568539927,0.02138952176045105,-0.018255316494231864
613,0.012709917485116516,-0.010708169202175207,0.005014381521804988,0.023261494537849047,-0.01612486492211556
614,0.01023316421437518,-0.009049518431080272,0.0031597101785758937,0.025497522857318412,-0.015515140074473781
615,0.006534365920325154,-0.009280139702108664,0.0015138968700707655,0.0281810396868192,-0.01693485000491019
616,0.0037960997538997276,-0.010014642947658343,0.001636625808842105,0.03150454120188849,-0.018242245767639186
617,0.002854910368148403,-0.009262257705188208,0.0035363052471502196,0.03484903774744625,-0.017789195651625036
618,0.002599722100647995,-0.006782155777458676,0.005580925934633257,0.036623905467404246,-0.015511357861675474
619,0.00032005023913561116,-0.005546181930784694,0.005077892946842016,0.03511955495947609,-0.01424217422870959
620,-0.004258114464457235,-0.007886963898860342,0.001527364192266427,0.031036819565730133,-0.01653910541777213
621,-0.007524526202246196,-0.010628547101646877,-0.0017107976071644411,0.027551468084278483,-0.02035098234101351
622,-0.00677404979905108,-0.009897785118424457,-0.0014983030264691514,0.026378111465661006,-0.021638604462279686
623,-0.003486645874162147,-0.006420622591304815,0.0005521053856325442,0.025988552922265287,-0.0199836747096258
624,-0.0015941203912158567,-0.003864069098750205,-0.0004449817971292363,0.02424689623233207,-0.01944037848932272
625,-0.0019414287008517953,-0.003106633086528999,-0.004817064753912862,0.022022220509714405,-0.021240285533751464
626,-0.0015728929230091543,-0.0006366173706100283,-0.007323259553997155,0.022448247671968753,-0.02117272576726768
627,-8.610201636570742e-05,0.003990560524664123,-0.006611523168498672,0.02576556998577445,-0.018326726887782894
628,0.0008980051786636823,0.005713518364619066,-0.006027060385302308,0.028910829785149982,-0.015589737609439627
629,0.0018994775861756227,0.006450095427127527,-0.006795918328972492,0.03033182834555376,-0.01298445981751183
630,0.003424090314957868,0.007869792483491353,-0.008336644249916335,0.030213379035524637,-0.010129202580381223
631,0.00545773428947633,0.00830021669313304,-0.009773833722598383,0.030113740243683306,-0.008150994742076402
632,0.008837886530048236,0.00938107116189431,-0.00921498986857161,0.03200345521371742,-0.00720086146676938
633,0.011627150874908518,0.008539118661654563,-0.0075900990450113465,0.034443516623464024,-0.008870063829044685
634,0.01096316636219274,0.0030505686542184078,-0.00783911150604185,0.034332508721993685,-0.013846807401792826
635,0.009780895436490038,-0.0025162868510156446,-0.00802998260080679,0.032704679070280775,-0.01702958712404069
636,0.011789082088943368,-0.002676341748217575,-0.005229757200360661,0.0329920299087026,-0.014722120321696055
637,0.01608548256699825,0.0004794515326414239,-0.0006255239443524578,0.03560081461035111,-0.00933812665786805
638,0.020974611790620074,0.004023576087107507,0.004246309625960042,0.039005108666060516,-0.004002578647724156
639,0.023793908268986388,0.005947241171952674,0.006924182179129983,0.04072359423338274,-0.0013435426389052996
640,0.021621421911134524,0.0036556580352579593,0.004300106905724878,0.04093437522857222,-0.0030969519424980854
641,0.01655005767941736,-0.0008875532453974541,-0.0013206101668547365,0.035088652413534815,-0.006816268513200526
642,0.013366647091084895,-0.002806590390753633,-0.003969412956343623,0.030318828018623952,-0.007896520834811417
643,0.012764476745803456,-0.001960195793302072,-0.0025068548714905917,0.028007527364742626,-0.0051420870665255716
644,0.01200812971013592,0.0013521815819856834,-0.0009139954466397209,0.02633760998019102,-0.0018041477679459242
645,0.009511928762477577,0.0024007014651492775,-0.0014783760507225529,0.024595014003306485,-0.0010747876836437634
646,0.006213913794304132,0.0005118293449224327,-0.0027768616619016587,0.023209933676268207,-0.0024052746998760683
647,0.0029700766844621925,-0.0012159530066706275,-0.0038318657375806583,0.021730972019373962,-0.004550665255067565
648,-0.0017911177933365458,-0.005106253961445755,-0.006711547782192656,0.019297101581784517,-0.0091785476097412
649,-0.006871845395794072,-0.009181658311364279,-0.010719481390499294,0.017327081890710857,-0.015061724387007683
650,-0.0077834239386051175,-0.00853450475323277,-0.011236916885471892,0.01817874702836529,-0.01707259260379522
651,-0.004922807335848561,-0.00414667596363457,-0.008161096302988946,0.021030649707180018,-0.014921123181609385
652,-0.0022113617879818267,-0.001036588005080265,-0.005116455247725691,0.023618689159113207,-0.012079857857289517
653,-0.0012339734524055806,0.0005233036553095329,-0.003814373663694309,0.02549279902778475,-0.010260508808728681
654,-0.0017126205289527735,0.0013744265470167429,-0.004258542870863893,0.027020796358464355,-0.009701746185043816
655,-0.00253813437443631,0.001940016616606412,-0.005137552508213155,0.028610399420447196,-0.009418454959311411
656,-0.003533794070902304,0.003163720329779247,-0.005702159867429322,0.029954286449953772,-0.00922879344411014
657,-0.005719744095328402,0.0034088273815199863,-0.0066645838521215495,0.02969756319735415,-0.010224193152460093
658,-0.008176935805529837,0.003469662356278719,-0.007652580226987737,0.027521170639939474,-0.011211247195473817
659,-0.009759552584878381,0.004948805896278217,-0.008300596802335186,0.024802334246191715,-0.011446305268412737
660,-0.011340603540345344,0.002788164069784202,-0.009504869724379438,0.023489971475703305,-0.013299363791156767
661,-0.013801515468650362,-0.0023112985215665766,-0.012011039035158528,0.024149702269274397,-0.01793993900361204
662,-0.01650708567759624,-0.00699504159798506,-0.015266680568677799,0.025782060468204044,-0.022908213787899687
663,-0.01744710995449042,-0.008878882996877922,-0.016291230529032818,0.02795069814304047,-0.024208581440720495
664,-0.015551698913633385,-0.005387734059520039,-0.012702496084197426,0.030754708547285917,-0.02081608954164861
665,-0.01205696429563225,-0.00027546388678519106,-0.00632020073784066,0.03362063926883578,-0.015360879166174134
666,-0.009605096862833973,0.002354358500230908,-0.0014398441826922802,0.035095757242899574,-0.011090961418251671
667,-0.008725164280522765,0.002931514729304555,0.0008786298906611366,0.0343503931348541,-0.008508201835520278
668,-0.008017102737125028,0.0042022907631952735,0.0024024108881785583,0.0313202772300588,-0.006822758830206551
669,-0.007356028652037725,0.004499905394114872,0.003616988740064773,0.026219034905004157,-0.006547262007696698
670,-0.0059474307916020566,0.004543394480344682,0.005592634580239734,0.020777621441405547,-0.006446331322734152
671,-0.0035946047722640465,0.006036679874378789,0.008076363860705744,0.016120503757245826,-0.005974411018012144
672,-0.002216074624355866,0.005452720445975286,0.008465153207527526,0.011276318563905383,-0.007371887922502432
673,-0.0032272117348092224,0.0010903582663887455,0.005340086999827866,0.00567094338498108,-0.01225497544818895
674,-0.006752107598112512,-0.00627536417641639,-0.0007737676996625341,0.00011328077785737469,-0.019952132771721122
675,-0.01018599214585725,-0.012736089866493274,-0.006204810375410825,-0.003960297828579578,-0.02554762119249215
676,-0.009579625077354945,-0.010855278218735541,-0.006654601074470666,-0.005780822181582201,-0.022941708701428233
677,-0.006120209815743083,-0.0028376574192383124,-0.004242677014833069,-0.007095956262602962,-0.014217874320362178
678,-0.003945593611025481,0.0038530660512669955,-0.003563195829607719,-0.009699200429774565,-0.007580645203807369
679,-0.0038165643207587266,0.006333143791139483,-0.004501665877195575,-0.012927357812308134,-0.007046941670245456
680,-0.004685363529542047,0.0047816056617633615,-0.00533590102023687,-0.015943493721104054,-0.010780297590139041
681,-0.0055269964163068164,0.0028357827680776577,-0.005157060343144624,-0.018396179785297093,-0.014250453954280285
682,-0.006061672191531935,0.0029532339946825507,-0.003667650112633429,-0.02018333290056799,-0.014668573214767581
683,-0.007530864747706335,0.004155498493665134,-0.001807812604042838,-0.02158143437518882,-0.013245783210314891
684,-0.010178340609338171,0.004910955075160457,-0.00033761531260563104,-0.022160954501896302,-0.011439158662153637
685,-0.01325516275174167,0.00502445824257202,-6.644746792789719e-05,-0.021649628981317313,-0.010373614920358933
686,-0.017322037000056596,0.0025122031040780615,-0.003030764514725816,-0.02100481167543037,-0.01246053543369512
687,-0.02225734482141466,-0.0032128600362222,-0.009493866904180762,-0.020644472081907884,-0.01780716776144695
688,-0.02706219329276423,-0.009619296294215648,-0.018039170426587935,-0.0202232197068131,-0.024005758940672563
689,-0.030707170323114437,-0.01511839947487355,-0.0271234133882571,-0.01931115254109755,-0.02861345330962049
690,-0.030725481318727474,-0.01696717047442902,-0.03271366633206629,-0.016614591523994058,-0.02886280952339555
691,-0.02604962735717815,-0.013603650322335457,-0.031204781267162654,-0.011841184385063005,-0.02413079119329333
692,-0.018126099585871316,-0.006915613010705627,-0.023249982194048162,-0.006413039829861416,-0.016162298781093352
693,-0.007773875437812605,0.0023111225099990756,-0.010662519749892966,-0.0002635394719370289,-0.005586439329960536
694,0.0024003946460295546,0.0114805854064882,0.003070892511690081,0.006737538392529559,0.005089565918692439
695,0.007885024743078957,0.015947973650576933,0.01236976571636052,0.01196744017748311,0.011182698978613074
696,0.0073855657501755365,0.014804127409588785,0.014549713005053538,0.012735566182753254,0.01101159369741638
697,0.003213531513307349,0.010380269974835803,0.011272461964735877,0.009841194307056452,0.006322895015115558
698,-0.001224735416485116,0.00625148205617444,0.006394042194346437,0.006195766646120143,0.0008248161207369281
699,-0.0036691562008636662,0.004804184839121891,0.003137628962296699,0.0027918424995396597,-0.0023882972360084083
700,-0.004911982072428276,0.0049963660128845965,0.0015452322933221187,-0.0015820684115614787,-0.003553892924446787
701,-0.008822380155786123,0.0022903286554291297,-0.002482384854761356,-0.008755099220918468,-0.007010117020050733
702,-0.016402312147868105,-0.005231939940461886,-0.011207943269949512,-0.018001405252726352,-0.015786319076566153
703,-0.021782992893945426,-0.011910226140312985,-0.018818768323445197,-0.024443537196861865,-0.024182956291230674
704,-0.02094667646950817,-0.01659368800933354,-0.020187868096669517,-0.024999649141718126,-0.025924349892363828
705,-0.01563728898062043,-0.014038056662384195,-0.016596324808178325,-0.021254881556535037,-0.021651674687259703
706,-0.008354235376832332,-0.009626056157612696,-0.010302287693326362,-0.01578155120030702,-0.014036746316971563
707,-0.0025078981867451074,-0.006546968189567803,-0.004548744899096154,-0.010598762210551456,-0.007325134671095206
708,0.0006745716110659292,-0.003944145732644949,-0.0008285480684460249,-0.006416172173421418,-0.0033743125468267466
709,0.0027231553529870624,-0.0010273920909415573,0.0017841645701486522,-0.0034980005659426766,-0.0005247611530808988
710,0.0038219545441087453,0.0014999751277057296,0.0029383163056968388,-0.002454500208174481,0.001263864340444887
711,0.003818933824360774,0.004020859234032024,0.002626799738604338,-0.0030646258311182875,0.0016131280971173481
712,0.00294735626791085,0.005355720477265695,0.0015569415257425637,-0.00457207730938021,0.0006378438266234402
713,0.0009534448545425085,0.005023106402696572,-0.0005498467800004223,-0.0065923128544922395,-0.002072124367718938
714,-0.0016664452784960469,0.0038753084959814083,-0.003656013654934134,-0.008581197821644645,-0.005803477857034665
715,-0.002133511715893483,0.00483864328839342,-0.004640444445240446,-0.008437074624515529,-0.0071858746178554206
716,0.0008605121083102055,0.008614583785456124,-0.0011525144705247753,-0.004770209585551708,-0.0049219228881992065
717,0.004024057919722348,0.012031362578138895,0.0035334814543309984,0.0001353051157481369,-0.0031891358407203597
718,0.003893611147623141,0.011478395819129423,0.005003192962264213,0.0030135784599089805,-0.005460373484431218
719,0.0014468183779132277,0.007667847453724959,0.0036881092970185215,0.00337751918702347,-0.009706029197175241
720,-0.0023616163955536493,0.002856234367177875,0.0003007664551762518,0.001264932720360692,-0.014384472560693487
721,-0.008095520861319105,-0.002632038941299028,-0.005633251660805476,-0.003296840302732887,-0.019527182202033897
722,-0.0134783225338879,-0.005725746532713393,-0.011351925204431778,-0.008141904640767033,-0.022058177922277357
723,-0.016210638044157368,-0.003264724122086136,-0.01510719490294254,-0.012246435195632344,-0.019252740296219182
724,-0.015790539527258805,0.0027347460934746197,-0.017678726794290073,-0.015953058698074948,-0.011550809176803277
725,-0.011861295238417216,0.011415789540892958,-0.01783584531829374,-0.01715400508711334,-0.001555192846482012
726,-0.006898062881487463,0.018766363080899753,-0.015056080917832738,-0.013840599332916561,0.005444685254783297
727,-0.004166208866030461,0.020342023020637538,-0.010913695987713247,-0.00680688342046197,0.006280026493978111
728,-0.003675989490548648,0.01844047144151624,-0.0059843906515764924,0.0021012104859971267,0.002669915236253088
729,-0.005758802615982324,0.012942890653585868,-0.003003296782771199,0.009625178367486891,-0.004984300484107438
730,-0.009351424188978115,0.005065509874133103,-0.003994725890774172,0.01304999649712364,-0.014353895562500631
731,-0.010447063264683133,0.0006198647158333953,-0.005946840386763702,0.013145574338187032,-0.019072746884414724
732,-0.008797944353820064,0.001071007447100193,-0.007498477152269627,0.011666069612263793,-0.018671867660719755
733,-0.008214204222311602,0.0005085486307329373,-0.01131153674252111,0.008944130283482834,-0.018613219576058104
734,-0.009413868642093565,-0.001976650949202698,-0.017266921109845443,0.005523128640216751,-0.019757008507228734
735,-0.00975735839722064,-0.002501829723905991,-0.022487749389832314,0.0032412310165873238,-0.01924964112673224
736,-0.0098218964988115,-0.003344351476176056,-0.027895923784582305,0.0025580717324236524,-0.01879154549969131
737,-0.011248056625592162,-0.006009060024291504,-0.03396826442918635,0.0022724226549298374,-0.019620568874416815
738,-0.01170819325800356,-0.006977660728202602,-0.0355561297931342,0.002281796051041993,-0.017417794789217705
739,-0.008947095490502965,-0.004288267248366492,-0.029226063970649502,0.0033539203795799446,-0.009939230187900067
740,-0.0043412411363323005,0.0011392180976404244,-0.01882698879086315,0.0053339275715543815,-0.0016342180193955928
741,-0.00022784041250436255,0.004149912324120609,-0.009973668225552157,0.007124603403927075,0.002557627323292313
742,0.0022799646361926808,0.0036902750931476556,-0.004939224572877136,0.007510110652196467,0.0025937998897270294
743,0.0015790600828010746,0.0012180833154016568,-0.005342268125475771,0.005297261412075227,-0.0006265365788077115
744,-0.0027322595937044974,-0.003873500924431535,-0.011458771568691954,0.0008778125814155991,-0.006158943851258139
745,-0.007036714286367867,-0.007311436638180252,-0.018264403301553444,-0.0031150038783607273,-0.009483300969001624
746,-0.008157283152529988,-0.005315099931432752,-0.020312972510128088,-0.004921710250448468,-0.0072760631863657615
747,-0.007277419324827692,-0.0006708217627966511,-0.01882216136250892,-0.005249045944612268,-0.0026519568489539497
748,-0.007512978099604257,0.0005576693354393129,-0.018944748711735418,-0.005695192292648538,-0.0009906857021598557
749,-0.008684460244983407,-0.00040050661244662403,-0.020600661135982516,-0.006531382664246202,-0.0016279456389800145
750,-0.008507583109837244,0.00014455314034982956,-0.020127626728890638,-0.007270936834255907,-0.0005871558799639534
751,-0.0074122388486149585,0.0004670357018515099,-0.01846909962218215,-0.008535305458760075,0.000952448589002209
752,-0.006421319707811809,8.273239701166376e-05,-0.017996391794279688,-0.011256643746424372,0.0009772506017812392
753,-0.005795398736508711,-0.00013780166306043276,-0.01899302256307796,-0.016812838330042688,0.0005999328724017358
754,-0.006480928002404476,-0.0006897335377792733,-0.02181560769357223,-0.026427668472618952,-0.00012108377494766664
755,-0.007249564882936007,-0.0009497140902650511,-0.024486950278477262,-0.03688235990852828,-0.0007888586904307195
756,-0.005745511349999195,-2.0974681808373285e-05,-0.02399531956004077,-0.04292702858295163,0.00031662741798519825
757,-0.0029711518451158822,0.0011523764344343202,-0.021828741277369574,-0.04380966168114119,0.002495582032876671
758,-0.0014199247376012335,0.00035923173329182234,-0.02163525273734394,-0.04224784809832837,0.002951646109932915
759,-0.0009782105552057713,-0.0023389337428167296,-0.023707707396666052,-0.04026655629195959,0.0008098375749598995
760,0.001508499497354636,-0.0026550622676120867,-0.023826312276401182,-0.037426736392233595,-0.0002757976407276576
761,0.006962491273710713,0.0013919789034844263,-0.019458360396298384,-0.03341699721133054,0.0023975193329677192
762,0.01258265306600226,0.006469620882850873,-0.013163785472085014,-0.029633814782518753,0.006346787017393733
763,0.015409419286654836,0.00809695163056899,-0.008835086497622808,-0.02735884467378202,0.00745358913260362
764,0.014416005373431216,0.005147596099789828,-0.008258326133966381,-0.02647231475124022,0.004359361572344683
765,0.011118526585454083,0.00029965966712460347,-0.010606878321445492,-0.025867936835785737,-0.0006513710884382584
766,0.0064253960796768995,-0.005283365047390108,-0.01557309055405226,-0.025287850592692642,-0.006932741069792756
767,0.002285608247629552,-0.01026809878653435,-0.020226465323173248,-0.023801133016350704,-0.012803844405612184
768,0.0019867125852535794,-0.012300003844862812,-0.019579215658225024,-0.01985043533849721,-0.01395342916569446
769,0.005180093863541486,-0.00961291914941645,-0.014019047811886754,-0.013905216734128575,-0.010518082084898043
770,0.009382808424771046,-0.005427173660383285,-0.007389210913542194,-0.007912684959214994,-0.005629395169458848
771,0.012323796989711528,-0.0022136346552111626,-0.003281603563361675,-0.0037962845672006133,-0.0024884281908663097
772,0.013080511362809768,-0.0005452353309479258,-0.0032590735794870407,-0.0015921055349201229,-0.003209732500371157
773,0.013057251457150667,-0.00025024091983412905,-0.005572032393947595,0.0002922258266076337,-0.006591435117824612
774,0.014044043593492218,0.000481784616801985,-0.007445469859893956,0.0027105942752530653,-0.009715714734256775
775,0.015217238214928494,0.0017253059536995027,-0.008760514660101085,0.004868968458082665,-0.01199893548255229
776,0.014928882074710067,0.0015591443986762616,-0.01051006144220225,0.005785725885446035,-0.013844036231416735
777,0.01504428421597463,0.0027074486295634668,-0.010351138303638855,0.006172563179784341,-0.012874263977280422
778,0.016579044921854903,0.006346967270856694,-0.007667039586875224,0.006493424253659414,-0.009202035405048067
779,0.016658347120391968,0.009014477968544269,-0.006747872112290132,0.005826008754999449,-0.007115094567966639
780,0.014661507485576274,0.009327597184588522,-0.008946583705456587,0.004554478951371754,-0.007581960847917455
781,0.012984571074735923,0.00960667431876483,-0.01117779461970616,0.004264069406136863,-0.008224864742734348
782,0.012718314513922776,0.010548557143768565,-0.011691884122876348,0.00519769159467069,-0.008198230668971523
783,0.012975094429388332,0.010972616676365916,-0.011341505858123576,0.005798537174976263,-0.00831106580822283
784,0.01249671208359385,0.010494091365536308,-0.011702606145336615,0.0041394588381046165,-0.009252305404995416
785,0.011053480263049337,0.009354807887242914,-0.01317540557589917,-0.0005011685642197686,-0.010558831472903086
786,0.00877383901848823,0.007426711330097641,-0.015059645232962921,-0.006648736865580244,-0.01183135681274009
787,0.006034911299129245,0.0029605302198785883,-0.01662735016969807,-0.01004129973320535,-0.014398154582747924
788,0.004078167717108957,-0.002089910782350864,-0.01700868373353537,-0.007529364875723114,-0.018352830176918352
789,0.004030931443396303,-0.006772322833424957,-0.01589291124024381,-0.0012839484351539017,-0.02053103482797036
790,0.006495745867734823,-0.009021965975936233,-0.013428723325788676,0.0051252690798401146,-0.018208675861351213
791,0.009295052368335527,-0.008694386395315163,-0.011770419560452279,0.009564203259253718,-0.014157899787987366
792,0.00890922018576065,-0.010806669739150976,-0.013275194851747187,0.010614079051494653,-0.013499127742414437
793,0.006307639375003263,-0.013603929427983334,-0.015402790493276362,0.008811766169887731,-0.015022749523594532
794,0.004079672074371391,-0.013433427797552806,-0.01563136117878948,0.005292221842280121,-0.014706836927681054
795,0.002574304317017133,-0.010948950527166615,-0.01453085627550555,0.0010696960496313832,-0.012093312155458646
796,0.0019784392202145343,-0.008096259345008558,-0.01198675825447216,-0.0018420867180540797,-0.008093357855922308
797,0.0023908090800713634,-0.0046802923158812855,-0.007826471641175602,-0.0023211716628552376,-0.004545786603289277
798,0.003322832113249388,-0.001072714414364678,-0.0029410398356248912,-0.000798495358519849,-0.0033671987093166133
799,0.004565276106125243,0.001928261399198967,0.0014133540228955406,0.002088419264007251,-0.003968944300546024
800,0.005258527943075356,0.0045144631616715536,0.003976928328430838,0.005355874428248949,-0.005113782880103016
801,0.0040282523879841365,0.005504349465702631,0.004391508723290563,0.00774631843721886,-0.006379139661190164
802,0.0026312070464856075,0.0065827549109484,0.005109077424898539,0.009568026272445157,-0.005399959101100442
803,0.003808289587444942,0.010810884097873544,0.00874701267799017,0.011705649454042004,-0.00021843597087739983
804,0.006796793450319357,0.014086481530216126,0.014480146483859641,0.013467482537818883,0.006748943937591433
805,0.009163390493882895,0.015778049795939407,0.019654092121510796,0.013440935056032985,0.012161704798653908
806,0.008305644764798696,0.01495793797280727,0.021207929239252358,0.010749558087369207,0.013601215040844498
807,0.0021748671357680427,0.008304624321259488,0.01699962836864814,0.005433469041521547,0.00866123499708002
808,-0.007862970237180711,-0.0013598370629790565,0.008007867909100214,-0.0013595092815597179,-0.002022744103127221
809,-0.01623419678633414,-0.008509388632466038,-0.00025267781022482113,-0.006724852828266322,-0.011691485536696173
810,-0.019893942666067907,-0.009814238027447074,-0.0029414462023717117,-0.00838640497413679,-0.014811984845799812
811,-0.02104778973721692,-0.007111398266494674,-0.0013768682473965402,-0.006749659676787851,-0.01342630842532394
812,-0.01957146890413652,0.00015266379427072714,0.0031537114564746727,-0.0029649308936253306,-0.009134941118763899
813,-0.013884887717264904,0.01158124127333161,0.011149424762231042,0.0011558145261436309,-0.0017361877558752146
814,-0.007228477108943929,0.022536599099064074,0.01877761684204007,0.0031133491980956905,0.004321845681538188
815,-0.003211648293384448,0.02968243325179323,0.022195947069529945,0.002694402721845571,0.005178974339660178
816,-0.002570159453847947,0.031649138891230985,0.021260874286743912,0.0010444332026060715,0.0012453173393916412
817,-0.005220593777123507,0.03011541641957128,0.01645081450240749,-0.0020742236592247933,-0.005397033964750155
818,-0.008419456953753393,0.028780691907631377,0.010663906371109354,-0.00558443972709407,-0.010774203682810617
819,-0.008604407488591176,0.02914440061250525,0.00771271263905823,-0.006401878443610865,-0.012880931820871674
820,-0.005746965040530496,0.02633286819695285,0.00804033151506485,-0.00342759333215498,-0.013340109292997551
821,-0.0025893772468521376,0.021660698574533614,0.009599295199533111,0.0013024740791260812,-0.013864145820110632
822,-0.0009197503751119322,0.017150203612345965,0.011157842775430785,0.005898385365109373,-0.014447588147616774
823,-0.0008903454054360822,0.011714653725452866,0.012516997283382235,0.010038973664698086,-0.014637538124866007
824,-0.0026083673187611255,0.006812675374847667,0.012639261237140138,0.013464354672428788,-0.014831628619646044
825,-0.004909435610294135,0.0021319380142800506,0.011405876439040397,0.01616967526392133,-0.014379784175674962
826,-0.0058247030891175715,-0.0016481120572495612,0.009951202297425021,0.018485717604403647,-0.012151452364148996
827,-0.005570684457216566,-0.004153013852437294,0.007951690803667031,0.0200668681621362,-0.009027869583840489
828,-0.005835826888172263,-0.005452168839154009,0.004292210275827808,0.020261647191065636,-0.006602042339037804
829,-0.0061852221079793665,-0.006279886033966687,0.0006486471288164468,0.019467882730799854,-0.004003034142045439
830,-0.00529965842980318,-0.006174906122663929,-3.3332149654737806e-05,0.018685659009398833,0.00011705041527218473
831,-0.004509325884023887,-0.0061541749947341875,0.0017200608207167145,0.0178479393572595,0.0039436280295201956
832,-0.006647218422854291,-0.01088294557151465,0.0017657544608006444,0.015926628018330242,0.0032190299155075964
833,-0.011916302443499827,-0.020226250541140484,-0.002542999261916542,0.012473593295214993,-0.0035251271777007247
834,-0.016965787278813628,-0.02971357391241187,-0.008404061107732095,0.007888989035987169,-0.011198594594954443
835,-0.018132838348385943,-0.03475949155553876,-0.010678312791771626,0.003349157230902482,-0.013258097265027705
836,-0.014042772037156197,-0.02676463770337726,-0.006711035736444167,0.00047614633667424815,-0.007302630928710119
837,-0.007711756681099211,-0.012865796396215134,0.0003078798585180333,-0.0006867064640736321,0.0023460535775194098
838,-0.00350213745515747,-0.0018662861008003758,0.004639377090678738,-0.0011882057811405087,0.009124937040038826
839,-0.0016806375369323382,0.007569888746429095,0.0051809531786574554,-0.0009982863725529073,0.012298398636679787
840,-0.0007556247899319687,0.013564192768060819,0.004168934082693122,0.0002258250287957268,0.01443006394897472
841,-0.0007559930671890997,0.01726746271975503,0.003113419089614828,0.0018558672303237093,0.0162880143388956
842,-0.0017954539488712023,0.019766710617004656,0.0023220946341987792,0.003540520557662994,0.016830361901405768
843,-0.002227099632429968,0.02149172703119078,0.0027287920959010595,0.006374671173862069,0.016237937956627847
844,-0.0011831801216994112,0.020800784041132392,0.004599692600589399,0.010253657758014269,0.015633657593443748
845,4.5048323092824636e-05,0.019360922486403146,0.0063824078810685225,0.01262418725879622,0.015425199923635216
846,0.0012698434952900623,0.018895380972697884,0.0077674773803913435,0.012144549962044605,0.0165797325477652
847,0.0030251769036213003,0.01848706209718207,0.008777598088784077,0.009658887214641828,0.018983108815112455
848,0.004917122150563457,0.019148091078961586,0.008993056581797748,0.0056334727208729235,0.02146106563166891
849,0.0052138590360699365,0.017853440918033904,0.007521521091860952,-0.0004982884842053012,0.022128235172836262
850,0.0035331997338091353,0.012632799592884452,0.004718733989926563,-0.007425512376590327,0.02047728952026331
851,0.003009869562502706,0.0072100564097818875,0.004492180068179406,-0.011495322042665334,0.020143780781292156
852,0.004501709210336588,0.0029368411706848967,0.007637538696102487,-0.011767615851296992,0.02171305928417154
853,0.005921760809655389,-0.0018386679967170487,0.010955767187178198,-0.010327712439329307,0.023079396776333836
854,0.006243894545656577,-0.0069534941444709415,0.012949872450117337,-0.008873992245953944,0.02382376330897866
855,0.004252245300385702,-0.01290083434224148,0.01251274079596231,-0.008809249078574595,0.022845994430923607
856,0.00020845154908735486,-0.01914904535846864,0.01031399737708542,-0.010155643431175969,0.021327483661876
857,-0.0028109274632193036,-0.023079030605119594,0.009676560459924094,-0.009874097367953215,0.021411653772995747
858,-0.003136078026937531,-0.02521064316054801,0.011361786334845742,-0.005113380960043012,0.021350828477771006
859,-0.002294785351700418,-0.027621919807161357,0.01277380782909406,0.0027348086446560846,0.01855149318631935
860,-0.0019441103111659318,-0.03025636050532923,0.012336449109341978,0.010158156283295442,0.013319327322678669
861,-0.002878994225947697,-0.03277638843849826,0.010092076792075444,0.014809937738432076,0.006729307819028845
862,-0.005065170863983657,-0.03421157115621367,0.0065719456921363014,0.015974060767436828,0.0008082635022679401
863,-0.004878338891075954,-0.029794283015373173,0.005550597429005672,0.015422774081116364,0.0006912460323115516
864,0.0013270698687774553,-0.016220748991626326,0.011245753874855675,0.016088117998858713,0.008650952069893459
865,0.00989822283210633,0.0005655464940816597,0.020517362454102975,0.01805813145043429,0.017814637016985508
866,0.014542267653097627,0.012991542662754343,0.026837927698627313,0.018875407919375357,0.020836178372071842
867,0.015231610284884525,0.0222162971066711,0.029511117282502723,0.017247990291405026,0.01950424485731462
868,0.014280809213264847,0.023425711363298383,0.029787831268504292,0.013255838552987589,0.018700363078236415
869,0.011147110728372938,0.01984916374410213,0.026225878924552963,0.007291383310506392,0.01564892462963581
870,0.006179945236365242,0.01478090846607515,0.01935347085376203,0.0009201814736043023,0.009492607464517404
871,0.0027590508241260346,0.008880762506335453,0.013803463169516831,-0.0029893123228932044,0.00560453309388578
872,0.002159153897164441,0.007773578220113005,0.012113829482489475,-0.0036389029489112892,0.005485257529962253
873,0.0018659917552864601,0.006913258989455904,0.01215679753766456,-0.0027592231106269107,0.0069986720332062095
874,0.0013096634747483754,0.0037705574848428585,0.013139479523559086,-0.0015711761010509917,0.009158225476990661
875,0.0022684153834121585,0.00213733464358664,0.01631676712413387,-0.0010775533841345891,0.013306966001111564
876,0.005043775303357521,0.006423527408921413,0.02163648500342374,-0.0010535945421261859,0.019061419722112585
877,0.008289562141896403,0.012074299417992925,0.02735392918206999,0.0002997478473741764,0.02457214485323067
878,0.010619724161247172,0.014955747080392918,0.031074677988981732,0.0030111308258834145,0.02688134496994902
879,0.011441680634917345,0.016016363846083178,0.031686290107320256,0.005308288577897442,0.02521366842040926
880,0.009936977394607242,0.01282296361261131,0.028939455269530373,0.0054830170655891354,0.02117267284566771
881,0.006162635620463968,0.006915344944297831,0.02386539800214607,0.003171910210137957,0.015341125290190735
882,0.0020364921810680026,0.0013888865861794615,0.019169375018586725,-5.57464551533016e-05,0.00958969687158022
883,-0.0017867993494670529,-0.004173643677150764,0.01564065834492594,-0.002812873375522802,0.004830157846766565
884,-0.005434252560354814,-0.0085019891489915,0.012939944559583536,-0.004316268168366103,0.0005728300225413565
885,-0.008695025585125483,-0.011427942927870296,0.011057777640652732,-0.0042430571463079525,-0.002545747670020886
886,-0.01192629329949134,-0.013434118808784831,0.009546605850221936,-0.003218842453529585,-0.004490601861088693
887,-0.01526791316083025,-0.014693843436233716,0.00827933557388212,-0.001385655768324118,-0.006101135570871703
888,-0.0179324493630327,-0.015397315139317514,0.007522007993537853,0.0010758025664304573,-0.006617504928715672
889,-0.01822849174842377,-0.013569912760673843,0.008201146392692139,0.0036399726236658702,-0.0038128530063325805
890,-0.016072831389193673,-0.009259550402137062,0.010351068182926894,0.005967880152750835,0.001730752431387915
891,-0.013361487385552808,-0.004472970657644412,0.012300311289397682,0.007608229533761291,0.007721927404187197
892,-0.010627254398310805,-0.0002894081671161012,0.013309450728234232,0.0087059465449467,0.014312943059987048
893,-0.007190693778555494,0.0038830456701529456,0.014115532072874557,0.009436012937409708,0.02147922876674127
894,-0.0037633702615245514,0.006615004379040959,0.014656281350522738,0.009099663514546214,0.027443209431737805
895,-0.0010983326020466038,0.006650554545852246,0.015065569649454125,0.00758659284548058,0.03143592210734263
896,0.0023848847276883474,0.005763325444365376,0.017979649057505043,0.00660818747597711,0.03534413128880843
897,0.006589822394649293,0.006445543764547086,0.02327698034635143,0.007146540733295024,0.04006301688397748
898,0.008342608599525023,0.004597863792873587,0.026174210075923264,0.007860882970240115,0.04202493169969666
899,0.00649103574643721,-0.0005685566066410834,0.02472881443586455,0.007486014266604732,0.04050715370898105
900,0.0029101445926165634,-0.004903693672146233,0.021708030340784886,0.006906462251667209,0.03279023564697808
901,0.00010559785887987232,-0.007842903162134712,0.02001906788246653,0.008349797501769304,0.023965765103804652
902,-0.0011644188942510785,-0.009297363640871867,0.01994017095318234,0.01135512405253661,0.017516569377163733
903,-0.0016685306185870335,-0.008182634017823466,0.020682298504309464,0.012985541343622373,0.011723987192380797
904,-0.0015761989565753107,-0.006317570087937088,0.02206352051651634,0.012211006191218392,0.008856047187977382
905,0.00027275550629124825,-0.0026423862909310267,0.02508537208161873,0.010177123238520257,0.008805980658219428
906,0.004806359285589851,0.0039636183143200825,0.031082169377364313,0.009034940684332604,0.01165702216465745
907,0.010350271916692284,0.011003866221891884,0.038452911193059346,0.010264063342825959,0.016437640344600435
908,0.01437955296901816,0.015240105006164276,0.0439080418414594,0.013064713977319826,0.022000744399213346
909,0.01584937037197942,0.01717069595866943,0.04607159126047352,0.015567821679649655,0.024953002129646743
910,0.013786613447944615,0.01637201661669556,0.044211694783904694,0.015328931105903776,0.023031954510250984
911,0.008556721658887902,0.012020539508587842,0.038717953687200324,0.011209203997023907,0.017042194104806715
912,0.0032096534201423305,0.007063235519297651,0.03267344714169399,0.0053309351201154135,0.0079421089427957
913,-0.00024597043368237905,0.0030917386730751092,0.028259412156637135,-7.646219817244616e-05,-0.0015069343994923415
914,-0.0009312836114575366,0.001644854325807502,0.026696099457689422,-0.004395216303438939,-0.008549559895107835
915,0.0011430034904224783,0.004063071103934758,0.028085381411250356,-0.00811407671661259,-0.012364388015650712
916,0.0025370352158708667,0.002298052188693145,0.028276702999175316,-0.012988725596410938,-0.009506320813368321
917,0.00027394925797818894,-0.004682796035811838,0.023733645576268815,-0.019791113566912426,-0.007916716445231333
918,-0.003335984620323947,-0.011587285128196552,0.017234581670410573,-0.026430125031494042,-0.008757535503278173
919,-0.004071277128571966,-0.015583749681801616,0.013650138216193985,-0.03009577610273736,-0.005288379016174917
920,-0.0021287046554840385,-0.015286308805323782,0.012964253526510523,-0.030533924516559344,-0.0012561481097970607
921,-0.0010189786164134533,-0.01575178604858338,0.012364933301487427,-0.029512588265865822,0.0023103490072163436
922,-0.001580380420808831,-0.01857753686842516,0.012347248888034287,-0.02759309865964895,0.006725504305173817
923,-0.0023579899624584415,-0.01990817375979247,0.014143667406456393,-0.024549297923559223,0.01111305342882826
924,-0.0032922072941608685,-0.024561536215267882,0.015793325646104937,-0.02234169548670479,0.012180788115499035
925,-0.005136632237880263,-0.026972673073720185,0.015422460150467401,-0.02405395533994243,0.014175369050779586
926,-0.007512159454455304,-0.02405269619983267,0.013922495113898682,-0.029084371408863014,0.01963386186288524
927,-0.010024942710225136,-0.01996472953432289,0.011982911973061231,-0.03373687740555533,0.02427412032075853
928,-0.012986143655123045,-0.014210839205770124,0.008622009798601626,-0.036804998074815076,0.027790038139411014
929,-0.015978419909209906,-0.008564859611580659,0.004235177151481715,-0.03904800259415141,0.030882422570895136
930,-0.017942819138345837,-0.0042317538886419955,0.0013860757400516632,-0.039710440350222066,0.03499807995574924
931,-0.018701028238555115,-0.0020331152494423793,0.0013585508195674489,-0.03781697733725169,0.04044955159420216
932,-0.019631301175083077,0.005665541595108002,0.002350490299110361,-0.034449001148637755,0.03916240791376165
933,-0.02104061830074084,0.01223053833561796,0.002802172304456629,-0.031059617223396604,0.0338662203540172
934,-0.02181943837504203,0.014617991516708293,0.002624966485572818,-0.027409893896637633,0.02899156746249112
935,-0.0214820014022097,0.01609411474887482,0.0020909423095124796,-0.022273316886943537,0.02298008636342415
936,-0.021017414730613658,0.010477767460045579,0.0006746092356223093,-0.016171964725633526,0.016806628904402623
937,-0.021354581984130865,-0.000453646152269311,-0.0023933803646579224,-0.011364414831097992,0.008262655607039867
938,-0.020335281169408255,-0.011135004554156723,-0.0045866280200383405,-0.008018021693424313,-0.0004073319118161241
939,-0.017059487975652144,-0.020203787444006985,-0.0038828970382960527,-0.005607129845740741,-0.004981364084472637
940,-0.013224519373808865,-0.013445469687973657,-0.001130467211055466,-0.004548791088721341,-0.0027974007641172636
941,-0.009369764734333614,-4.930419413634694e-05,0.0033089328746345723,-0.004076448645582397,0.003575282332291112
942,-0.006525077299160057,0.010329114500495262,0.008230538048033522,-0.0028111592030554138,0.010386026157351914
943,-0.005153170660221032,0.021296804256479587,0.012879630191785292,0.0004300051275655784,0.01688945133846305
944,-0.00441813658033644,0.02561356176586285,0.017552454093974237,0.005665252813868369,0.020619290362896395
945,-0.005268990699237807,0.02519215566079097,0.0199605474321257,0.011574876709328696,0.01816349331696527
946,-0.009073278884338443,0.02272313540983773,0.01741183379129572,0.016870570187750147,0.0077754130034441895
947,-0.014890678348064637,0.018291308077446077,0.010341299590610881,0.02039189726440031,-0.006306638094013564
948,-0.01986891893104335,0.009510740087124972,0.0018817764802649206,0.02199003949179233,-0.01551190085999805
949,-0.02124183637507394,0.001798359033799286,-0.004110602172623513,0.022849638693300426,-0.017974104437591853
950,-0.018574614905545912,-0.006066860871485744,-0.006041680783044466,0.02391447438544103,-0.016270468337620875
951,-0.015319543190114516,-0.014301444670503859,-0.0068073633723004495,0.024547581169218204,-0.01425304707345467
952,-0.01345113622696365,-0.018353637502237168,-0.008230797768575172,0.024649694666564335,-0.013838525016027062
953,-0.009686187462068483,-0.02058851631379405,-0.007013993690631407,0.02556273127884192,-0.010585081840453783
954,-0.0037993672563406424,-0.02335807455712893,-0.002460213579205163,0.02624750250845966,-0.003197585731433314
955,0.0009071269810798386,-0.025057034624712145,0.002565046845212192,0.02480351792022587,0.005679012721633672
956,0.003780781981757499,-0.02317491414128884,0.006318636262620898,0.021526085023717487,0.013130647519857026
957,0.004415554052705714,-0.019328055053997106,0.0070020959300701804,0.016403264373585618,0.015631526585295916
958,0.001700311664797112,-0.014534014346915895,0.003582817955788884,0.00855090694763547,0.010379202474470849
959,-0.003100695913799576,-0.00803744125572205,-0.0018620858798309345,-0.0009290758898996926,-0.0004893328876609114
960,-0.006552919992504471,-0.0008608836740581646,-0.005818959346598201,-0.008329244432691717,-0.010121099507413437
961,-0.00858173656870824,0.006041231557247593,-0.00868037567386032,-0.013700533155892206,-0.016717578197233983
962,-0.01040349370743109,0.01456574719213891,-0.01204334559109285,-0.019098442391167456,-0.01943892540499227
963,-0.012994273444218905,0.024128521881034117,-0.01669911917542267,-0.025335041799953734,-0.017322851418628323
964,-0.016127890770918574,0.02186841995267803,-0.02282788812685655,-0.03061540763915562,-0.009369210687614503
965,-0.019313707946460642,0.015320203355269561,-0.029887073414606835,-0.033788654452651036,-0.002191144771789784
966,-0.02177780612733622,0.010461734972963046,-0.03584066362345589,-0.03549439597242961,-0.0016568936983132093
967,-0.02070666247263741,0.003150385953709726,-0.03813749606149616,-0.03583097296626019,-0.006915922006126714
968,-0.012178825348725317,0.00020945804470821728,-0.03518196627495605,-0.03480194442152406,-0.012980568662521445
969,0.0007736999523479743,-0.0018636768771591108,-0.029675570751292842,-0.0347550914962178,-0.015524634686396817
970,0.009482190708631322,-0.0065727751334226986,-0.025886952081661564,-0.03690911851347885,-0.017885045905230722
971,0.010992073640672057,-0.01148028609275226,-0.024857316528901583,-0.038778880949162896,-0.022581556860528925
972,0.00859020801687503,-0.010834187270908534,-0.02559436978881766,-0.038282645433513056,-0.02802206627335932
973,0.005722330855922915,-0.008328459415653022,-0.026072761892333457,-0.035616588404673945,-0.030154371396930682
974,0.003969750736511557,-0.006432298321354014,-0.024602125182756198,-0.03139735268094127,-0.027757239337752076
975,0.0029923894257843733,-0.003418503292655935,-0.02223570015720884,-0.026071870505764913,-0.02293822831323965
976,0.0031773900655790283,-0.0027308509678200302,-0.019813525863777534,-0.019572343644904032,-0.01555624664191311
977,0.005991006610096669,-0.0025176629170421674,-0.0169619943529463,-0.011914053780743958,-0.00496996285138086
978,0.010737073106685058,-0.0010707397555483492,-0.015493638011259053,-0.004441764202471417,0.009334572788185908
979,0.014481178177865555,0.0004121944124763783,-0.016545998172418284,0.0017477656870160088,0.02644710170501212
980,0.014681266491863094,0.0025549639440430438,-0.018198854208381247,0.007426969416156655,0.03529317380499363
981,0.012216603893293161,0.00506373317949565,-0.018595180750172875,0.013485026090499189,0.035596468007353936
982,0.009286840148953085,0.007517295565054581,-0.018093729775020353,0.017950856878124342,0.029815292607416735
983,0.006309716621306605,0.008965051222669655,-0.01820808328103475,0.017180736167635602,0.017364818173652645
984,0.003878572047975704,0.008822391227710849,-0.01885044929830937,0.010629845156187171,0.004867213932832975
985,0.0021187103206621307,0.01184029256722304,-0.019242114515529124,0.0013029646372978948,-0.005170418485358996
986,-0.0005413558062749213,0.015533792502000907,-0.020306328227462898,-0.00789360714530801,-0.013059625486246465
987,-0.004511068389815679,0.016449382568953303,-0.022397657673913704,-0.01566760625881529,-0.01773055167097368
988,-0.008398723306267874,0.013918290709919422,-0.02415079991827496,-0.0217196107662613,-0.016781039699102794
989,-0.010113811478592314,0.011337397988695729,-0.023797600733400218,-0.02508677775333392,-0.013397586603006627
990,-0.008541057915928166,0.01156975968189251,-0.020579536069565328,-0.02489345924150941,-0.010309336875587905
991,-0.005302057584743983,0.014172637518368126,-0.015976300364547988,-0.022112371228554455,-0.008010590089955152
992,-0.0031052542146651646,0.017696270390546484,-0.01223230029643091,-0.018375417138086964,-0.008698684762827438
993,-0.0029807993073574196,0.02052726266742699,-0.010510474568863714,-0.015200253550831317,-0.010549143090240725
994,-0.00333076112639707,0.02085116347550615,-0.010268614210105945,-0.012820051786989837,-0.009853834401274172
995,-0.0022439652872022348,0.018359434453390937,-0.009828709978423873,-0.009911621191034146,-0.005151655190082809
996,5.9139513411001644e-05,0.01332505161488942,-0.007900958670900219,-0.005837579732483147,0.0035547010807754726
997,0.0019248844955104785,0.010604571563996384,-0.005089993172177175,-0.0012842054621884313,0.009942420805435092
998,0.002693693987295961,0.010510543655700163,-0.002810088206820867,0.0025867744427750367,0.009783041844674174
999,0.0025712653929707645,0.009743379868853685,-0.0017839077415604874,0.004559717322244273,0.004885487339930682
