,AF3,AF4,Fp1,AF7,AF8
0,0.0022715897534139455,0.012793437684240124,0.0018489409050813448,0.0095729571775837,-0.003813408231365948
1,0.004685517547822126,0.01516847148931319,0.006911029953465723,0.012670686009200498,0.005792595729382301
2,0.01157783187528486,0.021583192282518406,0.014008695383680271,0.016882961008033964,0.017625553354639136
3,0.01885638498358311,0.026201159578879335,0.018621383633548743,0.019281549634876487,0.02518646649404955
4,0.02494866060797502,0.02581526555143771,0.01895541694191803,0.019964198205443373,0.026288054666188176
5,0.027800642983609097,0.02234531801900039,0.016336011852247416,0.023010742479684484,0.02288938655241176
6,0.026966285608628588,0.018169776862345704,0.011605378635102637,0.026049866643263208,0.016840849426818415
7,0.02561862567396368,0.01478927641646075,0.006733180495692489,0.023950343236310245,0.011429519369671192
8,0.02778989588039785,0.016116017844392556,0.007677128928755923,0.020031515317076087,0.013963113079251722
9,0.03405198353671111,0.021440606136244076,0.014456027787287135,0.017177595919449302,0.024054390458831666
10,0.039600989033265664,0.025188002921540983,0.02027558644034882,0.014229640546630694,0.032634113420624396
11,0.04139920362679514,0.025681142461573037,0.021820087432927772,0.010545542285095208,0.03472002668722007
12,0.0408985352679506,0.02529280436607017,0.021252288184061083,0.008067166654873196,0.031382674374469996
13,0.03848050210622695,0.021511195983050912,0.017414747957365233,0.005725512342123101,0.021478743690365856
14,0.03603889471752077,0.016582477063634877,0.013185379775875633,0.0039339550044989475,0.00880780792234328
15,0.037878619581018236,0.017137346896100157,0.014185610972890585,0.00429829475396751,0.0007949387710367818
16,0.04291055476022187,0.01972661089431552,0.017390578111037478,0.005154311999626885,-0.0020510678606333044
17,0.043641608755470324,0.0167944784940904,0.0160402269754612,0.005451832829056631,-0.0036670370852438
18,0.0350640681264165,0.005105974979776631,0.005673176132594489,0.0029090637766692896,-0.00790857972432424
19,0.02129163256477324,-0.012262647344126151,-0.010786555338013086,-0.003260514294396795,-0.015341792253299662
20,0.013113726012540771,-0.02123696366839954,-0.01785127551593077,-0.0036957362460106114,-0.01727022459537718
21,0.01436794369252328,-0.019688495955502344,-0.013248379801060535,0.00014191485642901173,-0.01213923066148336
22,0.019637980342510658,-0.013566029670790172,-0.004437744344614607,0.0034283909027554293,-0.0037933427450446873
23,0.024197753068003362,-0.005391887288955689,0.00471528487862467,0.0060130857213915945,0.007171727315790686
24,0.024229548455122853,-0.0017225779038111716,0.007337605626352683,0.0032887212171510117,0.012939003988193353
25,0.01849822537618653,-0.0036152530531428774,0.0025413617388368877,-0.0033090833648315855,0.009423608133826662
26,0.011553524706817605,-0.0058682606330907145,-0.0035960251429003756,-0.008722079727972275,0.0019056202251651144
27,0.006988509538641088,-0.0064240840136122425,-0.007934325949835449,-0.012202691789791225,-0.005737911815362314
28,0.001094186612132481,-0.011575765418269187,-0.01661537636235127,-0.01947100441570975,-0.012827041492682111
29,-0.008644310739929483,-0.022669633718208106,-0.030926831150299833,-0.02955411693857326,-0.02286646496043359
30,-0.016721362588788733,-0.032479717804598865,-0.042705029606765484,-0.03507157974387108,-0.029286291126375548
31,-0.01605230663855673,-0.03334944798873096,-0.04338855072037515,-0.030709144221708617,-0.021396276475939384
32,-0.006110307468923717,-0.023048158817316696,-0.0304486873107129,-0.015937699653614266,-0.009697593681912337
33,0.007408235848639242,-0.007903869878831602,-0.010465540887974254,0.0017997755048315043,0.0013261710451335862
34,0.019888682585115756,0.005886269337979027,0.008953525849944974,0.015483176987501944,0.011121798760427053
35,0.0304153247922806,0.016935470485245036,0.023882483496938535,0.02341275877761364,0.01703784254284354
36,0.0375301864798913,0.02427335999224754,0.031789870839762105,0.02507856250708664,0.022590921999765024
37,0.043655512485317946,0.030255767767492617,0.03623987767657344,0.023829739030351935,0.027076358868010627
38,0.04906599808061825,0.03497441290257603,0.03896233625306021,0.02132062711150626,0.026059889445827433
39,0.0480631255518992,0.03308235872772493,0.0353232819290809,0.015371066156977647,0.014237189280880235
40,0.036624039028215455,0.01930227618326033,0.02054679650351298,0.00562348046673537,-9.604755999439936e-05
41,0.01817528410858088,-0.0028706416223769535,-0.002252668705706446,-0.005125396025063358,-0.01810501702090005
42,0.0031543798930615424,-0.020014944401617295,-0.020458764355039568,-0.01200045616738145,-0.029958253685333513
43,-0.0007286381067604435,-0.022515228937328057,-0.024437618130863,-0.012313729848508329,-0.020732356137300106
44,0.006744913787344752,-0.012399871572188447,-0.015379259488634259,-0.007322553192179983,-0.009414360265604696
45,0.014236170414618438,-0.003811865517492451,-0.007252639962585733,-0.0037147305152593502,-0.0041016520191414566
46,0.012761225985741987,-0.005878357584252483,-0.009845212235334976,-0.005067293984478611,-0.006928343785471581
47,0.007891878140244255,-0.010934725578605213,-0.015519609754176628,-0.006616463336892916,-0.01440688139351207
48,0.005754362280711799,-0.011238579904113855,-0.016063428591594306,-0.0048230629924883636,-0.01635727170338944
49,0.006035605787093038,-0.009687849647354106,-0.013966211850371777,-0.0016873637943543758,-0.016020736585779103
50,0.010750943954614761,-0.007954536102960865,-0.0104898800275241,0.0018541287996284277,-0.016604061777505803
51,0.022311161726807284,-0.0017949433966132306,-0.0019076702428010939,0.0074035256832275,-0.013032418012987667
52,0.03628689520970922,0.008984250806733794,0.011580085325329045,0.013377907955951696,0.0018710752060320302
53,0.04322364988315138,0.01772720651225139,0.022128513677337962,0.014558319780273584,0.016420437422486053
54,0.03986136673546507,0.017639207374858815,0.022867298216678357,0.00886285629713478,0.02065266398287711
55,0.03080843697464265,0.009091135320832966,0.014979479547554407,-0.00011929269650424026,0.01938257080215701
56,0.02130214436451454,-0.0013315272147090126,0.004439256148270093,-0.007895001051058314,0.015416898178659185
57,0.014540010657023488,-0.008170224871512982,-0.004076600817351151,-0.012576430863132078,0.012527036666041432
58,0.009672341908585931,-0.011641895957471634,-0.010749048902241399,-0.014982610121135304,0.008557039388457435
59,0.005965319986501445,-0.013336767333591073,-0.01559424185496534,-0.015271106045272237,0.0010448440760383942
60,0.008483218963822491,-0.008034104248898992,-0.011963583632595191,-0.009566990036454988,0.0003554900336648843
61,0.020359340927892485,0.00672734821390512,0.003028925266921105,0.002767119682383873,0.011031743251873073
62,0.03176490672296129,0.019816121749084627,0.01673502416274787,0.012700462416676078,0.020487545702504092
63,0.03535228274035417,0.02370545653873958,0.02079857642864047,0.015545229004837832,0.02052335253521988
64,0.033399094012539654,0.02168810743957549,0.01959278397856258,0.015423190028461193,0.016372870147718054
65,0.024816659045699213,0.012336524574175292,0.010834715495308532,0.011537163416398313,0.006419266376210519
66,0.012050979174524764,0.00014247867782732256,-0.001989806306081024,0.0051195623027149185,-0.0037861228484674498
67,0.003357242398190287,-0.007263145420471795,-0.01083103851512282,0.0008139828526880765,-0.009662873092079749
68,-0.0003258203968718829,-0.011574591338924144,-0.016653827331184125,-0.0016619534212937515,-0.014749228735102066
69,-0.0010035903195493704,-0.015684697476296857,-0.019712149055778682,-0.0036255132085319837,-0.0195948640103917
70,0.002557104811996685,-0.015842306885341353,-0.014817344355404664,-0.003695684677955005,-0.01765716627084692
71,0.007485340614929933,-0.01230254289217022,-0.0048908715721142715,-0.003156156693453552,-0.010600720190774151
72,0.009942591093682056,-0.007844146698548982,0.003468003998870348,-0.0031522490598449664,-0.00484310353601203
73,0.011019136724803775,-0.0021888476489521,0.008930377258437898,-0.0022530277390271957,-0.0012318960614085138
74,0.012127522589041425,0.0036026803417642346,0.011835457599527411,-0.0006851706495410875,0.0010908711203883063
75,0.012173376210729283,0.006593401378688168,0.01083169289039261,-0.0011898238563983429,0.0017111284222490275
76,0.008961295480543413,0.004187429501612886,0.004268454169231052,-0.005362554400412317,-0.001263614651085432
77,0.00417732109968588,-0.0014845963665084893,-0.00483048048799064,-0.010339294032378495,-0.006027908323294698
78,0.0020157735152606673,-0.005330894166118354,-0.011080452242297492,-0.012673763484083236,-0.008084413708578618
79,0.004668958856875081,-0.004449723261183461,-0.011981341530504765,-0.011587657150060422,-0.005526221093092766
80,0.01140771790127603,0.0009249202964311393,-0.00750370184029738,-0.00787343067408081,0.0013494334973405437
81,0.015597635016676204,0.00481753712330776,-0.002829518455313916,-0.004255836683431997,0.00693049559643805
82,0.013684860755231336,0.004321201683000281,-0.0008263632135314643,-0.00014833134472672988,0.008928664792767911
83,0.007722928261529897,0.0003966713106633462,-0.0008748324659298134,0.005429504542524266,0.009225556398430253
84,-0.0012798934238604052,-0.008501881475231217,-0.005305890908065792,0.006715512172426639,0.0019233329247183197
85,-0.00910916489859957,-0.017319981144442942,-0.010405797835907367,0.0038183523200065054,-0.007308622047942801
86,-0.01124603493344494,-0.019495513686183876,-0.011211221368874766,0.0003033349791304398,-0.011115438295044683
87,-0.009330637535562675,-0.016493210912769302,-0.010187492291208534,-0.0038207839536538936,-0.011220312745327957
88,-0.006701623294894261,-0.012610426681055465,-0.01050228056719625,-0.006885697869368252,-0.009170811143836654
89,-0.00039865448479379584,-0.006262847521552858,-0.007970229365333894,-0.005556822267846764,-0.004700866371089978
90,0.014841392679704975,0.006199777656541126,0.002645687318627368,0.001367558203458665,0.0036758157158242955
91,0.03545791165332661,0.021120618379791834,0.017447715220550053,0.010231686019059513,0.011359118749145102
92,0.05228470228670897,0.034101849961675874,0.031114207503986715,0.017995643488420525,0.021782682006103622
93,0.05899836437456199,0.041736476422459055,0.039744519203839965,0.022053801988271404,0.029286906048609798
94,0.05415087424859874,0.03946470406450188,0.03922634704948565,0.02061984490381857,0.027976770716984678
95,0.04087857254847244,0.02618361287615083,0.028773532956988375,0.01461422904723886,0.019606828573419652
96,0.02575404278882101,0.007295516750990966,0.012539104332959669,0.005770223403585367,0.005186465141981131
97,0.015872677299396704,-0.007296599170253373,-0.0009001437588550698,-0.00250855637012641,-0.005297070381902569
98,0.012238932800873147,-0.013614972861807134,-0.0077124483021966455,-0.008673964531411076,-0.007904152058285659
99,0.010342581589919287,-0.015888429096604515,-0.011649549942504773,-0.013848707795271982,-0.008025025637988207
100,0.007661654815245964,-0.015011275007217639,-0.012950716265579318,-0.015788313557926453,-0.010236487106152511
101,0.007195484977994123,-0.010792588747266933,-0.009842158912546469,-0.012133656827864388,-0.009406723148187945
102,0.011626884063192896,-0.003098244604340705,-0.0018107251812353555,-0.0025711301163839845,-0.00321681800114534
103,0.014271507917626108,0.0009009472040881209,0.002391111329217058,0.005596105606714571,-0.001564590592048711
104,0.010244566655237184,-0.004240747703029339,-0.004161418341411756,0.004717504371596691,-0.006789106650511835
105,0.008438212713893873,-0.005791790500355933,-0.00852273361747116,0.0017686002200817824,-0.00593247778725558
106,0.013320816934322296,0.002672068499140175,-0.002419276691047476,0.0037017939310009782,0.005270289988867548
107,0.016560437256174433,0.012097331791309928,0.005254199408616209,0.006169282967162082,0.014944238230506142
108,0.012047919838256456,0.014519211400033148,0.004922763356376717,0.002676008031175722,0.014423431848196892
109,0.0031672952790442466,0.012435763926744002,-0.0009234853568226869,-0.005196116318956273,0.007231350301409974
110,-0.0011815142126803888,0.01337027471909604,-0.0021624224755966274,-0.010323296154081172,0.005153468734118442
111,0.0011404459549429079,0.01762953875412171,0.0036036621130832187,-0.010536277308588141,0.011527483122241422
112,0.0030232718098622668,0.018791483727151392,0.009394963272571095,-0.01013758768439099,0.01676905347498623
113,0.003373877066527418,0.018368800702731405,0.014859825981660869,-0.009919985813700488,0.019447325959996244
114,0.006078521866888047,0.023881931566075057,0.025511355389817976,-0.0062592834362098565,0.026554649686261683
115,0.007706586118333547,0.032362504534516084,0.036951382375838664,-0.0004039575095549318,0.03548219479212733
116,0.004884797471385667,0.032295847941595054,0.03884307174978579,0.0029626151613176563,0.03635158192568689
117,0.00032063574043412357,0.02681874812318698,0.034317786909837215,0.005035394248598823,0.030836077069777278
118,-0.004485781264517172,0.01874351976306031,0.026573139948391642,0.006871681884774637,0.021013485165962322
119,-0.007784021214012472,0.008440887980588178,0.016871441815025444,0.007621296741195504,0.010194938898699034
120,-0.0054334036194174816,0.004805361991998762,0.012949739644328462,0.00875603475455145,0.008907419778097423
121,0.0005381624698036909,0.006787505025283748,0.013787572836980481,0.007820188479946864,0.015214586320651036
122,0.0047603541182141655,0.007834010523291308,0.014468828489263863,0.002980007207074335,0.0205370098695423
123,0.005668353192263626,0.005867890837202013,0.0136365528191759,-0.0013556849334467307,0.02083897907713357
124,0.004434927867579979,0.00504274955482628,0.01254326930693026,-0.0008461955239510932,0.017343733353321917
125,0.0027513002482282803,0.005020625879383137,0.01051019606614813,0.00210988914164984,0.010946188218404295
126,0.003428798910567452,0.004269416371427656,0.0092426330143969,0.003555488187144383,0.006286227606906405
127,0.008625077294372101,0.0030010777299144934,0.009897416621142447,0.0009989404025501408,0.0069172450992320495
128,0.013017758995912463,-0.005762647271059832,0.006353764892775601,-0.007172713639617642,0.005852180947157497
129,0.017398991540982563,-0.014498364020098693,0.0014983081956088421,-0.01687753034742988,0.0036147314552488837
130,0.020795675551608262,-0.017497245607160424,0.002915469093079398,-0.020825932457238513,0.005544382718418143
131,0.02251310958039064,-0.016907978514750007,0.00895495592816873,-0.019093794674140283,0.00906592664484326
132,0.024580475455497918,-0.00939741858256329,0.018953628766443336,-0.010350186548838037,0.017088663209010844
133,0.029380675939790282,0.0025723836637609786,0.03129925433186267,0.0023680007272466707,0.030847428013259078
134,0.03307486162284635,0.011657821378769974,0.03893389581413252,0.014378945689185069,0.04414603048706703
135,0.030893141708760688,0.013939253079064021,0.03622638981669762,0.023341241708614135,0.04949676331348059
136,0.02194453057292106,0.005829946095344966,0.021913094111842345,0.025538579586143435,0.04112175012735814
137,0.010698659513148736,-0.006403468785058459,0.0031318721050814092,0.02367482957536798,0.024050805886117334
138,0.005934382376168552,-0.011364957243669153,-0.007354065268230476,0.024807482730383218,0.011679321678671611
139,0.010034842745445926,-0.006613152388000426,-0.0057735722882014786,0.029629065513054675,0.010366161950328388
140,0.014648351041411135,-0.0037277896209797785,-0.002266086536541374,0.030226104198692875,0.01194718106743755
141,0.013880667484230476,-0.007785385580461902,-0.004094553191368471,0.02570172166336329,0.01055081535696118
142,0.00993352382487361,-0.013972744238889546,-0.008859510766899625,0.022294100752990525,0.007826423056430118
143,0.006014174533364847,-0.017970020790573277,-0.012577878836282771,0.02250503547279472,0.005593820224439786
144,0.0009587129456423808,-0.020115426960119098,-0.01679384535695635,0.023721058801404894,0.0023122195442526433
145,-0.004324537466216952,-0.021534188658881855,-0.021465638100262013,0.02424897596906688,-0.001133223370447995
146,-0.00401279158076449,-0.017293697078402854,-0.020639347383547342,0.027836090665696638,0.0011104895188067405
147,0.0010902164196787676,-0.007962656096280652,-0.01565505109026008,0.034256562007744025,0.006442056383834422
148,0.0059846498056996406,-0.0012181896393527061,-0.011111446530093706,0.033661103521930184,0.0056943707148987685
149,0.008344190448791006,0.0014062804836315096,-0.010332752769285752,0.027952728701827193,0.0006050621073519255
150,0.003156248162885072,-0.00615537357832556,-0.01934985357591076,0.018795764097502287,-0.010310360298113205
151,-0.009344999959425015,-0.02448012610812099,-0.03611811971525563,0.007022682751021865,-0.025981703175048693
152,-0.017906892716047854,-0.03783644439811741,-0.046916613299042065,0.0034847965126080342,-0.03306483658959898
153,-0.014871392639754958,-0.03652221252818936,-0.04179228972104136,0.010778278104410682,-0.027139592701990563
154,-0.004057571276855358,-0.02490812258363345,-0.025825980286043927,0.022077398915894154,-0.014562858819037534
155,0.005721396560386876,-0.013799738069958286,-0.012304461007524853,0.02865589226094593,-0.0037638781514658867
156,0.010398103657004987,-0.008344663028010025,-0.007565518461848875,0.0286743807705253,0.0025103183793487058
157,0.01147396113417823,-0.007497533330641334,-0.00698336084686312,0.023176057777543703,0.004427194951044089
158,0.012357296157100186,-0.007009646260896119,-0.004646355445358633,0.016448928337305112,0.004899795302817814
159,0.014748929591204012,-0.003933556165682271,0.0003801514459674154,0.012238142071044232,0.0065259643157170545
160,0.016865637891888916,-0.0007033613747468742,0.0052167513400464965,0.006397240503360937,0.005760612054588729
161,0.020155136723082216,0.003705567686492412,0.010478842802657902,-0.0015699828150340283,0.004521997636772795
162,0.02632444858952257,0.010288226324509861,0.017398470798645427,-0.009017403887182234,0.005767908029212883
163,0.0339320747997864,0.015521387687833439,0.022977554631048665,-0.015919888405721214,0.006478699030945009
164,0.04356080090926526,0.019387669039889248,0.026346992471828812,-0.013903724908379284,0.011643111536200576
165,0.050854090466062526,0.02079971209365531,0.027120643709744745,-0.008608029854525355,0.016663121983703687
166,0.047464709929558535,0.015819581472046765,0.02163095290972512,-0.007297226979480626,0.014596282821873762
167,0.035014629750766406,0.006056632193618674,0.011079495696749809,-0.007680634234308024,0.008979522707928655
168,0.021705606493196476,-0.0028034565916684167,0.002261033632560226,-0.010351286173753674,0.0031145764443536944
169,0.01003794157253096,-0.00983425789085097,-0.0037383338866697697,-0.011507371741318098,-0.0009542343969631353
170,-9.017328235041381e-05,-0.016977340032591968,-0.00946653450456977,-0.008433715196199692,-0.0037694706425484047
171,-0.008920453793422645,-0.026173794670564226,-0.01747945160574208,-0.003403199162201973,-0.007652346363560091
172,-0.0152186408251659,-0.03527051473840728,-0.02622172603733494,-0.0024568363036254525,-0.01209280234129679
173,-0.01631614134907319,-0.039475745105202124,-0.031751057884323086,-0.0038590864497973017,-0.011946767421539498
174,-0.0143171951552665,-0.04075607874361461,-0.0348574118384537,-0.004797100906978087,-0.0110069828059389
175,-0.009817491896483116,-0.03980694269617473,-0.0341374380047315,-0.002199780336376608,-0.011357623668175354
176,-0.0019188115009042747,-0.03479661740185638,-0.027878935984625534,0.008433005080586467,-0.00732737884948835
177,0.004358444315961328,-0.029524146669077145,-0.021355719265818137,0.021258763313811997,-0.0013275977486113726
178,0.004753762840453084,-0.027466363339303326,-0.019636165115901417,0.02925302851149506,0.0024096969672870072
179,0.000842242121337213,-0.027703352402826727,-0.021990031826388246,0.030848394218127982,0.0041704434110974315
180,-0.005166332799441792,-0.029468518784734016,-0.026941180302135263,0.02102554485702902,-0.0016435956008812713
181,-0.009432332047976387,-0.029887209075842587,-0.030949787538725477,0.005825795880958848,-0.0076569081536161186
182,-0.006735298998329672,-0.024553278221986396,-0.028482546221522683,-0.00697493939980896,-0.005228789628590022
183,0.002337162448120726,-0.014747647793582536,-0.01961720248605188,-0.016262713155523797,0.0016952388836767862
184,0.013742466416395229,-0.004026790590780628,-0.007670827959192742,-0.019570971568040434,0.01064256663066057
185,0.022248549286980602,0.003734880112293315,0.002390568140756483,-0.02090089878065773,0.015955669247396078
186,0.02404654508292454,0.005516672718297855,0.006417314124599104,-0.023641991391306395,0.014513537008533377
187,0.021492596496253322,0.002947485826760189,0.0061946028205244405,-0.02420569315769148,0.009816872351205671
188,0.01793070494440118,-0.0013709618879360922,0.004281455306804813,-0.0177717255688612,0.006610957403155513
189,0.014212706812214029,-0.005703525542643764,0.0013831898495779247,-0.00927433503646616,0.0032579380111934573
190,0.00992525913228256,-0.009572168362095965,-0.0021259038675431816,-0.004257474562316406,-0.001837394301338071
191,0.006488527424778212,-0.011780368187995782,-0.004043748766605682,-0.0015670235614203298,-0.0059609373430721205
192,0.0067927117319393614,-0.008434776778807093,-2.6632113876618e-05,0.0008006757249026782,-0.006478651646116297
193,0.014718187935571064,0.0010365058237502027,0.010060763361984578,0.006501364351284867,-0.000358221536595923
194,0.02242035149663576,0.010904683897064555,0.01934931396982424,0.013856882850323441,0.006065567926821955
195,0.024661083102488407,0.017919943749522372,0.022761017260667524,0.01893845775513088,0.007097816611879791
196,0.022427214748183523,0.022576644591146253,0.02063613583241525,0.018802471636606023,0.005510288121216574
197,0.01725967245710146,0.021729232743045366,0.013207891467102092,0.012810151963567724,-0.0013491399396875613
198,0.014222810869251864,0.017470106447743907,0.005844455224778473,0.004982179449808639,-0.00908515188711413
199,0.019444276917075117,0.016660255372941007,0.00549872344181264,0.0006705587567990697,-0.008789919159740039
200,0.02704717441532477,0.01549524414223702,0.007011878171151028,-6.216010197388973e-05,-0.007406331688207564
201,0.02662461120903365,0.00786563455579189,0.0025845373019508983,-0.00010980932857316459,-0.01097062461100238
202,0.02114722791846133,0.00011471443902603341,-0.0028527572691016286,0.0011358446703168782,-0.01345816385028749
203,0.018148512587059143,-0.001638744808650068,-0.003486454520702017,0.002873132706318045,-0.011369043500310747
204,0.013886195677891478,-0.004165982205468236,-0.006014389191874616,-0.00024223954550472646,-0.012446473377890227
205,0.005944674762337518,-0.011285918752918699,-0.014230082556246136,-0.009252919754747187,-0.0194577671620425
206,-0.0016867152096000555,-0.018337632746517507,-0.023195980005761698,-0.019160350499081897,-0.027141565386422418
207,-0.007778507494098901,-0.02253507022340914,-0.02915023241782361,-0.02573854504820774,-0.03163474581548583
208,-0.012175165665886334,-0.023643053365223838,-0.030787324295481287,-0.026600691845442,-0.03426894090526279
209,-0.013593024093796301,-0.021531407155201972,-0.028067250260038736,-0.020864053039600875,-0.03332192669613588
210,-0.01085652493735358,-0.016344104317426614,-0.021244269001415086,-0.010191812027868424,-0.026675530526264434
211,-0.003776706644736175,-0.009103430099359416,-0.010326472150357247,0.003080078745173757,-0.01473452862847934
212,0.005437403293969204,-0.0011415134455993424,0.0032440641667082783,0.01656536672819279,0.000882065452172443
213,0.012736768839044498,0.004204183844521064,0.013474275854127598,0.026821529030365734,0.011950118856996652
214,0.014715259424878814,0.004272459018232054,0.015046375559325859,0.03055340126329591,0.010503707753611407
215,0.012531571039381725,0.0017618175392202103,0.010357149118148109,0.027842439195998464,0.0003744375323151738
216,0.01018652985153848,-6.782886967354724e-05,0.004280016723202205,0.021267263623622724,-0.003091877192715184
217,0.007733771683642341,-0.00252520233259914,-0.002811141262224567,0.012002650570450355,-0.003605062109900875
218,0.0051189678549038555,-0.0051784588549504225,-0.009635131488036882,0.0029922174699353117,-0.00571435841621945
219,0.0023330158646828305,-0.007825223809128565,-0.01520946148157696,-0.0029620050175899696,-0.007301061603424472
220,-0.003694921952891027,-0.015260283647239232,-0.024050346962296694,-0.007577422034564764,-0.021162590058491786
221,-0.013216109941741425,-0.026832942936571937,-0.036492636557315536,-0.012360775383555678,-0.03999539087861931
222,-0.02320030309202496,-0.037051497875877706,-0.047792499900335385,-0.016281769517385334,-0.05052202000117431
223,-0.028952265679618786,-0.03999132480432812,-0.051439951715073644,-0.017112222767465837,-0.049146801971536425
224,-0.02571724257905902,-0.031183114366079588,-0.042252552171950425,-0.012379781344588434,-0.033470921054160045
225,-0.016535256714704703,-0.017195230850346813,-0.0269435860737366,-0.0024158076737405805,-0.013164532964586204
226,-0.00707851465961208,-0.006321886219418589,-0.013993214014295853,0.009376228921511479,0.00039865582932904585
227,0.0034057993348953573,0.0028123882254346556,-0.0019638778146105888,0.01983592695397824,0.008618544954901485
228,0.013977079805092675,0.009827566259902285,0.00824187971924496,0.02577289216619492,0.016608347352563745
229,0.01835462039631236,0.009302045606777304,0.010027780649874026,0.02364665116060282,0.018406757136159153
230,0.016402429679946942,0.0026029345279908796,0.00399306034839979,0.015392654445638686,0.014848755020800766
231,0.014956317076611826,-0.0017748949499305257,-0.0007405623271139487,0.007793565696866453,0.016294237098180352
232,0.014905257986078764,-0.0030514722046061887,-0.0020514861101542333,0.001804579061950658,0.01892233160755707
233,0.010335130797111215,-0.009602856566359454,-0.007824646953927457,-0.008138117520890446,0.012474143477516833
234,0.003554199918237844,-0.02079605813656639,-0.017761056350391095,-0.02119901798498544,-0.0010413992958965977
235,0.003407884999779522,-0.028841555033395572,-0.024286290664923663,-0.03064161209441182,-0.013107894271671559
236,0.008547768145865754,-0.032930221987853045,-0.026903460957224033,-0.03429803333000368,-0.020598149355776498
237,0.011060116030953854,-0.03538115199790039,-0.028439974153696864,-0.03252104136105774,-0.025572203252706774
238,0.008146295358620086,-0.03653584515402101,-0.0293206708099871,-0.025708538896018,-0.027421215453145444
239,0.0030553742193298095,-0.03554605165483198,-0.028370550660179038,-0.016069109758046516,-0.024089278630294482
240,-0.0022314281689393765,-0.03369155632197184,-0.0264110188550246,-0.007958514831122058,-0.019510062966406568
241,-0.007645717778837263,-0.03241108700280925,-0.02472735927088082,-0.004328409449741236,-0.01714057720775433
242,-0.008913528482878328,-0.028301656234112703,-0.02036745307339311,-0.0030348315259297667,-0.013802842973801714
243,-0.004454976217386473,-0.020544791475953277,-0.012783327866108573,-0.0016556210130326974,-0.008240993967594597
244,0.0011747433340658635,-0.01116595947074324,-0.004098773792287408,0.0017110762680993897,0.0016471501580679077
245,0.007341306685168418,8.678937148990837e-05,0.007227083024671625,0.007958840668056601,0.016469333362971246
246,0.015617909463499793,0.013971179404530075,0.02273295892215791,0.01735764645176383,0.033331284839925084
247,0.021851517694954258,0.025259697329754242,0.03549675342765691,0.025532584342930403,0.04393897681329503
248,0.019988488396202216,0.026430359077769902,0.036383796372289265,0.025429343959557663,0.040051744245016736
249,0.010234492470675788,0.01801474855132269,0.026713477373610142,0.01833523572247986,0.026135658573150127
250,-0.0008343520996175559,0.007346326056268847,0.014830171702795963,0.0112255538382327,0.012274709770935723
251,-0.00855828788701506,0.00029589672278002406,0.005782302098491271,0.007891126089003173,0.0037349861152240174
252,-0.012661718538108978,-0.0026265652036537596,-0.0001979076721704815,0.006660552378416529,-0.0003822440510722591
253,-0.013832904604875752,-0.002043504704650346,-0.003276565695808827,0.005357361122248287,0.00019874522282742953
254,-0.012854513863830836,1.9349533175541156e-05,-0.004323536008428117,0.0027925201215924507,0.00268793044827101
255,-0.009026100997256965,0.0034108422049083727,-0.0020786087506389017,0.0009195512746155916,0.005950106675949673
256,-0.001233777540972792,0.01164907964896835,0.008477216815851457,0.003365409232349214,0.01715819628621227
257,0.0051966418600798295,0.016815428734432394,0.0160600534229225,0.006234465272407651,0.025122905041515698
258,0.0018683407817124975,0.01197099786340533,0.012814404110272641,0.0025095115437286436,0.02123553740081788
259,-0.009745319311725915,0.0011129793467895463,0.0014342621701651293,-0.007344751336394679,0.008070181830654721
260,-0.021050459758329646,-0.011299450280109044,-0.012359221694847945,-0.018627542797910727,-0.009614859329408705
261,-0.028362873737109117,-0.019860125303793597,-0.02187193179783603,-0.025153720967274914,-0.02440178897740678
262,-0.031199459354836704,-0.022401936990602063,-0.024049730694911876,-0.024685142226689424,-0.03190668594343497
263,-0.029050865382391725,-0.020309537783042036,-0.02056323093819427,-0.019163781851092892,-0.032594978795232564
264,-0.02549361290036161,-0.015608273198641193,-0.014595959829229928,-0.011028750246348739,-0.028014797154613136
265,-0.022966742833510054,-0.01300465318956192,-0.009901069544102295,-0.003449713661756924,-0.022017952237270665
266,-0.01779046206833217,-0.01027370945556288,-0.0033959174072515515,0.0025916649536013004,-0.012667892405136714
267,-0.01020457797740696,-0.006982038515461676,0.0039044836314727147,0.005397959744851071,-0.0020914754147106965
268,-0.004981656519024219,-0.005448159992607647,0.007218463871909234,0.0035879599108861455,0.005190946223282537
269,-0.0023360580170029405,-0.0071849261892784535,0.004554997157971031,-0.0015080436797990774,0.007147969183451555
270,-0.0009456322262965498,-0.011341699164225286,-0.0018055598399069547,-0.006457952787547069,0.004383932079306142
271,-0.0023184955847712387,-0.01784409379751606,-0.010047792113192141,-0.010232211491366501,-0.0028026188616466817
272,-0.005241466236948383,-0.02687861573390162,-0.019234201480814304,-0.01429029282665266,-0.012712087350574655
273,-0.0057809313247541,-0.034195263524050286,-0.025193107778520737,-0.01874675884264471,-0.018904306022131338
274,0.00045594176425908946,-0.03562365128965934,-0.02431694636427925,-0.0228530497241222,-0.016994787491928842
275,0.014815861101384022,-0.030095854693428136,-0.01670285204027105,-0.02631055492727164,-0.00849432342605659
276,0.02697256694135632,-0.018511354874567024,-0.006213979936588985,-0.02835129889163942,0.0013830428558528165
277,0.028789601019763675,-0.011310948122235645,-0.0014663586206055507,-0.03023820635196606,0.0035135569324063914
278,0.024421460450005726,-0.008753238924927713,-0.00016157530622604128,-0.02881437363744933,0.0021871521640965826
279,0.017709234667683094,-0.0071600806568757145,0.0009239635299596184,-0.023546688266068806,0.0023051221025000576
280,0.009519068054870858,-0.01090315097405476,-0.0028979097782145494,-0.020240784848945433,-0.0015104741215623886
281,0.005170714761437178,-0.011989194866677565,-0.005017899765793103,-0.01660281520698006,-0.002327868076439069
282,0.0059991061191363056,-0.005820838968181669,-0.001738321198473259,-0.010208592722633828,0.0042865292329168575
283,0.0026652459276351125,-0.0031268647362460078,-0.003929717500993885,-0.0073728638160895175,0.007297016878536967
284,-0.006588165087786577,-0.008629448072798623,-0.014308631122944886,-0.012291314582178386,0.002007542662873547
285,-0.014817243216752974,-0.012791053153826904,-0.02101637406922243,-0.01991395467662479,-0.0025820379290036216
286,-0.020002890939570556,-0.012824892642925982,-0.02057696080448795,-0.02639439295084682,-0.004711387849437282
287,-0.023412896210220312,-0.01163564020224061,-0.01725791236298298,-0.030063174336361236,-0.006926605783305398
288,-0.027182385741010156,-0.009817965997347772,-0.013887232429403344,-0.028979643250768527,-0.008338967027574782
289,-0.03451403700123804,-0.012168695266810541,-0.016511626967859006,-0.026711183917990884,-0.013612950509575901
290,-0.042312212581183443,-0.01567130996751951,-0.023779803264205153,-0.024424886041510475,-0.02091413678520198
291,-0.04210603124561582,-0.009707420291301455,-0.02539402012779075,-0.018229253518893478,-0.019245021368357866
292,-0.03205983051283127,0.0006858442657535519,-0.01971339943955054,-0.010484920274922635,-0.009644194623638871
293,-0.01829525168942772,0.011944555968457882,-0.010396491309886078,-0.004357228307981745,0.0034790798872454884
294,-0.009307091177169394,0.01794938066990518,-0.004860922901787917,-0.0023541893482350268,0.012443274944395028
295,-0.007042716595992787,0.014515177091772956,-0.005935273614007143,-0.004613257449141281,0.01391487741279085
296,-0.006005582189955464,0.010657265031288457,-0.00710540317739497,-0.006752318953062782,0.015493254234296686
297,-0.006530989050226966,0.00450389545856395,-0.009632145941893992,-0.00966441183732575,0.014411344779928344
298,-0.01165273599153579,-0.007483568584180152,-0.01689629448948026,-0.01542624888664588,0.0071266114914769136
299,-0.015707495641810742,-0.016477311545809302,-0.021715287013459376,-0.019902572194804232,0.0029712801898045924
300,-0.013855172845301304,-0.0147392096626686,-0.01849869521425135,-0.019498498878325304,0.007839852599242202
301,-0.008509768062500457,-0.01003433568960199,-0.012361642217941246,-0.016697450688391742,0.013393640443231044
302,-0.005454822526684336,-0.010262382491699223,-0.010629996455539992,-0.014972573459669892,0.011755882358121788
303,-0.006778190054556201,-0.013345666019150744,-0.013969196401701262,-0.014845217683313743,0.004555145867265932
304,-0.007150759813975273,-0.015101633826802852,-0.015094443107722089,-0.01313035234316293,-0.0005558164660995217
305,-0.005389383947275119,-0.01593048947207836,-0.011576486895249346,-0.008051662664819513,-0.0007011257586841413
306,-0.0058668999465036915,-0.02036657266191421,-0.008849349153155462,-0.0024127647443749987,-0.0008429234924861603
307,-0.011316933604920263,-0.030204553500356696,-0.011517044759806097,0.0008319199960210914,-0.004922045579709194
308,-0.021883161157995396,-0.03803212619987269,-0.020881543647722583,0.0011466591106181316,-0.013412772792592065
309,-0.033184625399067864,-0.044034374193245185,-0.033643101645880406,-8.26330392586072e-05,-0.023016874151812826
310,-0.03648979520931381,-0.04597667020109255,-0.042098390870121044,-0.0005132578230559426,-0.027302137983216568
311,-0.02619015447629196,-0.036201684821045244,-0.03814498485835326,0.0031820097915173286,-0.01962427101547145
312,-0.009156493124716341,-0.019842320312573273,-0.02342995188841039,0.010999540700944242,-0.002921437461754423
313,0.003345298330970079,-0.004961000543593902,-0.008270309921329835,0.019081051017844197,0.01126633142235523
314,0.008834383630482699,0.00522304271529741,0.0015580294276795667,0.02485123924573244,0.01775725056747255
315,0.008673114735516624,0.009429023143772754,0.0044081574577147535,0.025934468967571178,0.016612419560201187
316,0.0015352710371363649,0.0030654061429909807,-0.00207577903905288,0.01966640068434073,0.006344607211393861
317,-0.010759187948051772,-0.00939438887314267,-0.014373101828712032,0.008323346628082285,-0.009640488355170004
318,-0.02265700937391283,-0.01965309556998389,-0.02481797957766842,-0.0019579883741518136,-0.023367777595745338
319,-0.031104504999440393,-0.025252770216679,-0.030197952646894077,-0.007160545173529827,-0.03156261230218522
320,-0.03526320376084536,-0.024199196809408515,-0.03170471642683049,-0.00586461397907965,-0.036589941137531945
321,-0.035622376289651626,-0.018174105399045598,-0.027315226160677747,0.0016898438747353188,-0.036204125438961274
322,-0.0307413370659878,-0.0066168120609674825,-0.01829991117877689,0.014061321631031097,-0.03065469053463311
323,-0.022236942651272833,0.0076842470373423835,-0.00917884287722746,0.026802162680874167,-0.023979875986330224
324,-0.014880408388700472,0.012990188952522892,-0.006633047374925175,0.03425721557131533,-0.020560436510688923
325,-0.008955321782394948,0.013540609056404728,-0.008419439196157195,0.03557691005552431,-0.018869734049694293
326,-0.002701023895815803,0.016693040360859165,-0.008893698334261912,0.03271689051852271,-0.013021390553508979
327,0.0028054057914963892,0.020252824291700833,-0.007813527293516963,0.027114377161595454,-0.003058127314196455
328,0.00438587483508076,0.02113320455446579,-0.009522849201295912,0.02019401199212921,0.0014142004260766863
329,0.001132088789565216,0.014884849653938565,-0.01583906238354816,0.01479084334521428,-0.002914670524074632
330,-0.0037504349582906647,0.004704263762161574,-0.022038276227676762,0.013382351532772162,-0.00843421954830049
331,-0.009785284056107965,-0.005487011937258034,-0.026370518001540694,0.01300169532213318,-0.01038981793916822
332,-0.016606366996011538,-0.011959194294397816,-0.029083012066194056,0.011626511219344894,-0.010076585083138948
333,-0.01835404660191614,-0.010847222920864286,-0.025252591705960288,0.013129659427628877,-0.004481646026095035
334,-0.015392995932126324,-0.0050575119489894675,-0.01656465919796143,0.01767228782805267,0.0030799989559806237
335,-0.012740927304635217,-0.0006786407695539906,-0.009363518603265899,0.022203105625706744,0.006616824446392223
336,-0.006359944495978471,0.002609623500606101,-0.0019295451530935662,0.026706154318050814,0.01132872736953955
337,0.0051681169405917516,0.006011586522295266,0.0049257569400000464,0.029306343413947434,0.017621990464714393
338,0.012651836082107454,0.004993263817244008,0.00549816958903046,0.027480710874813758,0.019024115589987227
339,0.009338102620274295,-0.0027439717742747728,-0.0016681409021193745,0.022419260040899353,0.01356298153534414
340,-0.002528721186012688,-0.011607939615640687,-0.013243772799897248,0.015716401477712406,0.0026039195412654453
341,-0.015184749570867724,-0.01927278351779798,-0.0227350969366668,0.010893722191037864,-0.008572405939442512
342,-0.024387519977878618,-0.024830670548380087,-0.027746764279606904,0.010252879553611857,-0.017952560482620138
343,-0.027960644069865762,-0.023527240744290395,-0.027464551803042653,0.014662868493600371,-0.02248759322676207
344,-0.022725220102741122,-0.0130598120753527,-0.019657625730919375,0.023791582044661294,-0.015798775231816907
345,-0.011290906345851892,0.003695402304630208,-0.00766564117683969,0.032300027139584145,-0.001457924366637119
346,-0.0013875121621502477,0.01865611666103458,0.0013734729993750362,0.034681375016701495,0.01002497993597223
347,0.0043581151084153315,0.028417177816844108,0.006632986934114799,0.031546260648266176,0.016625538443397286
348,0.008843957214570508,0.03433521787267789,0.011919732503673605,0.02741564405440911,0.023286196598862986
349,0.012446793698113624,0.0376101117472774,0.01701624726183356,0.025314182737075114,0.028584223651773648
350,0.01569203229721848,0.03948871760752282,0.0218126635345458,0.02761517017397801,0.03126738677053903
351,0.017096494878344925,0.039139112467752965,0.024411065669984452,0.0325586247189602,0.030861655871883893
352,0.014917411491799508,0.037842601831592375,0.023328179382466646,0.03697097943349544,0.027500931056682217
353,0.011181302281744772,0.037216533373470445,0.020433846844759334,0.04059754422294594,0.024064664088396543
354,0.0044638460477502105,0.03313467682346913,0.012558805249170534,0.04048076132944906,0.016838859323531786
355,-0.005338503151682734,0.024786342598923365,-0.0007408084551404072,0.03405856812685975,0.004088010899054511
356,-0.013929711240281766,0.015552796558580426,-0.013432861951104913,0.022418856339308367,-0.009032144243298243
357,-0.01998880482498864,0.006967534416230668,-0.023062511687346594,0.007847483223282435,-0.020172121554046935
358,-0.02574057105812431,-0.002059397843432514,-0.031613123265867356,-0.006842803434081545,-0.03004718006874529
359,-0.030889445627816755,-0.009024111228561187,-0.03813046266154771,-0.017805784633316047,-0.036111544534231065
360,-0.033503777270967615,-0.00989003601994618,-0.039849894251535546,-0.022980883163735567,-0.03608604894238668
361,-0.03594264268522127,-0.009010039558527201,-0.03990452677321091,-0.02606831160694338,-0.035177891291650804
362,-0.037859638355211576,-0.008863418591525467,-0.03957397575364984,-0.028635330056574912,-0.03502144812330441
363,-0.033114616507410155,-0.003807242278202063,-0.03293807536694542,-0.025988379806445357,-0.02868053265545735
364,-0.01987361252687926,0.009466865029319134,-0.017854523149613392,-0.015669096785149536,-0.012772696909199986
365,-0.002693062253265063,0.026735028990956408,0.001099061542151248,-0.001642028905590117,0.009232336184980577
366,0.01170355605525038,0.040829268087242576,0.017457146523120606,0.010071324988124101,0.029410606665739216
367,0.017676930827976528,0.04517433381878447,0.025134886088846946,0.01439208827913682,0.03841734286255128
368,0.018182064290689675,0.04055290725370702,0.02518596523296739,0.010797740350842109,0.03629935936344309
369,0.018222342020941026,0.03296605905292207,0.02271334720117218,0.002832182566787509,0.03048240398687711
370,0.015562972615319599,0.024906007531760574,0.019403636046253142,-0.005811756637658776,0.02575301814478544
371,0.009245608615343601,0.017223591051533576,0.016100049594693973,-0.010609774354739194,0.023100827646845762
372,0.00217646332663708,0.011264944473447024,0.013236263193599145,-0.004122720023047861,0.019920352578882052
373,-0.00451809379924954,0.00483455517907774,0.00990539541464959,0.008668977748922094,0.013579576947396933
374,-0.010883544258150149,-0.002055338891140488,0.006119200154408457,0.020824911361947966,0.005466061742926269
375,-0.014774729123880552,-0.005486218619352787,0.004964581458160968,0.03131210479088955,0.0006924622530091495
376,-0.017164873581357803,-0.007089683896343695,0.005222131840354364,0.03445331701412368,-0.0007075753508740878
377,-0.022133908188237603,-0.010273189943716681,0.0014543179199914607,0.028449539172142834,-0.0031247521243008606
378,-0.028459164832356065,-0.013383590363111248,-0.005944024877958452,0.017579509130673732,-0.006363514397194982
379,-0.03246409819458109,-0.014253486173996709,-0.013850382622863599,0.005870542455561858,-0.009249146869292381
380,-0.032352031515317264,-0.013514961034073252,-0.02024556487232796,-0.006029646326398365,-0.012209977093830078
381,-0.02956070941582497,-0.012676414193328048,-0.024762448230711262,-0.014752186312984718,-0.01616953797023896
382,-0.028261221025125138,-0.014171963306675727,-0.028829836640795716,-0.019151690705891213,-0.021761149419149788
383,-0.03009288084044511,-0.017639276585678283,-0.0324596660583928,-0.019892490335269058,-0.02719342828915641
384,-0.03697588386274062,-0.02103594366520601,-0.03818820237444506,-0.015473227687607923,-0.03197576016654676
385,-0.0411876683251994,-0.021428651451181478,-0.040216949448031836,-0.006548257588826962,-0.030023026454140442
386,-0.03993631899247992,-0.014944464286579357,-0.03589890877173687,0.007469061816077037,-0.019603510707149007
387,-0.03474759181812231,-0.004888956707564799,-0.027607418174030365,0.023662093937938264,-0.005757480809852408
388,-0.03004349363706584,-0.0028125191011463195,-0.021321748704180774,0.03127642448904591,0.0038553681996860755
389,-0.024228023140122956,-0.0031669370399519804,-0.01605348023714662,0.03470828853035119,0.010056509191875854
390,-0.01286089801835972,0.004244227045098331,-0.006005693917058546,0.039042729479388194,0.018149130469841585
391,0.0001101855085242432,0.0150809784844786,0.006675467899378447,0.03985126885554982,0.025449602414737826
392,0.007282032453302567,0.022729193351221158,0.014607494341512489,0.03810413104510582,0.0268286864747766
393,0.009437642970645779,0.0248157471084884,0.01778671919179325,0.03477640322731228,0.025594839009018475
394,0.009758411557516677,0.02264576736450532,0.0194222420547629,0.030454543454362014,0.02545720550631905
395,0.006512115294974753,0.015122842044334714,0.018044091360315245,0.024065010026903644,0.023239279519060595
396,-0.0008752222648842346,0.003542479323787501,0.011792659095295137,0.01694742713538149,0.016199006880573037
397,-0.004162266532934308,-0.006329099455309878,0.006209147507078184,0.010622413074601619,0.010619045523580095
398,0.00105848651566065,-0.009041945891735358,0.006465121705624273,0.007669909620099349,0.011806532533720786
399,0.0044506609376720385,-0.009584710460274915,0.006634608416665603,0.0061784528943025835,0.012643715105552423
400,-0.0009960686013855424,-0.01551338446423278,0.0018622755470619414,0.00047903388662231275,0.008373390498157858
401,-0.00939050103713094,-0.022143782635550096,-0.0027683744453940794,-0.00682062416060256,0.005883044804980701
402,-0.015971647755724294,-0.02632550429236288,-0.0042651155086685525,-0.013547206796023703,0.008091086932322753
403,-0.021283041419917544,-0.03237716189310778,-0.005196917554205517,-0.02098638764772316,0.009838552588315626
404,-0.024708008609956995,-0.03609752528403696,-0.00547910499365131,-0.021411812649721515,0.009569968220012442
405,-0.02423726741326265,-0.035818404762672534,-0.0016466997647400063,-0.016916575239276057,0.010819982157308611
406,-0.019432351691045482,-0.030103763556337437,0.007181567675396851,-0.010398181412579213,0.01627762251681937
407,-0.014263850567865333,-0.021084247762756848,0.013827371105818602,-0.0017467576744925532,0.021536583008813073
408,-0.01589219522036289,-0.020216314531394233,0.00785264369753526,0.0024522112575578988,0.017539459475291275
409,-0.02175238214793109,-0.022904132819813884,-0.0054218269683636,0.005770556843069571,0.008963010537557875
410,-0.022469422071124373,-0.017065745670823994,-0.010611510374709445,0.01328368532018551,0.00807918135463547
411,-0.018785061260153113,-0.0057104847931159445,-0.006009494268415063,0.020279445028788038,0.012950577119351221
412,-0.015952707866875367,0.0008859758652173001,0.0014280382617882874,0.019588542456922636,0.016342428023076082
413,-0.01356996322977484,0.004281683291656437,0.009009781135520872,0.016061301015327753,0.01898059170938859
414,-0.01070147990993661,0.00758287964190714,0.015159086342068348,0.015013773237939416,0.022084696274183385
415,-0.010292369231315684,0.007340491790787726,0.015634001665872442,0.014705026129576486,0.02165509266688307
416,-0.012204365571321886,0.005756717921083237,0.011197863932787492,0.016637053835545573,0.018012353060203642
417,-0.013990011959276571,0.005035649470948003,0.00584888955464759,0.020396429692978477,0.014316358092080789
418,-0.015972721166233956,0.0039809568588607186,0.00030779612014383823,0.023531923541559432,0.01080062142721981
419,-0.017676298888811795,0.004103081654988382,-0.004645905567658429,0.025449351355253755,0.00920686094034593
420,-0.016424960731686665,0.007570347085605953,-0.0065487791836392325,0.02236478339485887,0.012828638715551769
421,-0.012124924212314434,0.0153879344824553,-0.004638711380880148,0.019225818362191064,0.02094502417762102
422,-0.009827462877966034,0.021360851799936346,-0.0029059530162872144,0.01777562119788621,0.026960508999537513
423,-0.012011449663718695,0.02039243522025924,-0.004364098473129604,0.01485237116526582,0.0265811742309387
424,-0.015543772342681698,0.016088023363314462,-0.007328545442640248,0.013105271884215567,0.02160286923157643
425,-0.017603134348869422,0.012436788980065257,-0.009103670820155844,0.011016553208080168,0.015976761901346986
426,-0.017496786456392726,0.010984438281847492,-0.00837465016429515,0.0071271225169024024,0.013145415005498963
427,-0.01479675701459687,0.011766759639197584,-0.004937388793940051,0.004552915476898289,0.014962072685428273
428,-0.011076946935026533,0.013412924562600237,-0.0017224992922302048,0.006188314482468382,0.018751451983411174
429,-0.012297637195861686,0.009946349949707379,-0.006318900475718856,0.004937067865547421,0.01657207029990642
430,-0.019112285602566403,0.001970274934114647,-0.01806264340774026,-0.0015592798273716243,0.00842946900951293
431,-0.022151008980830677,0.0005944520336037096,-0.023302577845046885,-0.005088473881399882,0.005780741401910718
432,-0.01795608396739543,0.007556780790311384,-0.01728782055962457,-0.004548082317998864,0.010977175524384496
433,-0.0133947329499843,0.013572919885401413,-0.010079262352301912,-0.0042606491769398,0.014276166691635441
434,-0.013940528070266743,0.012888078954173652,-0.00918427063360901,-0.006770219142435757,0.010508943905926455
435,-0.01732678637194125,0.009615490501343013,-0.010766856918409791,-0.009814024320101027,0.005132643189395869
436,-0.014947190869644338,0.012111384428036966,-0.004816348099397053,-0.00517705986434999,0.00816350835261749
437,-0.0028994164346799827,0.023072875865732242,0.010044930891458151,0.007650648362130015,0.020137797714426187
438,0.01174557176732885,0.03330417977016361,0.02277443004729059,0.019852563822845122,0.03001591645417057
439,0.02137422278565388,0.036502395683788484,0.02730122743480398,0.025744837941447836,0.03293926171440776
440,0.02408113676811958,0.035509916842287235,0.02676962180705802,0.025080902055475977,0.03201462012201609
441,0.020474693138602992,0.030429474051583225,0.022432406877064798,0.020038762080862322,0.027875759317546715
442,0.016250724033685594,0.0254315050719947,0.01922671464533675,0.016299360998093676,0.0262062791830769
443,0.015027628719528511,0.02414478654697976,0.021380162150259858,0.01775101595459921,0.03086774391643001
444,0.010343356772347325,0.019117447535819034,0.020855984436440548,0.019457697521004905,0.03188882456744738
445,-0.0009708531869082091,0.005740619365817136,0.012482503887320497,0.01846987953938798,0.023340510350519605
446,-0.013937296843217947,-0.010474878011882852,0.00036116132125573646,0.015662397021568908,0.010640877069726095
447,-0.023268932083863943,-0.0231051705698666,-0.010417595518186676,0.011132846530017176,0.00023394229504899574
448,-0.025926775307317334,-0.03160771090902771,-0.01602587183314843,0.006317643291607769,-0.004723264581676903
449,-0.01972099752566408,-0.030159869537328583,-0.013260061542562774,0.0037986008684377168,-0.0024205150348672816
450,-0.004900555097326526,-0.020765001286670148,-0.0012935572544964082,0.005890818184739139,0.007186627853448963
451,0.01341651819141794,-0.006954225555788497,0.01605013859289494,0.011584733956629671,0.02072325116878323
452,0.02957011706368442,0.010442949129131452,0.03366355763725722,0.017516993935267126,0.0353816272916201
453,0.038126831953783594,0.02336847032574838,0.044439846870823904,0.018941409745384427,0.04640484316431588
454,0.03608347172059024,0.025637687320412595,0.043474667920595976,0.01397962382543812,0.04862249184407147
455,0.026288616822933368,0.019604105934174894,0.03396373438536766,0.007444840234049749,0.041772404060258096
456,0.013589956454000133,0.007590610117465367,0.02205433444659527,0.004107828567435057,0.028930699123202543
457,0.002294736256390395,-0.004184744061860272,0.012856778027390013,0.004055919623280261,0.015811383315562734
458,-0.004698379606168271,-0.010211664550548897,0.009364867033398285,0.00623503450786053,0.008319536149915818
459,-0.00661622846200216,-0.009902824738122531,0.011754863004253381,0.010370903380198963,0.008946581173861285
460,-0.006496963600273523,-0.008870535205467161,0.015237857254084592,0.013532976676985895,0.012543276600268577
461,-0.010526557253889925,-0.0128300568400786,0.012267868241299057,0.01043168597351342,0.009477587198341323
462,-0.015875652340382348,-0.016970452921850888,0.007686722660041565,0.0036282695078947037,0.003884455501448529
463,-0.014329166818904506,-0.013211033798480522,0.011804891809304163,0.000636499318603084,0.006839004073383043
464,-0.009567382670798737,-0.006850619994882559,0.01871959762436606,-0.0007477631128696249,0.012357447878805116
465,-0.0093583595600265,-0.008014641602884816,0.0179076737065135,-0.006536149955540891,0.009300508552515132
466,-0.01101772633210541,-0.012723971612284791,0.012873560865253241,-0.013963495488421246,0.0027281894597279725
467,-0.005682736378409698,-0.008974914315865775,0.015072453742849205,-0.015387600439024804,0.006150828449459743
468,0.00731818848662735,0.0028585399304748597,0.02529982720615233,-0.00993237892908578,0.01905534244491554
469,0.019646767970679706,0.010678165745051987,0.03159905999288664,-0.004799333305173129,0.026686300630377684
470,0.026169647345712494,0.00889952263043517,0.02840325124340566,-0.004636617079935883,0.02304265788139948
471,0.02736112074658287,0.004385474057815018,0.022230336738887475,-0.007884011060786771,0.016563624368588086
472,0.024751616883745154,0.0033648442724471227,0.01826277763059025,-0.012006926709444457,0.013817204683938081
473,0.02050961459987657,0.004787082386988429,0.016611160392084268,-0.014610733545692438,0.014647737142995023
474,0.017107742769489825,0.006969167385326811,0.017179490673659953,-0.01344246393474057,0.018462240836407254
475,0.017028452094731222,0.011717178887889175,0.021423143356382263,-0.007754425799995576,0.02615855557303734
476,0.018905273729909154,0.018079197914654056,0.027246115429849917,-0.0010279357621783376,0.03432990939195233
477,0.016909227645100455,0.01893633683578922,0.02791546242712041,0.0009084180632357583,0.035358542557711356
478,0.00935332830491993,0.011917949106558764,0.02130750293651555,-0.002692278078074586,0.027511834960058008
479,0.0011606676032599778,0.0023608283744024293,0.012797033847088536,-0.0064974935848272726,0.01672579256912977
480,-0.0008008665301572607,-0.002188083356354753,0.010883028121213714,-0.003698824759716833,0.01179271712185802
481,0.0028351379395079347,-0.0006842340876234154,0.015933637334067715,0.005940006306711201,0.01283344571607956
482,0.006763641841752691,0.0021617210651806527,0.021947852582578316,0.01734037946879574,0.013664869972467384
483,0.010112625112960245,0.004127245690593347,0.026563966023808974,0.027104040034266322,0.01334798499625079
484,0.010213559906517669,0.001368106369510045,0.02576320807599778,0.031071295769929473,0.009126025112847916
485,0.0030117999780912017,-0.009439470745709817,0.016037982319773665,0.025942916095836273,-0.002911920412998155
486,-0.006627218722441161,-0.020936384759097662,0.004480914611802096,0.01578738722145036,-0.015591386124678815
487,-0.008858378546566487,-0.02156351402716591,0.0020692368713733983,0.008693157666443829,-0.01741217846897536
488,-0.0016983477208313423,-0.009985820637754009,0.010159743849216979,0.008077288261880249,-0.0077962219350803455
489,0.007462712097731905,0.004648654919609808,0.020913152352018443,0.010741556556278077,0.004441770867107403
490,0.01035881797438556,0.012006383492819225,0.02593473699899398,0.01126254379368139,0.010869759264076156
491,0.006591919117880118,0.010425203759348241,0.02463225416339297,0.009007904403229617,0.011265546777948346
492,0.001819798097084349,0.005760429856610552,0.021891830443638526,0.008082908082869543,0.010088848762377374
493,-0.0004466481982259994,0.0026142093312979562,0.020103417888438627,0.01028721410817702,0.008993114953275651
494,-0.0016166320049111713,0.001849674566865919,0.017891731945108135,0.012638769590754823,0.007047046871209643
495,-0.00433035719235637,0.0022066578436270483,0.0134191329517616,0.01181974228341187,0.003289104903224669
496,-0.00775265723565658,0.003632890898998164,0.008488841954118873,0.008931671106615007,-4.2634304106297373e-05
497,-0.008686300552338017,0.007549479869072611,0.0069558488014385845,0.007428205704062632,0.00024893466352942295
498,-0.005362325303473164,0.013827284290433985,0.010361155735362629,0.009326841974158916,0.004119258588815496
499,0.000272492196299807,0.018570650696805153,0.015313078984783422,0.014351494353592552,0.0069751242851755785
500,0.003658746224856487,0.017006031496840143,0.016412342922824882,0.01995877587762991,0.003776240933735214
501,0.0014927966468464527,0.008733952740059772,0.012295182948258763,0.022401516406191934,-0.004792288237130126
502,-0.004842732325095533,-0.0032600857619997617,0.004981620497872668,0.019643593666121513,-0.014488235779941263
503,-0.010074062727533995,-0.013604687152570736,-0.0018548315042467125,0.014437691727347282,-0.020879933412857925
504,-0.009631075018603141,-0.014666623467769825,-0.001959018624237006,0.014141120787955453,-0.019083020189947165
505,-0.005515155787823153,-0.006255718037686842,0.004225264972108509,0.020693914553517226,-0.0106962783173002
506,-0.0026414376602126683,0.004424073606108588,0.009908843645198968,0.0278266916309466,-0.0018997644223870467
507,-0.0013251392927463492,0.013050234187297286,0.012683387181094578,0.031172037759830237,0.004747897840774121
508,-0.0028316788836468924,0.01495029131903415,0.009361676245227196,0.028092324757738932,0.004651238618425716
509,-0.007050303958148996,0.010504842938339044,0.0008004727770342683,0.019206181747942443,-0.002157282831085962
510,-0.0077643044833969,0.008554202569425523,-0.003447579398016887,0.011420736176389671,-0.005936888347165752
511,-0.004534182283713115,0.010651955026198756,-0.0017166840977873216,0.007732951754589242,-0.004369371728204621
512,-0.002570770449647387,0.011511410277409265,4.90825195113638e-05,0.005318848834878738,-0.003611809890639586
513,-0.0038919501716445323,0.009269919192073282,-0.0007138559731309493,0.0024244281270437923,-0.006663566257715616
514,-0.00810851376965017,0.004890345748401448,-0.004007123134494014,-0.0006213977232832929,-0.011458918843655883
515,-0.011233967972986113,0.003074248642743196,-0.006094132970216693,-0.0012405099690846507,-0.011643148118932004
516,-0.011060403495123517,0.0036569446069038675,-0.005086913382849687,0.0019492146852657303,-0.006862179038800102
517,-0.010171856281677678,0.00459110464261894,-0.003113497764119558,0.007462235011272631,-0.0024267721999420315
518,-0.008796705707370484,0.007437975162839147,0.0008129125372288583,0.013462457787804399,0.002118036770719094
519,-0.004045151426675322,0.014648039615478616,0.009176194743208882,0.01804193887627635,0.009939869498323395
520,0.0016920176659108513,0.022353685743668885,0.016884483348890984,0.018072721743116214,0.015694172939973446
521,0.0016438838404495635,0.020445239839909105,0.014937189777869215,0.012229612514592232,0.010133682073438571
522,0.0008683071870113376,0.013866571737895218,0.009931993290472728,0.007192209042003958,0.0012111683591896313
523,0.007128762548203177,0.012957041130887161,0.01169294008355341,0.008111104443183548,-4.199560936070321e-05
524,0.016638964613791316,0.01648913336868341,0.016858175885958806,0.011997016742147449,0.00365143246284835
525,0.023689494420919523,0.01979865751241338,0.0212637336171699,0.01622461147990222,0.008751889741923802
526,0.026922594045654932,0.021420958183707282,0.024799140905893507,0.020928040328710224,0.01406696309023599
527,0.027879476842941682,0.022077028000691713,0.028230351776170424,0.02659239935421119,0.01799719463735973
528,0.026722288117247982,0.020188214383937794,0.02996640537882981,0.03224134734669339,0.01761992067140602
529,0.023126054170248392,0.013758174612639064,0.02676787375958559,0.035812095406374186,0.01058905554611934
530,0.01923169849756478,0.004714752268878374,0.019341806439264232,0.036037624769092974,-0.00011728561441118885
531,0.017500239184178985,-0.0004743482332904849,0.013898178119785644,0.03360914874405976,-0.005652304422787781
532,0.016894913032462586,0.0011991264227501591,0.012982825167421408,0.02889790770785649,-0.0029570930853548808
533,0.015572320614790225,0.005164527315665904,0.013667161745931217,0.02218458738353392,0.0022125094302327597
534,0.01478817335698449,0.008506051196273071,0.015303934331035501,0.015691734783366034,0.006189765090019337
535,0.015200726157029916,0.010555731575039595,0.018561171047284934,0.01212767634306884,0.008426125654281785
536,0.014059425591718511,0.00887000086199949,0.020519465406653736,0.012622230260770896,0.007242283211420262
537,0.007450575907879368,0.0008049224859161943,0.015900717212042444,0.014598884009982853,0.00011090341363758464
538,-0.0026419380663215137,-0.010441107547862531,0.006447011770965767,0.014922603176062936,-0.009798930278525925
539,-0.009496759407984601,-0.017876500454864986,-0.0007531058882660115,0.012816385446863865,-0.016416017034842086
540,-0.010391228067428546,-0.01959160983540221,-0.0035988799048173436,0.008715122899978923,-0.019023922714137904
541,-0.0056003110825374935,-0.016025560608091342,-0.0030580207062126086,0.0048322335599703045,-0.018117035853955323
542,0.0020146844855498656,-0.010291378091878618,-0.0013550401084363973,0.0020166675028770458,-0.015776854586777054
543,0.0043963678717675045,-0.010914906758026475,-0.005264181512789319,-0.003440135848737036,-0.020146704763485946
544,-0.001732451922556217,-0.02036201500285401,-0.016740379998624412,-0.012394879780817446,-0.033074756455403545
545,-0.009779928198127251,-0.03017500992530465,-0.027277094100251652,-0.019556779836571205,-0.04403994743564454
546,-0.011715941337404863,-0.03164774375510202,-0.02821606067850491,-0.01923374074661631,-0.04366541040661741
547,-0.006139825604603406,-0.024831247229959937,-0.01984925014155235,-0.010358499122077921,-0.033622634095402025
548,0.002642643817575282,-0.0154011105800283,-0.00904068023458757,0.002176147171940741,-0.021737651833896383
549,0.012078617461759856,-0.006405634852013935,0.00017236705097277996,0.012864173677898081,-0.012234275298892866
550,0.018899295149617773,-0.0008676342041279521,0.005518399098005847,0.0179006987748535,-0.007508254703236145
551,0.019217384124237544,-0.0018600985035123882,0.0053596837872106305,0.015790376555210574,-0.0083030771073887
552,0.015084754161412493,-0.006098107211240328,0.0025307534626439654,0.010152464635152698,-0.010507664037764935
553,0.010093257795655832,-0.008795610741368535,-0.0009416757858819842,0.0055119716197684476,-0.012084513646633894
554,0.005877709511130435,-0.009358728852614481,-0.00497429833483591,0.003005870743373665,-0.013938723394148976
555,0.005013255880719077,-0.007456970964096673,-0.006533091656668998,0.0021002472890470454,-0.013135294397009705
556,0.01144621656300742,0.0005503660436210441,5.217441645906116e-05,0.003475298439734142,-0.003013478282561804
557,0.022964405545894916,0.012325898592353442,0.013273830832976369,0.007019003684439579,0.013759208627914469
558,0.029936736448592568,0.017327076427056814,0.02207123605620507,0.00944512950017378,0.023700555374867077
559,0.028768942672498472,0.01264007559851455,0.021914876183747545,0.009353411307264692,0.021580474419262974
560,0.02136561381532579,0.0020453607939781857,0.015286018424799389,0.00645010911989588,0.010815619897978994
561,0.009078929103404151,-0.012010490952196843,0.0036572237262897244,-0.0006859358878267078,-0.004159702946734755
562,-0.0029761945023676125,-0.02462792128477386,-0.008195727495822766,-0.009203838263290484,-0.01625309291267024
563,-0.009798351614154297,-0.031654479481895176,-0.01597224084436198,-0.014864199775402244,-0.022061430854728236
564,-0.010109825384480346,-0.03408391110710927,-0.0205389557755801,-0.017873917286768907,-0.02448964176702147
565,-0.005047163800481097,-0.034520976723867565,-0.02400582701315553,-0.02013005769037338,-0.026498402355321228
566,-0.00020897374167653046,-0.03407773932029405,-0.027200309273822283,-0.022255527186347313,-0.028215723233984462
567,-0.0009728540071998159,-0.03292866981494442,-0.0297178498522446,-0.024276430453435072,-0.028230582058803074
568,-0.0034248862040214397,-0.029029318555844907,-0.028579126359530926,-0.023867881736297065,-0.023786847238454183
569,0.0009039021996697387,-0.01845405386256569,-0.019122009743316973,-0.017803235901270226,-0.011994658520201179
570,0.01029858933012673,-0.005030785445703215,-0.005047148579076124,-0.009640049402697724,0.0015220254413101644
571,0.018429252634726757,0.0047001971469250335,0.006854832604253458,-0.003829496427969406,0.009796742225404059
572,0.0247530434443858,0.011559174340135281,0.016494987451415397,0.0001788517797349566,0.014569640115145515
573,0.02678069094241492,0.014142628326606564,0.020498647751036107,0.0003273009943565701,0.014112787489737441
574,0.02371221667034564,0.011717763362622095,0.017671509410698175,-0.0037835085909538064,0.007450453504728103
575,0.022200530450311628,0.011289513713903966,0.01624974813981559,-0.006280109424548678,0.00275677354921288
576,0.024184443287727075,0.016713263509550675,0.019218965027613864,-0.004126511062274914,0.004265694043103425
577,0.030617522690418168,0.02614268461339283,0.026771104549537954,0.00011627242030319684,0.009335266614568512
578,0.033830773466021945,0.03279799713834935,0.03096851254299136,0.001700835711461864,0.011989733045733714
579,0.02859301398415313,0.029614694434289476,0.025682665706147766,-0.0017519303749149284,0.007130859027952075
580,0.01650229732699601,0.017288449008626732,0.012911050620377118,-0.006875819643353934,-0.0027240095039019405
581,0.004647484132360638,0.0031358166342788625,0.0001537253796385764,-0.011489434179251978,-0.01124415988482646
582,-0.0053617040300088905,-0.0098547060344659,-0.011037456533057384,-0.017136438380042338,-0.01801561271828366
583,-0.011294345460455909,-0.0177151295743943,-0.017556563801255323,-0.020938797501319436,-0.02104506967951916
584,-0.007399535392348024,-0.013862939112817593,-0.012575940111745176,-0.018432283761515986,-0.01524988975808757
585,0.0029275419367072886,-0.0021057856473261096,-0.00016444114347691325,-0.011934469742123699,-0.004548530878866715
586,0.009945020794866762,0.006720427599454327,0.008537331626260464,-0.0074635605694133595,0.001900365748716585
587,0.00986003723372721,0.008460047988948175,0.009964726799394372,-0.007265322805607644,0.002085238068816622
588,0.007999584374643709,0.008437162129021817,0.009960863202855132,-0.009142932427962542,0.0018414847131396088
589,0.005023978844270347,0.007001216591061485,0.007964454169919956,-0.012882101281399713,0.0007166311034590623
590,7.04957442592141e-05,0.0032005411692268906,0.0023682390403825873,-0.01724411518023935,-0.0020277447365985367
591,-0.003743619386649033,0.0003098487352314484,-0.002752855981667371,-0.017821109774434938,-0.002725303114435275
592,-0.008334029368414646,-0.003458211137500893,-0.008605058418481037,-0.015998702936157273,-0.0038919904787267762
593,-0.014892002536978899,-0.009174635197584978,-0.015756808644967507,-0.015829326944152657,-0.00707991658332729
594,-0.019149490073426364,-0.012821824186234182,-0.019061822293662208,-0.016253989975421743,-0.008168127723306724
595,-0.01913551041669812,-0.012547038065227502,-0.01665559275567213,-0.01597530971497144,-0.005552420711682651
596,-0.011971840830771447,-0.007758131947649403,-0.008914677065647109,-0.015100073025352061,0.0006663872108151342
597,-0.0010393957135768764,-0.002209512125215719,-0.00044274844994819705,-0.014288806884169697,0.006575774838557465
598,0.007988639110548456,0.0022098272861853637,0.006665066543160373,-0.01323509944716245,0.00963945233631058
599,0.011201317693045684,0.005012820097742025,0.011461937534362048,-0.01232215649416516,0.009029659679037362
600,0.009180829674274981,0.00601011622407654,0.01326862275479808,-0.011124652250357666,0.00547646146052283
601,0.008458723219393697,0.0072053803511814545,0.014020113341504527,-0.007951676919013613,0.001977002876456335
602,0.012989693536427493,0.010149106771485296,0.015389227496084517,-0.0022888894320611582,0.002441021167736192
603,0.022991623269947085,0.016422354764321374,0.01965543282978025,0.005339175654021531,0.010013348185868144
604,0.030595704381411817,0.019917325882592395,0.022125982624264254,0.010296782947036775,0.01719391480479583
605,0.03147670484617145,0.017417242391118276,0.020845604245543044,0.010021024757163112,0.018725108234597998
606,0.02691353674861873,0.012047224504098186,0.01841694677014384,0.005955158482185347,0.016327709725443236
607,0.015574556643367416,0.002401664530072679,0.011770617094497216,-0.0024391477187650583,0.007356320884069638
608,0.000854832394710103,-0.010460682406020333,0.000951947180618146,-0.013119163244394594,-0.00660295852752521
609,-0.00739659782042188,-0.017262341779809384,-0.005351106707304218,-0.017933636342091906,-0.014182949693641604
610,-0.004372405209501793,-0.011893087027575678,-0.002330275681308248,-0.012368330944828625,-0.009209847939357736
611,0.0042332714129861915,0.00016790843508050781,0.004609011658722099,-0.0011708586696983882,0.0013047207741224806
612,0.006900847531792374,0.0065437141778911185,0.00570966173198079,0.003735376290059439,0.0049443327442215065
613,0.005149915511274359,0.006700221853946234,0.003219001101429768,0.004148346949108475,0.0033147219364781312
614,0.0014644490706776311,0.003405498583921844,-0.0004974032247606156,0.0015802787022862574,0.0017106011711962917
615,-0.0006258358625641383,0.0015335598787735195,-0.0018207918912926278,-0.0037267107868937965,0.005856942675511248
616,0.005606474561220269,0.00659749221257846,0.004677363856987841,-0.005194149657424284,0.01866058512771689
617,0.012203429155805518,0.010139158027083608,0.009842439129607642,-0.007251495634014979,0.027612170135798437
618,0.012737532742138511,0.006973967125371862,0.007672552431494356,-0.011969689125439432,0.025559699187107803
619,0.010531289335680679,0.0013610094920450272,0.0020963437997383793,-0.014234308743993734,0.016903688272049612
620,0.0102431975270934,-0.002009161567191975,-0.0019744830821637627,-0.011014817106987948,0.008674561408789855
621,0.007413473987253165,-0.007082876819114032,-0.008507724275809418,-0.009802149358134955,-0.0010869305864824373
622,-0.001303389663914728,-0.017472145313804244,-0.020843407738529142,-0.01579207381770585,-0.01637218293758186
623,-0.007598561219531915,-0.025178358094721926,-0.029727596658152302,-0.023382396208923704,-0.028400529142162304
624,-0.007247868863881904,-0.025451476880990916,-0.029581808735943526,-0.030168303913424184,-0.029918004848436243
625,-0.0047274784919525675,-0.023597779402290377,-0.025769402564577118,-0.037504010806798806,-0.025129818678951612
626,-0.00015247755379045025,-0.021545249908035122,-0.020772605977070615,-0.044012835490731476,-0.017782009984142762
627,0.011337287926689851,-0.014649000291861551,-0.011317009207882117,-0.04673556192115608,-0.006692382562158701
628,0.027428876667668238,-0.0018064621455240722,0.0018193454622505325,-0.04036995045320647,0.0068434594696214004
629,0.035520744354772524,0.008556746074287436,0.009602123830921938,-0.03266866989865658,0.014227514448543904
630,0.031086050187198188,0.010726428537615273,0.008314838457182188,-0.02924684673938857,0.011411322866337925
631,0.023604928261549727,0.010601179364966181,0.00603379939822419,-0.02538089263819107,0.006785296418811447
632,0.020652848033485393,0.013911838943609584,0.009083486270285835,-0.02027646340433597,0.00831982839940189
633,0.019389905758250274,0.016120713140332442,0.012443606722838445,-0.015107524123773778,0.012452159576152005
634,0.013700588133653633,0.010234068025516147,0.007780467759849329,-0.013735246260679509,0.011322213475605811
635,0.004731428994223656,-0.0010440066781340204,-0.0032132561872434346,-0.016366263791149978,0.005440356041823497
636,-0.0046442039860820775,-0.01220490809627137,-0.015149673545016592,-0.022057697114835493,-0.002042056036829805
637,-0.013145990186791636,-0.021060302911652395,-0.025425996067628437,-0.028057051588726088,-0.009209625165823472
638,-0.016947426770571292,-0.024117800918773157,-0.02981403454067132,-0.03193137552797496,-0.010546620726320616
639,-0.013181274045599187,-0.019717787666264374,-0.025872010657189706,-0.032878799242539024,-0.003705802345326981
640,-0.006200475125282829,-0.013752136952660267,-0.0194391689144298,-0.030250022472306667,0.004378989363186247
641,-0.0005685956683472226,-0.01066928751030738,-0.015204696391081665,-0.024901110893181127,0.009175369088847002
642,0.006338549813316573,-0.00629216854309018,-0.008963932256686305,-0.0152136492927667,0.01471382321175142
643,0.013557810965961054,7.144286258536334e-05,-0.0012770447062544687,-0.004941961582078286,0.019845884418030493
644,0.016659808579060607,0.004286932393480932,0.0033425370129721924,-0.002060527814108754,0.019236799700133624
645,0.014526135772814136,0.003915714812917318,0.0028809756932531403,-0.006667639002597568,0.012000219522843636
646,0.005759391555278991,-0.004002402822996951,-0.0051973878961273446,-0.017437813392280004,-0.0015933370627576958
647,-0.00496611190958183,-0.014598576568212169,-0.015746138961072083,-0.029719001948806563,-0.013659165828794038
648,-0.008942108375560486,-0.0179088404337695,-0.019256836219798443,-0.0350225689331761,-0.014255048610055956
649,-0.008300389117319337,-0.016734092601939983,-0.018215682726157083,-0.03471452291608095,-0.00957532870691766
650,-0.00870377434959398,-0.018027948101307846,-0.018250493737174776,-0.033800490836784394,-0.009043825955480447
651,-0.008843519890417937,-0.019552098907100746,-0.0161971996875475,-0.032059999625617584,-0.010319686557354149
652,-0.008686055619461019,-0.02011125649945632,-0.011851777111308385,-0.02907042198744626,-0.011473162872263883
653,-0.012653690362613792,-0.023960406311419758,-0.01118139288254028,-0.028634895098818298,-0.01570939598005564
654,-0.020360956770737366,-0.030564051359451307,-0.015017111852092464,-0.031280421957788976,-0.021587698693995985
655,-0.026269630508390575,-0.035163867383999854,-0.018862859142140215,-0.032918502154430714,-0.025511750840506414
656,-0.025878437783212208,-0.03436350379457053,-0.01826663479955664,-0.03035334649855214,-0.025881296065828688
657,-0.018532383882166496,-0.028107950261111105,-0.011830470017653052,-0.022369235293801932,-0.022028546736733174
658,-0.009971330924941138,-0.022700853230962513,-0.004994792366425137,-0.013489239540703699,-0.018076309124035447
659,-0.0033245810592712616,-0.021216299006261895,-0.0011707788586242042,-0.009699897357316384,-0.01564079123122336
660,0.005263790646645618,-0.01905815176995118,-0.0004553386096458022,-0.011620344690392729,-0.010354832854497285
661,0.014039681216958535,-0.015775047004120912,0.0005328186502548643,-0.014572027381326487,-0.0028156261889625087
662,0.01913739477916831,-0.01053581076502164,0.0050497962242619845,-0.013765630940080022,0.006007432733646629
663,0.01958697203223872,-0.0037048425700591946,0.01090171704346377,-0.010416339645660274,0.014610883373324899
664,0.018246672566127192,0.003435300613728996,0.01760249889112162,-0.005909872045274195,0.022387432335144727
665,0.01823178745242636,0.011119803826210344,0.022753519570086776,-0.0003012769495105911,0.029549101640485395
666,0.013492629236526773,0.011755019300488589,0.01661576768522066,0.0007372277548049602,0.026839488958532522
667,0.00051728980439395,0.001137723634166525,-0.0031593815535710507,-0.006708961896043137,0.009858754173298831
668,-0.010403702576999426,-0.009526419347693603,-0.016048576458598272,-0.015949855333460623,-0.007150967153639723
669,-0.008667605255366157,-0.007718961523163101,-0.012710995139498972,-0.019230635493329262,-0.009384136076659912
670,-0.00024743751154846937,0.000530321806950207,-0.002849441875889435,-0.018868606331976435,-0.003243515950801036
671,0.0035014891631901003,0.0032874227066975606,0.0025338829288254834,-0.02078275790830608,-0.001911098296872102
672,-0.0007999642893668651,-0.001948425522026175,-0.003298149953671066,-0.02707371621485292,-0.008838750364722005
673,-0.011466235548870177,-0.013445623895240646,-0.01633028436858775,-0.03614582249222113,-0.021184062605255308
674,-0.021157272111738998,-0.023763382995323604,-0.026034085568641417,-0.04202168243783465,-0.030224283726435833
675,-0.0237035159045659,-0.025381784678255935,-0.025792223267785876,-0.04014590249180899,-0.030609169395250796
676,-0.023556697431323936,-0.024144934499831197,-0.024724921051968645,-0.03152862793768329,-0.028678963685198275
677,-0.017973809341888955,-0.016751883570258027,-0.01752175208015178,-0.01750592768134406,-0.019465866329656398
678,-0.0023514069431170774,0.0012060376550430778,0.0014410947759584964,0.0026066883467758847,0.0034067773849835066
679,0.017716061237035476,0.022501754050650975,0.023635647172901692,0.024338584755061936,0.031084640658966666
680,0.03268712812964506,0.03759878355132023,0.0396598481278394,0.037384667000694205,0.049375819706419785
681,0.03652915157117433,0.039394557042144625,0.04159547483343047,0.03837291330296217,0.05055303724239263
682,0.029976457147264303,0.02806071288647757,0.030018608851729224,0.03144761401291011,0.03627101645455931
683,0.017140134377216697,0.009568200275403865,0.01148562070771983,0.021179339051284527,0.014090514938899748
684,0.007683696961357806,-0.0018926132251908957,0.0005351086849604942,0.012926394215758238,-0.0006849346929341566
685,0.004670614940400982,-0.004577073912071278,-0.0011406188734386868,0.009988718605740474,-0.005522401415488988
686,0.003007572324588204,-0.006674237205856175,-0.002284396051694822,0.010529633131669892,-0.008751044992481537
687,-0.0012988073211405759,-0.012766759204268856,-0.00807303969286307,0.011025251883615252,-0.014733119055545854
688,-0.006564202022815538,-0.022144329471093877,-0.01707090998601378,0.011556398565612067,-0.020876026092884997
689,-0.00564405672063114,-0.025114992153517614,-0.017934966029833473,0.015325358699282405,-0.017018190460028292
690,0.0018638527220231223,-0.019813935798986042,-0.008674751508989534,0.023228616998814566,-0.0031701010943753242
691,0.008116180006483833,-0.015398874555056414,-0.0003919513480207878,0.031730744795035105,0.00857350913568558
692,0.010841376099976673,-0.008504070825818992,0.006337823543603095,0.035682994726480094,0.01394813833056806
693,0.0077604815018475146,-0.006556299676951191,0.005213066436911905,0.032780218964755366,0.010186401347505949
694,0.0013493730409978942,-0.009547121651569367,-0.0013019170105194149,0.02601880318501276,0.0019594742270869054
695,-0.0014098696664160896,-0.007623299332283296,-0.0025221633426016576,0.021074569771052185,-0.0029963206294987706
696,-0.002148583904849556,-0.006934001226228118,-0.0033223828134643432,0.018460859202262727,-0.008737715779836203
697,-0.00685830094471482,-0.009788317135142046,-0.007044118731088635,0.013712626686861608,-0.01959553992435599
698,-0.017157598943392548,-0.012282801238127446,-0.010121469355869205,0.00639219642110236,-0.03284791411452787
699,-0.0276016805115262,-0.010035576898025185,-0.0077292184476296655,-0.00040502831668413967,-0.04228811293713983
700,-0.03211993942110021,-0.012355189970742688,-0.009521419259773529,-0.003806050800592497,-0.04373402694399488
701,-0.025563325325745956,-0.006953427330918463,-0.004655421991562608,-0.001726622068402945,-0.03131983438790311
702,-0.012800228613065656,0.0045182627492907435,0.0060054481330858375,0.003025700133801555,-0.0125308124629743
703,-0.005387124336262684,0.004079198639002138,0.004700902213398926,0.004416713511548179,-0.002951667190880217
704,-0.0047500814960621,0.0016901936802126768,0.0007922038035988512,0.002148683480189454,0.00037064241243203613
705,-0.003575344268990292,-0.001255856387402104,-0.0051961605303976,0.0031773726485803976,0.0004365329151870229
706,0.003935841539169531,-0.0026011924931531425,-0.006930938322265532,0.011980519459320074,0.005510427015883944
707,0.015024706617466766,-0.002469164722582585,-0.005236003738761363,0.02422942213637589,0.013461470729143983
708,0.021238292577454732,0.0033022621657400374,0.0013517130734787889,0.03235536850211116,0.0174633412731249
709,0.019545509128321818,0.005800287719434857,0.003274562128185272,0.03407227410162141,0.0160602390721545
710,0.014415511441127519,0.004088190777303312,0.0011630015059462939,0.032876842011103524,0.014524208586684467
711,0.011139053427384967,0.0064444933668755386,0.004544031624587712,0.03127295129656751,0.016908895119871193
712,0.012716357701863152,0.009454661409035172,0.010083314192344577,0.03073360224673025,0.023347813807821534
713,0.01763306514875633,0.014732457258512247,0.018531689335164615,0.03275834375415199,0.029828780371284697
714,0.01952120743832149,0.01928721340563537,0.02498633349715792,0.0340389380225293,0.030005605470259985
715,0.01587036472452799,0.018621395493389554,0.023584333771410174,0.03176127568050473,0.02299075390741112
716,0.011694342676649854,0.012499398468687785,0.015811274921645406,0.029569667999651925,0.014313471512663486
717,0.008159933476385852,0.004365676371364445,0.008275784803534778,0.029372489742398273,0.0059463019591445496
718,0.0006574525915616155,-0.007303062464100479,1.5171405462655415e-05,0.027668497177402038,-0.005289380653560465
719,-0.009515852237883708,-0.022548061112798033,-0.011132872711574926,0.024708930910192932,-0.019191835509876735
720,-0.015198879947664903,-0.03223215152235542,-0.018577705140108133,0.02467564623144297,-0.029635547824023098
721,-0.016355449464613325,-0.035148461302974505,-0.022808882391162588,0.02645820610750139,-0.03394993994792964
722,-0.019819942855781564,-0.03700068522838184,-0.02931796725710746,0.02512285255678429,-0.03706450729918427
723,-0.02833648246295534,-0.041343031514948655,-0.04009003689874549,0.01901198795404585,-0.04336566128568985
724,-0.03552422768417938,-0.043730377272839974,-0.04906187944542443,0.012477966864229497,-0.046802911399163254
725,-0.03417454361168032,-0.03796020922844304,-0.04831229247066064,0.011043295370680847,-0.03874288267759373
726,-0.025919812622971362,-0.026219571302263784,-0.03901098018778348,0.014777249476661257,-0.021906579648902774
727,-0.015572208213135787,-0.013745970608349702,-0.026700421263938363,0.02022530301469226,-0.004491767954078195
728,-0.0069275122130792914,-0.0038996631728106766,-0.015990188547284533,0.024370039709035413,0.007757417974264013
729,-0.0029563368626584234,0.003058628156599132,-0.009162146135511527,0.02593096467854873,0.013873724967101429
730,-0.0027982744040233334,0.008770301506648192,-0.005280614108932297,0.02571435928824573,0.01709624976851246
731,-0.005137400252018729,0.01090897009849175,-0.005033239730740818,0.024524290626011767,0.016587040910389067
732,-0.008930050154701958,0.008058506994941874,-0.008560617060137337,0.024100827731783615,0.01031660181351222
733,-0.008637853263533165,0.0084786304609816,-0.008378616100130548,0.028320374840076375,0.005574933914356659
734,-0.004541820264997289,0.013967642604561955,-0.004242097591514099,0.03424976950669728,0.004292094102550863
735,-0.0029786892195707883,0.01599894532439813,-0.0042567964116895845,0.03471364651657707,0.0006274394465695926
736,-0.0017494024707008077,0.014875107330130284,-0.005109546862527287,0.0313035334531719,-0.0016397259061344813
737,0.0006344695802206868,0.01158515972579567,-0.0036695269669371525,0.027246289997792265,-0.0024942007357795634
738,0.0024686120623934747,0.005081772125317362,-0.001952211269417054,0.023099468870770697,-0.006089998870098873
739,0.006726686945688633,0.0010802927874775593,0.002553716968019853,0.02143351307194249,-0.007344904425699525
740,0.011487446983892294,-0.00022854944410006362,0.007160509732678269,0.02119368175579532,-0.005538232577041919
741,0.012758140917603503,-0.0025637969885904145,0.008121882297847799,0.019564307505058685,-0.003895706374724019
742,0.011359387321205582,-0.004959524625846637,0.0070925089170940005,0.01639136179217901,-0.0014804296938412237
743,0.007762112706959493,-0.007115015740874581,0.003710243002262655,0.011618220208835772,0.0006825317277752301
744,0.004297190704031429,-0.009618090333541577,-0.0019778807151588024,0.007209388993326762,0.0002439169010788837
745,0.0050478910672382095,-0.011723926754709315,-0.007090931023173817,0.00691490929522244,-0.002646475926515721
746,0.008716034439482068,-0.012177766573279918,-0.008807935237454117,0.011388786133405328,-0.004778651822894031
747,0.00962166748640405,-0.011249709347855975,-0.00696602037459367,0.016458830756641032,-0.004074405691865366
748,0.005979178070319223,-0.009738263595448658,-0.003513255390246202,0.017910767041994114,-0.0016853242812003976
749,0.000642913502767026,-0.008335637883695528,-0.0008511477390987128,0.016392103764462932,-2.8827911899866306e-06
750,-0.003881257320877144,-0.00825324733965747,-0.000622601781390184,0.01582403892405972,-0.00047121308895080424
751,-0.005659271812826366,-0.007900093013859587,-0.0008604550437656541,0.018929363300294377,-0.00022397984909236382
752,-0.005807461306307177,-0.006874905898461977,-0.0015185043266911936,0.02303793305850249,0.0004996663512404947
753,-0.009060596298227447,-0.009175939470248615,-0.00701201358093021,0.02279314484521595,-0.004582895157576118
754,-0.01322673769978165,-0.012203940203398761,-0.01400605712633516,0.019193021632583,-0.011780645984802461
755,-0.011150044212823599,-0.008773745191516347,-0.01428205533099436,0.017107064130073325,-0.01116978324350036
756,-0.006205473023358283,-0.002991983489607468,-0.011087185306441224,0.015088449350336567,-0.007222430412846956
757,-0.004827846786292245,-0.0018566702040555309,-0.010574183303955778,0.010223149027791437,-0.007497394533688859
758,-0.006267907182239899,-0.00468974984136082,-0.01246186358684916,0.004391952392903207,-0.010457051441579698
759,-0.009818936272553236,-0.010330906949280304,-0.016696818514076808,0.0001251475351351655,-0.015058175026631395
760,-0.015805716788522724,-0.01809024172072281,-0.022641861253566698,-0.001169466007677465,-0.02098203898856052
761,-0.023088682727611713,-0.025513118333772313,-0.027915720787650703,0.0005837096340314962,-0.02627117695901266
762,-0.029849248313663968,-0.029951738421573344,-0.030905875015431617,0.003371769448163156,-0.029544297972917383
763,-0.03320192366730562,-0.029063226820801508,-0.030131505621485647,0.005403652125393346,-0.02934241653340348
764,-0.028415322608871092,-0.019540668242263946,-0.02173171922832392,0.008831471427057376,-0.021639529818377745
765,-0.014081490958154093,-0.0019168016773127262,-0.004686806942639715,0.015967779703679606,-0.005271586146683492
766,0.001586913038887905,0.01370111681319373,0.011196746532506604,0.022579416953131384,0.009777488246700442
767,0.006464719918062502,0.014749637974770427,0.012342359933188116,0.021771628410614946,0.00966403562310542
768,-0.0011800809534777959,0.001299041885488789,-0.001338153895650852,0.013578747244017085,-0.005248772879072735
769,-0.00892914652609803,-0.011061005583832545,-0.012905639049646426,0.007918722644197023,-0.017439027459573438
770,-0.009588402562982911,-0.013530852358151893,-0.012335455933999104,0.011585000990397415,-0.0180119621510659
771,-0.011282428766194353,-0.014934638577087845,-0.009720290991047388,0.01738112391331758,-0.017941503517015428
772,-0.01692864031643341,-0.01891456112636655,-0.011551788204284272,0.018173762896626942,-0.02195260449607615
773,-0.021148502302374736,-0.020437166011099843,-0.014102875191697433,0.014410481066019403,-0.025118499519796236
774,-0.022510107688278855,-0.01815096049662567,-0.015073691229927359,0.00786420663331543,-0.025417678360644923
775,-0.02045201232836183,-0.01184962545741807,-0.012222996156934807,0.0015589671442892666,-0.020000731749011742
776,-0.017517592839217336,-0.005286927381899543,-0.00814941189961785,-0.0042471762607639695,-0.011011899662402451
777,-0.016114675474439493,-0.0003641465232084667,-0.005650512163936275,-0.010349377266786225,-0.0019986482970516164
778,-0.013248756088492995,0.007222507348742872,-0.0010243032095506844,-0.013566723010041163,0.008567437936359444
779,-0.009146432502330808,0.016511223203619942,0.005995025292373512,-0.012592376173490457,0.018615702112318167
780,-0.007088465860791074,0.023229527733692436,0.011965097257747205,-0.009967456367554096,0.02440173759635445
781,-0.005351176311523352,0.02714960236104135,0.015916092014808682,-0.006895814146145366,0.026178720515503597
782,-0.00101304311689243,0.027354311218404835,0.015938826590755704,-0.004369266111709577,0.023989036849032978
783,0.00241056550300088,0.020892444925323213,0.00932455910558518,-0.004770442038837351,0.01591369773323696
784,0.002385835355927896,0.011874794505564357,0.0012063612079098408,-0.0063897601151294255,0.005530180645689536
785,0.0035552868606622302,0.00972903262690797,0.0014994193415406969,-0.004946183567771235,0.0012225149517142455
786,0.008656993680870683,0.01623463420351406,0.011384528100667335,-0.0007676278356639517,0.004324574156582936
787,0.013455046803422632,0.023740401355868038,0.021899468562044343,0.0021919738123380283,0.007708478657555455
788,0.011042121411869103,0.022810043396338197,0.02268811239092469,0.0017655667857808827,0.004404443447791614
789,0.0017339801693947946,0.012691395544460466,0.013645507486026337,-0.0010977056019768135,-0.0035826974784478388
790,-0.005742676406814454,0.0020133788315003604,0.005151548211471561,-9.106538921851329e-05,-0.008212876840591053
791,-0.009179719781251016,-0.005890567533039391,0.00038288169080023327,0.005944322823180769,-0.010137677108639408
792,-0.01280406191178159,-0.013388964228229014,-0.005050085410063154,0.010178820976473336,-0.014246119756950955
793,-0.015145407570140648,-0.017546047364286745,-0.009169761578294083,0.010801270283680239,-0.015770730369791007
794,-0.012797994624469353,-0.014340909340895741,-0.007477543162225262,0.009901253393164285,-0.008774161473037943
795,-0.006914801693823965,-0.005788979616631263,-0.0008344080204343357,0.009037599882182676,0.0031492451841802762
796,-0.0007012401209933387,0.0030987441947475857,0.006754802398376352,0.00854693437685449,0.013245700976867251
797,0.0023560353023389497,0.007593330128199993,0.01075701787395302,0.007186292192038465,0.01736219121123036
798,-0.0016565429900215587,0.0031560713534039245,0.00651017086047421,0.0019182815065538845,0.011918444544781599
799,-0.013006130257411801,-0.010297467621005491,-0.006493597906473957,-0.008074721789214095,-0.0026595035037136347
800,-0.024454617948160853,-0.023887855958488823,-0.02000623731489146,-0.017029421227546297,-0.016990476135008575
801,-0.028305579090241367,-0.02818710620790651,-0.024435073041620837,-0.018160381917983463,-0.021370191199125865
802,-0.02459499026075209,-0.02345596063754911,-0.019443823312924397,-0.010909883307171112,-0.01617201047646057
803,-0.01803978646254003,-0.01591552757323635,-0.011278196700162146,-0.0008528848382084684,-0.008014526099446978
804,-0.01114631574782212,-0.008451828081931264,-0.0027263104344889093,0.0030969833614552748,0.00018706350877527157
805,-0.004217532227451383,-0.0009949176023609486,0.006814893954453355,0.003995528967149713,0.008855076572174752
806,0.0010455089295830923,0.004403517532859771,0.014890249726461547,0.005752863131126404,0.01544277234675202
807,0.0028604327707671116,0.005993477733381835,0.01854851529081756,0.00632944676662897,0.017159253122545716
808,-0.0022349031151886883,0.0008324394708783776,0.013798072740158734,0.0038078947231595397,0.010527851776804516
809,-0.014861900309841964,-0.012118000188337598,-0.00047694943085653654,-0.005021522675671467,-0.004783240691639188
810,-0.025900773597005922,-0.025020081439306594,-0.015152301739221415,-0.016050062691505076,-0.01927672869325697
811,-0.027809702574182703,-0.030938847935522436,-0.02201896384648465,-0.02249074405776926,-0.024939582480722595
812,-0.022643064532159772,-0.030945178757007988,-0.021610826978492308,-0.020902410552483115,-0.022063076113849577
813,-0.01795926638965708,-0.031229380868598805,-0.02026690578077031,-0.016682953019079322,-0.017283403975835696
814,-0.01646420483053489,-0.03416317461392717,-0.021042168293865498,-0.015455549224213366,-0.015445162477643949
815,-0.010487494788114723,-0.03301248046572325,-0.017702299073498216,-0.015346063025255872,-0.01191309338287255
816,0.006042507127403345,-0.020444413721601135,-0.0030058575970940706,-0.013643552402070618,0.0005184919820161057
817,0.025141480884919805,-0.0007161761527749895,0.019045629274427094,-0.010492158931098282,0.01869988624494561
818,0.033328167927604596,0.012359010006719191,0.03487313027009107,-0.010626975155837848,0.030025022864794904
819,0.028739582755268188,0.013195749230467839,0.03839085273219501,-0.015920866230788144,0.029960683176309948
820,0.01795213991974614,0.00641519663515977,0.03291272245443369,-0.019964850019899776,0.02288276627762105
821,0.007894603788214506,-0.0003490415482300124,0.025684749217275187,-0.021387913120630236,0.015241747951392435
822,0.00043092503834471637,-0.0033632487333778195,0.020669693638409745,-0.020970703514166567,0.010341074314929678
823,-0.010454866675753663,-0.008962948308303152,0.011479246345114815,-0.021057331513358,0.002086917651923547
824,-0.021812149333798193,-0.017023170378088377,-0.0009394345185616926,-0.02126867148821832,-0.00869941731284925
825,-0.02422394254451149,-0.01919413413646327,-0.007329307717986257,-0.01662141067454406,-0.013459125500632857
826,-0.02111545412138067,-0.0173147476406409,-0.009041774394452211,-0.011672815743751421,-0.014372712530177129
827,-0.02058204431283413,-0.018171503321745712,-0.011773573979085166,-0.0120620705686984,-0.01786793200777907
828,-0.024636141454762995,-0.023411945986512365,-0.017054487341345848,-0.017836240973032113,-0.02484884154201086
829,-0.030211683231982752,-0.02948316759094873,-0.023466189817203484,-0.022680698130494576,-0.03140557325759009
830,-0.028800576034552928,-0.027245892138360848,-0.023215729592046975,-0.01870174316292033,-0.028087725277195993
831,-0.01689599217785483,-0.013816976690526487,-0.01216573882813527,-0.005404812431912071,-0.011921912046850404
832,-0.004919709429519245,-0.0008630698622940821,0.0011712164727278535,0.009697359346390171,0.0031852754617094393
833,0.001714390165623809,0.004983052240472629,0.007143884028368471,0.01680630970280071,0.0129704310140449
834,0.0012561001258594921,0.003182896281067109,0.006438209768134117,0.015250650536689942,0.014464847610854457
835,0.0016475315995048876,0.00333283336141056,0.0078641465974406,0.012441109862825098,0.016166543487472998
836,0.007075775754966264,0.0098825619871312,0.01456468746169745,0.012494247299099865,0.022223672131096644
837,0.014577173386409849,0.017879935967858845,0.02290854722822788,0.016048940621533208,0.028981103327736464
838,0.018565287461641128,0.02059467974175163,0.02654028686463093,0.020167857170098766,0.03103505307232783
839,0.017160585314477898,0.018004340300377827,0.023532710670223157,0.021668430622648675,0.027948052025649373
840,0.015135209847570977,0.016982650437371186,0.020817149518975463,0.02166306268826201,0.024824569127323382
841,0.015481487161456624,0.0205215961549919,0.021870355404681276,0.020347723706500575,0.02372490405585756
842,0.01631691998673733,0.02572369380779729,0.024010804702595756,0.017989649966817095,0.023115759903406884
843,0.015354724171794433,0.0294762666018542,0.025114096996306744,0.017252318154331574,0.02201055274270505
844,0.013213622455499114,0.03175247089259599,0.02643222339413838,0.02131329572742178,0.021409391090796707
845,0.014929973329368398,0.03662970300634774,0.032485721390643485,0.03100066371733269,0.026512188538371294
846,0.019237626082656396,0.04185027597718361,0.04062420874451899,0.04016486217313473,0.03483007922967858
847,0.020461711243521835,0.04211689329955804,0.04412374296132215,0.042873464358513955,0.03837190737659332
848,0.02101859513288001,0.0410491655798197,0.044686124093545054,0.04270359979306242,0.03830084842583486
849,0.023664783826786176,0.04064102781389606,0.04305921254185026,0.04329939470162874,0.03604814858218164
850,0.0258074102205674,0.03659606125891275,0.034552801496771486,0.04190412455077554,0.029154317808228424
851,0.02260250954367103,0.026416067244813886,0.01715067542048005,0.03484980442386385,0.017389807501480645
852,0.01376276945301292,0.013518259814324978,0.0008403867853665073,0.023401641888821156,0.00497171002430117
853,0.004083646730622608,0.003663030424766841,-0.009851024552459384,0.011485083955172509,-0.0038543913649656853
854,-0.003327508833811908,-0.00301640852868473,-0.01568593716110997,0.0011889565499316206,-0.009517691764070245
855,-0.004340990961394351,-0.004328712475070881,-0.01214497852603907,-0.004207073937488649,-0.00873553030269535
856,0.0020057090985374005,0.0018538197225854024,-0.00010557224038575027,-0.003411019961694725,-1.501380783786917e-05
857,0.0068462402045568384,0.006926979266659683,0.011870895738508296,-0.0017114056225273884,0.006092053940535957
858,0.004332685308749476,0.0050610085461395,0.018365947837013032,-0.0017569606932428255,0.003978344943280954
859,-0.002608421938511015,-0.001283626561371206,0.02077328293650654,-0.0009137018448002012,-0.0016961645997782499
860,-0.010007035171066046,-0.008482546104952469,0.014272567805075511,0.0009094619954475873,-0.006532685608591238
861,-0.014867467101439382,-0.014903953199056673,0.004683660636059709,0.0017970590768318835,-0.010075939095835974
862,-0.014770098389066769,-0.019523943855433025,-0.002884429967799188,0.0018195621356343998,-0.012537899938338048
863,-0.00781278456952499,-0.018260003568771905,-0.006133788934083013,0.002580256718551082,-0.010179616613860689
864,0.0038790354828716804,-0.009514830769063617,0.00011385362092603143,0.005018854775883209,-0.0014026236045067459
865,0.015500299530372045,0.003693468995692016,0.011012064034789337,0.010173598249965818,0.011345410354182876
866,0.022909285729299702,0.014875247251044605,0.019429861626322476,0.017678873155940644,0.02230981559541053
867,0.02318919735095982,0.01702673381367083,0.020194234105831658,0.023542612752428638,0.02594185857602455
868,0.018193576509097965,0.014144429629724366,0.017558008535619472,0.02393600673443031,0.02556175117507539
869,0.011652762222722842,0.008108538313533024,0.011948524978911017,0.01806225789136634,0.02452584163500412
870,0.0057670882261561685,0.00015610675059188873,0.004428415704354529,0.008231255557275333,0.021315707773516695
871,0.0027679360686592653,-0.004407622655689641,0.0003055169478559431,-0.001573577088445598,0.016886299702680862
872,0.00228635582539634,-0.00638377466393719,-0.0020573430646394506,-0.009585628353598736,0.012562844096004626
873,-0.0003922244887751788,-0.009450288327782752,-0.007046154600419626,-0.01738946079725067,0.005466037180385634
874,-0.0033957708546243463,-0.009974094279390215,-0.011156294765034342,-0.022375376120892694,-0.0006418206736442241
875,-0.00027556099526312387,-0.0009575364489155002,-0.005872223175585006,-0.019865833449187183,0.002685660149875074
876,0.003931368057830891,0.009294774244813666,0.002199816098818092,-0.014069839836555992,0.008685653842205567
877,0.006051307410391471,0.016203804427212337,0.008157392718394484,-0.007843926778556767,0.011826643579525708
878,0.011225972002581365,0.024759935649985944,0.015838242098105536,0.0009887912102664689,0.016761910724340027
879,0.017681553670065468,0.03251841203858943,0.02181959058166548,0.008525274937691733,0.021947025830673268
880,0.02103892323273135,0.036944823665330355,0.023098604886022066,0.010778252992442295,0.024999825665142278
881,0.019823898764308248,0.036966906178751265,0.02012016282072887,0.008912438571173723,0.025106775537553572
882,0.012809820936204471,0.030814855637219175,0.012598143742905044,0.004713710351764592,0.018876521613859033
883,0.0013063641615070182,0.019762025006472242,0.0015174188091984341,-0.0004615199474695238,0.005785182120746698
884,-0.009089819804728047,0.00648808179218795,-0.008317792715871375,-0.003586595182278261,-0.008101537803680893
885,-0.013995699742393333,-0.0013183168913878727,-0.012971193794910199,-0.0014444592016055198,-0.01667716177946061
886,-0.014024218793548229,-0.0031474298536451075,-0.014794775501386739,0.00421603102079652,-0.020162396594279694
887,-0.00894911871299368,-0.0038323267816941834,-0.016630789612168066,0.008505709980392488,-0.020201153920197876
888,0.00026832339780259745,-0.003943946143778231,-0.01874148638839951,0.008469134367795962,-0.017467723610463632
889,0.0080165117992817,-0.0037455563833351806,-0.019569581476296765,0.004767752119561348,-0.012142673661226172
890,0.01064883045067385,-0.0024234657163010593,-0.017594154634077847,-0.0008393195519741489,-0.0047262420730311465
891,0.008564332662401536,-0.0007451446927358291,-0.014924481275122135,-0.008439208536097004,0.0018210448285357747
892,0.00558491470289439,0.0029789270833070224,-0.011780368327168158,-0.015890773905269346,0.006900153926010706
893,0.006720907867533409,0.010208259815628607,-0.004138578330286597,-0.018092567738779868,0.013389148149713039
894,0.010811263650898089,0.017801127678520445,0.006499912188617223,-0.014783019306765385,0.019642543747705965
895,0.01069305538904122,0.019220840868962672,0.011509152728887499,-0.011522963616368315,0.01988031146404409
896,0.004737105097982073,0.012877714848786703,0.008199129388248363,-0.011339625276223649,0.015302622351018688
897,0.0008956434003317247,0.008493372039396825,0.004653936434834569,-0.01114733070043681,0.014881346287571358
898,0.001959989822700318,0.009164947339936818,0.0035132220176860543,-0.009750932024084977,0.018229303733221267
899,0.0028759102372881897,0.008875130105150696,0.00011921646703690373,-0.00931521898418001,0.017221989418784493
900,0.004049486283385422,0.009326952104454951,-0.0023939893812824882,-0.008456930573738447,0.013919990086643417
901,0.005414872061690716,0.009709839902418086,-0.002525570783345149,-0.007689753888420525,0.00971762269740753
902,0.004412057318235663,0.0066702449669051875,-0.003375148664675785,-0.00959973500189621,0.0028134185405649078
903,0.004662540491973364,0.005451863566249977,-0.0012482256153851965,-0.01120981313645685,0.00025092713738775885
904,0.006142479036756408,0.0060418298440832385,0.003354360350569297,-0.010756214979254077,0.0028738931803109565
905,0.0031949345907548495,0.002594238974393588,0.0035758659103540306,-0.01103191203211572,0.002733864262599698
906,-0.002997799106151838,-0.00270100794652925,0.00072105023909896,-0.011360319675779234,0.0005256784664051172
907,-0.006430410514607667,-0.003983805736369467,0.0008426304502959436,-0.007602544715884418,0.002259964748786073
908,-0.005930515063610153,-0.0020229572647747977,0.0033885718691524674,-0.00047113622486388807,0.007607514954478352
909,-0.004852759221708448,-0.0005538657620739216,0.0032706462754788094,0.003468163413990757,0.011813934013152647
910,-0.0028972839244403885,0.0010484574617341167,0.0012942491562643577,0.0017856130847881337,0.014695833930571856
911,0.0023991674501121496,0.005457861901688696,0.0020999132522039094,-0.0014064570457988992,0.01846760815583767
912,0.010422437350166062,0.013059632914238789,0.006764833131232575,-0.001673047477846989,0.02268900660955823
913,0.015641393828864557,0.01844552667822059,0.00994720572672878,-0.0007649664040736796,0.022736568044781004
914,0.011289993391395383,0.014130273240254069,0.004167450364544124,-0.005802246070120078,0.013460463719611817
915,-0.00031792695724588966,0.002139897780218124,-0.00814124033960733,-0.01679087192939847,-0.00033622968203588844
916,-0.007817476471874635,-0.00492289111997313,-0.014064894291757099,-0.02367226936704221,-0.005356447450198831
917,-0.0059506835928823144,-0.0011558002323792235,-0.008601554218837055,-0.021434135110285624,0.0013134849473395668
918,-0.0027169468980780837,0.003129170806975496,-0.0034921856553961957,-0.01697132398082139,0.005993969418594019
919,-0.004142757779946617,0.0005419699678815068,-0.006712033004656368,-0.016009492159939066,0.0011419044755118495
920,-0.007463259234824538,-0.004777682918908907,-0.01343058283340642,-0.016580871601715695,-0.007534995057720081
921,-0.0077543974083470945,-0.0072981633443774535,-0.016593270521841775,-0.014899604112142709,-0.012875717682771907
922,-0.0030072568552557103,-0.0050224313998180215,-0.013083365831722486,-0.010213508961495624,-0.011746082407989206
923,0.004491960619941147,0.0011821439090689558,-0.004234468775427677,-0.004666369140242379,-0.005213059754339388
924,0.011085676039379327,0.008748562762153992,0.00591242333024809,-0.0010201412496273084,0.0030945603966660283
925,0.014193776114969081,0.014400472679707208,0.012942915476248791,-0.0014361443521738399,0.008951951170702065
926,0.013027555124750807,0.01637872424549328,0.01466281887843662,-0.006651015506806428,0.011221890714664952
927,0.008727948098219886,0.01467539662954692,0.011665172758024202,-0.014436295704868606,0.011527370176513927
928,0.003485828194765457,0.009759882911616861,0.0058215348333631985,-0.021013296108696882,0.010122734555153078
929,-0.0013584080846816685,0.002663766598627834,-0.000952581514064247,-0.02501630860708747,0.005776043383357561
930,-0.0037423395443829523,-0.004148695920997521,-0.006398941052471205,-0.02588803654802107,-0.0008985602472561862
931,-0.0011592679243548742,-0.008781614819602475,-0.009573425391773964,-0.022925975131142935,-0.008006680308927622
932,0.00601802151987045,-0.009342107582962556,-0.008967242425493207,-0.016336847311640517,-0.01145131297276005
933,0.0132176161237791,-0.005540886752993998,-0.004124672990524749,-0.007993684238527508,-0.0084767283127169
934,0.01774151457938159,0.001208955615912645,0.002941039423388261,-3.4932159898004556e-05,-0.0006819508230672263
935,0.020870387958333795,0.009939758022706736,0.010439456551337782,0.007385822808769145,0.008641273710735566
936,0.02082449846725262,0.016639378426926216,0.014090195943545785,0.01312020953462684,0.014104581651263779
937,0.017127346646531694,0.019690755572585934,0.013113045960426336,0.015532126724237049,0.014779727460670772
938,0.013283199560348619,0.021489076131022446,0.011754634673925114,0.014821465396715517,0.013973560969910231
939,0.009084962379162627,0.02007601460703172,0.008959977998225096,0.011296503651495596,0.010526071532793063
940,0.0062430151889526645,0.016794525034559787,0.0058571667170519166,0.008134607556128312,0.007434126328938496
941,0.008640439616858854,0.016780821437797945,0.007199720191196343,0.00905962999815698,0.010140318330926507
942,0.011060785854020866,0.01561610948401406,0.007674707947310355,0.010645624847589099,0.011574837035329107
943,0.007898903130362588,0.008347750399459477,0.0017843392403233335,0.008354017030646938,0.004949587764063099
944,0.0023614290982951237,-0.0008874508558488169,-0.005945835351191666,0.0036046282056648813,-0.004718146670820255
945,-0.0028287056247183165,-0.008899063101679504,-0.012298823481565762,-0.0014122276928067226,-0.013557260236565179
946,-0.010939165020085646,-0.01888607946584148,-0.020852644455006553,-0.0074768262517158155,-0.024962203458001368
947,-0.021536101735411515,-0.030389108165505305,-0.030838306317150194,-0.011932557008556317,-0.03790283806365716
948,-0.027843956536111467,-0.036865587573365166,-0.03513099940591509,-0.009939023091463994,-0.04465399269401433
949,-0.026524251040087956,-0.03528313982657199,-0.030691257111607178,-0.0030229226210473814,-0.04174352484911768
950,-0.019779150182155324,-0.027690414920381302,-0.02011617420706461,0.004283744530880616,-0.0322365292057615
951,-0.011258948628063516,-0.01735672138564204,-0.007468698488654153,0.009919036250807594,-0.020688340402721016
952,-0.00329310486845283,-0.006718589467780737,0.003917291510878937,0.013554899138467334,-0.010684068210141383
953,0.0016381725491199045,0.0009096569984891043,0.010315458265627213,0.013650069006310285,-0.0065873903612224845
954,0.0008616031272505702,0.002017066774853562,0.00876644746757303,0.008026500886193232,-0.010084817745051752
955,-0.002867368399308885,-0.001058076856379621,0.002858935219008321,-0.00020638934697208238,-0.014908704288066786
956,-0.004766484242562419,-0.003453153355792341,-0.0014384325313030507,-0.005353832621915905,-0.0155419036936734
957,-0.002698762379264357,-0.0024026756835291777,-0.0011854782447007182,-0.004952851773859718,-0.011429805244338356
958,0.0014062467693771576,0.0003598292442555778,0.0010529286297347221,-0.0011591414815023773,-0.00568401473866662
959,-0.00021743571089568082,-0.0031281820842627233,-0.0035609071821563316,-0.00022721890070343955,-0.0070152511696370155
960,-0.006536478853699803,-0.010289900019111925,-0.0122364685884381,-0.003005280605864025,-0.012789086258133886
961,-0.01146127998559639,-0.014833946289534857,-0.01848275803289499,-0.006783759732949853,-0.016943876300510533
962,-0.015958082114832003,-0.01868329481839257,-0.02371245816521714,-0.011495344740568873,-0.02055203559215233
963,-0.021068663612559466,-0.023615936174683157,-0.029480469079011078,-0.016284870143668882,-0.02382796071930321
964,-0.02360180159809791,-0.026379435837238212,-0.03267504665255767,-0.019282774520978287,-0.022727660318581464
965,-0.021765988408197646,-0.025062154872492855,-0.031115293869596678,-0.0199804284126018,-0.01704966077669071
966,-0.01648778436553507,-0.019616145312683773,-0.024924720199343865,-0.018634605337284428,-0.0096767286107821
967,-0.007905328283558468,-0.009396870793023723,-0.013885137137851422,-0.014793092500874796,-0.0005456647837349244
968,0.0025188268842438735,0.0030104412910232233,-0.00019805929243718135,-0.00926574668693341,0.010180512224505655
969,0.0114339595696048,0.012531618604926777,0.011651380176478567,-0.004003152793760208,0.01956318508805144
970,0.015743198127441,0.015217255618534488,0.01777256584809521,-0.0002674859803023403,0.023370121808186824
971,0.014975854538337649,0.010120816214724188,0.016780249623728406,0.0013634118994455796,0.019462225797434285
972,0.012877206166006377,0.0017041430979552927,0.012576508372064484,0.0020453111259510315,0.011754281232366937
973,0.012709149312737457,-0.0026413801839610613,0.011663704904921407,0.004439031817873293,0.007667373400489679
974,0.01644381477684826,0.0027297564183664325,0.01885678778277594,0.010329141493487742,0.013191765080839753
975,0.020984206295396574,0.012419684807890035,0.028673659989227572,0.016311381948891087,0.02270956940447978
976,0.018977791010166483,0.014426270025206413,0.029302559874947957,0.017106208576696192,0.023483734041532773
977,0.010063164630553035,0.006726120942326068,0.019142273004876455,0.013201249788587601,0.013385388658834787
978,-0.0010856842767584184,-0.005191884582884921,0.004540993112673202,0.007794947916416931,-0.00144115143911721
979,-0.00822070512235727,-0.01313997209759764,-0.005520956456780217,0.004398000399558188,-0.011744742373307443
980,-0.006779686023467893,-0.011215389772156739,-0.004962450653054763,0.005794892020062581,-0.011184541981098348
981,-0.0018918292076208372,-0.005558717602840754,0.00013911472807112685,0.009179010165025725,-0.0063066045344654644
982,-0.00043585110803972876,-0.004389027941274403,0.002105501260781785,0.010365201097778295,-0.005268840293583501
983,-0.0027796400754622683,-0.00785945552042157,0.000608230627378261,0.009116686916661907,-0.008298978648673279
984,-0.005981263480876051,-0.011803906567410875,-0.0015584888659664754,0.007268375289799435,-0.011910490462692002
985,-0.008816685004143555,-0.014310453169022746,-0.003687769098610383,0.004972195426698853,-0.01455343750166507
986,-0.012516827545544947,-0.016641981704690865,-0.007550214820261462,0.0009419103636066405,-0.017444028754596243
987,-0.015543609839240089,-0.017100050161008483,-0.010948901453949592,-0.003370501849317173,-0.018523152598685488
988,-0.015016286279851519,-0.01330458042917567,-0.010220109938112459,-0.0054529586411467285,-0.015002787462632814
989,-0.009551855256476576,-0.004835891348489994,-0.004147063484060116,-0.004017318374389715,-0.006223607085455304
990,-0.0007165738710041016,0.006017807398587749,0.00513230008492999,0.00017441458177569044,0.005280177316050967
991,0.00503988751814714,0.011821431711097619,0.010239149938531079,0.0026605518418477974,0.011321026284956135
992,0.004296584895949794,0.009130685209855055,0.00774106689162251,0.0008610736748628448,0.008549990771863013
993,0.0018809460512005723,0.004391310609236929,0.0038599536694218935,-0.001554713385903584,0.004319639353413675
994,0.0019565629835643036,0.0030836403514991977,0.0036125037528375982,-0.0008035268035681554,0.0040904293272990295
995,0.0032076292532079173,0.003906386464197771,0.005355620813540297,0.002463589572215605,0.005999201147758232
996,0.0039014085797053383,0.004484183338628261,0.00657898323605374,0.005602467134578354,0.007522561678383128
997,0.0034591811184970255,0.003621701317927735,0.005814645899930954,0.006319801106057116,0.006900905904835931
998,0.0016540473157643973,0.0012178397266476384,0.0029214755315027127,0.0041390270049350975,0.0034746663353926767
999,-0.0007641031742699533,-0.0015680271817864278,-0.00035023181595304303,0.0006745315544763814,-0.0010642588348103504
