,AF3,AF4,Fp1,AF7,AF8
0,0.010151872825590033,0.012630923558067294,-0.03149961488858595,-0.032088711507884254,-0.021720318711646223
1,0.009661844317478156,0.012964651961587905,-0.03616816215520299,-0.03471453563239239,-0.02185111245732499
2,0.012761129153655635,0.017573579472286598,-0.03666507916601982,-0.03596285879452083,-0.0185431203304618
3,0.01926269556957492,0.026305394158715027,-0.03269043858343219,-0.03463270829078943,-0.012405737075959681
4,0.0271926743871666,0.0361376495215594,-0.0228282976892696,-0.02638013944926776,-0.006145862109467909
5,0.032777667881754326,0.0426052071218354,-0.01316279579273067,-0.01765945393939221,-0.003876331592376345
6,0.03323004875502737,0.043262231186012856,-0.008755247184337761,-0.015345857301659951,-0.007450312244576231
7,0.028844478077548117,0.03790147345158571,-0.009089279935466344,-0.017845022149832728,-0.016336182087530477
8,0.022413634483305064,0.02889055658394037,-0.013027303189224118,-0.02263684071813076,-0.027036892063008897
9,0.018150957072629908,0.02224448725900674,-0.014625963841065515,-0.02489438431708631,-0.031609571502936355
10,0.017772679373905392,0.02097422024689898,-0.011778044553885557,-0.023899105899825922,-0.02829749424914778
11,0.01806991795737979,0.020950172974923808,-0.01015913761118006,-0.023469327850046913,-0.025839966118573365
12,0.015314442885717547,0.017752394644154262,-0.015724458419091595,-0.027609742512503817,-0.030859750548608438
13,0.009752477705636784,0.011557018584924516,-0.025638274827618008,-0.03328773758173069,-0.04104438352291941
14,0.004958134803824094,0.006207548980865644,-0.03304895045680788,-0.0356150131577053,-0.04996430083217026
15,0.004175662293032669,0.005480770423068707,-0.03360560610772907,-0.032816697069505116,-0.05273621417181216
16,0.009547535922332902,0.010976302586276692,-0.02433936136881183,-0.023417840552356257,-0.047216131773331636
17,0.02031889336742142,0.021209550549058303,-0.007860412185338206,-0.00940745031563669,-0.03543969230061139
18,0.029642114788505754,0.029401086426711704,0.007033233401266446,0.005549022214679017,-0.025255654789801033
19,0.030563557589172265,0.028687925648193793,0.012964085444401342,0.01904381762387546,-0.023967400845604836
20,0.025782191840282555,0.023654181642175698,0.007119020098196463,0.022202936970791565,-0.02710471671250364
21,0.023633975756640776,0.02254841677099715,0.0030782278499794816,0.021375220989959174,-0.025834107955516054
22,0.02666462642649869,0.026862257544859103,0.0067959901427826624,0.0211972437157368,-0.018539154540035737
23,0.02988764054023792,0.03142360285580663,0.010205121025811774,0.017985217337731525,-0.011099727953303872
24,0.02934733980254128,0.031206582777633083,0.011716047799876913,0.015573150457149932,-0.006978230735589565
25,0.02664641180973574,0.028258342904192713,0.01155117272837411,0.012706370049824773,-0.002811539617289846
26,0.025669038532386945,0.027438295423807966,0.012345339758474032,0.009093950799988301,0.004607042408920857
27,0.029212393832434614,0.03188101167626407,0.017350279590708215,0.007798321463884975,0.015281827449715894
28,0.03562218664560524,0.03754700924311869,0.025123003435357852,0.010763736998905515,0.024298531791340536
29,0.038878733813692126,0.03779748210612939,0.026406089010053063,0.011045144542842387,0.02518538792935388
30,0.03355964280850056,0.029648567012676316,0.01716494916650412,0.005306880037897895,0.016388532864402203
31,0.02046430159055424,0.015476682144159423,0.002210616685813878,-0.0027068874982404696,0.001966499562912014
32,0.005415235256231631,0.002053957624167688,-0.013874472628712047,-0.012049887148675664,-0.012685631234000818
33,-0.0051753107237055085,-0.005097813443499907,-0.024761758548965365,-0.018184145381692086,-0.02187074481793216
34,-0.008564382677975558,-0.004966078772221584,-0.0271830832391938,-0.017964656231792442,-0.022811791366007403
35,-0.008664056021271602,-0.002137737559175088,-0.025409771400493684,-0.015424933960810471,-0.019695622706844784
36,-0.0101127237542181,-0.0029751747072446415,-0.0237820111005429,-0.013454041657439606,-0.01923654598246484
37,-0.012992138425180605,-0.005154285253299314,-0.023032327647552933,-0.013074892867909737,-0.018693589392311694
38,-0.013842385632820305,-0.005846207072473302,-0.021108904475313932,-0.012037212730032729,-0.01703629365238468
39,-0.008398277388312603,-0.0034398491783321342,-0.014779302713041962,-0.007563459800315449,-0.013721014447326603
40,0.0032110311098141474,0.004997805822725634,-0.003876989552672407,-0.0011982014359292758,-0.0044560584415824535
41,0.01524716843008755,0.01448109630941947,0.007046270671274663,0.004713059025888842,0.00636279247974308
42,0.024757033179040176,0.021598473992824004,0.016451169860489275,0.010029767034676217,0.0157736987144778
43,0.0329339973812569,0.0281398309100722,0.026116084092173055,0.015496403277304309,0.02561633695276203
44,0.03788006976094632,0.03397000937050009,0.03262050381260987,0.01826342129423014,0.03274601403449816
45,0.03776041382482267,0.0370054925771792,0.03298177584137255,0.0171528007796805,0.032940031402635836
46,0.03426590461184532,0.03745131845405944,0.028325979054481795,0.012898977264110514,0.02877834182385184
47,0.02747483392207543,0.03269353177293087,0.01770757699448548,0.00524340312998247,0.02146810328134291
48,0.018115280977760106,0.02120078249238456,0.0023418182836142144,-0.0031726581699679226,0.010499931133497831
49,0.01121516955309087,0.010756528992927738,-0.010657945888121474,-0.008827321431981902,0.0011188674925968435
50,0.007919623130357266,0.00429685022830136,-0.01926644562318542,-0.012795633494821866,-0.005776040455022033
51,0.0038946547242145013,-0.0032935460767940603,-0.02859699591166993,-0.018431724052587986,-0.015835012132070527
52,-0.001379938725807902,-0.011018217640542342,-0.03430088032676166,-0.021732387557995943,-0.024226363700769873
53,-0.003318627169514973,-0.013811816775808294,-0.03404379877287928,-0.020117902484509325,-0.026411775903133802
54,0.00047710202985740396,-0.010037327735498196,-0.02771736516509103,-0.014527231313703521,-0.021251184275049684
55,0.006330827646458632,-0.004163611496029931,-0.01798077649561959,-0.008588914448261683,-0.01250335664126253
56,0.010736227825535754,-0.0004119144799684353,-0.011539770992033275,-0.006549055182141164,-0.006731830595086487
57,0.015013223453816943,0.0032143103143521903,-0.005283856929113254,-0.005677943106469554,-0.0012326703728992826
58,0.019209831609465388,0.006858628690666456,0.0031908981142144497,-0.00358798448335585,0.0047565533487997835
59,0.019406124311801626,0.005940551433589075,0.008954975194090392,-0.0023687244280255633,0.006460487481788401
60,0.015263493455553796,-0.00048093574477487387,0.008199871607088837,-0.0037317337378457525,0.0020844224927742384
61,0.01268383194411897,-0.004709478288971676,0.008463306783836548,-0.004292866883384369,0.00027537171349463653
62,0.01303055522293589,-0.004093895651259655,0.012902050073793707,-0.0034358155646234023,0.003246741187574159
63,0.011140266698602434,-0.004623358788865043,0.015063106844783873,-0.004605160652802191,0.003516990545831621
64,0.007191542874708484,-0.006423845736976977,0.016520833290801083,-0.00619743685940792,0.003391277921086618
65,0.004950394730479563,-0.006721940815315989,0.02013100923700948,-0.006248674754263311,0.007623278198715175
66,0.003981716215530679,-0.00669626118437371,0.0237667015983714,-0.005811557798016203,0.01498074244355444
67,0.0030987498640991425,-0.006906742642420236,0.025867183709475192,-0.006339388750982376,0.022315195646110193
68,0.0012020381195900608,-0.007850084154394673,0.02325485809530747,-0.007777426324228833,0.023195838986749227
69,-0.0022026805212601377,-0.010331439120396106,0.017654574764905992,-0.009428520818853,0.018882054768806413
70,-0.0023486687690758364,-0.010947187074565103,0.01578898753496036,-0.005893165961544158,0.01589062618527807
71,0.0033595593854457836,-0.007845196403355814,0.019383933271330124,0.0035229772198699396,0.015660691035140763
72,0.009835707189726286,-0.004233823178028221,0.024902851189643666,0.010859583071760758,0.016684992912401757
73,0.011852188169209077,-0.003093816994587074,0.027237584456619248,0.012772913490280403,0.015105744187577638
74,0.009341909804119378,-0.004731729851457886,0.0251931431169362,0.011489025101840213,0.00970094165389006
75,0.007515910979851534,-0.005074836212287543,0.02416298794313124,0.010225981574928452,0.006004551289605152
76,0.009340935907531692,-0.0017290632966553315,0.028305932255993003,0.009331141522024796,0.008837795030907803
77,0.011822558325551225,0.001978075131340026,0.0330886289652541,0.007341580641045061,0.013170335467747957
78,0.012922177591713834,0.004140872614425193,0.03573034596302502,0.004945136209355492,0.015455798949967927
79,0.012566543483673134,0.0050604406689578815,0.03679718847030653,0.003198758770031114,0.015820760662999627
80,0.010082444000202124,0.00457750492353608,0.03489612548453161,0.0016345291281530453,0.01260755544864123
81,0.0036761519219118736,0.0009167946707034166,0.02875672145442223,-0.000938227390592018,0.004268809224998695
82,-0.006704226966921629,-0.007175485809697563,0.01900610193674923,-0.0033261737768863135,-0.009775149528192596
83,-0.01417850993323775,-0.013544336801904639,0.01229121327108784,-0.001472304198603521,-0.022141844854471678
84,-0.013974058163448756,-0.013315923061175105,0.01088424799653898,0.0035581054294834386,-0.023807855757439662
85,-0.007847169684184838,-0.008407289342676873,0.013823661422556461,0.009702672465765467,-0.016870480544830323
86,0.00023194261003512716,-0.0029812938974353048,0.01845689936083557,0.01567795065632369,-0.006198998028201484
87,0.004120555405419922,-0.0024271138659311305,0.017873448042162825,0.01810474763441443,0.0014715196234733432
88,0.003519655612732185,-0.005073951683737138,0.013593880502776835,0.01835247022226828,0.003390179215582725
89,0.0036333181002530025,-0.004194794228945193,0.011800089513852864,0.020279300480633648,0.0052176365436621885
90,0.006175515272252253,0.001225846978640732,0.012547546982310769,0.023382366493220376,0.008304610075050957
91,0.007433970021984602,0.005144553222844168,0.010140911114031302,0.023460578677172505,0.007287012954339841
92,0.003996516681121565,0.0027579740048828045,0.002140707410921528,0.01927992631902727,-0.0007788339068195532
93,-0.0014068167771289532,-0.002903886898620583,-0.0072019252288336956,0.014051658992801523,-0.008961704406392601
94,-0.003159259136923005,-0.005369070649629282,-0.011642903414224356,0.01165688806376663,-0.010266979738171074
95,0.0003083356018786319,-0.0019173255767264029,-0.00919665044383528,0.012883419167084584,-0.00473770554237435
96,0.004435449728263868,0.002805218500721382,-0.005686158598940792,0.014759328972102638,0.0013149207868639735
97,0.005554906053690491,0.0033490730034166846,-0.006053211973725979,0.015746238977849592,0.0009698164778487774
98,0.006893011970717472,0.0031445134486319214,-0.006441738635816706,0.01812858128980646,-0.001472784331951662
99,0.011996951840101923,0.007731843616513448,-0.002263735990444291,0.023685436793682943,0.0015055539562116487
100,0.01750338891338932,0.01348039463221422,0.00572840807707287,0.02980630296141213,0.006364685431091513
101,0.018049865245748208,0.012888326087246554,0.008895188747338746,0.03212377887404737,0.006290807877816096
102,0.012737824133667898,0.004530722624805031,0.004208078511666948,0.02913788005586064,0.0005439961748434567
103,0.005549317828874483,-0.005745743880596815,-0.0021447972256532985,0.023681979125909296,-0.005833868706083424
104,0.001331563110435309,-0.011360195651951519,-0.005977212631452711,0.01948332351144106,-0.007417687032691412
105,2.434729117016208e-06,-0.012609434096599773,-0.007300496007378737,0.017009803638937282,-0.005315356137126034
106,-0.0024560037947057903,-0.014792415515623526,-0.009836745758528295,0.01461572003234912,-0.005446801652803517
107,-0.005108666843630498,-0.017141477650044666,-0.01215989308658577,0.013051015734756609,-0.007474262734205108
108,-0.0027550486639836154,-0.013547918199687188,-0.008970742349839815,0.015119539428388324,-0.0044663713966413745
109,0.005071831097659625,-0.0036076556489235763,0.0016742691055645464,0.021615586907133923,0.004560714287239026
110,0.013032387479919185,0.006058293156075038,0.013867964234328815,0.030214393185473077,0.012996917347195165
111,0.01653367819719652,0.010132026012319002,0.020422928257752503,0.03741664605541631,0.01585256872232554
112,0.014764697066848296,0.007844049801100435,0.019853341740624735,0.03972773886906857,0.012693684704247237
113,0.007355513646903854,-0.001278433611598453,0.011004383378874882,0.034577370669127756,0.0032231314361631717
114,-0.002865952104779079,-0.013910107700913929,-0.002241682934923918,0.025042079382740366,-0.009190021587183716
115,-0.009716073214433144,-0.02300957764929336,-0.011633182887264695,0.017846801620542883,-0.01743919427573252
116,-0.007944914127056649,-0.02266360292757923,-0.012637839086662954,0.017436987558874982,-0.01583703413361793
117,6.291244317610462e-05,-0.015398932716740251,-0.006548281720502534,0.02143442850226333,-0.00699250206297281
118,0.004573881718102322,-0.01177105248773964,-0.003231583483222757,0.022362524500788815,-0.0018425018495941262
119,0.004150282428609423,-0.012953976464126332,-0.004850644620977915,0.019526566661182247,-0.001044174534615342
120,0.006251470360503072,-0.010772411780883112,-0.0022903506445180423,0.019189559671497474,0.00408448922831667
121,0.012683439248603458,-0.0037718319573313503,0.005851720780884878,0.0230682273346843,0.013761236993480922
122,0.017155624765708845,0.0007697424733427227,0.01174825526649683,0.02653631995724259,0.019683950651613092
123,0.014320472772581696,-0.0027040847011996915,0.009062359658396368,0.026201091130215164,0.01577099971734441
124,0.006285755728297601,-0.011228210547680322,0.0006476679726191233,0.023661612724572255,0.00516803575481722
125,-0.0007373215161988986,-0.017905380158524543,-0.00699261455969499,0.022036774529141923,-0.004309103598468076
126,-0.0028524606940403185,-0.018877446255814185,-0.0094314769786462,0.02264531298561531,-0.007887144603900982
127,-0.0006001086297519597,-0.01517536232590108,-0.006525309578982338,0.02479039255015516,-0.0057921917810070285
128,0.0013754388936292362,-0.012512844380289979,-0.004332256397758483,0.026030147449143885,-0.0014180936741415356
129,0.0016068604443892915,-0.012656428645402286,-0.0036682511043693565,0.02633646910691327,-0.001850758309744631
130,0.0030470191078284126,-0.011484043045409736,-0.001048931553544563,0.027990243530364164,-0.0010111558261694587
131,0.006286386278190032,-0.00761297883914352,0.0034890322281570926,0.030968868223152476,0.002571030575349142
132,0.00788866344489591,-0.0051433643649105645,0.007206380274280523,0.03338603387967789,0.005192414113179266
133,0.0046778900410410496,-0.0077895955610545594,0.005464389508129429,0.033241496961942785,0.0025294701605101254
134,-0.0018076604765298303,-0.013288351130406707,0.0007650198359135544,0.02944937530430375,-0.0029053568278551954
135,-0.00988162738567453,-0.019964679327007823,-0.0032633898950251324,0.022224918926503724,-0.008803949997182486
136,-0.014956384109042984,-0.02445427211699411,-0.004064553164875277,0.01640292598675231,-0.011414690423991253
137,-0.010910918710341928,-0.02128811719915344,0.0036959242422402025,0.017246413077360603,-0.00405574250181082
138,-6.960644196358247e-05,-0.011911553411466998,0.017908532725449667,0.02262529373568215,0.011755099902204646
139,0.011097811065626557,-0.0019367573800747777,0.03160914683841312,0.02727524952097013,0.028452705132296693
140,0.016607513339473814,0.0016587215813187325,0.03700352926567641,0.02752371337911226,0.03642545227871097
141,0.013685495961911287,-0.004843068506929144,0.03238130013076891,0.022782889624167822,0.03183853177755347
142,0.00512286632871663,-0.01818725588175079,0.022485372540989253,0.01554479371269822,0.01974390534491828
143,-0.004108405925932076,-0.03227295969991227,0.012920910284302017,0.00890940664510184,0.00719161036991744
144,-0.010105784224911901,-0.04174430853697101,0.008839394068454312,0.004955082113173104,-0.00045271236982057697
145,-0.011865532178295612,-0.04500731388582151,0.010811012984844057,0.004055736177015752,-0.0017900823391573872
146,-0.011024869942798545,-0.04448122015265369,0.016030624806033577,0.0050580835372927985,0.0010971205752383652
147,-0.010790356748012153,-0.044222575974807665,0.020981194775107802,0.005873817130016018,0.00424716076380318
148,-0.011523812116038503,-0.04142350365205215,0.022256055938151883,0.00642582473796796,0.00512297126493341
149,-0.008848062554555143,-0.03269433271186027,0.02660358621597979,0.009402569587734427,0.009467058541543793
150,-0.002183973964614119,-0.01907105114466058,0.03560578684376684,0.015124105737638274,0.018660926645046164
151,6.0922763267441564e-05,-0.009473933127224148,0.03786490221981762,0.018216939835059426,0.021794524936891633
152,-0.007039462311307164,-0.01169523106229638,0.028807346920293398,0.014030160063142467,0.012595862576025576
153,-0.0151960604056046,-0.015735194923345353,0.017483121070516753,0.006049281648466115,0.0009073274610773275
154,-0.016868743938876468,-0.011588066524157536,0.013019254443224154,-0.00013806777298923438,-0.0017418677019919572
155,-0.01334739347756971,-0.0012170117031847102,0.014778694075592059,-0.003146234343447535,0.005290995633014527
156,-0.006709442491094248,0.010293009601146846,0.021775459534503182,-0.0027811904994043367,0.018146965348638314
157,0.0004523280394932188,0.01928873516403206,0.03004382499551205,2.7966721969732724e-06,0.028970126468858538
158,0.0023183427247081678,0.019813691246102674,0.03170573883420823,0.0007023657779396345,0.02881817641230274
159,-0.002360782669665463,0.011799736134879677,0.025333698083446834,-0.0029322325340208413,0.01890468859909632
160,-0.007696838552545947,0.004478525088732256,0.01695265480314581,-0.0076206747715026535,0.008849648923096112
161,-0.010278493493181273,0.00190102072444628,0.011762440307310185,-0.01099807881271143,0.003501457794743361
162,-0.010227382529628211,0.0038679279893755023,0.01038821602218899,-0.012824520277091703,0.002424158500262067
163,-0.00859441341914287,0.008984239230798923,0.010543830220428124,-0.013365801221815327,0.003457402702571049
164,-0.007387485591188769,0.008937560346461735,0.010627234169759884,-0.013560665502746098,0.004471451925889619
165,-0.00783363942846294,0.005641515979805594,0.008667558628161405,-0.014539494936521475,0.005192254946432677
166,-0.010550879693208922,0.0012660907671960936,0.0035946712011252708,-0.017688344306577043,0.005042870260198879
167,-0.012289294367328122,-0.0031740916531898503,-8.984960692388033e-05,-0.020569025083067374,0.0056867068474041015
168,-0.010282219797259712,-0.0023372371305091645,0.000623939496811969,-0.01970157178011568,0.008550973765161049
169,-0.008710095266898777,-0.0010914455158237127,0.001208154311207349,-0.017681446791121175,0.009606646509068067
170,-0.012640835948182137,-0.005898616135984795,-0.003925606762680971,-0.018831652568787216,0.004029528624443827
171,-0.01963087069321429,-0.013569100920266676,-0.01154204671026805,-0.021121815147405108,-0.004783983204595013
172,-0.0225493330375766,-0.01492144977183327,-0.013801015700683258,-0.01896830511645822,-0.008708627236328141
173,-0.02255546385687543,-0.01473947004426281,-0.012596469491029584,-0.015106237683094654,-0.010156651672150827
174,-0.024746807333106705,-0.019582353319202585,-0.014933243226139597,-0.01596275432386058,-0.01494215097208364
175,-0.02721683473521191,-0.024308860430600814,-0.01865633547937414,-0.01887214778814631,-0.019787604903992128
176,-0.02572103070468567,-0.024440686202276816,-0.017296136357605598,-0.0178593976397597,-0.01985977751403687
177,-0.01932759053087946,-0.01715848367674501,-0.009976166792250184,-0.012490542421963893,-0.01442267922002834
178,-0.008918283240475885,-0.001783022844511408,0.001930533485518766,-0.0044624504323529214,-0.003880518471587172
179,0.0002500873391544481,0.0148668167621752,0.013049854880787548,0.00261601546937368,0.006660552354575209
180,-0.00024250632949123207,0.020577196580879368,0.01420893393148989,0.003503103594062449,0.0077373425998883945
181,-0.010932528817227493,0.01597516205956319,0.004509078387005377,-0.0012894692876410908,-0.0020043343125928795
182,-0.02478242960260568,0.008767272180828341,-0.009264559172637469,-0.00750459627549778,-0.015266150213867482
183,-0.035537521721646995,0.0031599637548803943,-0.02144677516647398,-0.013203878494799119,-0.025527596302902186
184,-0.04127473405088566,0.0012725554444823711,-0.030294030090623668,-0.018036506026617098,-0.0316265015074518
185,-0.0430107784735658,0.000771368468203571,-0.036286850260091326,-0.02115074666291881,-0.035650009979591744
186,-0.040225813116716184,0.001557977611006443,-0.03798973116790437,-0.020612268079476342,-0.03687625276458288
187,-0.032334993485726,0.005735348581217825,-0.03372735868159887,-0.016374371920690793,-0.032479953474727936
188,-0.022364469720979132,0.012242552886947073,-0.025773039042890595,-0.01117773103608629,-0.023113563629954637
189,-0.013057475690057295,0.01791259717273107,-0.016911429295056124,-0.005823715073910919,-0.01204155911056969
190,-0.005801839796314098,0.0207289997500271,-0.009514976234211325,-0.00012581192954315976,-0.003413186152276149
191,-0.0012641343937240185,0.020614123614086318,-0.004945069503325531,0.005202630754562608,0.00043272543329562113
192,0.0022254281590462863,0.01902254031542006,-0.0009317937496577692,0.009697416432122756,0.0019365690593803853
193,0.007455467223741655,0.020310745562391534,0.0057788504760030055,0.01322112911364047,0.00567967772728138
194,0.013672397751619783,0.022198984809543743,0.01349593326441093,0.015133756153520712,0.011245950366669283
195,0.013160723860681008,0.015512082538984664,0.01292443898653572,0.012314955843762774,0.009179641498149088
196,0.0033119801231862385,0.002712160170000427,0.0013338740418655864,0.004726202675690585,-0.003742030131969812
197,-0.006795627792256853,-0.008348687058081256,-0.010393860268037142,-0.001762758543365687,-0.016612649133147767
198,-0.013144610246283378,-0.014738631233047987,-0.01718016610336564,-0.005093341763259004,-0.024563760990408127
199,-0.01865193595164888,-0.018076767559765082,-0.022641031870258895,-0.007455271158239493,-0.03157609160773201
200,-0.02142405895584907,-0.019951452944705142,-0.025531268698992738,-0.007952955379834151,-0.03668085457890577
201,-0.02058871042712696,-0.019291141794148425,-0.025389728400362865,-0.005851994234077256,-0.03967541100722735
202,-0.01939351409921243,-0.01867662802604781,-0.025946668992082745,-0.0031425980852239376,-0.04359503454329093
203,-0.01785235169735509,-0.018049172756544718,-0.026538583856385984,-0.0006432336830976286,-0.04623351922913304
204,-0.012288453288814194,-0.014567979368542355,-0.021421719213959967,0.003385552106703868,-0.041740546725455574
205,-0.0029738873503912674,-0.006713383481373502,-0.009864212786230307,0.009109146589851846,-0.03131558287362636
206,0.0033366214517802583,-0.0008740286759255599,-0.00032366704902708646,0.012322431322592175,-0.023978734322144913
207,0.004134374770400271,-0.0012060086528302716,0.00170760804520234,0.011121075050842272,-0.022850250106471737
208,0.005136448226676465,-0.0016049122941229875,0.0005777447400067739,0.01036202727747972,-0.022035925639896616
209,0.008517442081527273,0.000122705844194572,7.084535180768634e-05,0.013103963446024994,-0.018758562258999578
210,0.010990022033625032,0.0018364245043370855,-0.0004750259857700349,0.017363516351924336,-0.015117705652280421
211,0.012204739291401045,0.00417311644228614,-2.6600750917782327e-05,0.02272425964334948,-0.010840031636427522
212,0.011401012057374569,0.007918796312107073,0.00028209005015014915,0.027971684922502845,-0.00782805902279896
213,0.00605403420101644,0.008088672465253573,-0.0033772734614782043,0.029041298809750295,-0.010328437394861834
214,-0.0012065080308650378,0.005756987822085662,-0.009108362474600808,0.025547242619508803,-0.015310283274313878
215,-0.0054773706396737615,0.006950010603371664,-0.011895275435981564,0.020921081774682503,-0.016231731967809204
216,-0.006251373789348021,0.01108100232039582,-0.011044109081926032,0.017029852834536313,-0.012339438703450526
217,-0.005913548678709068,0.01618626694188838,-0.008968000280376838,0.01376135113926667,-0.007909982924437004
218,-0.006399902320749635,0.02015987655774015,-0.00806959975715833,0.010985566931786064,-0.007346025128417876
219,-0.007457644574370782,0.022352750239225203,-0.00847185688726241,0.009438749830081751,-0.010545291511862797
220,-0.006952266617395661,0.024140950765775028,-0.007334270147386882,0.010740292773335028,-0.013196633907806638
221,-0.005598925983627894,0.026371000002535235,-0.0048144715762304,0.014777516764294122,-0.014283614802730599
222,-0.007608238674372282,0.025596526759607864,-0.006289265805237903,0.01828885356100181,-0.01823126663990359
223,-0.012078134450235315,0.022054752963096783,-0.011584206371568996,0.020595416210422556,-0.02508973954144017
224,-0.01303249833585901,0.022699986580796316,-0.013686337138720488,0.024543828112703926,-0.029163661186015506
225,-0.010793442544933526,0.027124247070164222,-0.012452225662659471,0.02863670558976836,-0.030015685437560426
226,-0.01061497616930813,0.029958142742203143,-0.013625753151723121,0.028702077813972014,-0.03118761834662859
227,-0.011617883438713948,0.03247945888843241,-0.01628301153246756,0.025724937941982953,-0.030435703983910805
228,-0.011007312994649611,0.031051286797029013,-0.017685503267805793,0.02220324982581241,-0.026292473706558083
229,-0.01134806122686943,0.025718441051130875,-0.020924757191538815,0.017598673791081307,-0.02457112164577576
230,-0.012710607929576791,0.01982292955273405,-0.02527441406699392,0.013754433268709825,-0.026275666433025712
231,-0.013074547545491295,0.014540524492844828,-0.027318333197801373,0.013612945076327897,-0.02807913598201658
232,-0.014402780236825553,0.010378865683284897,-0.029096252124119766,0.015734315513793812,-0.03138377896838571
233,-0.015910499049082386,0.005641704655642735,-0.03059797999392319,0.01787596622245477,-0.03514129979897208
234,-0.014811054496004767,0.001550123340745701,-0.02980333453753608,0.018324159108012328,-0.036174186320489694
235,-0.011940877483238375,-0.001349516758656244,-0.02810117471571484,0.015904725176023277,-0.034895938707629796
236,-0.008597710879281788,-0.0010494775475068288,-0.02629905787896078,0.012367997243079791,-0.031073486555985887
237,-0.004028139162034537,0.0016521471214453534,-0.022564099524736047,0.010567908527496625,-0.023137406679811068
238,0.003811445367828195,0.0073215429688408586,-0.014830821666632538,0.012686720458237724,-0.01121315352723449
239,0.013784578746259296,0.015129967862024493,-0.005157806729430181,0.0181103163912207,0.0009165150504362353
240,0.02092871856425274,0.018243382102967512,0.0013200869136610386,0.0228628366519966,0.00773970731184361
241,0.022355699606621236,0.01544450118092221,0.0023705206409708876,0.024213493590316475,0.007107279703568255
242,0.019757233488748683,0.01001531871064975,0.0008080518642286625,0.023251738103160925,0.0027265327981705395
243,0.014983617482210632,0.0032106109342537187,-0.001211389741519828,0.021171245308713584,-0.0013601533322677663
244,0.006245916772297232,-0.0026741436169836416,-0.007830783834830577,0.01682893297906536,-0.008733849564501203
245,-0.0050478794140480215,-0.011585173376095098,-0.019834055064412243,0.011494037049452135,-0.02131541774439677
246,-0.012937386253133128,-0.019018995815166383,-0.030042269445401556,0.008894383448700027,-0.031713449626838974
247,-0.013936908729418766,-0.017017648970013694,-0.032192671467366915,0.010944000735876194,-0.032614941407160196
248,-0.007969619412388058,-0.008110416209854237,-0.025059620944114215,0.0173445196259745,-0.023130939245672465
249,-0.0011639636844834023,0.002076412386390112,-0.016427116626296284,0.023671985895587486,-0.012172121198955669
250,0.0001158411264499193,0.008379023868146247,-0.014301275505631865,0.026038958745671595,-0.008227893316575233
251,-0.0008955258867018754,0.013848211703116967,-0.014580394924418157,0.026979878083024406,-0.007053237908955435
252,-0.0012426738568056632,0.017891505016954027,-0.013521405125347047,0.02829112734691643,-0.005758816644597293
253,-0.00394884039667663,0.017528932666917442,-0.014696789278899648,0.028564883880708384,-0.009028022313120509
254,-0.008832969755614118,0.01428901815615014,-0.018075095913515686,0.02913815980648748,-0.01575145889367606
255,-0.011604063315857012,0.012933999992286395,-0.019416875642756022,0.032152205176157,-0.019276491068578056
256,-0.011829673795687397,0.016231050136117347,-0.019313604938844743,0.035014573369963865,-0.018872918955130137
257,-0.012126090934312097,0.019360420032415608,-0.02072975356319891,0.034471105536439436,-0.018300553228730303
258,-0.01097491496660215,0.022960261945305035,-0.020647713729190886,0.03274250816866936,-0.016763568829722422
259,-0.007428440996950797,0.028775071683377205,-0.01705667054738199,0.031957093017645787,-0.013205927135042471
260,-0.00434466151345303,0.030217964048651326,-0.013150777181593274,0.03078165062327783,-0.008668847052154153
261,-0.0016466972510841048,0.03017829285248692,-0.009286563424604086,0.029482603636774483,-0.0014462304120027897
262,0.002023163554593799,0.03210778083102511,-0.0044934637776740186,0.029084948029903804,0.007384394286238996
263,0.00492725547695966,0.032470333804264756,-0.000962999151593583,0.028468914573234323,0.01170244332056594
264,0.00565886629499162,0.03158561856225171,-0.0002892302897474896,0.026630201180383076,0.00917073558334837
265,0.005720369778866257,0.03008943286304591,-0.0009977373915353838,0.023969787618628308,0.003855624522923877
266,0.004986185089137101,0.02639117101506297,-0.003276394699985974,0.0200636172457495,-0.0022537611938629816
267,0.001101971037515224,0.018305805279897874,-0.009420617546980203,0.014025242844742141,-0.011292564816994949
268,-0.004837813103419923,0.009593943299319917,-0.017616910477812442,0.007401288019248515,-0.022194477163835123
269,-0.009593559901949905,0.0030665604927536507,-0.023963398351825902,0.00262654974907617,-0.030673946728044674
270,-0.010802511749231617,0.0006790378104007626,-0.02616472595492401,0.0010997569629473641,-0.03296179811247062
271,-0.007283867140919109,0.004696411842591774,-0.02282611024878501,0.0030105075211699904,-0.02757377320212443
272,-0.00019967286976747012,0.012623961767106664,-0.014552449670725482,0.006620145161457007,-0.016929601350359837
273,0.0077017430852670335,0.02148875328668707,-0.003877759684308614,0.009790651233837176,-0.005285430201168383
274,0.013114222695923234,0.027819455649732486,0.005362526063662208,0.011151924834616909,0.0035774058793854925
275,0.013724049525738899,0.02911750837816554,0.010115304322747746,0.010445692293673597,0.007676392159575979
276,0.011169254383031508,0.02907555683231254,0.012056610871927331,0.01011794630830981,0.009343114627057617
277,0.009761687312753523,0.03176594760941074,0.015053027034248262,0.013201334475611618,0.012802566818705934
278,0.010815807474742154,0.03696561537712018,0.018932831782619793,0.017998025441312723,0.017874163557167845
279,0.011715624583428074,0.04108113442103754,0.020579257096389126,0.019793188769089337,0.02057061861936949
280,0.011203940113330379,0.04199994874440481,0.019523107962216592,0.017456421691226326,0.019361573338675976
281,0.011971898564924581,0.04259589522513956,0.019005321338613632,0.014172625919724815,0.0176252045625076
282,0.014908844495027667,0.043693850084914033,0.019649012966983397,0.011713862516597796,0.017222752676080207
283,0.014328973015172056,0.03943447834696914,0.015000982887860259,0.007127542276133875,0.012539804286158479
284,0.00967282517782415,0.03020399782681092,0.005263064701197016,0.0005802663596519495,0.0044415519168518065
285,0.007559668679323846,0.02504097497900258,-0.0005892459608611391,-0.0034189036213336252,0.0020948456019366586
286,0.006464987473538293,0.02263714953553786,-0.003402405903824676,-0.006092083660253373,0.0026113803706468357
287,0.0014752413755067958,0.017186515398716396,-0.008710287718261529,-0.011344695486076353,-0.0021394341810179116
288,-0.0053773846986088615,0.011506288382194979,-0.014747840081469394,-0.018543944986082566,-0.010265358819040029
289,-0.009842949212445376,0.009496491187756492,-0.017731532620934846,-0.024225643816636996,-0.015993855727173246
290,-0.010480314519509098,0.011022421736734636,-0.016595425969114872,-0.025946851544083077,-0.016888019121390995
291,-0.008146696178280042,0.014414466160010365,-0.012218982646587068,-0.024204782455962966,-0.013266068617603943
292,-0.004315306952774191,0.018147200615578698,-0.006304541488286839,-0.021119547567677695,-0.00750333134370808
293,6.187838883503748e-05,0.021955346688831492,0.00012449446209094326,-0.017854752443530502,-0.0014357893400063731
294,0.003877294988203425,0.02558247188282165,0.005866849158668176,-0.014861662966992942,0.004133491137544688
295,0.004878111084769682,0.025995313256119288,0.007741423570238142,-0.01397106387625356,0.005834616957231866
296,0.0014536940304461967,0.02016939131021104,0.0036013740739391435,-0.01652215254892753,0.0008195607806125268
297,-0.004668451622493037,0.010380416610962671,-0.0033259973677460686,-0.01999826099800119,-0.007134178025958722
298,-0.008510703060151746,0.0032941882397586903,-0.005892434553714166,-0.020199950881559365,-0.01010824711260085
299,-0.007203070250112173,0.002649199728269522,-0.0007781363272802924,-0.01651746156517597,-0.005757934935633837
300,-0.0012801029068574732,0.008131186237370554,0.010481418580350937,-0.010609938248398546,0.0028426924125263065
301,0.006604793104159244,0.0167505733333257,0.023484334919677406,-0.0041924525990783374,0.01146974542056229
302,0.012670188456082039,0.024611744976604795,0.032973079316765116,0.00047711961670620555,0.017041747966477682
303,0.015331189318473612,0.030159340171022838,0.036984122887008676,0.0022678003060814704,0.019654302257690867
304,0.016355514611282807,0.033305870871965286,0.03717478283996586,0.00287972842940519,0.020176705688033078
305,0.015516479736763967,0.031654782809216575,0.033450489602504435,0.0028169222344181935,0.01628030057284055
306,0.010103867359664004,0.023002039827735882,0.024125644854778014,0.00017451484187178508,0.0063229181624478315
307,0.005026981518430438,0.014630513034352506,0.015871724288457595,-0.0020125140116364275,-0.0009500742648744797
308,0.006804947149329868,0.014764733428176224,0.01651677761109542,0.00038770796874474457,0.0035067197517543555
309,0.013115193483632232,0.021093998923438013,0.023804406049624832,0.005487221598238769,0.016548147860321154
310,0.019281506709440364,0.028298857737088342,0.032280695350180175,0.009808314183097144,0.030304309166637393
311,0.02449121142080688,0.03513982546289319,0.040343599374616734,0.01251615105184707,0.04114391189181924
312,0.027364269590736786,0.039267113188173934,0.045589197564550814,0.012472955337053957,0.0466035631456869
313,0.024218141863675446,0.035727635451305764,0.04304012569029724,0.007690245597857933,0.04348744619175414
314,0.016498009440295607,0.026170575099289578,0.034317238703997596,0.0007383069292161938,0.0355539596521555
315,0.007982099013495707,0.015503244204625007,0.024516888010549298,-0.004493342319309826,0.027729034097552296
316,0.0012005984567261777,0.006957393414201472,0.01724501450583116,-0.006812209995199994,0.021331745984233937
317,0.00064809991056903,0.005370939383694938,0.017241820483923156,-0.005200978343766102,0.020098449205829295
318,0.00456810396027615,0.008070206877260623,0.02102083223644934,-0.002157567274840505,0.020856777189696456
319,0.005526772985271516,0.006125770694564116,0.019617663242301527,-0.0017910424478850323,0.014675064455047092
320,0.0025014465467801477,-0.0015050869320856045,0.012920995467933271,-0.0030282755345172946,0.0020847377269330803
321,-0.002252940505913325,-0.011370762120883149,0.004647016538111519,-0.004315647538976312,-0.011739739624539058
322,-0.0071429314234568485,-0.01999753196048653,-0.0026339850128160895,-0.006564027682745849,-0.022717169004102405
323,-0.009390003723748104,-0.02314517864262361,-0.005860557740238508,-0.009022599959724821,-0.02690190545685362
324,-0.008033130588622935,-0.020253022383267812,-0.004454932873648326,-0.009624541669842073,-0.0243419336107201
325,-0.005038637860313501,-0.014652175598365258,-0.0005969063777618794,-0.008375663889108194,-0.018388431918213925
326,-0.0027277900425693303,-0.01000308812768917,0.0027839931589378293,-0.007106976290249489,-0.012543402901650133
327,-0.0012692722557646724,-0.007409501625416026,0.004496152512707099,-0.005822843735684513,-0.008251457327951836
328,-0.0006969140996952891,-0.007081468624138799,0.0039471189381149714,-0.004120621300674745,-0.006073092932550042
329,-0.00044373919132960745,-0.007859467594005777,0.002484571497447448,-0.002136882664970146,-0.004869855036310644
330,0.001869242892991462,-0.00639869620587954,0.0044037915969167086,0.000794078577698972,-0.0013505152781079686
331,0.006222995246586862,-0.00200791306391257,0.010243472707475184,0.0039060292596610102,0.004563841608007794
332,0.007732418773824858,0.0003858375097999914,0.013229562903626918,0.0035554330224199264,0.007191600776514348
333,0.003787047044872458,-0.002275707035714122,0.009597414241861698,-0.001488610923312565,0.004345991354164161
334,0.0008156278674606523,-0.003571694791827666,0.007587226344315387,-0.00553432849324454,0.004350732642933033
335,0.0008996052319739083,-0.0016460903062218968,0.01041810627968329,-0.005334110489026789,0.008600303655076087
336,-0.004066652222205915,-0.00538037396888607,0.007925140158955946,-0.0046783581343134515,0.005970669355372268
337,-0.015852569076490665,-0.01705730336865937,-0.003643334581710388,-0.005710317909009359,-0.005913064964147627
338,-0.025896497528917924,-0.02782134065721696,-0.015010821767980947,-0.0068960665566871115,-0.016382303871735327
339,-0.026324104436878788,-0.02901820710997428,-0.01671206623000423,-0.0065573212204354595,-0.016314675681800575
340,-0.016204844102887733,-0.019430388276275308,-0.0071540078467463636,-0.0035975534692310727,-0.005498504770510271
341,-0.0032134815206031077,-0.007119120994582019,0.005805952886943689,-0.0002947430419737474,0.007201238558093189
342,0.0035307921272361613,-0.0010730282857567138,0.012483752842588425,-0.0012333496909331958,0.01251526359526293
343,0.00307680582788677,-0.001651872429197153,0.01134140063605955,-0.006631810685559537,0.00977229029031003
344,-0.00061774273765082,-0.005275265865956018,0.005774550305333518,-0.012938466187456204,0.0024483502277182186
345,-0.004824077935849962,-0.00983558843113848,-0.0010705591089806377,-0.018170539600175624,-0.006407042844359602
346,-0.009025282944146427,-0.015004950224174562,-0.007932354430706102,-0.022966342553539108,-0.015022006653767645
347,-0.013645958122992314,-0.02116762049703002,-0.015471656224376157,-0.02789242273350759,-0.022806048809473393
348,-0.017571865575967776,-0.026509576386480344,-0.022072103161199307,-0.03126467325072179,-0.0275009355604665
349,-0.018481514446030228,-0.028141016813766156,-0.02384560840396133,-0.030923453955956585,-0.026631675311563862
350,-0.016114128989752452,-0.025970137612898955,-0.020278952776027162,-0.027563827740085818,-0.021687736083224017
351,-0.012410898547675206,-0.022007556499195495,-0.014908382213422937,-0.02408917982559703,-0.01577480504599972
352,-0.009344937272880625,-0.018236464019956513,-0.010879517144556858,-0.02218398608139827,-0.010392662006184442
353,-0.008370920918918674,-0.016181053327106735,-0.009161045057204248,-0.022139344638757948,-0.006353761021302586
354,-0.007169300466344513,-0.012883961023201964,-0.006514569532388672,-0.022280119374789603,-0.0006540447564077638
355,-0.003238887336949178,-0.005629827921967954,-8.472563662317238e-05,-0.02062426989219273,0.008428610175592275
356,2.7712684423900223e-05,0.0012107249767543335,0.006440044763416862,-0.01874789608239016,0.01554074537399203
357,0.0019411169478206255,0.005817384533189539,0.011635709780737347,-0.016956339888498196,0.019708164101314332
358,0.002988993082493195,0.007177680514845092,0.014510808415374337,-0.015162768944313272,0.020576099628238025
359,0.0007533446722718218,0.0026017142892321918,0.011624072030587006,-0.015223099125544957,0.014892769366590815
360,-0.005362614801594627,-0.006568836991965016,0.002976156876443497,-0.017346759302758315,0.003761270834216323
361,-0.016128413348881744,-0.01967730676945056,-0.011164143754172805,-0.022307343796184764,-0.011650510149452419
362,-0.026434056575145613,-0.03097348226699965,-0.02388806939984496,-0.028520667890730197,-0.023817643867323265
363,-0.030558869780761697,-0.034864106982300844,-0.028314433303638344,-0.03318232993121585,-0.026858742885766528
364,-0.03267733907528403,-0.03711934174205597,-0.030324002729630994,-0.037723225737598905,-0.02919535623611259
365,-0.035651970396024975,-0.04148542999091737,-0.034986983274612464,-0.04225986257454106,-0.03570351965468616
366,-0.03661983937200138,-0.04389685301838616,-0.03924752660927623,-0.0433818552255644,-0.04050297192160276
367,-0.032856323051663465,-0.04013153143512003,-0.03836916069605496,-0.03879238973180651,-0.03801075986510967
368,-0.027076612681421797,-0.033262836277806435,-0.0342820514848316,-0.03187227397617395,-0.032193810792929704
369,-0.02325911380146988,-0.028446538833864714,-0.031461945222402,-0.0273412671604904,-0.02909740831245092
370,-0.017939338510865786,-0.022209876460801282,-0.02597001980369349,-0.02403488347693229,-0.023940503613950948
371,-0.00907996322991163,-0.012117064131085322,-0.01540729258157257,-0.020392148910784308,-0.01296673935237019
372,-0.0003466158569364655,-0.0022830092004181026,-0.004540695335249494,-0.016943800861001883,-0.0012071540402726806
373,0.0055833562054011816,0.0037827070256568245,0.002480461831848559,-0.013270691056124646,0.005854991432315272
374,0.006772693123477412,0.004193568767956032,0.0031723063299514942,-0.010403386595672205,0.005461363718588973
375,0.003411480343038229,4.218971196187596e-05,-0.0013907067747971514,-0.009600734804726976,-0.0004906018557872875
376,-0.001205122546381403,-0.005081085327960708,-0.006725941303868639,-0.009624088810772952,-0.007731325665138839
377,-0.00508203072156924,-0.009455739708921653,-0.010695623189066803,-0.00916614466335726,-0.014352633563062682
378,-0.006514098728070768,-0.011031647020692863,-0.011556308797053437,-0.007131397950693693,-0.016527574115685433
379,-0.005253427273786431,-0.009437515245712963,-0.009409965069075998,-0.004134503985608953,-0.012816002374818898
380,-0.006346251467498602,-0.010637818838997542,-0.010864282071573375,-0.0035674961754100995,-0.012135094235010057
381,-0.01074757529241251,-0.015603545287125566,-0.017015164957382714,-0.005134666711294421,-0.01786617070021262
382,-0.012574451739824962,-0.01735043192339671,-0.020082873193271615,-0.005637812127593967,-0.021744030631738357
383,-0.009339434422070851,-0.012850299462336928,-0.01605015730302443,-0.0048945489126915875,-0.019002303788834617
384,-0.0038125680026317565,-0.005488979908051466,-0.00807622013498693,-0.00486100019229005,-0.01258828711217713
385,-0.0006746968230412302,-0.0014977501457869335,-0.0031026318780720515,-0.007739264437902124,-0.009330593306481666
386,-0.0023389869866534004,-0.0044682443046094615,-0.005010775513441952,-0.013385726348738343,-0.013052023194136777
387,-0.004321474577759637,-0.009642470344731022,-0.008284075620886748,-0.01720404103994336,-0.018363772243991893
388,-0.0015835418960501702,-0.01056100968601751,-0.0064965892064660965,-0.015697380277052208,-0.01870443287703569
389,0.005494352306479023,-0.005994256011438186,0.0006812943887031857,-0.009329404201614183,-0.012248216403016553
390,0.015121207189321669,0.0031999636705173293,0.011699961735826285,0.00017153195562423835,0.0011241600049083508
391,0.023131608455583808,0.011775541300990117,0.021022024223703303,0.007814323255224812,0.0148423129284615
392,0.02597668942622095,0.013826689740258455,0.023434365795032015,0.009328404577145318,0.020719204034315843
393,0.024537421542328634,0.009840080405007983,0.019834556274719282,0.005781607087796786,0.018817716309592954
394,0.018750950629919598,0.0013828181332057252,0.011286486201481368,-0.0012672715682748355,0.01162604600412862
395,0.006950615855345418,-0.011841091061779946,-0.0026674266974963147,-0.011890119336583342,-0.0009269072383514388
396,-0.006470325098439299,-0.02447796194292269,-0.01655865483554317,-0.02290329157983108,-0.013981133867682813
397,-0.011288111981864229,-0.026199881986790796,-0.019865230506549453,-0.027723979948478996,-0.01733777162399687
398,-0.00656202895797026,-0.017504142509269374,-0.012977511225616021,-0.025511058000916378,-0.011778724562528415
399,-0.002768338197395939,-0.010334809866521648,-0.007859164504498115,-0.022530556559208607,-0.009004063041368448
400,-0.0038055028122718965,-0.009411322742668655,-0.008355667037362331,-0.020637522453484436,-0.011498836889998865
401,-0.00610630116700354,-0.011661736723677622,-0.010382736401864861,-0.0163570173441555,-0.01418568403361151
402,-0.00899881846105465,-0.01560094331602858,-0.013265576421741745,-0.010349495498906191,-0.016244163329879796
403,-0.010149976644512,-0.016995427618430415,-0.014344176250705174,-0.0053433952674178,-0.015236009951207082
404,-0.007157984728120216,-0.012620502979857697,-0.010890766647673073,-0.0024691675108307947,-0.00884259587745069
405,-0.0016846403303960684,-0.0047107243932354576,-0.004356611799979995,-0.0012905671081120285,0.0006344519009364235
406,0.0034483896963454774,0.0029500043775978874,0.002611359611314477,-0.000589985128348205,0.009167606368417864
407,0.0055881108717293826,0.006880961032073265,0.006851235963794021,-0.000735141589029252,0.0131313412053807
408,0.004104244686320699,0.006252948521251325,0.0075187587577032556,-0.0022036926144355976,0.012515081913228285
409,0.00015287997381626447,0.002466330023593765,0.005805659879028794,-0.004322756110602867,0.00974052020959354
410,-0.0040030423915660964,-0.0020226220124524787,0.003098009743169738,-0.005648836426927901,0.0070567220180165115
411,-0.007192174756963176,-0.005692922224449771,-0.0005506729097103308,-0.006028769501150941,0.004479463408379467
412,-0.010510439251070924,-0.009234258817706458,-0.0061681151997429575,-0.007345173936373441,0.00045124813855991594
413,-0.012121381352822364,-0.010731927210628392,-0.010315877725736453,-0.008610985941277481,-0.00242560596579887
414,-0.00832998901125656,-0.006490806967422865,-0.007700907627283542,-0.006302609246753138,0.00039670262523510807
415,-0.0012410969440209032,0.0013957116564526737,-0.0008311194391547691,-0.0014379899552465479,0.00717640790892576
416,0.004273285253825871,0.00785259589063105,0.003952695660491217,0.0016740239491922879,0.01338295335705762
417,0.006871373105135976,0.01102648637414237,0.0052142383607969205,0.0016606496905764124,0.017585215099863806
418,0.005859605081415049,0.009630146555789938,0.0026663338587139245,-0.00139274050395263,0.017962265114523427
419,0.0025652842680053394,0.005208916976791637,-0.00249681694833866,-0.0062233554175874905,0.01528095292143447
420,-0.0004367679279106524,0.001225606794460611,-0.007429819171375651,-0.010035295056698685,0.011945020129271441
421,-0.0047104494365821205,-0.003591337770649142,-0.013218215373731149,-0.012756206112141016,0.006301393627199736
422,-0.012155318765741165,-0.011624542743667308,-0.021776465209005356,-0.01672502626301355,-0.004051519321885854
423,-0.02107024255979444,-0.02154812766626793,-0.03179826336114513,-0.022883631079637982,-0.01758768548805358
424,-0.027486527054975646,-0.02916255013230006,-0.03926070729339498,-0.028958545905138307,-0.028923685852405106
425,-0.027221893672897495,-0.02970753887739616,-0.03900946973605411,-0.030510436500197847,-0.03208511154268807
426,-0.019553707456011617,-0.021692992326897073,-0.029344342332355815,-0.02565365696967031,-0.025412746791864112
427,-0.009140763063200602,-0.009794153138658819,-0.015136878933654925,-0.017822203302615434,-0.014387316918719117
428,0.0010006462452897139,0.0013242609466855469,-0.0009020625165917421,-0.010518786310691794,-0.00394900381651
429,0.010051752624296808,0.009815293853208255,0.010864530486399083,-0.005604470757629292,0.004612785916719505
430,0.018464891688326244,0.01794720668880466,0.020776165244822786,-0.0020767270551865446,0.014372400999969018
431,0.026682022206478893,0.0279758861349324,0.029918150834609088,0.002049702262203925,0.0271082995940503
432,0.03004282283672476,0.03450473458877377,0.03301215323631589,0.003877268702006381,0.03564573413576808
433,0.02454151966272597,0.03188037723937162,0.02638668491277539,0.0007029351713992478,0.03350210113772479
434,0.012953593613456039,0.02149403757566977,0.01372564548298793,-0.004837797891534445,0.022760505118661123
435,0.0025712469219154625,0.010346207021402962,0.0019217516166910428,-0.00854676387586828,0.011473890205380909
436,-0.0011957428069114808,0.004131259295999413,-0.0036935477140108445,-0.009284599412808184,0.006295592799182003
437,0.002458133628491355,0.006032714353285235,-0.0009265111762717462,-0.007531606990649787,0.010592777036527517
438,0.009663806828323516,0.012741093165894177,0.007007104634781831,-0.004827559768788853,0.02043288154084481
439,0.016351719785742066,0.018799634784160343,0.014924003420128245,-0.0029774259131850993,0.02926651523484728
440,0.019742773232534674,0.021420856841308365,0.018658831049681388,-0.002639542245825042,0.0333887184517754
441,0.0179645911688537,0.018580906611844538,0.015994382879661335,-0.003189846039054322,0.030479427440547255
442,0.013545441064633061,0.012763858047187451,0.010001313933849723,-0.0030647358327480826,0.022988352036443067
443,0.009697924770371036,0.007321629928115188,0.004655154425238264,-0.0027508609046040496,0.01430951109182087
444,0.008948038159693873,0.005731814149999501,0.0037429954954609607,-0.002136739753069486,0.00909729733116035
445,0.011381074885852112,0.007626741435612327,0.0077882932742567345,-5.7737307068880576e-05,0.008593001382406715
446,0.011965578065700044,0.007009243159623589,0.01016728913511856,0.0013322547554197903,0.007012340063353352
447,0.007825324406170373,0.0009832227115208732,0.006416002566654347,0.00010033739260010147,0.0009560275336436408
448,0.004207074469318574,-0.0032798967073337897,0.0020646889664647384,-0.0006926740106352813,-0.002680158110355038
449,0.005156681165470893,-0.004986125539059401,0.0016599367273496704,0.00128745813999485,-0.004783642522283271
450,0.007859236921586665,-0.00558047656684664,0.0021499868368621677,0.00437376894729897,-0.006635834467605924
451,0.012407543129693088,-0.004567839171634666,0.004743076491244259,0.008349572114197923,-0.006753454969717874
452,0.019093176619844655,0.0017431052720443445,0.010956268149556744,0.012548792743817764,0.0004182366004086354
453,0.022920137240151118,0.0070357105302812336,0.01523728532206015,0.014018812140605854,0.006710980905631857
454,0.021728436372387173,0.007647583693916459,0.014716854467108523,0.012156596938955313,0.00785475370147055
455,0.01755555339901128,0.006142810239305546,0.011422898569625061,0.008044811645570148,0.007466759366763281
456,0.012731490486288525,0.003027945619144901,0.007635750785680273,0.0038284386533949987,0.005189160659597198
457,0.008948019979302722,-6.617168598304862e-05,0.0047909018515738585,0.0024576113612799397,0.0027469536256070626
458,0.007968622287586885,-2.7309048250564506e-05,0.005352781640689978,0.0049529842535214,0.003980435089214834
459,0.008884777915582025,0.002582778738295852,0.009166477834776464,0.00934408011718987,0.00844011320942855
460,0.007046272705435231,0.0013248041813399996,0.010598011356330378,0.012321707473553089,0.00833950969175025
461,0.0022653433107021324,-0.004350171697271598,0.00827766061823571,0.013932768941521961,0.0033996849863950846
462,-0.0016402111484318626,-0.010538115696741492,0.005617999462860621,0.01670098626429996,-0.0022632547688836414
463,-0.0034968014886055387,-0.015234808020053673,0.004175929040611469,0.020913903714981776,-0.007274884922447864
464,-0.0012625092606123995,-0.013634995632345574,0.007590062157943306,0.02586965454554452,-0.004720308554339634
465,0.006488430119731762,-0.004019021795820019,0.01785503670265044,0.03052691696706072,0.008501374109297799
466,0.013291521809115825,0.005464994348528387,0.026226086901041758,0.031005172764721735,0.022259452471076503
467,0.014051498573719706,0.00911651724173208,0.02572282700366529,0.025684148223374788,0.02879379024347071
468,0.012607199812141125,0.011385882450298564,0.021729722224598097,0.019022749377237802,0.028665564026990435
469,0.013251101626744512,0.016208147637738316,0.020925354154511917,0.015158773695122314,0.027763384989451474
470,0.014514937723951755,0.020881980743668857,0.022069495430499818,0.013094985940383639,0.026808713857918304
471,0.013408366381235378,0.021949627826065576,0.021275588999768485,0.010210568366853186,0.023939119021483737
472,0.01044314700418784,0.02025384135501785,0.01863425140751608,0.006645208001782216,0.021730709984854848
473,0.0067956000108281255,0.01760758039967754,0.015378716639782198,0.0036018256319914304,0.01952831642859949
474,0.0026606310858715405,0.014444198619285059,0.011582981810644502,0.0009806151232357647,0.01567295026295052
475,0.002146896394613018,0.015219855403280365,0.011373080837613864,0.00014894827236421168,0.014945826492776941
476,0.007759284086372218,0.02286160087214316,0.01751780693320803,0.00209816193714944,0.021367817795503254
477,0.012950610316134816,0.03015691417978288,0.023148798337193886,0.003527897488043808,0.026364329546712622
478,0.012619410239223408,0.03119274190658959,0.022897428008581164,0.0024539786668725167,0.02385392410461116
479,0.007217042742654105,0.026146420360334204,0.01692994541177878,-0.00017047618501529976,0.015017716191764702
480,3.74953038722532e-05,0.01843578327498419,0.008330990471583291,-0.0015218710967427151,0.0030642288977615483
481,-0.0038564190628206222,0.0140013149205839,0.0032642571961259007,0.0018431152849355363,-0.004985990036800565
482,-0.0038798381256952073,0.013911209789229025,0.0031553910821522546,0.007934194662985885,-0.0071323352107213476
483,-0.0015782199863269577,0.0160478575485634,0.006012011274783368,0.012781588516247666,-0.005023536692245601
484,0.0022622328234194414,0.01841955135485622,0.01051378595004797,0.01503770671470584,0.0006494454659030357
485,0.005433092121289758,0.0199951552117894,0.014036798064587165,0.013870166328300588,0.006051688157770739
486,0.007450271340818154,0.020563588500121063,0.015789685418617645,0.010910820278051918,0.009109013042378091
487,0.009847088066200773,0.0208496798035692,0.016944929899181997,0.010295501025600068,0.010962050737586713
488,0.00959135220819381,0.018095170123196204,0.013432066866683806,0.011255867897553461,0.007631276184509268
489,0.002617600118498821,0.007563678930062044,0.0006274957210309314,0.009054879284960387,-0.00492964503063547
490,-0.005949484374166968,-0.005750827115308983,-0.014667682908797754,0.004486780231350845,-0.01928584825113809
491,-0.007314452153277444,-0.011223659143557245,-0.021031498481757525,0.0021002686477488114,-0.023787687887417513
492,0.0006094661456713309,-0.004497637450435314,-0.014935087553157568,0.0037105202999395924,-0.015266057413068676
493,0.010937397735960516,0.00701613460230425,-0.003907805301063881,0.006976326170459229,-0.002193035796170676
494,0.015240019391477894,0.013363110330045334,0.0018107393206675594,0.007926349413601924,0.004686318733824102
495,0.013722988625205204,0.01431670545060141,0.0016953630567942822,0.006271621221057264,0.005323654020781
496,0.011103160951002253,0.013360044113515594,0.0003553638159515323,0.004561068269038094,0.004092531897103359
497,0.009946099572439124,0.011965437402534225,5.136427405995773e-05,0.004359076162769924,0.0021771846083688457
498,0.01273247388877399,0.013767919129526435,0.0041364845276105336,0.007543099783428065,0.003065439896879376
499,0.018304952114957373,0.01928557517891928,0.01229222479448462,0.01439442511894509,0.007601888082589847
500,0.019419316046582487,0.021358933749064897,0.01615791956327805,0.0199092986847849,0.008219212678452116
501,0.014760123682491409,0.018397727440013063,0.013158337994579385,0.020919100716301892,0.004063655298190479
502,0.010859466560041484,0.01701583215549789,0.009705331351069761,0.020051203967105146,0.003942528844407687
503,0.011672351146783456,0.020023837633433683,0.010344570147805843,0.019741862347137342,0.011421163771768108
504,0.016858350017916333,0.025820887054650805,0.015710129364625503,0.02008892647057957,0.0226397033716961
505,0.02129655509054458,0.029095633629683072,0.020727000982926333,0.01859175599511404,0.028647992106771453
506,0.018581966529398593,0.02381773956021511,0.017805450498746628,0.012424555966564749,0.02176000726347215
507,0.009651752145533408,0.012101587335503344,0.007100068090966238,0.002682653099049162,0.006120082054749359
508,0.0015514712973455644,0.002497285477053065,-0.0035994290948369234,-0.006536879210865017,-0.006168844050822581
509,-0.0004798743169154068,0.000660838506156956,-0.007500429351090172,-0.011517182490829198,-0.008032238579618637
510,0.002779421400556105,0.004058216411832748,-0.00533533362205542,-0.011275482046705046,-0.0029700408776720233
511,0.007263421339437933,0.007111343069897389,-0.0024387374379198534,-0.007575045900417327,0.0019511207299394515
512,0.011923618453835511,0.009959174449150916,0.0006096014525104076,-0.0018040723159392263,0.005941923682803341
513,0.01649684321425012,0.013668978581495685,0.005026442070451565,0.004675585776572155,0.009805499093723802
514,0.017003066172129995,0.013608671209347185,0.0063016660185549024,0.008108828434483769,0.009332473333040922
515,0.011016920463837558,0.006339568204830458,0.0001786657434607269,0.0062404638423291135,0.001991683403112226
516,0.0008584918819695456,-0.005091926273802509,-0.011661288081999958,0.0008058358919017246,-0.009284599120546804
517,-0.008173856395640727,-0.013746437303805632,-0.02246079281668646,-0.004090043106646498,-0.01803801974207792
518,-0.011898883557058709,-0.015181584497224596,-0.0262802288103307,-0.004557731666866933,-0.0191280568555573
519,-0.011651706049779052,-0.01216508703479604,-0.024777678780867552,-0.0007225950392171207,-0.015399960291679483
520,-0.008625179870747015,-0.0064333989297042544,-0.020087825860227487,0.005224820810724849,-0.00991965097781208
521,-0.003079814456011025,0.0025059364169269203,-0.012844986735321681,0.010881500167116368,-0.0022818371779125906
522,-0.0006494979932775705,0.008605148434953275,-0.009750668221889604,0.012135272739731707,0.002533842638754999
523,-0.00509011508098704,0.007187336647247856,-0.015160850353176186,0.007810656927208394,0.0002723936783251376
524,-0.010662301298859556,0.004028978015456027,-0.0217968204201026,0.0029409867703932735,-0.003472721814392331
525,-0.010082176156816626,0.0061261821286052115,-0.02062264794877904,0.002559947158708582,-0.0019241739288309457
526,-0.0045123993795695766,0.011201081152399662,-0.01319861427025792,0.005971266664611313,0.0020874516925959716
527,0.0018642946282749445,0.015357444819728928,-0.0046492353428410045,0.010557018806607492,0.00489394648164487
528,0.009427392003789718,0.020923794869779917,0.00535434730874385,0.015889606328947058,0.010262422499133518
529,0.01718932587377511,0.02789153892632677,0.01509379535192468,0.021274816766476058,0.018292036041068434
530,0.021142549218095677,0.03184820063105846,0.01896271258416843,0.024062494564579935,0.02308810194459361
531,0.020927558170365276,0.032195753004791834,0.016481351090401587,0.02244908442198107,0.023592225880984915
532,0.01804413194945666,0.029766146016039108,0.010834182151466023,0.017405750280290143,0.021706598806555163
533,0.015856061185488088,0.026959620937692975,0.007371387294015558,0.013085288492948911,0.020886271926895867
534,0.017662483177208765,0.027536745029674833,0.010315591116701377,0.0126522333271326,0.02409777561381967
535,0.019186356478406552,0.028334635601893088,0.013788299248853242,0.01269472960607477,0.026030955332118258
536,0.01798384756383867,0.027007832085308634,0.013262292423340425,0.010429879658205615,0.02390120569910457
537,0.016413339700963026,0.024582813536107855,0.011186676643142017,0.007718120625434596,0.0200830048586587
538,0.011379826106232933,0.01721790329882994,0.005285524932797784,0.004419201463554996,0.011316948017006095
539,0.0008801164783038127,0.004117593067366345,-0.006552477163429151,-4.17345269028182e-05,-0.003167349260260611
540,-0.010247478242153213,-0.00892825018654478,-0.019907475768885317,-0.004338391169474197,-0.016897472357427345
541,-0.01604963976616622,-0.015940683671571372,-0.02838026598748059,-0.007161564285206889,-0.022460734758533583
542,-0.014025093761486477,-0.014394085775588837,-0.028565591471410107,-0.007434418302111054,-0.016880994772482862
543,-0.005680851572152484,-0.006157525745713613,-0.02146309439562642,-0.004734147206776954,-0.0040502326024986594
544,0.007339483524396126,0.006924820141404982,-0.008344793186993516,0.001134530217255554,0.012099918647393933
545,0.01942979521904866,0.019379821900848478,0.004902763808055667,0.007298301027084907,0.025364359690457965
546,0.022733006203727826,0.02298145280345836,0.00940755380192472,0.00918408251364816,0.02754391764071399
547,0.01788046611710448,0.018048820924255502,0.005370861026491878,0.0068975778727401165,0.019866687463978547
548,0.011336953448405965,0.01136842014561501,-0.0001229331913734917,0.004225425068576953,0.010502671728120782
549,0.006764541327824799,0.006946510500660536,-0.0030407022086577783,0.0034008431244612206,0.004199049529794725
550,0.0032194790251842535,0.0036996067596358996,-0.005296610086959793,0.0029013876479257357,-0.0006026794479412056
551,-0.0014990046681661923,-0.0011756472472107212,-0.010242165260472927,0.00030138232982432193,-0.00724266467667605
552,-0.006705651497489846,-0.0075412817849504704,-0.016935086791247684,-0.003912539545510318,-0.015235577568748594
553,-0.012226275745318182,-0.015300246970336287,-0.02432555184403876,-0.009194746232291905,-0.024632979034584057
554,-0.01916052091111908,-0.02471186476460223,-0.032801863334042336,-0.01616036162996738,-0.03597796872805997
555,-0.023790554422337813,-0.031116149219567502,-0.03789048298009268,-0.021671829033712994,-0.04346150266613475
556,-0.02357358963053067,-0.03250386272077941,-0.03746264450204599,-0.022228387000986404,-0.04403846543472158
557,-0.018058547504601164,-0.02827854241517587,-0.03155668335005684,-0.016688433269951338,-0.03700860669328813
558,-0.006522979264526386,-0.016219490821441074,-0.018689101513640193,-0.005473981565070134,-0.020989552815784483
559,0.00513985929295982,-0.0021548236394396455,-0.0050562226855543155,0.006307825461464473,-0.003954713356818463
560,0.009769298345373828,0.005378147160687436,0.0010365472463320935,0.012920032324617923,0.004135636527027411
561,0.0068724865287482515,0.004549646276823065,-0.0009968035652534474,0.013729755810924192,0.001851298557598815
562,0.002954322322070376,0.0014253817234023331,-0.003910214070913347,0.013392717001156861,-0.003198905090530271
563,0.005572546267031683,0.0040516592817192295,0.0006933324466497309,0.01783629985760774,-0.0012648960688644946
564,0.013060364226412248,0.0111039656820913,0.010678331749858034,0.02696660442405307,0.006569108027301753
565,0.018345498351328756,0.015504598013578752,0.017399454702081058,0.034961009007432826,0.012165458305254295
566,0.019715375107031592,0.016014206236963403,0.018888586445829907,0.038298344245637675,0.013246685595434302
567,0.01939468755152631,0.015517026228601065,0.018589713626753535,0.03776333258492255,0.012412459440294071
568,0.01675692758144852,0.013047401605358425,0.016134785472796707,0.03355600296222851,0.00884700993501874
569,0.012325429670412023,0.008857925692223325,0.011860429560392316,0.026963625306041746,0.0033105929771476547
570,0.00980091878868204,0.007610549406823608,0.010171946579794849,0.021323579801094224,0.001440745905776778
571,0.007976044414578552,0.007619474903489008,0.009056919427979126,0.01664808289749546,0.001424732634414693
572,0.004685064393965836,0.004828016588513543,0.004966000547893603,0.012477041397319182,-0.0016570728677962096
573,0.00257375453400372,0.002037775004165988,0.0015969570446742092,0.010548908647803876,-0.004876908053514671
574,0.003726321474994374,0.002786658665099631,0.002102302503807719,0.011110689855554422,-0.004282705181734371
575,0.007008756968162641,0.006324806687632313,0.004628038108596149,0.012617794399933957,-0.0008525198924592143
576,0.009521920419918119,0.00912977331882848,0.005574598075867738,0.013597507531548024,0.0015056712193433485
577,0.010072271723711394,0.009930067934005065,0.004183330679628969,0.014196110651405934,0.001610402965341703
578,0.01081446223215357,0.01199326279676328,0.0041391777421554005,0.015814624637879544,0.0032540113194423213
579,0.012543080397804673,0.016375796840191418,0.006975889144873779,0.01755803438159002,0.008059999753553477
580,0.015914765387590374,0.02417517608893165,0.01267695569283188,0.0184063367490436,0.015633879735308914
581,0.02229027635985109,0.03371998791042936,0.021545120206753813,0.019739397061031512,0.025154542799945754
582,0.027839434772584607,0.03970382296456265,0.028340589931857726,0.020752329317630124,0.03086996501964823
583,0.02797087359796515,0.03970471579244682,0.028124949254733037,0.019815200149190148,0.0288121554575246
584,0.02235780504493292,0.03292414721512049,0.02140944966125156,0.017133147791477118,0.020263055202007725
585,0.014373540360131356,0.02172694589349361,0.012465301177595443,0.01442116238035613,0.009477535629196296
586,0.00806335734215855,0.00987805410291898,0.0058232694650539206,0.013938251356903505,0.0008805987150520166
587,0.004483227761232741,-0.0006500430091983893,0.002188878709431761,0.01531975574345735,-0.004664988054190018
588,0.005140859860133896,-0.006508169438299122,0.003184470546171444,0.017360309005412237,-0.0045656246022150225
589,0.009689817002424581,-0.006118802250059946,0.008704404177570051,0.019207502019575894,0.0020904878366377155
590,0.013419124635365888,-0.004746384346940058,0.013195222227358076,0.01948991182492047,0.009811894003186161
591,0.014189993657596104,-0.005093709770646698,0.014587369274267207,0.01845448553466228,0.015326070406823024
592,0.01269226498078436,-0.005359263235316489,0.014851822399801764,0.017265292156449813,0.01831176105378104
593,0.008828032518106533,-0.006756431097659575,0.013821600137515601,0.01598274725216375,0.017037180789203823
594,0.0038539095558713346,-0.0093239103544069,0.011316660724715455,0.014385791026330594,0.01247444138804402
595,0.00167393982191947,-0.009061736656083067,0.010430223633108745,0.013039423346807646,0.010411637370122037
596,0.003642697205283315,-0.006099235086414109,0.012614734246229005,0.011490062064252068,0.013646320434867833
597,0.006702902426252447,-0.003485253456491735,0.01468555745823042,0.008156452135137627,0.018453951034285945
598,0.009737693176050966,-0.0018904368431519973,0.015732107480522343,0.003812600349790419,0.02245085777962841
599,0.013294689013468933,-0.0005506185550866727,0.01731801292767844,0.0002519229024083731,0.02638684236027688
600,0.0154203098795821,-0.00047631619256489937,0.017789414339256533,-0.002258840002715884,0.028840890260755193
601,0.016060491563668015,-0.0011799823125958804,0.017290224952003556,-0.002886402799029398,0.03018792832293662
602,0.0184513491456541,0.00129839227869958,0.019577913559171312,-0.0004894385631510464,0.03360538794028877
603,0.021611298641599514,0.005574499302314304,0.02273005493293818,0.0020976423830390838,0.03608487305461968
604,0.02231355537704304,0.008391890926322866,0.022361000649821716,0.0009722433662786318,0.033891530247687034
605,0.02113013065004157,0.010271705968390504,0.019650933009001025,-0.0032127255256530593,0.02925867107902026
606,0.01699139356603073,0.0099250639996751,0.014202487705162498,-0.009733221519937546,0.021389428364841614
607,0.008264475525112485,0.005078169835273826,0.0038498166346336506,-0.018150468612782744,0.008339661900566519
608,-0.00022779879964154385,-0.0011206089172636003,-0.0064881719339571564,-0.023582070804830678,-0.0047497778075728395
609,-0.00528271288393359,-0.0058337320054979765,-0.01278274579639722,-0.0241556106488035,-0.014293121618374406
610,-0.009304322933221292,-0.010276153335179557,-0.017396972544846193,-0.02358622417307281,-0.02157247461774915
611,-0.012162062711430924,-0.012654490877301892,-0.02056619602447876,-0.022997567706499175,-0.025179668579636175
612,-0.0112922812164569,-0.012039169598441679,-0.01947372545461487,-0.02043883957913832,-0.022580229754015812
613,-0.005620533546344207,-0.005062723666332003,-0.012240540314252585,-0.014197161106648969,-0.01363799243401109
614,0.00016954241734213878,0.0035997533781883225,-0.004329212446388764,-0.006963171987644436,-0.005716601829349371
615,-0.0007131557962996547,0.004058683775579721,-0.004322489049196789,-0.004323616730144733,-0.0077827287703736685
616,-0.007772138493129904,-0.0015639677199009246,-0.011709547522626236,-0.007044369476763996,-0.01751446980013737
617,-0.014599439646435725,-0.006626899901201626,-0.019072707347060118,-0.010464811698293018,-0.025871076965115484
618,-0.014280319924042465,-0.004790343836070111,-0.01841824336565898,-0.009017184883150479,-0.02481847694402292
619,-0.007932521755582433,0.002980339605170765,-0.010313710774340854,-0.00384025968704406,-0.01541903974884637
620,-0.0019162655494727834,0.010913807141764747,-0.0017683275862890768,-0.00020861694056955235,-0.0056223018333851306
621,0.0026308551393317272,0.01576473631563819,0.005125077175043966,0.002002220762390885,0.0003687986944157386
622,0.005122922327577928,0.01640211506933273,0.009087367901461654,0.004329580830549119,0.0006262647656105015
623,0.0029633001701921628,0.012374129831483777,0.007462423931009528,0.005386231280263595,-0.005537187781876784
624,-0.005430191363647525,0.0018916167660165946,-0.001058365580948997,0.0027331153677091725,-0.018334767008011676
625,-0.01761252595911389,-0.012210119668420361,-0.013463966968498784,-0.003285970434758961,-0.03476783501467085
626,-0.02559284402477697,-0.020888594049221148,-0.020641190942986182,-0.0072750175989755115,-0.04493886147851279
627,-0.02488957309667532,-0.020088021010068763,-0.018197457890752635,-0.0059345422797951455,-0.04315833756148144
628,-0.019565906459320086,-0.013965449960638414,-0.01165331075372598,-0.0016677315168323822,-0.03456098368305559
629,-0.014157364960828703,-0.007413002846734733,-0.0056414969323585395,0.0035217221180555563,-0.025546576384604815
630,-0.009400016871554973,-0.0007918880276174677,2.000410580612699e-05,0.008799505864679187,-0.017958673737282913
631,-0.005463031019044382,0.005833973423480441,0.005115478037696772,0.011738250664148334,-0.012001946055533416
632,-0.002701970998289592,0.011028952747923109,0.008852058018946335,0.010850752950507856,-0.008044386594616456
633,-0.0016854244192974661,0.014005198457198853,0.01057785774067235,0.006492264553414128,-0.0074044048562544275
634,-0.003896120992510219,0.013160696158924031,0.00882990783381071,-0.0004894361201784202,-0.011992883934556954
635,-0.007409362369316893,0.010309074562441418,0.00563607220965407,-0.006867557312096061,-0.018227343257802217
636,-0.009014693360880966,0.008053362184581492,0.00396021568251918,-0.009839940407058276,-0.021237067699491782
637,-0.007739450245931588,0.008141718299993175,0.004563653061542852,-0.009087559425814877,-0.020072794746061065
638,-0.005574346330134463,0.009531742005839672,0.005447896710146586,-0.006688105699374042,-0.017396064403392014
639,-0.0074868853190200695,0.006541320756270131,0.0012631439493647086,-0.006907604676237647,-0.01950443755140859
640,-0.011751011082602472,0.0019475522759173107,-0.005302365731560703,-0.009225892035857415,-0.02409105815530879
641,-0.014133970268984773,0.0007907842451857585,-0.008362769839150111,-0.0113598013190305,-0.02453610014711696
642,-0.015720780730392084,0.002151563659417929,-0.008929613761888795,-0.014076657157887338,-0.021652691557877374
643,-0.017188063590672743,0.002913974896893709,-0.00911033145139531,-0.01666339374491611,-0.01897188909487195
644,-0.01676759327988915,0.0010392174902635488,-0.008111996543571236,-0.016619080548181554,-0.017148543813110245
645,-0.014456702585734128,-0.000861064103921366,-0.005030964556804265,-0.013722433609693375,-0.014941534891223858
646,-0.01293183279919121,-0.0024620781524627867,-0.0018676897966374098,-0.010362923073051986,-0.012484216888017213
647,-0.012745588644329547,-0.00501784800907656,0.00024493648108384904,-0.007312050879993997,-0.009619085527652357
648,-0.014197311776405711,-0.009218011821941624,-0.00019853938179418583,-0.004960960660424874,-0.007992677006362024
649,-0.017461207484886616,-0.016845503736113623,-0.004306562628836022,-0.003821794752063378,-0.00901533173800032
650,-0.019470906768438077,-0.025244664977157067,-0.008483144161093673,-0.0020638596080898063,-0.009323371677991037
651,-0.01803556752525157,-0.031223718088871824,-0.009370282515397425,0.0010378951754082904,-0.006542935599712102
652,-0.01386406132804139,-0.03401128436283602,-0.007231611808193144,0.003308436234161187,-0.0022838482268305762
653,-0.008032773933166917,-0.033764463450577535,-0.0032147345591621076,0.0033381576038722096,0.0020045050908643067
654,-0.0016991649155855598,-0.02981241485401348,0.0016427707411989726,0.0016674752822032348,0.005897100028503993
655,0.0006195545137160839,-0.02618403961473978,0.0031454663060126622,-0.0027946775060932443,0.005319322326968516
656,-0.005117579085433929,-0.029503093582406516,-0.0025040537299924515,-0.010990335555537878,-0.003692935709524768
657,-0.014559025062720905,-0.03639519468965607,-0.010840382472527443,-0.018569829693397603,-0.01594764597828301
658,-0.019568214040151778,-0.038084080559227164,-0.013990228041084353,-0.02063825377208993,-0.02194894782688165
659,-0.017601501974252455,-0.0323095297815566,-0.010761109483213687,-0.01791214263240068,-0.018874872157803348
660,-0.01357700953189581,-0.02206369386419951,-0.007726179356437695,-0.014886908674374933,-0.013153263490644473
661,-0.013153241923777743,-0.017267095524124244,-0.0105549380451592,-0.014560167453563318,-0.011671129560506494
662,-0.01504872960813341,-0.017675550529110167,-0.016112758238999943,-0.01548859070818558,-0.012632682071473146
663,-0.013545953294098636,-0.014258598060542102,-0.016455086245521725,-0.014386205073731778,-0.009607443892050527
664,-0.0064243538235176315,-0.005589987152475206,-0.008212933248679862,-0.010180765695117501,-0.0003630215539815026
665,0.001991967323038207,0.005473730866334201,0.003579511375604514,-0.0058262049528755655,0.010041588070404155
666,0.006290012036472517,0.014338595397663495,0.011438254375362698,-0.00544544377008962,0.015867691880605706
667,0.005991058799237732,0.01899421929899055,0.013032204239906758,-0.008880849303444124,0.01671668701006469
668,0.005464326753948953,0.020125436414342283,0.01274146106006004,-0.010987154822305532,0.016067257367225737
669,0.007230646716500319,0.02134456758129194,0.014603562232748429,-0.009402087446957214,0.016486112717046218
670,0.008135334478877506,0.02176975905257665,0.015985624263273525,-0.007713901931195383,0.016480288806815614
671,0.00674980618988485,0.020018003093344998,0.014764349936864408,-0.007457194919941215,0.015566580142220832
672,0.006373265471516259,0.02016375765045457,0.013977928696429519,-0.005723059046546078,0.01614561246041318
673,0.007334996376274618,0.020282537196902907,0.014115304119792095,-0.0018962460898624867,0.016594007123024637
674,0.0036153281111240896,0.012555465059838863,0.008687991187922966,-0.0013489316301640811,0.009324171693336646
675,-0.007107718265715189,-0.003718481377765791,-0.0048144028418265605,-0.007574029939125987,-0.00731658827564173
676,-0.01722087664570152,-0.01565199991893511,-0.01741772765528839,-0.015684590531959194,-0.021689823532062186
677,-0.020145556420234776,-0.016397379678330017,-0.02151305134894335,-0.020841453052954324,-0.024406404602183965
678,-0.0187153516730468,-0.011501343338267028,-0.02041354129431382,-0.02359822955407465,-0.01987649077276308
679,-0.01943655463753157,-0.009417758574230469,-0.021384875478146024,-0.025742375156799027,-0.0183577751663921
680,-0.023994194164042228,-0.0137352111331463,-0.02618378556694856,-0.028140852674002043,-0.023041196863619735
681,-0.02852139639716253,-0.01874466383128551,-0.030443147455270443,-0.029803280774720022,-0.02847356458851522
682,-0.03007493862445518,-0.020001891772814303,-0.031407934004146855,-0.029778790338371795,-0.030649819295005484
683,-0.028548136485561367,-0.017563876037968957,-0.029804655123373276,-0.02849609705835395,-0.02972594883540273
684,-0.025416592746389195,-0.013497491630006662,-0.027286328308335984,-0.026591566093924896,-0.027364208592885898
685,-0.020971139210745414,-0.006936320463521826,-0.02319575457987738,-0.023309272531792404,-0.02293344995903907
686,-0.01563415966643813,0.0022842307281458513,-0.01717088035192557,-0.018495022624651438,-0.016355616909805654
687,-0.016058754372287872,0.005934658276100692,-0.016792519463390245,-0.01699328319848357,-0.015381694848156394
688,-0.023383662501382924,0.002652837258811264,-0.023815086986307007,-0.02022228956399203,-0.021127720875107617
689,-0.02784597455530504,0.0024839148679100284,-0.027046420217199964,-0.022085688427375474,-0.022345893456819994
690,-0.02608462244525921,0.008439309046677867,-0.02187791109381201,-0.02042778320810747,-0.014972529450036829
691,-0.022913619538013782,0.014843726446370411,-0.014378515952282246,-0.01769284243699433,-0.005529647174178468
692,-0.020848031660040844,0.01443653512935608,-0.00989347802991106,-0.01439959628648725,-0.0008574721783991748
693,-0.020147088952119384,0.010045412120960889,-0.009838523547654262,-0.01093052237386544,-0.0026692959545155928
694,-0.02063931082734048,0.005202843316733058,-0.0126081519829583,-0.008353563079381553,-0.008724041991621901
695,-0.02330244815418938,-0.002150502013659691,-0.017691562641245853,-0.007498239817122452,-0.017972284097451455
696,-0.02856852273828664,-0.010535914206317418,-0.02511770934008743,-0.008715251439230123,-0.029052560479057597
697,-0.03239494525395303,-0.01619565609793556,-0.03052002767682699,-0.010965264272719552,-0.0361641384650983
698,-0.031010932760676103,-0.016492664042878632,-0.02986584683032291,-0.011996681344676024,-0.0357703845145397
699,-0.023663504002664155,-0.011422445896713481,-0.022378423921871993,-0.00914621867809317,-0.02932302593575581
700,-0.010939719021706257,-0.0002796491870976429,-0.00899741329211764,-0.002257548937976773,-0.01836205574190504
701,0.0021518142573874843,0.011532702702978235,0.00432152219422489,0.004224619059089077,-0.007427814853541793
702,0.008160955101845516,0.016518935635966615,0.00967671478816545,0.005433712095047365,-0.003457318096171008
703,0.004383652568561628,0.012331675907206784,0.004942141975227137,0.0008126976090000828,-0.008980823492830602
704,-0.0048486639569356145,0.002005313229418084,-0.005021213752145683,-0.006319420595337717,-0.019270602522353623
705,-0.012375527851295184,-0.007410086693282841,-0.012511335496173136,-0.011876436792154043,-0.02595954779570637
706,-0.01302089798376743,-0.008943154873114562,-0.011378159773864168,-0.01300857058290406,-0.023347243968110797
707,-0.00672047435265917,-0.002622261475206038,-0.002068789559619078,-0.009469824108782202,-0.012273367208293468
708,-0.0007894428577056355,0.004460824557668021,0.005723439671801334,-0.0056795659114138855,-0.002565626283813728
709,-0.0018824334645971346,0.004175156224854338,0.003940969692789767,-0.006222494574428163,-0.0013645376624503497
710,-0.009779446638803238,-0.0034772100306339994,-0.0069213012726276535,-0.011119674836108479,-0.007868552937707482
711,-0.019349113902027284,-0.011987223219345191,-0.020437891602515676,-0.017240116093290604,-0.01686002902615575
712,-0.02473956341817283,-0.015290708215484387,-0.028943216234569975,-0.021374081253420548,-0.021515288939912197
713,-0.024282330677003968,-0.01130785437002733,-0.029557325685002165,-0.022515995563533578,-0.019052769477445563
714,-0.017895454671059016,9.717265366124256e-05,-0.021442343835514657,-0.019759277323379107,-0.008877401643261519
715,-0.006675993712364134,0.016191636422695978,-0.0061471010628843924,-0.011601005468724963,0.006172557831036089
716,0.00315514283972272,0.026871676612719986,0.007480664906679992,-0.0003590242203796973,0.015351197766758527
717,0.005021710164090066,0.0249876568214119,0.010332649896463746,0.007310665779269385,0.010991842934955205
718,-0.000387009455642158,0.014596491738833173,0.0029952013361192863,0.007491505476727534,-0.0018604503171019227
719,-0.007228920785139117,0.0043050485352274835,-0.007161277130524491,0.0025632664210355764,-0.01411717281379366
720,-0.01092836593216328,-0.0011237916230833252,-0.01401242893719876,-0.0024281119211789453,-0.021722137914169864
721,-0.009536347599161324,-0.0014634654950657737,-0.014632828853357288,-0.004166658552751089,-0.024025310225996712
722,-0.003609902468669436,0.002468267576563124,-0.00944833898056533,-0.002931986551178653,-0.021407303302295982
723,0.0005926318127620554,0.004760328252113857,-0.00613394449099178,-0.0027072184565031395,-0.02008065507385418
724,-0.00020298255652876474,0.0019922421435813503,-0.00855145985346704,-0.004886752331903966,-0.023887460486582145
725,-8.396179883726693e-05,0.0009593333219461913,-0.008498479282844059,-0.005180115257342847,-0.024779058904088276
726,0.000864188702201629,0.002011349404405385,-0.00540977961244858,-0.0038014967987600222,-0.022940458360737503
727,-0.00045329748614400875,0.00212334674402544,-0.003980632353556439,-0.003343433402202233,-0.02313472186855169
728,-0.0015275301121496884,0.0035985231520027187,-0.0027181481903852138,-0.002929028129819803,-0.021976149243516926
729,-0.0023272382120359866,0.004686747240465307,-0.0028702259987967577,-0.0032957644603496825,-0.020431877820473284
730,-0.004346212684853567,0.0034697446633088,-0.0061040341269002095,-0.0050710165602266865,-0.021115025964687024
731,-0.010564926724745804,-0.001575395796079412,-0.01379692124097719,-0.009202727129249725,-0.02656696871181282
732,-0.02199854679138923,-0.010674600214907912,-0.025693830496734574,-0.016738029175296244,-0.036984170431553956
733,-0.030994685537061625,-0.016332012005296066,-0.033522984692035664,-0.02356743149192656,-0.04491250259751887
734,-0.0325701956997079,-0.013940989558501864,-0.032560965137241916,-0.026021641603917005,-0.045600891097695204
735,-0.030699313679147702,-0.008173187914060567,-0.028239231406912545,-0.02537082988987195,-0.0428327205671448
736,-0.028186413625799836,-0.002486834448465274,-0.02426912213470903,-0.022895719120686685,-0.03928662849506254
737,-0.022633918068675065,0.005626403210230581,-0.01734238882259188,-0.018209846425588837,-0.0314377009091898
738,-0.014252893363699434,0.015786877265197567,-0.007303440473530443,-0.012943539425726392,-0.02053520112769584
739,-0.008075484296380834,0.022308175193876897,-0.0008874218859526511,-0.010602301043648137,-0.014447671241344547
740,-0.005402927138611262,0.02220351264968373,-0.00019932965973353515,-0.011088009377467475,-0.012603584492134987
741,-0.003174937515899405,0.020791341960597967,-0.0005488841907259632,-0.011535668021793812,-0.010841755256868172
742,-9.120556705234592e-05,0.020707892592873048,0.0010453892716187786,-0.010783976433029627,-0.007658826611840364
743,0.0031036665512359394,0.020764882740703035,0.0044056340903317615,-0.00865686965975486,-0.0029049641723600307
744,0.006603974866658357,0.022052162912259324,0.009939478642593967,-0.004219973434166314,0.0024477702668354363
745,0.011850155275605513,0.024633105161089183,0.018373009367858673,0.003076339158246972,0.008812779422250254
746,0.015632591030209576,0.02420296189441023,0.024277174554090234,0.009881397216214456,0.011269597017703057
747,0.014518917226433418,0.018472847850203554,0.02301568450036376,0.01319684606542138,0.007458596174370506
748,0.010140768390432618,0.010493213923779582,0.01723862090943532,0.013770164829537482,0.001581657694528854
749,0.003500752588161837,0.0004183067318910964,0.009031659523859148,0.011722364449798354,-0.0043068276051508115
750,-0.0027167202722605467,-0.008986602203045172,0.001707940341381263,0.008195049350028826,-0.008441723605385238
751,-0.005383167076989031,-0.013321186612827027,-0.0009929033329769865,0.006015607131644704,-0.008762883509673946
752,-0.003587575873882304,-0.011504144140527703,0.0024905321302279076,0.007379297556333053,-0.0036099496926834964
753,0.004385462535429211,-0.002058269493429173,0.013870088468356882,0.012444864666278328,0.008998755001127477
754,0.015989178178179325,0.010868954845587595,0.02860744544473105,0.017461376999660248,0.025802494868303594
755,0.02290534289419852,0.016853023738552318,0.035818574596788486,0.017643268803838718,0.036192418365624875
756,0.021086919560418162,0.014660981243854442,0.031742552380903746,0.012533087268991144,0.034117112751520434
757,0.015877833318180934,0.010267014259302107,0.024962988515667462,0.0069719641750038835,0.027993283758878294
758,0.01156367291207593,0.007583019052805141,0.02135067639797398,0.0038283614527974638,0.02403840232672545
759,0.004359251725842103,0.0025836308250914773,0.015118230454214277,-0.00037393789536548295,0.016510871153024652
760,-0.006938057318786673,-0.007768783199968487,0.0031964433316061507,-0.007983477209004738,0.004030122173838815
761,-0.01820175021199933,-0.018704656725109965,-0.009921372681180858,-0.016851793416132493,-0.008738170888189185
762,-0.027810450814700547,-0.027769753407926017,-0.021191913890025685,-0.02362662581473687,-0.020746717652536103
763,-0.03310130923534251,-0.03209948643943517,-0.026919840325217704,-0.02396426228000619,-0.028937890291120753
764,-0.030459648849367395,-0.029303273442936678,-0.023739785553753372,-0.016659359771244348,-0.02703859778902811
765,-0.023104665866227028,-0.022138364385825608,-0.015869372158013352,-0.0072092038385486905,-0.017276334217381117
766,-0.01420979464379327,-0.013251377539445929,-0.00693956461080212,0.0006898536786511114,-0.004476600719310883
767,-0.004033768035576121,-0.003674076913130678,0.0026329426931877144,0.007581775271310999,0.008033657897176144
768,0.006035244710156013,0.006583140434446203,0.011562534036818338,0.013916896956791087,0.016920543671986695
769,0.01511651746495827,0.017041032424278808,0.019575819817578638,0.01991035606792077,0.02254372311184091
770,0.01929955518330914,0.023062519785983355,0.022296241187200826,0.023090362685501045,0.02147905773449783
771,0.016043090374586334,0.02089896256953721,0.016390295959247573,0.022479521344890625,0.011556712423341334
772,0.00943378204665659,0.012007413788529613,0.006920738248188137,0.021666500521370313,-0.0010437753109961373
773,0.004979485484965578,0.00436449508028223,0.0015070089684389833,0.022797629250597272,-0.008677506679979696
774,0.0046866666864667185,0.0023866635065276703,0.0026316731708626974,0.024462232361572942,-0.008769209072386968
775,0.005793248585660704,0.0030925527856456745,0.005655900151888831,0.02376157474818382,-0.0056776196036383226
776,0.0056860612995312185,0.004919470915282109,0.006520661085703706,0.020214153965737405,-0.003582458485503458
777,0.0068285462339978155,0.008396200440727667,0.008158264682696125,0.01787754548734824,-0.0001231587015844254
778,0.011386149380845444,0.014110240616840394,0.013860222864131659,0.018963737553573466,0.007297112776010234
779,0.016426027718778796,0.01973189973140171,0.02097245024474222,0.020538158885613715,0.015628420859726194
780,0.015833647737668263,0.020346146661190438,0.022132069818010268,0.017981399103292432,0.01756809284860169
781,0.005377462881225468,0.010324759240946344,0.011342973995710909,0.008702162720745641,0.00726873939933712
782,-0.007562342529877818,-0.0032562076250624216,-0.0035552422713549946,-0.001641690705531157,-0.007090275090339799
783,-0.011798217734121739,-0.007812474048954385,-0.009399967041537295,-0.005091885706991708,-0.011328753911766283
784,-0.0095268848200955,-0.006220561672636521,-0.007932373135071238,-0.0036624362310340164,-0.006430825319404466
785,-0.007797131853880134,-0.005592615494192346,-0.0063342238492063545,-0.0028016671076389944,-0.0006599684312782601
786,-0.005154183364967972,-0.0037548432567227827,-0.002540205364590301,-0.001246262059641922,0.0056927647265893515
787,-0.001584956753551679,-0.0008586367364735965,0.0029342360373619735,0.0017953232719488468,0.01088240867904861
788,0.0013714249891104318,0.0026016496411645808,0.007811199616084651,0.004804830098975978,0.013764158225757543
789,0.006283348432137051,0.008712518705075747,0.014612049511379639,0.00891931088928986,0.018209486805486095
790,0.011972303909802516,0.014680334890156068,0.021393876911964062,0.013861789878670075,0.02260195194910435
791,0.01690004425344171,0.019292143499112988,0.02677887478171329,0.018028901452301842,0.026309639429613212
792,0.019000748351604136,0.020636949367058535,0.02922420516820026,0.01914117495249681,0.02793168214539013
793,0.013752127296066643,0.014128259138069399,0.023774598449571038,0.015184396906513433,0.02139236401093844
794,0.0030475608507299435,0.0022755383543599434,0.012112877353301053,0.00897571983031413,0.008093454620209673
795,-0.005696017378711814,-0.0068029907864391,0.0018907756018778023,0.005427842556806478,-0.003186725643301519
796,-0.007695600457670946,-0.008031776702465214,-0.001453433129865904,0.005949865385447559,-0.006101471571076226
797,-0.005904200527693307,-0.004429639641811425,-0.000591456954435883,0.006794654444088145,-0.0036913176995987756
798,-0.0074021924626580336,-0.0041246370101825375,-0.003168223361319868,0.002458336720156833,-0.004103277438109784
799,-0.012586884177667157,-0.00788019419055787,-0.009914021534054622,-0.006813677248127035,-0.00800406970749714
800,-0.015530096772324857,-0.009054283178222133,-0.014593303772345235,-0.01506483743828112,-0.009963135769685853
801,-0.015035693202821334,-0.006495937194179629,-0.015320147067933209,-0.019504843597220593,-0.009545520446218345
802,-0.016854207722800586,-0.006322503200977509,-0.017246586009565686,-0.023274654192421296,-0.011477311574113847
803,-0.02214225882818647,-0.009899597415479574,-0.021441720835391895,-0.027970320292691586,-0.014385620169980544
804,-0.024334616015170868,-0.011679623006851582,-0.022239781415240637,-0.030360500391948236,-0.012207556130097953
805,-0.020922646630949147,-0.01000446419775394,-0.01876043357611187,-0.028909606358351738,-0.006415924012030087
806,-0.015549189571609216,-0.006986590778537091,-0.014965275552851454,-0.026078316415587673,-0.001943889570907409
807,-0.010521648176769509,-0.0034606415760007067,-0.012230051402527182,-0.02306201517653989,0.00026376379133332935
808,-0.004799191657473789,0.0011100635466796977,-0.008818295199826598,-0.017834847671575737,0.0020811256427172753
809,0.000632537122338455,0.0052515876404339345,-0.005494281118356753,-0.011154017458757475,0.003564442061934658
810,0.0024588419502259763,0.005799733519952116,-0.005292335651586332,-0.006426760702624442,0.0024947361245354314
811,0.0026164398140059676,0.005243179656080272,-0.005129429517769449,-0.001884214875731204,0.0014620890741809736
812,0.006407057897639283,0.009614279592388765,0.0008409513927822908,0.00608241520528034,0.006157313448820356
813,0.014814362733854284,0.019934249680619895,0.012144100746494997,0.016019103999785286,0.017612944511489644
814,0.023980501963958845,0.031151508495016,0.023008545659438467,0.024136571059998165,0.030985198832600758
815,0.027725147495065047,0.035039683489858926,0.02589300625771876,0.027245414435278996,0.036905737771592055
816,0.02309846816174575,0.027990288792309432,0.018046295677731788,0.024846157781270015,0.029957217914617397
817,0.015070800819939318,0.01662075491209558,0.006627832156328442,0.020348092697918877,0.01666874006837629
818,0.009067937855977537,0.008022648179871363,-0.001307229318499205,0.015896461688486626,0.0051385911849923605
819,0.0049424628829087,0.0027439198868051324,-0.006069903766065725,0.010725898469583845,-0.0034169985819646038
820,0.0018767449953503016,-0.00022101379776964298,-0.009411012119488535,0.0051808897792812,-0.00909326865386539
821,0.0008496397352563842,-0.0003697798430264887,-0.01051448786116963,0.0011931163763089913,-0.010371754136524011
822,0.0009306857816298229,0.0009980181619310676,-0.009815537652248614,-0.001023153268041899,-0.00869027063093261
823,0.00045562216145147066,0.0016920302167349088,-0.009048624476651619,-0.002466070072178023,-0.006949646414780643
824,-0.0008881504744938475,0.0011773939533792192,-0.009016293733342834,-0.003875563115723466,-0.005905272278269016
825,-0.004376258029239976,-0.002240741063891797,-0.011867944379406341,-0.006782764165701857,-0.007183041090813308
826,-0.008492423325690073,-0.007297044143859378,-0.016240099151717653,-0.010272985594125837,-0.009049553033782704
827,-0.00953681399227136,-0.009722169852763581,-0.01710882603570909,-0.011470781119109949,-0.006901758806374773
828,-0.008146694505998218,-0.00948166576655409,-0.014385353200369022,-0.010864546655964109,-0.0013828219020344782
829,-0.005639790671405364,-0.007333612395393292,-0.009627649671218578,-0.009867465544874433,0.005297123363549259
830,-0.0008391386737623168,-0.0019379599749107172,-0.0017663097899855834,-0.00706835660853072,0.013536904568023743
831,0.0044801385751424855,0.00396356136791327,0.005964751396220076,-0.0021143516838852843,0.020574477363269495
832,0.007657295070946648,0.006748056426903982,0.008993153531301467,0.0029791981242904644,0.02313162694326256
833,0.010360614805447777,0.0087381264311146,0.009950625884095527,0.007906690277158509,0.024977436353025805
834,0.012827714353538366,0.011108247614211378,0.01092839912603966,0.01255018377078749,0.027554165427735453
835,0.011364837446638593,0.009930882189400487,0.008149465570120376,0.014229028945682115,0.02647986330255301
836,0.0034543127166310056,0.0017165754690177063,-0.001638875770591628,0.011035820240916023,0.018003920923161366
837,-0.0075676134846565345,-0.01052106385737768,-0.01474233606024538,0.005976064497665664,0.0065857128410008
838,-0.014322941995641065,-0.018507477966730176,-0.022513891181679284,0.0037934969440922197,0.0010596726861296219
839,-0.011863513783579548,-0.01600803553055301,-0.019012053795025543,0.006101639929310423,0.006123873108630372
840,-0.0018244399464596092,-0.0040403736285798365,-0.005731099352366817,0.011708178846149242,0.019426114575725063
841,0.0058403234826588605,0.006348692618928946,0.005741725302253212,0.01579940294786589,0.02900828571075834
842,0.004388302907787435,0.0058266736611599255,0.006025823867887077,0.014355563760180127,0.026116447794880284
843,-0.00022335306850027202,-0.0011383888458688038,0.0005121583601244954,0.010466667987319213,0.017087447999809467
844,0.0014114538151000285,-0.003193964003670655,0.0010351190996742584,0.010467263442584057,0.014979240766051248
845,0.010891188437894767,0.00422587376429052,0.011665483347283933,0.016002529970154458,0.024504371024218305
846,0.020487891681309527,0.013889333201985076,0.024099029309152333,0.02155726085777637,0.03665886514333583
847,0.02438556355236751,0.01879124549655529,0.030746926840558506,0.022935599577382934,0.04295283227473637
848,0.022615536566146493,0.017805054217309258,0.03109301983758779,0.020951357053491645,0.041677529733787765
849,0.01693630466989561,0.012341933985131748,0.02688888067785458,0.01726010844376233,0.03420560608509528
850,0.012099943124780545,0.007464959595439399,0.022869315543826277,0.014641979920797712,0.026213366474287778
851,0.012978581613970471,0.007780108943597205,0.023773555236505376,0.016069443198966252,0.023684923971288616
852,0.01832800936951668,0.012644980379140061,0.027935937911954978,0.020443819503238488,0.025715619009050696
853,0.01962342881599601,0.012230896642074758,0.026096960322335952,0.021519467880282292,0.02211662480440639
854,0.013121448224833455,0.0028881419484116776,0.014953611486152343,0.016953444788578353,0.009360759801718164
855,0.004529207831640815,-0.007432365436021719,0.0018090611694971009,0.011874844426978526,-0.0041736809930114456
856,-0.0011944028334386373,-0.013463431644746879,-0.007515933567234981,0.009822601670524367,-0.01261149974479189
857,-0.003425056776221738,-0.01452940878725317,-0.012183812310253705,0.00878652920792923,-0.015746426240131322
858,-0.005434039054162076,-0.014337949988734404,-0.01580981354859506,0.004813306344755304,-0.018003759751374866
859,-0.010628043761594208,-0.017485062394184795,-0.022399225470046264,-0.0022554968672016114,-0.024285661030517224
860,-0.016290185049844357,-0.022145082811037414,-0.02879221773121912,-0.007908961870281799,-0.03156074348879228
861,-0.01954978461531269,-0.02373137255451242,-0.03177071525497452,-0.011387877927597604,-0.034159831353264614
862,-0.02201884193382732,-0.023017251285128184,-0.03407735349949934,-0.01626416144085013,-0.03295982738637353
863,-0.021590080078747527,-0.019387675413677367,-0.03459857391459859,-0.020213118239684157,-0.02873124663267041
864,-0.015658827535614695,-0.010781443901197453,-0.030309139804397058,-0.019012571243667533,-0.021128514932762476
865,-0.009162450553056317,-0.002122300208936926,-0.02498651607867205,-0.015818594775298248,-0.014804584933226688
866,-0.00623392510180551,0.0030740170501527024,-0.02216449011249391,-0.014472750681219242,-0.011693147001259063
867,-0.004103928399639144,0.008472249192204143,-0.01945404492592544,-0.013444835695289892,-0.0075689228475611
868,-0.0002576335752790806,0.012109054974632327,-0.014872049989731467,-0.010848038606572652,-0.002635201355634971
869,0.004493043416489382,0.014877384945417538,-0.009083703920114964,-0.007288441821827365,0.0018027619511050894
870,0.008989899894265053,0.017500316203978898,-0.0029272045797418236,-0.003725847456614613,0.005228424082700465
871,0.013537352767315608,0.018772239261628534,0.003637292909723522,-1.3339211589517926e-05,0.007382609544668806
872,0.017033822041746503,0.019241150714280942,0.008329072059513267,0.0026702148164556095,0.007267544467148279
873,0.018129890040674293,0.01644342785669971,0.008707375297917028,0.0033982351470287745,0.0031658768850313175
874,0.019286179095263707,0.013079558914208854,0.008165990468472982,0.0052589084542802875,-0.0007831678066630532
875,0.020369422916104635,0.010838147270920119,0.007666755047725117,0.008767624479559989,-0.003118896789787472
876,0.018653697795629934,0.008616355346150649,0.004124866775238177,0.009558417353880917,-0.006613519107383131
877,0.015317161244537381,0.005435171719768646,-0.0010037218633219913,0.005996573034889352,-0.011021261151242651
878,0.012979834401499038,0.0018868716372160668,-0.004366517143453777,0.0002926093791957875,-0.01424911376381121
879,0.013551643382727156,-5.783301202552697e-05,-0.004032978761989079,-0.0043647578004484605,-0.0142323178617689
880,0.017497482829973026,-0.00043696921478142983,0.0008625736765231316,-0.0049327419259359365,-0.010601831933937223
881,0.022525548640964368,-0.00013875816994959235,0.00829485163571908,-0.0012284610388611564,-0.006176057789322556
882,0.026918228052617756,4.0057070292607875e-05,0.015589673732959762,0.004187114999108559,-0.003437887034862783
883,0.030311039209930314,-0.00015231851845409387,0.021508460997502882,0.00859982636979776,-0.0030567422117848877
884,0.03186112862416253,0.0028856416836765724,0.0249625574518429,0.01061624103589288,-0.0012923869942865027
885,0.03149611440715309,0.006148711440065378,0.025790851092228995,0.010422930400624924,-0.0004980990823707477
886,0.029386122643189166,0.007111807718927609,0.02427420510402795,0.008631825353753531,-0.0014500612306785295
887,0.02743586890828141,0.009173291975633418,0.022808520478573915,0.006763532636025827,0.0005779690157596155
888,0.028128209985862768,0.013239706178352293,0.02435045574557064,0.006175961833536286,0.006241923233693921
889,0.02951011972658302,0.01771648612784406,0.02656080372232398,0.005725174616229528,0.013772580346878208
890,0.028656572776949347,0.018989166836670384,0.02565735063869468,0.004683977387166452,0.018712921666660443
891,0.026066311512579324,0.01669342009839872,0.022520261258579446,0.0040246840137034895,0.02004286265133705
892,0.02547889258091069,0.014776158774713557,0.02293173294286396,0.005578148301514986,0.022139045296821088
893,0.029923461305602597,0.01942734076207269,0.03103416349561894,0.011102197408557127,0.03141511350928376
894,0.03539100566302763,0.02622022521857482,0.04070952097153004,0.01789043193100864,0.04229069807156224
895,0.03591654438286025,0.026253812250702276,0.04288936679355502,0.021431994695818787,0.045046752554426674
896,0.03265950145285729,0.021121575399926158,0.038062688122399595,0.020449144853310532,0.043550683965402105
897,0.02129055994681048,0.007336322169006061,0.022266578047135423,0.015397243656560537,0.03139434752063611
898,0.00846761615933299,-0.00869537910786016,0.004656534680866587,0.01006412775238887,0.016966608161059757
899,-0.0004016745883422658,-0.020302847114861213,-0.007565238414713957,0.008476528461086532,0.007487567906754675
900,-0.006585085790226388,-0.02917866351210461,-0.015545852762316188,0.007867885047254221,-0.0016673073299202509
901,-0.010847906898736976,-0.034830736611033565,-0.020313607401230713,0.005511816072708122,-0.008245869401705297
902,-0.010739581110160507,-0.034937173784437246,-0.01972257599178679,0.003764023673387724,-0.009394009041563506
903,-0.0064453340952767705,-0.030548433574950684,-0.014117017941494205,0.004462194568258176,-0.007785746997596661
904,0.0005451241408954573,-0.02187988907802484,-0.004645902483295589,0.006991964373203382,-0.0015598647953985207
905,0.006485931471036185,-0.013351197103954257,0.004192268649512651,0.00830252842510174,0.004183645839899544
906,0.008800092035605533,-0.008997560079714828,0.008606229386172358,0.006970948859349664,0.00574712675933944
907,0.010976745191360134,-0.005293156922498642,0.012470153340157634,0.0061227277165641315,0.009114188698976915
908,0.013814354473131224,-0.001027169100895482,0.01705753168316622,0.0064133721225515935,0.016982360392490847
909,0.011155945195404294,-0.003867670014370374,0.014941492086463802,0.0038645012058628,0.018647468123071286
910,0.0021043646296040677,-0.014740516326995499,0.004465039890104791,-0.0015582240101286214,0.010643129031514903
911,-0.00538096372307429,-0.023593297940558575,-0.0052715801814228296,-0.004646587552413765,0.003509997548542123
912,-0.009598153593461155,-0.028685236328181395,-0.011931362721809842,-0.004730681162953004,-0.001477127896679624
913,-0.014307005420304685,-0.03394710545230364,-0.01849331130713562,-0.00476822629828936,-0.007873102225407554
914,-0.01574008580005035,-0.03532652966548477,-0.019392620630099264,-0.0028498030778973974,-0.010850217424898724
915,-0.008650767026201224,-0.028607581055889054,-0.009317385749284889,0.003955006484053563,-0.006235935913375582
916,0.003789004639882018,-0.01719455619085789,0.007053128232514496,0.012959005177101775,0.003577847774577849
917,0.015361075830775964,-0.005520162102085795,0.02240635935662216,0.02009566571386852,0.014193401321911303
918,0.02129875197874082,0.002058088104685428,0.030789602953778337,0.023260006455051066,0.021807332605426413
919,0.01987423896629191,0.0020977407280597608,0.029849336136997785,0.022735934355794546,0.023249056702218475
920,0.015587812456141494,-0.0014786627936763993,0.025097536483206298,0.021020547697434427,0.020695696117110206
921,0.01337470834885862,-0.0027305653692227616,0.02224776377274108,0.018965552103262517,0.018954553828737408
922,0.01337938054091861,-0.001061566544803444,0.021143279520701882,0.016086292921630944,0.01890010657059206
923,0.013342099766338248,0.00036590733735147575,0.01939139734242633,0.012616836759881851,0.01872308791886627
924,0.011150164634695888,-0.001336823054565045,0.015445243779526647,0.008911690323148884,0.015797522756397456
925,0.008371052625696733,-0.003947720242559097,0.011816605339437819,0.00638037423115378,0.012438560448072577
926,0.009437822960627612,-0.001918627346460679,0.013514310309329017,0.007090543623397551,0.013938935736483079
927,0.012660272365411611,0.0032709247491187416,0.01840422565837092,0.009314910707563845,0.01787188106823879
928,0.014209689969537052,0.007183037078854199,0.02228426843123342,0.01077480519170588,0.020215088116136457
929,0.013602003125447343,0.00814091193177702,0.024364891940335854,0.011532809110687827,0.019953685110511887
930,0.010075738181136726,0.004859145201119957,0.022870607794732368,0.010861676402433474,0.015573717813787014
931,0.005155902627455403,-0.0001710058286457159,0.018485876623347584,0.008609963324786484,0.009210229869901939
932,0.001385274296374185,-0.0036042742633515326,0.0136667768644292,0.005395494650146372,0.004344132737735083
933,-0.00022777922528896847,-0.004180922641997798,0.01041667629463683,0.0022255870202119916,0.0025178340214432188
934,0.0007018282215979169,-0.0017680618428575826,0.010191516281496752,0.0003722841377237827,0.003462688796950901
935,0.0022778316357566194,0.0009819418639121233,0.011272230649398876,-0.0004045989110020762,0.0038092859846938607
936,0.001561153297299085,0.0014095666534200272,0.010547441666362643,-0.0015110878080851278,0.0011743328345765007
937,-0.0021730795148262676,0.00012557475744184177,0.007231191719604532,-0.004233108425677379,-0.00265990945749451
938,-0.007584408237908339,-0.0012099646459991296,0.0025575025641354997,-0.0087271468403292,-0.005771926312489256
939,-0.01188535706201515,-0.0013507347812471624,-0.0016334051835049266,-0.01268658889180714,-0.007720874690340965
940,-0.012811087859588226,0.000509727465840313,-0.0038253680315662405,-0.013567979980243837,-0.008019292109476253
941,-0.011217798266573823,0.003172908558326416,-0.003929797221372352,-0.01195331982321372,-0.0077886487688234845
942,-0.010905099381511931,0.0026405369235754585,-0.004862742898322179,-0.011068499771711487,-0.010532062605755059
943,-0.014004069129318066,-0.0027684682015102916,-0.009159294883836738,-0.012627182693598778,-0.01674083211194609
944,-0.017773606918914532,-0.009437729154129998,-0.01462875798269318,-0.014189572156918623,-0.022340659786672726
945,-0.017536529580047384,-0.012067423872852525,-0.016227990586939595,-0.012655421569948078,-0.022317048670626848
946,-0.011369323493717836,-0.007839348591122562,-0.010782282540794632,-0.007734765153941899,-0.014578263607452811
947,-0.0028128041209255533,0.0001770361916736606,-0.001180819924496004,-0.0018261666135385665,-0.0038290431693582885
948,0.005649814210755026,0.009655554442257859,0.009727114193195623,0.0035485868186796356,0.006693107937127592
949,0.014054200906299805,0.020822771664958727,0.021172908967025415,0.007997681765055397,0.017549994821658102
950,0.017709279536850545,0.0279729847624416,0.026986388089038086,0.008058906551490242,0.023061192838637275
951,0.013031143268312333,0.025429484876861533,0.02212250211355781,0.0014844670652954784,0.017473962772344025
952,0.003125697276531193,0.015390016184622081,0.010050729286596815,-0.008059739167063274,0.00370119442364092
953,-0.007482043819551852,0.0031815581450393943,-0.002981565626849598,-0.015786904880846574,-0.012317778136171447
954,-0.015243206740399529,-0.006955413946905738,-0.012577369619884924,-0.01933721855659081,-0.025786080034646462
955,-0.017843325604755416,-0.011755447099912442,-0.01635201476990095,-0.01821484989352339,-0.03165374133057678
956,-0.014638565950091213,-0.009014511529744867,-0.013725316362033908,-0.013344424667791894,-0.02645540694676658
957,-0.006783211070408622,0.00041327259912977163,-0.005723769296426576,-0.006806397809713006,-0.012486333092053504
958,0.0016591365012735937,0.011156969804839316,0.003942571991762969,-0.0015351894105199366,0.0023714929775236152
959,0.00791468544735911,0.01914220392517853,0.01235456305294098,0.00140599225157145,0.01290666564472158
960,0.011131523703769065,0.021663625989730904,0.017451129109665165,0.0029434902460771435,0.016724768396436617
961,0.010920935167674015,0.019580024450368202,0.01834276608099538,0.0026581286592777705,0.013659783924347763
962,0.00525176876980701,0.010978003774178602,0.0117309807902524,-0.0008697963206670937,0.0024662196452570257
963,-0.0033488994459512397,-0.0003424997618502074,0.0006950343364011388,-0.005913039522861484,-0.01164878421396958
964,-0.010241335852511975,-0.00933910279788207,-0.008825047363822888,-0.008950791614480761,-0.022297514428384103
965,-0.01211122361859262,-0.012588506722326,-0.012346234382250668,-0.008081405523617038,-0.025871629996226362
966,-0.009277122237548886,-0.010228383030141673,-0.009802723111679516,-0.00411191260145767,-0.02298633130288423
967,-0.0039939859640647215,-0.004352514588054126,-0.003967114829287485,0.0011248750236970476,-0.016063565601037198
968,0.0010510118083852016,0.0023851395757948876,0.001842429422657118,0.005031295975784604,-0.008171016426690674
969,0.0034782447349632362,0.007310559123852101,0.004842718120748004,0.0051588231684184345,-0.0027790885239989877
970,0.0028734655202805365,0.008687823867678373,0.004011153549171361,0.0018147124339513445,-0.0022316239823833646
971,0.0014997313806063757,0.00771602732952553,0.0016066349856370143,-0.001736489602983754,-0.00503957089540216
972,0.0013466104376657294,0.007303153802106803,0.000861746488565108,-0.0033258993103494772,-0.0074218790871516845
973,0.0003710811372054626,0.006469801354907003,0.00026274687896904556,-0.004715207609842725,-0.00976254848782411
974,-0.0028988963631616676,0.003652037114156273,-0.0024596526700815294,-0.007179033524529086,-0.012837067707783012
975,-0.005079759192973936,0.002097803983599131,-0.004146704938306528,-0.008452450213318407,-0.01267269564537969
976,-0.0055107495979508465,0.002175475220675931,-0.004263368257366904,-0.008110043259008303,-0.009776716121970874
977,-0.00674894909797477,0.0006695179636954164,-0.006101645110086103,-0.007908443945382568,-0.008824719823110496
978,-0.006947100268425567,-0.0003669561751904313,-0.007416006419764292,-0.00655657198635073,-0.008189381710113535
979,-0.00702930594150747,-0.0017314681569385606,-0.008709543722704544,-0.004750772974181392,-0.008883047122803358
980,-0.010041087279709468,-0.006814713462910469,-0.01344602747205479,-0.005137123199201565,-0.013982929487235327
981,-0.011834805755628171,-0.01058388089161004,-0.016779399475748427,-0.005884290318678925,-0.0175161926015469
982,-0.010147615581721779,-0.009999912594687037,-0.015450019909623582,-0.005996008946088165,-0.016255217035712435
983,-0.007970064205150777,-0.008151743115984055,-0.012237554774568504,-0.006801593038554072,-0.013521774617682739
984,-0.007470323505354239,-0.006991123785958822,-0.009621518748818964,-0.008213348276302022,-0.011637514602906771
985,-0.01030517848278538,-0.008379458615989425,-0.010269887809655775,-0.0102780114189538,-0.01288184879293194
986,-0.016703808806424556,-0.01371184189965015,-0.01562399560516845,-0.012943275229048989,-0.01856959659322507
987,-0.023365557654153202,-0.02045225478080543,-0.02275501100319403,-0.01471964955351677,-0.025556668319696673
988,-0.026270269087363213,-0.02411859693938322,-0.026872006048770974,-0.01456586013359871,-0.02875816207140709
989,-0.02549517313830492,-0.024028957553361405,-0.027237605970751057,-0.013551554329221635,-0.027597603692161524
990,-0.023097547359656613,-0.021708624860519568,-0.025667368114172133,-0.012744201073419765,-0.024159429144404956
991,-0.0188320065262788,-0.016726013495342636,-0.021665134768028234,-0.011024501572359995,-0.01844640703365329
992,-0.013441644337841691,-0.01057041934896337,-0.016094425222243323,-0.008209259820636205,-0.01226962150782942
993,-0.008305202222771585,-0.005400848820287404,-0.010792014118049672,-0.0054982107820907055,-0.007583738649754611
994,-0.0031368578718373287,-0.0006615574433847057,-0.005377660985875246,-0.002969705859117407,-0.0032005186171441143
995,0.0004253299688270531,0.0024932776379573774,-0.0014501242411486819,-0.0011811904578512326,-0.00014582046170020848
996,0.000658989571041341,0.0024017146035340744,-0.0011239728075292494,-0.0008501043579154733,-0.00020918589896464128
997,-0.0002922184930276368,0.0013762820475397492,-0.0020363764239974247,-0.0008694686880657697,-0.0009391418793880538
998,-0.0007250386774776136,0.0011284245295497767,-0.0019566401521744275,-0.0005106859002616844,-0.0007922144464907436
999,-0.0024096546498047896,-0.0005086539165320381,-0.002957844330565006,-0.000982049579281948,-0.0024521278742825545
