,AF3,AF4,Fp1,AF7,AF8
0,0.00026669131336203223,0.012650106924211037,0.001558538787713021,0.0005121593346922791,0.002911318022044521
1,0.004012836267030505,0.012662497285127727,0.003182659029169326,0.004590265403979299,0.007925584563028956
2,0.0024563090046465386,0.006106482427391225,-0.0024981652562155064,0.0034992515751193815,0.0020915110985304606
3,-0.0006885713419602265,-0.001096800050583522,-0.00999532765566892,0.0014296224573566564,-0.009154801036621108
4,-0.0008753173582892039,-0.0026955179734060217,-0.013246316532364834,0.003202337705923997,-0.016958019366871725
5,0.0017257298012688525,0.0015478136175522302,-0.011808692747876505,0.007985985136075279,-0.01814855312480876
6,0.00585158074455768,0.00940084606692456,-0.006369309076290683,0.012890541730938771,-0.013025789514421172
7,0.007831987598122439,0.01554264105605537,-0.0014691980074367575,0.014976981259818355,-0.0064786360612757435
8,0.005451135809273649,0.016330429135273047,-0.0010454020612474843,0.01323819110760759,-0.0025227688881874306
9,0.003447519318395295,0.016308998288979137,2.6947890395621615e-05,0.010779456863620149,0.002680119450238013
10,0.005014327526549343,0.01868854343310151,0.005811878943860029,0.009494223409967152,0.01063061832445144
11,0.008270151832203103,0.021313519073836187,0.013376668334151447,0.00945101365224686,0.017477634404425454
12,0.012482293553086242,0.024265096265657086,0.02000811840599243,0.012488591633576275,0.022476819162887605
13,0.019324505749371824,0.029028548123316057,0.024965212799752022,0.018521339756860117,0.027397538807212733
14,0.03068535278642843,0.0372121969948968,0.029869617678599025,0.025067417240556247,0.033989047244637596
15,0.03994636510973568,0.04658995569093083,0.03328232029288623,0.02835273872244013,0.038215300856932435
16,0.03609191919996232,0.048590101844494575,0.02905233724459104,0.02445067746601689,0.03192297399575801
17,0.020887217965581285,0.03903250146274745,0.017091372548783356,0.015037582991993276,0.01616776767307969
18,0.00412580007283694,0.021804038078245432,0.002084842663002792,0.005271300896174285,-0.0012134180053034297
19,-0.008018791823593798,0.0037915260876156738,-0.012164652097801052,-0.0020065871880577467,-0.014703639053392526
20,-0.012627984320269401,-0.007873504289883475,-0.02056133639100278,-0.00653571770295205,-0.02072804250339525
21,-0.009985889281806066,-0.010207883302851387,-0.020670802488203525,-0.00952503623443739,-0.019608897149101356
22,-0.0037381520823339186,-0.006014297022616247,-0.014928669429639722,-0.011379533753398735,-0.0145378891858452
23,0.0019961616543015394,-0.0005763717233552079,-0.007316217714248532,-0.011177343623835715,-0.008279284609893363
24,0.003252428809294225,0.0002875594480554137,-0.0033528795089822414,-0.010356065423249444,-0.00600486872477557
25,-0.0010034584053262463,-0.0048571063088920135,-0.005654593758528245,-0.01093293625660505,-0.010317333060892723
26,-0.005877468690590874,-0.010285672001187872,-0.009990600045617144,-0.011197373510665744,-0.016023317824917806
27,-0.008263634769430699,-0.012318117793094573,-0.013632301198193943,-0.010358565074179392,-0.019770790748775358
28,-0.012488867498361771,-0.01525329822822096,-0.020666837092482102,-0.011927925826988903,-0.025977696745575207
29,-0.021548039302594517,-0.02269908831985543,-0.03214991858121094,-0.01755867634327044,-0.03620512291315385
30,-0.03035079329016605,-0.031007950329477826,-0.041441301333020805,-0.023062995335246462,-0.043778499629329205
31,-0.03436263629030799,-0.03678542679463985,-0.04410364622869434,-0.024522983064989155,-0.043617190448321144
32,-0.03513088919619307,-0.040457768159404627,-0.04185641502995516,-0.022602160530445857,-0.037001916613975235
33,-0.03414085671430035,-0.041319339998446954,-0.037076376864835725,-0.019399499992768993,-0.02768232391656369
34,-0.030472717090187947,-0.03791446527198381,-0.0303011598797696,-0.016383663030320048,-0.01863792662405184
35,-0.023200184377889052,-0.030430714725632642,-0.020592611952827883,-0.01372129996434814,-0.010459188926481672
36,-0.013814110363686443,-0.021163784003476977,-0.010598663656756121,-0.01040092786873353,-0.0065679177680380745
37,-0.006643482649786265,-0.014084573936572833,-0.0029845664287631267,-0.006685263562210731,-0.008009207862041522
38,-0.002467557155405716,-0.009286650940421068,0.002612739719784296,-0.0025328422069878054,-0.011379404884915359
39,0.0015899629448935886,-0.0038341947981446406,0.008287351741223924,0.003689084808360332,-0.012402598951593546
40,0.006450379494035367,0.002522516201734101,0.015227279355395536,0.012379537205426767,-0.007844830682868911
41,0.011114288553971924,0.00743388421533585,0.019864097986489727,0.020895107759630653,-0.0005969934484042088
42,0.012263539656389709,0.006159712990888647,0.016935900719572187,0.023873889912196192,0.0021575355205000835
43,0.008887296638582618,-0.0018561566204081204,0.006601191758232165,0.019221907404601037,-0.0020253279050541748
44,0.00687531871868354,-0.008296277020635753,-0.0013809389959288404,0.011914454981452794,-0.004846676075520778
45,0.010502606249654673,-0.006977645146916874,-0.0016398279472913078,0.0075023185598201035,-0.0020839271949420557
46,0.016669451854617098,-0.0011003087709132156,0.0017671813296771413,0.00656446174391466,0.002167037913677867
47,0.02058943903453159,0.002898173777252266,0.002764297691230609,0.00647459666883356,0.002793993395805352
48,0.020529047058489902,0.0021424786336299456,-0.001980594195917767,0.005357435778265984,-0.0031883028444332083
49,0.01756836811722601,-0.0020538050205672243,-0.009785717780108116,0.0037873049913101356,-0.013345784646839824
50,0.013123511740492288,-0.008162152365985923,-0.018276164909272544,0.0024711272238644396,-0.0259946096251243
51,0.010324306556395947,-0.012711468020266514,-0.02501845163974486,0.0021434397499256325,-0.0380852333916134
52,0.010838621525979844,-0.012152220011886905,-0.0239793882442683,0.003076599880037575,-0.04070175442248817
53,0.013006956794574023,-0.008564296945694726,-0.019280876382509252,0.005238592669529437,-0.03733595434744369
54,0.012115346027502721,-0.007785462211887748,-0.018005197094147284,0.006394585952231756,-0.03506163330401987
55,0.008448659614134187,-0.010000158351995518,-0.01850743723687018,0.00597477072198681,-0.0315001012002928
56,0.008654729609211875,-0.00950815437357156,-0.01609938954996404,0.007291874347455517,-0.022252829001382198
57,0.01413847352490202,-0.004637326235282321,-0.007881817358854773,0.011195260059560822,-0.005475003644980541
58,0.020276992844058216,0.0010233448942958757,0.002825199097375343,0.015820055678424358,0.011803061015767042
59,0.022849296206078465,0.00422449635783284,0.010743132024616596,0.018773428975613835,0.020440456205812862
60,0.02146534022942121,0.0046021839936965375,0.012060200685978186,0.018786631397814713,0.01765909605225279
61,0.01697745887865964,0.0033790726739435914,0.008340865272943301,0.016056061440893353,0.01022812858924973
62,0.010932398765272865,0.002189727483955393,0.0032670216312751855,0.012426477835963571,0.003704502668049523
63,0.005136032844759483,0.002258858791868746,-0.00014549174333697602,0.009758883453776214,-0.0009268455685094032
64,-0.0012932090657097161,-0.0003614934059570317,-0.0036686416010874297,0.004178797756614221,-0.005294704884675053
65,-0.009621988635276286,-0.00234342322571039,-0.00438178708539398,0.0004259883094171194,-0.008247095049054621
66,-0.016246825238047966,-0.004083175461703462,-0.0038003742031866377,-0.002399786701483355,-0.008816927756324085
67,-0.018270087295892724,-0.005619940115541429,-0.0020304153524489874,-0.004182686941241314,-0.006289323386415576
68,-0.010839862365489306,-0.003411963803889978,0.0015671773275633604,-0.003090650646636569,-0.0014458107646233035
69,-0.0016384935659428574,-0.00018977807802861334,0.004618131005609808,-0.0032791283787098583,0.0034502501355394106
70,0.0033419251043599082,0.0030014265620936474,0.006519316005700268,-0.005692398540027804,0.008563229423354718
71,0.008684034532899709,0.010971018071316493,0.011814392673445718,-0.005914683952830705,0.017656816264106617
72,0.011306262539278775,0.018144430950171805,0.017363561051403718,-0.006195526245503585,0.02541574134513798
73,0.006640850885303421,0.01740908438757943,0.015992680418438966,-0.008257302843300257,0.022633943505884303
74,-0.00457487510445715,0.008866193921475711,0.006319200453695689,-0.011714571108712726,0.00928573714588717
75,-0.017978833739329788,-0.0030161527566911193,-0.00749569224260159,-0.015844004370537228,-0.007693113458282169
76,-0.029253675615136806,-0.01372426579905562,-0.020056472662880926,-0.02017199250246583,-0.02099992804370265
77,-0.031277105924151706,-0.01588304557493849,-0.02462271554636378,-0.020619076399997324,-0.02502358043157147
78,-0.02430023262280039,-0.009227802893134438,-0.020589240863735335,-0.016625396495542216,-0.02127577466090056
79,-0.014042085926923784,0.0012154166159831319,-0.011700477520426054,-0.011077027282425616,-0.013539830656596702
80,-0.0038161936906662523,0.011988815109947652,-0.0022717783661061193,-0.00538120144592839,-0.005044113353806888
81,0.0015283145139348912,0.01722797559684325,0.001445944259278723,-0.0025040839600885254,-0.0009215632973988857
82,0.0026295644423688616,0.017412051457120666,-0.00022815665709574446,-0.001497918625384603,-0.0005140702876943443
83,0.007576688300530252,0.02202902566671982,0.001833116055088511,0.003222361372980512,0.005157109778287052
84,0.013345465521718365,0.025223207079382755,0.009021165575513175,0.007606020696162087,0.017348631824695846
85,0.014855559603780296,0.022559131817905403,0.01365766989345652,0.007856661860258516,0.025757462298409414
86,0.00715833331923576,0.010073351999787214,0.007881809783064358,0.0012230893547097586,0.020670433023120292
87,-0.0122309392724923,-0.015422935271434823,-0.011244468936417125,-0.01343777533696367,3.1300728740593994e-05
88,-0.034608046677504306,-0.04212136871889647,-0.03673828585014568,-0.028667138112774784,-0.027008218928766224
89,-0.05111940031886591,-0.06032643749220218,-0.05648829025480217,-0.039244757753525435,-0.04451031205692914
90,-0.055971181951518886,-0.06491515801428653,-0.061126770585731585,-0.043406435299575316,-0.041656993342695264
91,-0.0466408278104336,-0.05346187622283108,-0.04706679859991809,-0.039421908477716414,-0.018414400820473735
92,-0.02429481767650864,-0.02652206532381974,-0.02379913705381046,-0.0264277393732361,0.007024363315788493
93,0.001714352277711691,0.004292582212029334,0.002204495608318158,-0.010816128477731444,0.028910590565483445
94,0.022301598216413945,0.027835854905990373,0.022728827944765967,0.0007230869109883919,0.042619313933821734
95,0.032324357795481984,0.038020509391836696,0.028935384348575968,0.005317558436061399,0.03836004478569835
96,0.029053474681795585,0.031141599775385175,0.02256789807414653,0.0015235282326986684,0.022107908870500827
97,0.019416732855373015,0.016425336555507753,0.009644091901374096,-0.005959497531374212,0.003196953370679031
98,0.012137855408259646,0.003947133898080017,-0.002504249756314528,-0.01120005806872276,-0.010793774704105724
99,0.008180551983962196,-0.006363098215819425,-0.012175537509457907,-0.012997458801067256,-0.021219833534442695
100,0.007656408095921305,-0.010482290957308661,-0.012240441567561341,-0.01036844443709452,-0.01850819839198662
101,0.009730489690632173,-0.01066450086717107,-0.007288253415681375,-0.004466748235643895,-0.012079456986408856
102,0.013296588487879693,-0.00812708496725855,-0.0006551817276122185,0.0025420310086110864,-0.006814870062452508
103,0.01679802747817295,-0.0023626088151296135,0.008304319256771999,0.008581247930587827,0.0018874101886298593
104,0.0164003353717207,-0.001231597028021909,0.011536098235513319,0.011167770400214794,0.00129944040372374
105,0.012747970885508834,-0.004390087876309966,0.010522137227531163,0.011633341834725452,-0.004124682186707634
106,0.008562112310073438,-0.007305950638710939,0.009257619315711866,0.011380267975939164,-0.00675315019961162
107,0.0022759131098084692,-0.011765211095773484,0.004480632082353534,0.00793847253437447,-0.010859500039837938
108,-0.004970680027672395,-0.01847222565506216,-0.004916543843433584,0.0010668376526790288,-0.020331939529620077
109,-0.007439853356905877,-0.019794076826943487,-0.010936168520486525,-0.004603003574757625,-0.02326966746010466
110,-0.006405121784210433,-0.016681221863223652,-0.01314692906236722,-0.008427446840201722,-0.01842523436040337
111,-0.003558266046918626,-0.012738258962590244,-0.013056231006255014,-0.010746433736357097,-0.01199082977073865
112,0.0031202801846108505,-0.005302509281991027,-0.007655290710008484,-0.009440403125193982,-0.001496706475891281
113,0.011135531537543156,0.003524725857264421,0.0003285221414620838,-0.004934385335442314,0.006848975926649899
114,0.01709845972331452,0.011396513142877136,0.008027931747736677,0.0020400670013512026,0.00936109671829936
115,0.020559540719767653,0.016472625937945382,0.014112360920641134,0.010302749728395637,0.008662213476083949
116,0.022316348374920927,0.015032222357269346,0.016976307299172926,0.016658079203330775,0.0058338820557131705
117,0.02087794571550089,0.00741326762832146,0.014767457776209622,0.017970733650292118,0.0003488883837999454
118,0.015847243295910703,-0.0020920825196150497,0.00893494115870934,0.014756610458182818,-0.00658055695713416
119,0.012301476544771487,-0.006808684061722455,0.006382515331567541,0.0116960539537445,-0.009117383963268747
120,0.014000412899936737,-0.0040058153741916345,0.010081407557690877,0.011864852209784444,-0.005055636458761174
121,0.021691051932986503,0.002848502620949131,0.017675859406752474,0.014922871329000852,0.0027472749811418805
122,0.03409281533472951,0.010771490658893634,0.027037087898849597,0.01947068089244834,0.011966837833847907
123,0.04302784893084326,0.015886382846629247,0.033823036210539684,0.022855269826284424,0.018203896483258365
124,0.04078792119943132,0.01485975640132426,0.03336792581900785,0.023274830820679163,0.017346650972695
125,0.027374759661379706,0.00561457362409826,0.023359268232979662,0.0200278656826645,0.007724772168869082
126,0.008402758142759774,-0.009642935999261412,0.006148978709959553,0.013406541894329447,-0.0070993953829712395
127,-0.005011409177494343,-0.020391410554233,-0.006682846907827162,0.00881831428704283,-0.015244645229016151
128,-0.006228186013408788,-0.019601151003519498,-0.007865427708170067,0.009306363409107416,-0.010423112128766164
129,-0.00010765544666297179,-0.010448952758951725,0.0010405209423970515,0.016146680052187105,0.0004685500819006778
130,0.00820424345131521,0.0026342841002663007,0.012503137660792266,0.023046529411255304,0.011769067783241768
131,0.019039780627790708,0.018096598018059504,0.025750414152349268,0.02913858082258056,0.024452126003290373
132,0.028737536070838576,0.030411769233012746,0.036571612256362136,0.032871405178124855,0.03350743579228451
133,0.0304278892609022,0.0330355942637875,0.03828931941549571,0.031223594073036057,0.03123779322146429
134,0.02476590927889141,0.02773604319532277,0.03231441117192821,0.02590843384025679,0.020269678169921194
135,0.018870904357967375,0.022526616944587297,0.02599708182554764,0.022521882222217383,0.010566864221557448
136,0.01674890541854384,0.02146570459318194,0.023217948344698945,0.024053500261031157,0.007258329258469777
137,0.014728844589999358,0.019500904441560583,0.020645389750033123,0.027648722138975287,0.004649087890379612
138,0.009592998494503168,0.013536978080990391,0.015753333463083708,0.028732193515733282,-0.0019563593882066244
139,0.004253398409382905,0.008679089827277341,0.011824896211051605,0.026338637844425347,-0.008513466401726679
140,0.0010498681775143214,0.008068177917530596,0.01044475540023381,0.021443135821136855,-0.01146296340511245
141,-0.0019881390631703486,0.00849563827696996,0.009014969654957909,0.014695747307940698,-0.012450616140796322
142,-0.006604908429811795,0.006638695819430872,0.005601964225852804,0.006506653998934985,-0.01355823294214272
143,-0.014444853312612096,-0.0007279037768300455,-0.002524071572461386,-0.0039469256133021074,-0.01777020134946593
144,-0.02641847096458318,-0.015342139309780069,-0.016910197487911404,-0.016233649408740513,-0.027345713971177195
145,-0.0376815906494088,-0.03121625828119977,-0.0316960166495474,-0.02583406282018554,-0.037329602899848005
146,-0.04062902530572339,-0.03862909897085367,-0.03770256128844236,-0.02728787605126914,-0.03887851718204813
147,-0.03350482360377181,-0.034480771764401966,-0.031560943419101935,-0.01907184953719092,-0.02994231745630722
148,-0.02176963495400998,-0.02432118323110515,-0.01842576496737302,-0.006283828599535739,-0.01746257332588892
149,-0.009251815583794214,-0.012771793693249439,-0.002629997639959058,0.00634293433262554,-0.00575180386168209
150,0.0010101298922367099,-0.004145067579141921,0.01080452250857514,0.015044575074644968,0.0031756286080877522
151,0.0035961653032521457,-0.004887655474223448,0.014469679032418895,0.01644161621223068,0.006344667605486133
152,-0.000660805276086039,-0.012855507336690851,0.009515540580917232,0.014027882171640622,0.00771285054403036
153,-0.005368919292673919,-0.019113169087038705,0.0027371669038037914,0.012407357993727509,0.01180160598424787
154,-0.010636458014002531,-0.02354112356974789,-0.006197335680146791,0.00891033784405125,0.011068905794298303
155,-0.01885502396389563,-0.030195364766924665,-0.019516524734408198,0.0013965398803596413,-0.0010975521262346878
156,-0.025741814505735223,-0.03521472085516809,-0.03113330485573017,-0.004011184831141919,-0.017524732659026696
157,-0.026274106376757828,-0.03218007545730746,-0.034851836623032324,-0.003185489209819896,-0.028065483216845256
158,-0.020556744135957535,-0.02141802870765439,-0.030588745620351823,0.00173253917571382,-0.030185062026956918
159,-0.013475782228368332,-0.01142563615842307,-0.023714118992502243,0.006072714111855363,-0.02936159557629464
160,-0.009775485914425876,-0.009165265499518772,-0.020301983772550495,0.005790588678734516,-0.03043864067772982
161,-0.00991043193130685,-0.013887858026413362,-0.020955165015654212,0.001537985209456067,-0.03251063656303671
162,-0.008375987979154799,-0.018283763016293215,-0.019798106356568347,-0.001692626961271069,-0.029624267151304406
163,-0.0018234238712376396,-0.017695951306100306,-0.013621425479485041,-0.0007467126412898291,-0.018903492417158153
164,0.0038207401307543292,-0.01567344687070595,-0.006459551158221767,0.003258576376703512,-0.006168499209773287
165,0.006951743366702384,-0.013950618159734756,-0.00011127753751987961,0.009062343299586984,0.0038721717974547474
166,0.010116951013882542,-0.011265946753677295,0.006946348326039672,0.01690812919465196,0.010202541683336466
167,0.014001322342925008,-0.008927615895863784,0.013005228035356161,0.025137806696353075,0.010882764179649335
168,0.020280422091833738,-0.007583022428557939,0.016010721229881113,0.03084911047619671,0.006506553160351827
169,0.027396558006496135,-0.004897223887871864,0.018031751459920312,0.033568958929762936,0.002839690274694561
170,0.030037197815953168,-0.0012995417071932057,0.02024589132335506,0.03304204476159267,0.004127933011543737
171,0.025359203740080705,-0.0016679986306821556,0.020209934226600106,0.028989816685164073,0.008055613330453907
172,0.017543116823227806,-0.006078754513098227,0.018063322151004223,0.02422593204104557,0.012336413805830625
173,0.013675340439626519,-0.006626254169775342,0.019707519758217194,0.023850757833151836,0.0195424125450961
174,0.014819147557283745,-0.0007818946388933008,0.025479581173137443,0.026823366521758134,0.027820027395597198
175,0.014555649804817944,0.0036595506561167617,0.02710961926149159,0.02703007653300767,0.029095381090749786
176,0.010587438585060305,0.0034222286219930745,0.023238308128458843,0.02534905962652144,0.023448694287193237
177,0.004948580585350717,0.00013398614035023027,0.01730769428355382,0.02469266104710316,0.01575738363470995
178,-0.002614951266334336,-0.006446818412002679,0.009355009674647561,0.02252361364081516,0.006841873749929905
179,-0.008826786227785205,-0.012007073466100577,0.0028999973646366777,0.018389016619288878,0.0009941732836138183
180,-0.008166496110657636,-0.013354806529345752,-6.509219009136736e-05,0.013639860045260233,0.000836743878830166
181,-0.006041943945666213,-0.01358973719297191,-0.0023769895351704222,0.007215389641617556,0.0029436343568232564
182,-0.006104107646356856,-0.01538872763782966,-0.005307599991582459,-0.0011957993781819588,0.004567942548808666
183,-0.007923493292389233,-0.020384893972183106,-0.009523276302686415,-0.010348490991113584,0.002513132654026564
184,-0.011349667676401035,-0.026038511657750806,-0.012859663198015948,-0.017012430978296644,-0.0024524620675787775
185,-0.010693537202085445,-0.02600824551499007,-0.010787386039723488,-0.016764987634951867,-0.004294177063258539
186,-0.003960334143277004,-0.01928867672609091,-0.003456789638742004,-0.009461440020899556,-0.0011368929838547219
187,0.0032354916669453055,-0.01297833424774731,0.0027929735883021195,-0.0012665758229208834,0.0009150487593703965
188,0.005490562914281732,-0.012249107483926944,0.004516960414171374,0.002727080400374448,-0.003377977838150134
189,0.004797212966672768,-0.01598201128034282,0.0034853316108844935,0.002180450359814741,-0.01319734845839689
190,0.0011473615453652783,-0.02401093717531479,-0.0014291367954480999,-0.00239785292208112,-0.02688055398196651
191,-0.006163678698713798,-0.03508707871352749,-0.01079218949328353,-0.008631275012048203,-0.03990295592761856
192,-0.009172883798742133,-0.04303032730507445,-0.01712601715367901,-0.00985123882777638,-0.044274711522333435
193,-0.002239188112539777,-0.03795652692755581,-0.012841354413411929,-0.002102530436611334,-0.03124869907508157
194,0.011088770112096361,-0.026863835762808628,-0.0018286631755335995,0.008609360960766994,-0.009420067487900126
195,0.023087399492656847,-0.0181377549012263,0.006706443271677128,0.013856267142135866,0.010504350392351937
196,0.028126339664047383,-0.011944678813923226,0.010468912718411513,0.013144115261215662,0.023085845532623786
197,0.030843181896326805,-0.004617245164240436,0.012983658068567206,0.011060651415166654,0.02960530477640616
198,0.03326613229180908,0.0033359427784421174,0.015613381774935483,0.00924610546689966,0.03094676193968412
199,0.03280451070155533,0.009468327134825358,0.01788691337963614,0.007260013944201815,0.027537124094412564
200,0.0298318826891047,0.011839124670002163,0.018351630439800124,0.004593450496340972,0.020633330054106534
201,0.023278791460101905,0.010219667748030596,0.015581972842051843,0.0008032583487879116,0.010855234210690252
202,0.016030287360251794,0.008842376287795365,0.013129215532575244,-0.001939263467380732,0.0035103324876440776
203,0.012359748471272445,0.011011334896847344,0.01468159371269368,-0.0015246570939686675,0.002971761436886876
204,0.012422903786230843,0.014321093627393205,0.01803102383676071,0.0005004893715920383,0.005841161399085174
205,0.013409736822581793,0.015690246240004004,0.01954513952642809,0.001532439721941828,0.006748268104625774
206,0.016155397412165227,0.014496750168783101,0.01922040757889595,0.0010305660537065673,0.004472528936600661
207,0.018988889922285392,0.010967101129130491,0.017924453883414997,-0.0005203012749848648,-0.00027453435753395063
208,0.015804595911744983,0.00692025226829126,0.015596364501848417,-0.0028485292920431156,-0.005274246197489115
209,0.005617754460177682,0.0027969325981948077,0.010780657439892725,-0.007124126863639718,-0.010164854877773088
210,-0.0052996802712096626,0.0010302709546545405,0.006271956128289453,-0.011654441779042663,-0.013548545860996247
211,-0.008773183324788695,0.005916632890456118,0.009362674661175336,-0.01077030907888906,-0.009038358204183035
212,-0.0059751715080277,0.011801806198090821,0.017620449894702538,-0.004265899883637405,0.0035354198742916856
213,-0.003835371087527307,0.013314441623338391,0.023954173036782437,0.004145537164289859,0.014803258072138406
214,-0.0034325073658338055,0.013581005088405936,0.02727902638464861,0.012099733243711884,0.02123424907958291
215,-0.005979434761485092,0.012255314359164748,0.025080852317547888,0.014612333510250805,0.020583309536983885
216,-0.014079256961565565,0.006340712021810033,0.014612807809871125,0.007052634292027887,0.008823280907882404
217,-0.02291774833782749,-0.0004763002270551832,0.0024139593775211058,-0.006710257093251009,-0.0067328198849215815
218,-0.027025377935670503,-0.0028230869739902767,-0.0040141438629050395,-0.01948753954626905,-0.016904537715044715
219,-0.026597799037631688,0.0006822910155272578,-0.00395491189930252,-0.027868559426037075,-0.019328013152484273
220,-0.02613588195886197,0.006345377589606041,-0.0020718625568106304,-0.0326982693654017,-0.018474579264252167
221,-0.031252937150842215,0.006876401756760118,-0.0056105700412181995,-0.03738823333762459,-0.02197539845643873
222,-0.03782463323652038,0.005791291438953019,-0.01077594421345371,-0.039958929741221526,-0.026501161259745346
223,-0.03644578017666185,0.01171690952554694,-0.007228728099438109,-0.03562302415463277,-0.021517303752708657
224,-0.030002183084794746,0.019018770249594696,0.0013603004903658279,-0.027929247438063624,-0.010088153803121277
225,-0.025799113957344636,0.019949319036401705,0.006797925533951995,-0.022495667689479054,-0.002154507782014975
226,-0.021300620946714775,0.018964654752154034,0.011850267027020299,-0.018348692048758358,0.003333297298478663
227,-0.01324279748125373,0.021153685541461353,0.019832003689529764,-0.01440532699898214,0.010070597512911901
228,-0.003401350985950031,0.024250995533778543,0.027100158417499066,-0.011573552907574027,0.016056627553913714
229,0.0013354517153697965,0.022589089101291947,0.028260854576486152,-0.012426175235436676,0.017122408036158287
230,-0.001568051885310826,0.013863392520926183,0.022170542605284713,-0.01584139983670826,0.012399868065766343
231,-0.007058499955779118,0.0031819217865382728,0.013405967902445196,-0.017415703007668978,0.006412588492342259
232,-0.012314366632334239,-0.004442854868382706,0.005648798451340138,-0.015932149932958415,0.0019502860041814578
233,-0.01621878836447517,-0.008420070387637247,-0.0005703825795213652,-0.011381372433722229,-0.001010341932900997
234,-0.014875231663787758,-0.006142675408002266,-0.001464149580687736,-0.0037465894627950443,0.001118281205234138
235,-0.00785117414282952,0.0022583297231510797,0.004537037897154511,0.004199787956422152,0.008364910993079904
236,-0.0039612542623741155,0.007820107530334089,0.008920824622638577,0.00630593450171009,0.011714760604010915
237,-0.005548439558966384,0.007354285725338609,0.0076267509088625085,0.002691076018849244,0.009585414161156486
238,-0.006336147765567981,0.006391562548993341,0.0062178230743780444,-0.0015279925748337042,0.009411313028653988
239,-0.0064267185808497065,0.003531873799867131,0.004229797764010632,-0.005781552205626733,0.009705332128116098
240,-0.008532901308350655,-0.005188816789878391,-0.0018819911892142456,-0.010395513906274214,0.0062858035470155045
241,-0.010880884461320251,-0.016350561073875988,-0.009127600994813783,-0.01296292691242802,0.0036450272518491296
242,-0.0117316197142784,-0.026056952400153606,-0.015229626589760587,-0.011988581987668764,0.004647872847001881
243,-0.009835549237383532,-0.031943670898214704,-0.019558715561899406,-0.007309526467098626,0.007095551678612801
244,-0.00657882855011337,-0.031008023203691108,-0.019404402385650107,-0.003597990231176377,0.0071605168834424325
245,-0.0010381973844639243,-0.025049269334134816,-0.015585480594899453,-0.0012195537657631358,0.005370751875154494
246,0.004473063361878968,-0.02071257785747935,-0.013081002698521412,-0.0015319865941420784,-0.00016565868261549465
247,0.009561264503630493,-0.01983658266444676,-0.012388747092653123,-0.004958795204274406,-0.008563617166650467
248,0.017868981839633247,-0.018907889644013583,-0.009616576614522448,-0.004691533164900089,-0.011755333253382703
249,0.023571462450598532,-0.01769208769143879,-0.0052041401979582335,-0.0008057853436886777,-0.010434626842627241
250,0.02074529812421928,-0.01919076258603381,-0.003803163667544101,0.0011226598498178895,-0.011256203453366916
251,0.0134226923692926,-0.02164722378186827,-0.005010268537093599,-0.00042663234546996186,-0.013213108294118018
252,0.012267453944588542,-0.017617745301040627,-0.0012829383733504525,2.4869309190173107e-06,-0.006260599265323023
253,0.017780575406866738,-0.006193034348715959,0.008873189753958555,0.0023637545659859196,0.008815819105101859
254,0.02273055575016768,0.005281042660042133,0.018202748181746258,0.0025414571375575816,0.02110160380494959
255,0.021906943287074977,0.009022751767687825,0.019730689644374792,-0.0010551338646031874,0.022796277744415457
256,0.015103479453267761,0.001582409965348485,0.01128587161615878,-0.009464882301427476,0.012278074927529165
257,0.0031590308440655225,-0.012303765325018442,-0.002260871466704629,-0.02015914192137261,-0.002642764786484316
258,-0.0054253240171648264,-0.0236591963077402,-0.012924147401251945,-0.03122020421642741,-0.013652962339840886
259,-0.004842071477729324,-0.022953145876015924,-0.012681152349459697,-0.03872292412845345,-0.015053835363609132
260,0.0057556123510132265,-0.008645490917180917,-0.0007224366629104352,-0.03714744589437945,-0.0017817422582405672
261,0.011542502873223044,0.0011646405773419835,0.006496264106610339,-0.035378171135509784,0.006266110282999903
262,0.0039832832645783295,-0.004739630466691911,-0.0011205068530836144,-0.040025537434479404,-0.0008427160607042526
263,-0.007016477972740559,-0.015475586961191877,-0.01280779039662748,-0.04496812374303136,-0.007261417638126256
264,-0.012661117630657491,-0.020612412399576445,-0.018124009882514593,-0.04647288392302902,-0.005718892520906479
265,-0.013453711306947662,-0.020878377002142484,-0.018354737768297345,-0.0443844514764304,0.001980433575351597
266,-0.015268204370235886,-0.02299972218130527,-0.020712751628735454,-0.04213951987384862,0.008317385360525604
267,-0.020685390938413685,-0.029575108322155,-0.027709327207407784,-0.04236111654704833,0.008397165033072293
268,-0.028158537930472273,-0.03805985636437804,-0.03642183778621496,-0.045099371465388914,-0.005952650324917804
269,-0.03471022972665632,-0.04469734999146676,-0.04320939875453872,-0.04716204442180838,-0.023214133853009876
270,-0.03601587371817081,-0.04489501343970085,-0.043263226672741795,-0.04522712743784396,-0.0317202891476777
271,-0.02949410993127934,-0.035828328571127006,-0.03354371429818051,-0.038807052930575944,-0.031022771506926842
272,-0.019260130947972666,-0.021934155734311876,-0.019265642965882762,-0.030959267051452462,-0.020978764093189738
273,-0.010306317840669425,-0.009488033809109028,-0.0068445859666086805,-0.025736049730019733,-0.011703049376132875
274,-0.0013887732531712785,0.00205736391155276,0.004563554401837881,-0.022081709570934978,-0.005757333275837938
275,0.007930140693000949,0.013455735001876438,0.015295016694911515,-0.01818504036951409,-0.0009633795987237181
276,0.012657417650414919,0.017175264056880885,0.019307262621449363,-0.014832663191369545,0.003612674147434328
277,0.016319548956459068,0.01839733833376182,0.021696508417329292,-0.009626988405263256,0.008519931503235639
278,0.022011654735491507,0.022129688454456457,0.026786716688343908,-0.001756735172194892,0.016216248473081327
279,0.02432079879430894,0.022721729208361418,0.028332255768059447,0.0038209776212387437,0.023210182024616565
280,0.02104215216568865,0.020038006362661433,0.024469838041986318,0.003983059713806221,0.022937763204513063
281,0.013560856694514976,0.014901791054681916,0.016526058413019344,0.0004920412059093002,0.018028574313052704
282,0.0058621213897247495,0.009313436358555343,0.008209542330346414,-0.002924073680023734,0.013348452042717777
283,0.0028479597496586834,0.0068821165295120945,0.0046966899652774756,-0.0035743409188014,0.01224532385081313
284,0.0044685201964829125,0.00839160355330087,0.006679371616385763,-0.0025571231484422525,0.013433528611157555
285,0.004483810216685876,0.007364784480499707,0.007221647872819304,-0.003082979955473378,0.01261095376128579
286,-0.00021582805111672288,0.0006511884516722247,0.002565495659562858,-0.005647617866419348,0.0077052959595557
287,-0.006625339205430916,-0.007760784524061277,-0.0037704691265623555,-0.00792454069831687,0.001666063020316463
288,-0.010904741943413896,-0.014500087136511568,-0.007472081697465377,-0.006819117504680946,-0.0005623034442809237
289,-0.014156004761456733,-0.0203648818757434,-0.009272330809483333,-0.0028171005530226055,-0.0014457428457403734
290,-0.02096518882333707,-0.029657827454782727,-0.014582628766652476,-9.901879512131079e-05,-0.006659276209909519
291,-0.02967744203693661,-0.040675218743290956,-0.022563399715447227,0.0013163237478816979,-0.014710535891002428
292,-0.02838462370200524,-0.04124768733874086,-0.021337633492767172,0.005864348742521904,-0.014445102291482888
293,-0.017999914600570432,-0.03157213754470562,-0.010803634442681074,0.013529513183798176,-0.0065927175806795215
294,-0.0068621441487065745,-0.020374623991593715,0.0008905008371784603,0.01884512524246792,0.0015806959616893506
295,0.0012276152177720886,-0.012368541730121354,0.009302965756536214,0.018851910878165283,0.007279634205596983
296,0.0036814925442336314,-0.009814530456321437,0.011941507765283256,0.015075724152715258,0.008585725036356266
297,0.005268369105594023,-0.007271809970597649,0.01395883269221535,0.010741387955772721,0.010396705051219797
298,0.008408905494896184,-0.002162295996659091,0.017979782992490985,0.007034448398561218,0.01397786365515994
299,0.009654607411233881,0.0013233622153292972,0.02026458122749985,0.0034651935228796563,0.014864286285951704
300,0.008262054217598323,0.00203645751934724,0.02062375472279305,0.002481681709709155,0.01382068236215002
301,0.01001062879186902,0.006086039570169756,0.025157922007485786,0.0063027662053674865,0.018328045804896456
302,0.01641068214823515,0.015163797430172533,0.034508778137357775,0.013520965266332088,0.028260468958498534
303,0.02243665623430245,0.023144775857475784,0.0426445895657977,0.020495695331572278,0.03545525698216176
304,0.023442847758033323,0.023597571221688398,0.0440521872662703,0.022607844955385967,0.034201149255739006
305,0.016721859087319723,0.014344801197908225,0.03596702056394988,0.0179616666086671,0.02311475449413805
306,0.00764866196496646,0.003900023847988394,0.025083414172818192,0.010834896781311613,0.011127369142682579
307,0.0043904934980159745,0.001629399526348667,0.020577345777189924,0.0068124249029209855,0.009898233319190142
308,0.003851731001081532,0.005577710775967196,0.018737421646338008,0.005373529344616569,0.0160012799923947
309,0.0017370588384489668,0.006465838928450679,0.013843389183125906,0.0035431336257089135,0.019570569435821646
310,-0.0005874561866081859,0.004485241193786368,0.008513724266628669,0.002856696582891411,0.018706072637041146
311,-0.0011304141571772054,0.00456320250943548,0.006587481016768346,0.006045483870124466,0.015475272767690177
312,-0.0009617980840092023,0.0035294878609149405,0.006244222413735674,0.01113068131154134,0.008851153536839525
313,-0.004465580809338674,-0.002343681161075921,0.002018933684410151,0.013992433554451272,-0.003400192567980333
314,-0.010395504373003434,-0.009572483576733294,-0.004898279618396526,0.013873270258123857,-0.01573874791204457
315,-0.012807754581752607,-0.011416704011785291,-0.007654685619217446,0.012195246213111834,-0.019026933768793712
316,-0.013113536288362449,-0.011401619557588111,-0.007715791427978167,0.006932650296265308,-0.017271387105402804
317,-0.018123919747939157,-0.016065167341463276,-0.012725764902208246,-0.003703635393073672,-0.021588761236826827
318,-0.024361973361395294,-0.021131029564978584,-0.019649939510269717,-0.014696858970028075,-0.028751830415784285
319,-0.02575366299451528,-0.020291317719881873,-0.022652477240732837,-0.02129990223348692,-0.03126744286536648
320,-0.0247380855028936,-0.014300786521736917,-0.02377627897264505,-0.0246148141879855,-0.03320817321566352
321,-0.02115493352301349,-0.005132105411422956,-0.021701991793844154,-0.02513279957344353,-0.03104889442008775
322,-0.01147724519297441,0.008853291201300384,-0.012335224282937136,-0.021292560391466677,-0.02336529686682591
323,0.00174731081704305,0.02446048678194597,0.0008879006680412052,-0.014742734114024636,-0.013689854257502037
324,0.012352471430110708,0.03298666129998033,0.01128017691221518,-0.008790487226249862,-0.0072078751241188175
325,0.01771570540252047,0.03530987820372415,0.016413161791515224,-0.004544848841133711,-0.005284057960803483
326,0.01826348715955929,0.03370924814584513,0.016447618326498586,-0.002053600381576606,-0.007305111664643232
327,0.015613232701947546,0.02811549045685391,0.01234085444163659,-0.0009546693654325134,-0.010475503289913144
328,0.013697976886959291,0.024312904035033774,0.008201124206183711,0.0008200950154731503,-0.00929019282402075
329,0.013680700053395006,0.023139801207545378,0.006438183413525511,0.003743376498983848,-0.0034486116258319295
330,0.014528701320983675,0.02326129867813047,0.0068862636396947235,0.00676334921872345,0.0036823353183079994
331,0.01781378335625031,0.027131387314913456,0.010654789288695368,0.010223414021534165,0.011930085913943468
332,0.023041056196676943,0.03443248147255771,0.015328361816176903,0.012929971599205172,0.018989610090666506
333,0.028463401622267157,0.040721250200773614,0.018085739072222974,0.013831332244787558,0.023053854401064486
334,0.031577770614535566,0.04305759697493347,0.0175900284340191,0.013167027746282225,0.023586847068434454
335,0.03062195342272821,0.04185750072144161,0.013601463761161942,0.011638476549320516,0.02118518810184622
336,0.02714416671519459,0.03840396789254934,0.008810149515154958,0.010815055299988705,0.018278900572616375
337,0.018379173122872947,0.028581432162563612,0.00035288701839924624,0.008527881698036302,0.010672290753513284
338,9.816578513631584e-05,0.007416003763489059,-0.01734747209707549,0.0009476812491003302,-0.005860383510844165
339,-0.02022816782449294,-0.016119697965622792,-0.036856957184713456,-0.00732245154323484,-0.02174651218426384
340,-0.03085982706720614,-0.027988584929107937,-0.04424265159152287,-0.008374918650191914,-0.024334865087360814
341,-0.030829268552910998,-0.028065540347920793,-0.03961860312154923,-0.0035498266694171557,-0.017017551483178874
342,-0.024841324465964928,-0.02191725584056083,-0.029156207910159878,0.0015144423629934144,-0.008006876347067697
343,-0.01585954052692184,-0.01241448108084072,-0.016057424377031716,0.0050894102359424955,0.00021789081677903464
344,-0.006153880361854486,-0.0016206443297062173,-0.003264408406224093,0.007552490572132169,0.0069008989419882235
345,8.30329228630118e-05,0.0067307591736778145,0.005817586961347904,0.007417624144037005,0.009926692611627767
346,-0.0012677793514149149,0.00798085042627276,0.007058450999496462,0.0028646306229440956,0.0065262243092232995
347,-0.008523301415157943,0.003455987906653386,0.0016719195652587825,-0.004227228403619791,-0.0004299306997450356
348,-0.015074621922390974,-0.0010376716856997051,-0.0036411815239920492,-0.00953323104166901,-0.004611481701150599
349,-0.01692682838302371,-0.00245751335513659,-0.0038395749439027378,-0.010899133848255983,-0.0036774880485621977
350,-0.01656780961394906,-0.0032233979857086235,-0.001275991538566493,-0.010313589877979394,-0.0010908441174490296
351,-0.01840204541746264,-0.006561603564143281,-0.000925719229934112,-0.010493877517316223,-0.00022714064673019722
352,-0.024753260195450235,-0.014073100497627172,-0.004783726517368057,-0.012215193770066846,-0.0022078135228716
353,-0.03240775774691463,-0.023066635827319108,-0.009308249046271143,-0.013654702348512616,-0.004559762565784172
354,-0.03528653288401408,-0.027825129185337746,-0.007994876203648181,-0.012557093353562178,-0.0028024176360492126
355,-0.03369800032691546,-0.02908770719937267,-0.0018350406785245647,-0.010456613095710216,0.0009989806877572808
356,-0.02984159911637195,-0.029372616310689315,0.0017887173590171001,-0.008605343220110076,1.3684369086591547e-05
357,-0.022528851370332642,-0.025317967680621743,0.006712080556472669,-0.005017329538919892,0.0002892315509614883
358,-0.015461670720713335,-0.019264977858031766,0.011078930231039568,-0.0012141491118021308,0.0011948661812131605
359,-0.012182574852132082,-0.01580707239465329,0.009435302956755027,0.0011506588206417522,-0.002534985707825939
360,-0.0088821334127093,-0.011753601992747761,0.008686262593998849,0.005659290110788619,-0.003101827746503903
361,-0.005020118970114639,-0.0063355069158710035,0.00933541222838728,0.012055095662376884,0.00033524601537350106
362,-0.002730313655776855,-0.0012447992684015523,0.007738582205817011,0.015501232478528871,0.003329958562010642
363,-0.0011571337951627133,0.004205695597993668,0.004915325837190307,0.014079107195034262,0.004369329211056321
364,-0.0007525483078879926,0.008578624553597812,0.0022199439926840142,0.008357289968156463,0.0026196892840180987
365,-0.004701352424642853,0.007218723159654801,-0.005294992872071896,-0.0012154359936594138,-0.006153730588148557
366,-0.01335093668211441,-0.0004632630635734698,-0.01897813207090774,-0.011687913137220878,-0.021352032553271456
367,-0.02003098128603493,-0.006553684377820582,-0.030356870332052872,-0.016760439210783202,-0.03426349999786164
368,-0.01677138463298,-0.0018124490880214671,-0.03128694488489706,-0.012630709333720262,-0.036995379565906115
369,-0.006060175425089253,0.011244469510466641,-0.023743737343013546,-0.003683373871919358,-0.03082700883161408
370,0.0021606173055145244,0.021639587488534093,-0.01824139400820488,0.0018436213350969837,-0.026198797373851425
371,0.008227702713502096,0.029932823860677842,-0.01483406097678239,0.0038700640324313184,-0.023252108003704766
372,0.016198370590646948,0.03942688226353254,-0.0031684536556276675,0.0074239037834217024,-0.011568040621014807
373,0.023341033826812244,0.047425446555116955,0.01028538539721524,0.011712850711004644,0.000713521423135247
374,0.023792045249350014,0.0477972720786464,0.015930896888292728,0.013328657870116195,0.004368401065899444
375,0.018444340608076523,0.04076232328599586,0.01586154892816984,0.012621752556792565,0.0045400645450596995
376,0.013515825151706278,0.03172875100938432,0.012024562670824452,0.010936829926220902,0.0033708407193440725
377,0.010346952520517658,0.0198536339755916,0.006312463788909368,0.008777905376110721,0.00021679552273287244
378,0.008561187536294682,0.008023085696578952,0.0031773266666095578,0.007994038755928768,-0.002420268270067393
379,0.006864810727672837,0.001108614201945624,0.004434952940198219,0.008603840570723288,-0.0029640702560937322
380,0.0034399556538807314,-0.0010846492772249958,0.0048818206074632674,0.007970325767207275,-0.005822723632212583
381,-0.001210236888848979,-0.0017035917740594161,0.004365267062539255,0.005657840587723601,-0.009646251681504976
382,-0.0034998431737234513,4.8331064542707315e-06,0.007059553665310247,0.004005969151368026,-0.00910905218032672
383,-0.0018136782567960345,0.0048891965373991505,0.014131657286587083,0.0045775706678492945,-0.0027958085394707544
384,-0.0008139383910538362,0.005879047815911548,0.02142116198844979,0.006828942069842284,0.007011265015322296
385,-0.0026189913235178347,0.0025248895986942545,0.026844984385858278,0.009559145462535142,0.013194377220607286
386,-0.009542041730465807,-0.007642369068213502,0.024655586568541377,0.010991194305736801,0.012201146997770383
387,-0.017065688023719047,-0.01923198602320904,0.0200554908206995,0.011049198109761014,0.010227703512400824
388,-0.014306392918385404,-0.017064569647711074,0.019293582554496615,0.01159139145011879,0.012506446605348082
389,-0.006169161822189774,-0.010079081539699343,0.022114234294736922,0.012680345380362217,0.01665863929933766
390,-0.00029023818576253443,-0.008222589291496713,0.023846963395169174,0.012811774761566162,0.01844958173634498
391,0.004786302010798866,-0.006592356959564929,0.023472092292967157,0.011862557915249393,0.019656031764387433
392,0.01021772164107654,-0.003519477070479256,0.02531527393142447,0.011667539152140563,0.025840445682028985
393,0.016655242399741206,0.0034556663195688367,0.02849569163904511,0.011983393731338584,0.03343635960318124
394,0.020448821141884118,0.009495931834205556,0.027223047972366306,0.010272320741171735,0.03286668833044793
395,0.019118007565135983,0.009278613634462874,0.019633656179185475,0.005276080091689629,0.021645018570988092
396,0.01314222154181396,0.0014380251094669835,0.009501049171835151,-0.0016558056378363948,0.0062267119947236734
397,0.011109315813345146,-0.0021837577185615433,0.0042663688035024855,-0.005628559893381287,-0.0036870681482471046
398,0.017536334906976068,0.00463744348337437,0.007383240440781401,-0.00401847932185013,-0.0036779258827427334
399,0.025114943293763438,0.012653639974216419,0.011786161284210584,-0.001246026111371186,-0.0005935021484626383
400,0.02963798715305316,0.01833046932768576,0.01128337681887361,-0.000936936230918807,-0.001269784818197673
401,0.030327882575563393,0.020503787222017667,0.006971844827649503,-0.002563658874755067,-0.005591738748027207
402,0.026056388375656936,0.016616959521957107,-0.0008834299962848656,-0.006229417687138391,-0.014549412904742777
403,0.02022978257436398,0.010223758044773613,-0.009659189841615975,-0.010498965840122314,-0.02553366934805307
404,0.013937942179381976,0.001556568626752633,-0.014209913808945835,-0.011692840671827591,-0.031280673208628935
405,0.010308918550358535,-0.004900170589446019,-0.01453972399232271,-0.009610719199512237,-0.03160021909844871
406,0.008463754468752319,-0.009567864176919554,-0.014395553370829563,-0.005973723604815117,-0.030957003965414058
407,0.006505920863683311,-0.01471598524991051,-0.014393644034003596,-0.00017619114185431383,-0.029968391507837755
408,0.008280239411511908,-0.014758744942911744,-0.011545091170670792,0.008063269922265776,-0.026667220351148446
409,0.011558455011448344,-0.012052710613318557,-0.006258692134420018,0.015576674584464609,-0.022209817013006304
410,0.012025137305522767,-0.011993090541467018,-0.002445664862252158,0.018628901649125104,-0.020501485170775435
411,0.00849527423024971,-0.016832089815557363,-0.0028209271399885164,0.016619615411093462,-0.022782195093417747
412,0.0062530186292311584,-0.020687764888015804,-0.004589968775290844,0.012823826984018539,-0.023536255313542486
413,0.008315834980330972,-0.01978826666698149,-0.00344313270754315,0.011097997274706568,-0.016659089905986958
414,0.013985491128387977,-0.014685210000237018,0.0014717362468077728,0.012222331832233408,-0.0037245469908674307
415,0.020767598310999388,-0.008223123232807163,0.007898001257454063,0.014456487058050322,0.008703865211281085
416,0.0237639042820495,-0.005680839302571277,0.012367210106947428,0.015471661285322458,0.015685208347719554
417,0.02347418566173815,-0.005192896085899006,0.014217007496186014,0.014515702766451439,0.017405569865351186
418,0.02106880889414387,-0.004943594518050675,0.012865926511602415,0.012013256569929695,0.015449913366273658
419,0.01836825511746489,-0.0036863724239152035,0.010203590017831745,0.010411186617017364,0.013823963443039522
420,0.022742584066062766,0.0037585491239155674,0.013613721215994872,0.013628639945728774,0.019199854733237643
421,0.031701541914568435,0.01442780431174613,0.021856640804800865,0.019525498791678714,0.028506436497617707
422,0.03616084346253512,0.01881305119841723,0.026049954499505115,0.021598425167010323,0.031493744768707754
423,0.033037040515625636,0.013243900451555431,0.02177235289856857,0.01748225458069686,0.024379145841707153
424,0.022929727176633156,0.0005161382390011949,0.009789124166198062,0.008981520376180286,0.010297688949302325
425,0.010035351746086805,-0.013477635759961991,-0.0046204362179881175,-0.0006932141984861083,-0.005082247027226568
426,-7.689084113291154e-05,-0.023098400735997195,-0.015328228259780616,-0.008034458527952816,-0.01650667984258336
427,-0.0038501730667347637,-0.025148723891949516,-0.019310980403358734,-0.010609875333446503,-0.02036041411613569
428,-0.005362256481494208,-0.02412310439563659,-0.021312398676428142,-0.010036266123702519,-0.02010613326898176
429,-0.007144570228565684,-0.023809934108845916,-0.023862233262572273,-0.007704813354169524,-0.019606346809284116
430,-0.004101504909902425,-0.019054944113383866,-0.020365330659287625,-0.0009437968573643413,-0.014431485263443827
431,0.003195994012598534,-0.010234861229328892,-0.011416647490543903,0.00933075737490764,-0.0058388024241529165
432,0.008477149245003692,-0.004109326958473415,-0.005105630118032571,0.017407612031087892,-0.00069568419350844
433,0.009720503298495798,-0.002116398495663019,-0.003327507917244361,0.019567101094477908,0.0015913152082829515
434,0.007533767508048103,-0.004230384322259378,-0.005221990946638636,0.01511913642283391,0.002677534998438522
435,0.001021938386265869,-0.012639218470884622,-0.012851507394192864,0.0052931471276555335,-0.0009814550951618274
436,-0.005366080289504687,-0.021455747399841404,-0.021549457218322583,-0.0038561276362707843,-0.007727734860690625
437,-0.00520902761449616,-0.023653436776546216,-0.023358732414495344,-0.006809048055440011,-0.009294073400400418
438,-0.003076699103103679,-0.023401148511082704,-0.023062018871553878,-0.007712804191720244,-0.00949558801355429
439,-0.00547440864264592,-0.026322770151358123,-0.02787300669999588,-0.011845662512378586,-0.015797697118294107
440,-0.008768998353097971,-0.029694764556129176,-0.03316688574651703,-0.016943524992165733,-0.02270171425763111
441,-0.007991069475533439,-0.02925131113477616,-0.03269603264801489,-0.019836075336393824,-0.02423392779741229
442,-0.00437177754491975,-0.026171905127713443,-0.027650078823640928,-0.020608264917316106,-0.021927002566915585
443,-0.0013821355686295714,-0.024013422564598774,-0.022819986397309998,-0.020063182395811195,-0.020091835101975153
444,0.002380793577634088,-0.021802649021005358,-0.01737588182938528,-0.016625917456731854,-0.01710730935259153
445,0.009338534363278406,-0.015943563522324053,-0.007876004593251894,-0.009702374742769502,-0.010373645909458624
446,0.015231963856021258,-0.009680038150801125,0.0012368489164114118,-0.003698917267174313,-0.004600381606723129
447,0.01805585849925719,-0.0056842690963393346,0.006712419124874732,-0.0003900815226956253,-0.001277448805601664
448,0.01947599686352463,-0.001866753772179218,0.010232364429560431,0.0029409055948949737,0.00017540161175180904
449,0.025336459986922678,0.002946724755359893,0.017939663401315486,0.008011922933341123,0.007785196092924346
450,0.032669316079119,0.008455882207315088,0.027897578201572976,0.014715686860108991,0.017271280482757466
451,0.035232925245464244,0.008367576106062933,0.033303183579345384,0.018880192882559106,0.02044914522533209
452,0.028892067324778656,-0.001950154627493006,0.02867702704049141,0.016605458565310267,0.014921227643468883
453,0.019571231712320506,-0.014931169389877472,0.01993242090142898,0.010928929813534844,0.005352136250135476
454,0.012949652694816306,-0.022717484924936863,0.013548253547580812,0.005518005604440391,-0.002027978402052933
455,0.007360024516128859,-0.026544053498981868,0.008344102361496181,-8.21513990256996e-05,-0.00582294922456303
456,0.0013113396423322082,-0.028928082358288996,0.0033885567244333723,-0.005676013198654664,-0.008625941218384822
457,-0.0040693897379723174,-0.029889351373459973,-9.761360624205543e-05,-0.00979697253747454,-0.00848583381963753
458,-0.006402160873480441,-0.027476593155272164,-0.0006041750423353823,-0.0116647789915554,-0.002455398596842661
459,-0.0040989399520922325,-0.020814065895366347,0.0023334605992483847,-0.011543247397654978,0.008200754284108632
460,-0.00024056637363676874,-0.014276108451297419,0.005164586959819226,-0.011376872711895166,0.01529167812413321
461,0.002610515718390626,-0.010436773848465516,0.006066857375929836,-0.011934931662565854,0.01694705081233922
462,0.003742231532943194,-0.008945846468351169,0.005032349210562037,-0.012939280695996229,0.015432061294002989
463,0.003129274473339612,-0.009250264355205522,0.002626156269476457,-0.013592180251271407,0.01236313551526161
464,0.001544866211775175,-0.010239261978666257,0.00042739300595016227,-0.012951668048724864,0.010331171871824595
465,-0.003604999725814445,-0.014816214321697068,-0.004792769638811446,-0.013486775915922984,0.004695388448358283
466,-0.011497188475458187,-0.02344431502250688,-0.013426294705799275,-0.016129976398359627,-0.005434548101945069
467,-0.015000334681186686,-0.029715394005904713,-0.01809294966190559,-0.017464267277281464,-0.010671953641041542
468,-0.011995900137723229,-0.029930986410098087,-0.015348275661700796,-0.015491855308128905,-0.010289481590445385
469,-0.005962863725709045,-0.025892547074632715,-0.007808054086957832,-0.010706660777623563,-0.003063695735668295
470,0.0004503838869518937,-0.01932085577129238,0.0015045802019347742,-0.0037644533132088643,0.008996233738683823
471,0.005671255671985572,-0.012165203254406272,0.009616623544593925,0.0036998742576991386,0.018731777851709562
472,0.007730992401682587,-0.008633469576587753,0.013265036286030206,0.008532307617284948,0.02269883089418567
473,0.005333705952952892,-0.011027759893860838,0.010643542758722112,0.008825247964761902,0.017244978659512758
474,0.00026416470970647425,-0.016546144018267643,0.004094222383980686,0.005787628352378667,0.005513594885474273
475,-0.0028677325547174495,-0.01867089142955004,0.0003003311491848052,0.0031669934532013743,-0.003473410988675039
476,-0.0012598230644791715,-0.014090388469258187,0.0035739913139713852,0.003510733491356547,-0.0028058099997416504
477,0.0016861488640940306,-0.007263567036762592,0.009683188442928906,0.005867780362948256,0.001982445666902166
478,0.005600144436537348,0.0002615848992544367,0.017190111678837463,0.01197608664850369,0.008614900175928478
479,0.013418347697686525,0.010900399655313829,0.028676787043574084,0.023876884979664902,0.019983121242979688
480,0.02020413164724622,0.019691382721977457,0.03825026671294525,0.034812986605250715,0.027441177688346516
481,0.019958867569102094,0.02080659039856938,0.03904866654557317,0.03690808643138021,0.023620704148532942
482,0.0142911296557953,0.01673633093454829,0.03290324381631486,0.031225987463914615,0.010936957742094099
483,0.009295888725389308,0.014187818055769259,0.027304404578881256,0.024769922314693854,-0.002629482905402267
484,0.007434289068187863,0.014343753372493705,0.025877586596181983,0.021293204534501006,-0.006431635915966892
485,0.006798750049927807,0.014438628958458707,0.026159030583293948,0.020249685814309634,-0.005711622150752458
486,0.0071850764583029055,0.013459880197489664,0.02654831285417863,0.021053522996947103,-0.004823704666804155
487,0.008083235825721747,0.010352794821688632,0.026105187330419846,0.02254270461001729,-0.003199435851171243
488,0.008413861065245111,0.005939003195010146,0.02463889670489667,0.02338567002815278,-0.0038553675737736932
489,0.00797670329970177,0.0015618284234264264,0.02263346176720826,0.022510112739008173,-0.00410576542861502
490,0.006305782222667796,-0.0031061210199024086,0.01960010135612875,0.019827277361032,-0.003132433073653353
491,0.005228237861639772,-0.005644503209298917,0.017543375808081907,0.017483031335907152,-0.000779166151853127
492,0.005866800638572102,-0.00425728613182445,0.017667781891536116,0.01621590378707135,0.0008825381332760256
493,0.005254822670172455,-0.003472266749348186,0.01638952475871942,0.013745217601107435,0.0003973710545299433
494,0.0007658623040814607,-0.007385322228942298,0.010792031709025277,0.009471642100859967,-0.003204749407966885
495,-0.0051986368025757415,-0.013158696169321422,0.0038815461993963922,0.006035214688684128,-0.006719433712583053
496,-0.008657046791470955,-0.01663787209767301,0.000126105940589464,0.005143669501611487,-0.004204956608306656
497,-0.008997516543326867,-0.017354534026475216,6.589748118051559e-06,0.006316108404910383,0.001416552409104703
498,-0.00488462808974267,-0.013459292473204253,0.004919196689893301,0.010366682932649094,0.009714190941607944
499,0.0025602076523089695,-0.005736062868032257,0.01316266830788096,0.01589050746109324,0.02099841776668272
500,0.008741763212259007,0.0012232237610414996,0.01900935604784325,0.018837011025093716,0.025721633850076798
501,0.014280617103450704,0.008750334476431636,0.023907669117702358,0.019833410079762366,0.028425497475474657
502,0.023149189303334216,0.02105881278764927,0.03358675332721028,0.022579448315643007,0.036648611831082444
503,0.035566958934364436,0.03683034020316394,0.047925049451631216,0.027588766466023033,0.0488070617424026
504,0.04358109519724705,0.04550147583141134,0.05662915853037051,0.02973359699992105,0.057496064801669904
505,0.03888894670229394,0.03782939644288302,0.05008314231020943,0.025290955144990326,0.05060889635372787
506,0.02564474571315904,0.020243536838151607,0.0337479322390076,0.018961182668482582,0.03136022869411642
507,0.013998413485675789,0.005855791482833109,0.019863040402694675,0.016519669340979204,0.012757271092759875
508,0.006723052713561601,-0.0019306994700222645,0.011603619859898872,0.016979128996915196,0.0007139973777689822
509,0.003323601686185209,-0.004931470816044653,0.007413020476657974,0.017856334865947447,-0.006990996290509096
510,0.006876973679320284,-0.0008912543420796687,0.009813325293941562,0.02062520882622302,-0.0071407409335922725
511,0.015958456477400476,0.00854850626217255,0.017291460373491913,0.025230148661387865,0.0004172195658463518
512,0.023038945954677433,0.014903618076287324,0.02211212009557101,0.027919859297525374,0.003768132346094351
513,0.02458319975514447,0.013745702965535966,0.020932689326739872,0.026708145956789848,0.00442125081931837
514,0.022955462616179766,0.008193042793544606,0.016689363221083633,0.023172577446950237,0.0038726220353596974
515,0.02031496965708262,0.002048514604290875,0.011922240959431495,0.019305695713684855,0.0017224193978576977
516,0.015351162993783782,-0.005196487926962594,0.005781753230489219,0.014761014894907037,-0.004963119807858531
517,0.008656772931849598,-0.01259325805918551,-0.00043166881073168335,0.01022852176257645,-0.014890784300084881
518,0.004466517120170221,-0.015283771744930176,-0.0026054025852029956,0.008934206583210718,-0.021809933909772553
519,0.004402574696387025,-0.01182499298795114,-0.00030535941366091835,0.011681169946670069,-0.023368396017918017
520,0.009957997048254227,-0.001376901786000306,0.0074742873129379096,0.01782362040502044,-0.018356404789233442
521,0.021446725430383045,0.016034601893573773,0.02166883764036357,0.026267751943551746,-0.006010563339672235
522,0.03225387174740114,0.03303403617691761,0.03555047953283509,0.033192511725909354,0.006824389652535921
523,0.036177563515567966,0.0421529829981896,0.04178638708836643,0.035863968604101494,0.012585861053744945
524,0.03465295230430252,0.04385341159597682,0.04111896346903086,0.03575682513044929,0.018618683930056727
525,0.03288965021605621,0.043088191560373364,0.03942044105938038,0.035764923908650215,0.025915064769125827
526,0.03252174330384925,0.04154879446065042,0.03969269389219269,0.036954342312904044,0.033010545050528244
527,0.02971902468698367,0.035524311773815424,0.0382325020478823,0.03716922122143461,0.037617499297350164
528,0.019233147828704788,0.020466821666314576,0.028438705208809457,0.031544268105283754,0.030686320139537135
529,0.0019753829564675275,-0.0012527132945897123,0.010248525968259795,0.01881788728910216,0.01579943683671168
530,-0.012077416456396171,-0.01829914767499105,-0.006050579955530436,0.00575659734384795,0.006432339821474024
531,-0.01596726309879498,-0.02347921478074807,-0.012604113953373318,-0.0012100770778209872,0.009959187083020451
532,-0.012618024978687968,-0.020004776622381475,-0.01179663230470539,-0.0013969046210120161,0.011865341666043461
533,-0.005850591724393642,-0.01261222128578404,-0.005996313349412023,0.0032465553787813335,0.014439062771817425
534,-0.0010757581979732981,-0.007245732684026307,-0.0008531178843678348,0.00849567624141257,0.015627521166169542
535,-0.0028264590422668974,-0.00877161845257337,-0.00264156318955612,0.010977091357435647,0.006742769094285516
536,-0.00904354460239634,-0.014972810964849407,-0.009410274258173335,0.011054686362499138,-0.002503364486614042
537,-0.014431306029419635,-0.0193472817854996,-0.015298489458890998,0.01090569159044613,-0.009606097663580239
538,-0.01421656331505655,-0.016612256049076256,-0.014621486896940764,0.012631431833382436,-0.01274073534529298
539,-0.0070566150099316315,-0.005903005127549804,-0.005565863996805207,0.017551818759048123,-0.008130356350625886
540,0.006933394753817648,0.010897168088779129,0.009960807850067506,0.02613138899851909,0.007433816960949399
541,0.026292990270369507,0.030296788978543564,0.027066622578030455,0.03677293035162395,0.027497401736456536
542,0.042496699638933724,0.04450253022902591,0.037825522412708104,0.04406037225050743,0.042297884267733524
543,0.044368521665049926,0.04491233728600241,0.0346370311961972,0.04269415449252822,0.04352962343840836
544,0.033470399961561884,0.03396448123852196,0.02053007775657432,0.03572095789231919,0.02974968097750928
545,0.021671566864039683,0.022172351621379385,0.007347419393009055,0.031096028747383264,0.013719910093120121
546,0.014858248890931899,0.013870276141721576,-0.0002907813092905015,0.0304299001368657,0.0018988152509893186
547,0.00845910924321029,0.004418895375946289,-0.008972694410974034,0.027928997593034525,-0.011845221749910522
548,0.0020600080275947194,-0.005960688291611092,-0.0178351814052246,0.02127749332376695,-0.024540746689276336
549,-0.0009291630300049064,-0.011450625710382661,-0.022779753098062724,0.015265882388183686,-0.030586541324763402
550,0.002374341044490329,-0.00881114287281019,-0.020844286821025123,0.013050576214488354,-0.02702825669225596
551,0.009617711918194258,-0.0017461197023857788,-0.013814631864522356,0.01279580112895327,-0.016777800507344467
552,0.011723890983211928,-0.0002555810394755815,-0.012193210653491758,0.010913626753407023,-0.012694258739437771
553,0.008429287331425133,-0.004778320618127356,-0.016025169548494905,0.00756017456246124,-0.01629451419687961
554,0.006725519633818757,-0.006944961603082392,-0.016842678873498863,0.005229063752035216,-0.018324239458821875
555,0.009157417463392374,-0.003525560321765957,-0.011876680838640585,0.004038403991632706,-0.01440441352002408
556,0.012805731089343918,0.0018413956292829116,-0.0056957537070730585,0.003528680128232918,-0.008317810633165697
557,0.013539609962897419,0.0036982161546849817,-0.0030366067106302325,0.002314769095418289,-0.004780393204679282
558,0.009510497562520752,-0.0006514207012391731,-0.005911680125656088,-0.0007612978735766405,-0.007164248422755473
559,0.0010848002614210134,-0.010715910118473605,-0.014189614781756014,-0.006323452349156251,-0.017098557991003845
560,-0.010618156759842165,-0.024422309313465698,-0.025893716738943206,-0.015514665872958765,-0.03202888820356364
561,-0.02139312562301807,-0.03651816468332053,-0.036860102277887,-0.02600583970634268,-0.04532375279823815
562,-0.025477424452352005,-0.04125717483541873,-0.04189720579084512,-0.033079874550641854,-0.050030760308364626
563,-0.019903871595384356,-0.03646978395934949,-0.037883413570725916,-0.033649647590016186,-0.04364959223965079
564,-0.011126186751097082,-0.02817171902434826,-0.031030537351320532,-0.027910205746051724,-0.0336368272043958
565,0.00014617428481048094,-0.017548449151656535,-0.021230556057034552,-0.018145540292891373,-0.020812067091049345
566,0.014019439803325838,-0.003978237716934216,-0.007923354058567266,-0.006732388769139445,-0.003466415102506504
567,0.023293244947399146,0.005789114011083073,0.0011095444684772894,0.0016714341577567628,0.011128274329588694
568,0.02446432331974371,0.007388054111871861,0.0023178670345696327,0.003111338112504503,0.017046668373646875
569,0.01981732218883027,0.003582538560152786,-0.0013510708746614988,0.000740278886580188,0.015684214758007672
570,0.01435726365161011,-0.0007338831478248415,-0.005055167924370616,0.00024620429705435613,0.011127654494344063
571,0.0077688672410973734,-0.007344267578542812,-0.011146856919193744,0.0019272279539667722,0.0003573818020131891
572,0.0016831968236718086,-0.015193999377014369,-0.018482375589435964,0.003975777667571113,-0.013895147605997483
573,0.0002733155714857748,-0.018941680563566415,-0.021259763273760664,0.0073380392032831535,-0.022025433233668696
574,0.00318778132559153,-0.017891077441050462,-0.01839958883250822,0.01111624909675942,-0.02192940775459592
575,0.0073299880082339655,-0.014385005298978409,-0.012851385161869653,0.013461772933603507,-0.01800524073586073
576,0.009639110423642485,-0.011770248739533265,-0.008947049525213253,0.015552779409872746,-0.014899111744092483
577,0.014532640616873196,-0.005966166282471481,-0.0027952985045420413,0.016947228464341296,-0.009324848506532786
578,0.01787681206625662,-0.0019321132044692849,0.0015548435578529645,0.017306402913015474,-0.0048567222427062665
579,0.01841655329761252,-0.0007306604076057191,0.002962082757704551,0.01758348094618916,-0.0027492656498877095
580,0.01920802050895981,-7.86501111492158e-05,0.004786926233208058,0.016316924436397966,-0.0003443877528297822
581,0.017084215603608115,-0.0027585757033799104,0.003532019340845683,0.012887073701464623,-0.001381080490452716
582,0.01288989084639099,-0.007312552162757801,0.00020149038834447116,0.008690886135969229,-0.0037519274185979106
583,0.010697232671863129,-0.009352749274288004,-0.0009804141178900536,0.004681431330007979,-0.002524181043766189
584,0.007525577837504791,-0.011238574954672275,-0.0034933891076520877,0.000926784568000401,-0.0019455991325364166
585,0.005590026928448582,-0.01181888930417289,-0.005456276078160094,-0.0019199945735438992,-0.0009497185873108489
586,0.009514461603886698,-0.00805661306364063,-0.0017587067986010038,-0.0020956279581812094,0.004945714126240354
587,0.020123118955266875,0.00037671447437859467,0.009068689484646552,0.0006129571282828521,0.016995396282743477
588,0.03271818673918386,0.010162054204157408,0.020147598688173528,0.0042632133569419995,0.028671714536175168
589,0.0458255050821836,0.02162140163503021,0.031255337230885714,0.007293761473585622,0.0400684132772446
590,0.054590302510585775,0.03024711733512957,0.038291393440962274,0.007515937451730924,0.046648108642525575
591,0.052268580148060476,0.028540711257531805,0.033526357536532186,0.003899045202169492,0.040351370422985644
592,0.04209598581249655,0.018865263138947923,0.02530760094279832,-0.0014443952482094224,0.030536359703597714
593,0.027670332269340334,0.004549260937360494,0.014745506081008743,-0.008880467745620842,0.020545086471669752
594,0.011676348217484148,-0.011501364093267045,0.0005485361928286135,-0.020679017214992032,0.010180731447295345
595,-0.002409228757508581,-0.025471041265172214,-0.012902884762702795,-0.03584973653242775,0.0026907124625800867
596,-0.017056574344948897,-0.03963942603018646,-0.024470448416776532,-0.05067237777969443,-0.009435443079919963
597,-0.028583373411166627,-0.05042263957794407,-0.030273070362606062,-0.06154622423193413,-0.020450840076826925
598,-0.03413258208168759,-0.055287864989007486,-0.02705218553748294,-0.06650049929704438,-0.023867802880848752
599,-0.03723129795808145,-0.05793065759054857,-0.01776544391269265,-0.06621967909546272,-0.023898842934254753
600,-0.03827300757685685,-0.0584977284173664,-0.01437521504328968,-0.06365782060579267,-0.027633207399187513
601,-0.036373235230231366,-0.05544246082216119,-0.011697998773177431,-0.06042979472126333,-0.030941655048770087
602,-0.030923698493504143,-0.04867504196366678,-0.0036113543842097536,-0.05612334061530906,-0.0299975888115647
603,-0.024108935042061363,-0.04115319878718681,0.004508028334017751,-0.05080212554574686,-0.028843843171922696
604,-0.017593238415585903,-0.03424086851434649,0.007593750456301867,-0.04599367321524579,-0.019256873856520293
605,-0.014519508624702724,-0.030915019231963627,0.005604234069627274,-0.04318432786409864,-0.011241016780110774
606,-0.01069638876154787,-0.026837548528544423,0.0032939306778804927,-0.039235221227862584,-0.007128252243148527
607,0.0015095093744989154,-0.015287654326408768,0.005191650382447081,-0.03060070558952785,0.0031498624211856166
608,0.017255714390582887,-0.0029622947090472552,0.011242723354281824,-0.020628660822313745,0.013092045777987752
609,0.027361102079422016,0.0028843327988917703,0.011506290904594567,-0.014353954162666426,0.017566613673881036
610,0.02644813594544048,0.0011376638830183955,0.002262828502478114,-0.013544716343734652,0.01662163923739232
611,0.017218460457756664,-0.0051101003682998535,-0.011146960532029997,-0.01643203034036381,0.012427226002946486
612,0.007165337322724319,-0.008816823956195548,-0.015172513132710811,-0.01946752612591653,0.00701989012261518
613,0.0016949171033294479,-0.007439391598939617,-0.011605585617020379,-0.02045407366097923,0.005988647152332388
614,0.0011861085335709736,-0.001549037513462405,-0.004213699447302856,-0.017965731445275922,0.010080663285218764
615,0.00102908205973126,0.004365263896231991,0.004499392510591537,-0.012951966416394822,0.011555072982913752
616,-0.004093705728058167,0.002528292888725004,0.003709973430194831,-0.010359183177093226,0.006136803014027801
617,-0.0133227554570843,-0.0056272509733183585,-0.003075388984809815,-0.012581684372748793,-0.005615617699346789
618,-0.020703801576529967,-0.012397449230429968,-0.006654837778781883,-0.01683160083974035,-0.01644858392370572
619,-0.021606384513424056,-0.012218713231439355,-0.0036589859600533185,-0.01887835849643626,-0.018687728754823666
620,-0.016669993736887965,-0.0061078797686841034,-0.0014894055110446973,-0.01757654122576919,-0.015086996307368266
621,-0.013009475692191212,-0.0011652375489708247,-0.002990969234702581,-0.016882832193896358,-0.012540668200315946
622,-0.014686969200791645,-0.0015012615244604888,-0.008608117675045266,-0.01903146409739219,-0.014724979281972219
623,-0.018876787458753173,-0.0037010828482929906,-0.01689663974762911,-0.021712323869807166,-0.019349366000355965
624,-0.02298823424081967,-0.003499049871105729,-0.021010515198465276,-0.02304435399766921,-0.02185626408371046
625,-0.027653340814204265,-0.0027754442664031202,-0.02449326067937981,-0.023487879072987505,-0.02436608575292743
626,-0.031631115452951525,-0.0021134473930079054,-0.028870109528910327,-0.02215774093346907,-0.02708090673934767
627,-0.03283328708216114,0.0008658092040370745,-0.030357527254371516,-0.017883086942365574,-0.027134852456836944
628,-0.02593591635360347,0.007431998115419089,-0.022701960773770416,-0.01211406732571233,-0.019660549875499242
629,-0.015585854094465437,0.01464169196305627,-0.012241396757138678,-0.007181685595096241,-0.009557506888465834
630,-0.008575630233308899,0.017841467321871272,-0.0060898179995246835,-0.0056565336275068755,-0.0023846211281695006
631,-0.0040759938438245736,0.018216487265135906,-0.001818485605486627,-0.0068497842842825864,0.005892005671584735
632,-0.0012033401936779294,0.019888202348888457,0.0016586594495845146,-0.007178020221258212,0.01637518255410727
633,0.0026914394490780355,0.023442710696625246,0.007560801896739645,-0.005532716266949149,0.028163582098715837
634,0.006700888544618594,0.025268388281015193,0.014315476478143687,-0.003756721594057922,0.03640752717657476
635,0.005404766006818891,0.01910402860569639,0.013852580712529176,-0.00586649551821589,0.032487585296644604
636,-0.0040821243352193734,0.003911206039730163,0.001447850798613026,-0.013636072978434296,0.01506906836640555
637,-0.011349716889195985,-0.008899658046683266,-0.0111157264709465,-0.0221741293393285,-0.0022149335989668905
638,-0.010708931209546869,-0.012203486451209262,-0.015911487286071665,-0.02764386804556926,-0.010572247257471436
639,-0.007903682666806163,-0.011005156003235476,-0.01761683497218532,-0.031140567144849852,-0.01420680782334313
640,-0.003768929214769782,-0.008862338273947452,-0.016007513767527324,-0.03241285732414432,-0.016550933280229285
641,0.00027241822733354697,-0.007531308908584876,-0.012724757880319479,-0.03001136984140315,-0.015746818041327423
642,0.005196715098924517,-0.004992735336319007,-0.0067027689561315815,-0.025834957872484347,-0.011548707295782177
643,0.011999072044762936,-3.7766144645108205e-05,0.002671309020107841,-0.023302987135656393,-0.0022211737994661377
644,0.014811992710815817,0.0035104935522641384,0.008039429468258424,-0.023191781954689843,0.003408123426417951
645,0.016578575681362364,0.0070996859411879415,0.012392697998263813,-0.02342732216838137,0.007837654279373467
646,0.01988693385293577,0.013306734542333429,0.019259471725368512,-0.021297835532620046,0.014270011672660477
647,0.019658991554994124,0.018083335923791247,0.0228414863131378,-0.017464326047923945,0.015934173621372363
648,0.015579110664690275,0.018254445405223186,0.021583124122374345,-0.01484734313279489,0.012019752416533016
649,0.00661394457715218,0.011900824270280655,0.013875743693433746,-0.015432880004851175,0.0014443121604124835
650,-0.007855118364811816,-0.001071385511888085,-0.0006309485586614802,-0.020619089244519554,-0.015078003897595348
651,-0.02076917156750447,-0.012412788093175196,-0.013565681766110425,-0.026551071953644083,-0.02825324336560604
652,-0.022080039237111212,-0.011948619183632776,-0.013951683356193782,-0.027547728996285038,-0.027331895270479495
653,-0.01889286335977232,-0.007442978960158209,-0.011240508018260471,-0.026146013034788883,-0.023974475729260338
654,-0.01867028366065495,-0.006629905558812017,-0.01476848434151511,-0.025261057892484562,-0.02791092616198986
655,-0.015592536616023098,-0.0036114504605629545,-0.017729786840352264,-0.02138804809549123,-0.03038053981669856
656,-0.0053592655803425876,0.004365765831097594,-0.015287285828255476,-0.012522394199785658,-0.025999400589620476
657,0.010106648890442457,0.014323001530262083,-0.0077105094125094935,-0.0012152131020239266,-0.01583135661748639
658,0.0225968124695808,0.02190627760726817,-6.713751213545516e-05,0.008999722215236294,-0.006627995899397909
659,0.026990645582156896,0.02478990924113107,0.003310144834407251,0.016435100381900044,-0.004151474848244555
660,0.030117392743213636,0.026473219920844244,0.006860561726651565,0.02153551036578128,-0.0006457113776212335
661,0.03142145298495136,0.026767287264039957,0.010044777199357566,0.024707304340684626,0.0023572857805874686
662,0.028399637644520657,0.02369347323258798,0.01030372514858649,0.02594034521143221,0.0014014829707489661
663,0.023460645872441486,0.01882162771638796,0.009114079881758096,0.02583046841333532,-0.0008915901332874487
664,0.01684163865343393,0.013658982862762275,0.006734159081753805,0.024586770276403068,-0.0054745800623541875
665,0.009667630460514925,0.00760869676787261,0.002098110196578396,0.020626087658300624,-0.00982810549507601
666,0.0024743739978847824,-0.0008391400005317097,-0.0062288334714042035,0.01320261889629243,-0.012569378815704645
667,-0.0014867464627336944,-0.007866428805220654,-0.013900244005715079,0.005846469195702589,-0.012248866197409376
668,-0.0004374940042864514,-0.009512443950320611,-0.016149125086661983,0.00281534980229961,-0.009869145416878645
669,0.0065303224165931305,-0.005381692531229151,-0.011183609042219532,0.005207041064180083,-0.00449665322309887
670,0.016350528899304315,0.001684683161256637,-0.0023746275961075594,0.010819101721757277,0.0031751418816512444
671,0.02162770083760341,0.005956581748435824,0.0026087395011244745,0.014997121231298299,0.008540733716557149
672,0.019671416147633316,0.003867486868372716,0.0003035514818910872,0.014901984851012278,0.010449236682216674
673,0.011825515578220078,-0.00446816729286502,-0.00844048008545764,0.011854765998500895,0.007769349871297457
674,2.191450311058581e-05,-0.01881951741732016,-0.02291485188436852,0.007089083194352071,-0.0009056848925551603
675,-0.009754743080539165,-0.03374776862123581,-0.03659115785496133,0.0037798195812720477,-0.009028608074121182
676,-0.008393922922203643,-0.03316980287022354,-0.03342861381465401,0.009744156759197695,-0.004673178531573637
677,0.00911013111517045,-0.01345605259068684,-0.01032312451465909,0.027172012999781586,0.0169958338890356
678,0.0346362725110904,0.0143411581117911,0.02028992174086721,0.047449262497916006,0.04408379850291711
679,0.0517246362591069,0.03357634505787492,0.04087413529974305,0.05809748646465969,0.0567211533797333
680,0.05131517541244981,0.03192402616246881,0.039657238995084956,0.05356121521623189,0.0472463901850846
681,0.03722653905201339,0.01555856652835059,0.022832323033913634,0.0393273690839606,0.024037109430620592
682,0.021199711510655955,-0.0014166394941628041,0.005167039005327594,0.025467486305043,0.0020278604828377783
683,0.015247548750294642,-0.007162814273558235,-0.0006863843967641257,0.020009470453323012,-0.005953201861417081
684,0.02396184437582229,0.0009070323320723012,0.007834905851083915,0.02391666838599391,0.003960398541847067
685,0.03789529816915305,0.014202499240677692,0.020961117081789497,0.030479547098194087,0.01876582216091583
686,0.04525369605312699,0.021095765245764973,0.02664678677865363,0.03316751043328932,0.024743528320440713
687,0.041681731508977776,0.015891269351336366,0.019939243460923538,0.029976681661334662,0.018833305391830292
688,0.029579269790191636,0.0033653132277794992,0.005148240515735859,0.022286999313029663,0.0045260569560072956
689,0.019928512644385003,-0.004245176578378143,-0.005893487888785359,0.01531853543526321,-0.005293894964338392
690,0.0182547840799456,-0.0024753716468880523,-0.007443412972302473,0.012034933216706015,-0.005273106653974969
691,0.01647065151646874,-0.0010186758966147587,-0.007619889907913454,0.00866415890732844,-0.006641736008848447
692,0.011305665924858278,-0.00584575006663749,-0.01039690534458396,0.003567579824859137,-0.011441879272645738
693,0.008144039220232767,-0.009696523069836439,-0.010614141427267887,0.00019955941270648328,-0.014304865994458531
694,0.007307395894412725,-0.010899865452151039,-0.009369231936404371,-0.0008205332825253293,-0.01486886849978256
695,0.005000772830623325,-0.01412515230490736,-0.011380948387937146,-0.0016871527903004183,-0.015864796497440742
696,0.004418095229910768,-0.015000981775006457,-0.011917442144694772,-0.0008883604013379632,-0.015249239615683958
697,0.008439732745903402,-0.010894843424896867,-0.006468009389110851,0.002745276546474586,-0.009143070820775322
698,0.013619477918923232,-0.006082234298997374,0.0018209161722768474,0.0074652685459758545,-4.6652984981571146e-05
699,0.018717957702026597,-0.0013508044414705966,0.011350888740837358,0.013889972445711092,0.010731997520425796
700,0.020033278476224117,0.0008272932136170974,0.017395499168291906,0.019536527923489314,0.017083523925959847
701,0.013201788410443047,-0.005028692092108569,0.013608065962667462,0.018331971338001695,0.013726110454215594
702,0.0011456844168808932,-0.017420682146059054,0.0019689793952741663,0.009676311952298873,0.0027657810194147672
703,-0.01075968577490697,-0.030573115648357286,-0.011149662862596386,-0.0014623153089051192,-0.01129186542154041
704,-0.01720115936234575,-0.03641687503404152,-0.018659373550835915,-0.009008981855251215,-0.020100536819974854
705,-0.015555958192812457,-0.034581533686573636,-0.01641358086313394,-0.010205676185749383,-0.01863582384948083
706,-0.0062918105019580325,-0.023503184072248794,-0.004220413317501562,-0.005745486929129828,-0.006341054973889377
707,0.006964349448878649,-0.00768051176244585,0.013704267948188827,0.0021536187451947097,0.01196220402766464
708,0.01766895194959764,0.004966867472180007,0.025574581773517527,0.008871220919754884,0.023959269776200737
709,0.022510207450736106,0.009723461620638918,0.027638331209287246,0.010650920341370025,0.026294269710479302
710,0.021031770278629947,0.004068085541624107,0.019032268454614244,0.006244918866639639,0.018998129967477108
711,0.014321743778437479,-0.00901216405606416,0.0027809654255248535,-0.0012087700325680408,0.005329530404317772
712,0.007906187786333292,-0.018814856641793304,-0.0077068386949993755,-0.005093141333867566,-0.0023309894498905605
713,0.0054461062499566795,-0.020498395968193164,-0.008140336710037575,-0.0033297273879830036,-0.00017501209214417998
714,0.007600551950708891,-0.01390965291044797,-0.00023033245608194264,0.0027344363952722895,0.009635293561794881
715,0.012687615928671672,-0.000997865707644458,0.012575092736170893,0.010873073770686997,0.022520932351934687
716,0.013699080411590545,0.008618327721832405,0.02023803287896332,0.014888257958789043,0.02815730437900853
717,0.005300820422244272,0.0061589067626626045,0.012805313189568821,0.009373598899065227,0.018488968020369135
718,-0.0072406891447802275,-0.0034250233563737566,-0.003971804259648113,-0.001941726980491569,0.0013035611145799867
719,-0.01583966025584609,-0.01015456069486331,-0.017779691944589233,-0.010753953057993999,-0.01162876676758237
720,-0.01866743897327882,-0.01148707079250682,-0.025299097238165178,-0.013677520765835952,-0.01825616265746699
721,-0.013571762456968717,-0.005109284558382673,-0.02283299847652815,-0.010701047815992973,-0.013857489984413917
722,-0.0007920588106861523,0.009274765707150296,-0.010328743082962106,-0.004324579028562989,0.002247678286799778
723,0.007873797195314248,0.019490144917731878,-0.0019001356491366416,-0.002555054198577878,0.013003416055383151
724,0.00461290118893878,0.017089208266193447,-0.005096114510358149,-0.009291515914923613,0.00929886089800212
725,-0.00396504231410232,0.00903390467636525,-0.013689127470306256,-0.018922404166763683,-0.0026915163640155552
726,-0.013634776882995806,-0.0009620430988972959,-0.024548171993901698,-0.028028937780629155,-0.01823323217129239
727,-0.023857145303190448,-0.012709475557617875,-0.03655975299711434,-0.036064913432597295,-0.0339358507356681
728,-0.027120295270238275,-0.01737329798313332,-0.0407847077214991,-0.03834001031683697,-0.0403747153705786
729,-0.0191493096427075,-0.009961400509245698,-0.031191712712757044,-0.0326791931292561,-0.0316133661371051
730,-0.007452497370855392,0.0014793449132396168,-0.015798824769843917,-0.0240855545633101,-0.016588054894023162
731,-0.002699553001246954,0.00547534718988685,-0.007491273755322854,-0.018981159938342918,-0.009374318400965666
732,-0.005877056321621946,0.0013318641076561929,-0.009048592804700158,-0.017770730745359044,-0.01276404434739304
733,-0.00936877349515944,-0.0016489989983133385,-0.01172505420782262,-0.016135591642104728,-0.015255419283214281
734,-0.010880534695154343,-0.0005159516589602109,-0.01231540914329616,-0.01354578742795668,-0.011942583444365227
735,-0.013875171070363325,-2.3927938748008937e-05,-0.014218805014627727,-0.012198815365091063,-0.008250372155440997
736,-0.019196925484691423,-0.002094541517517924,-0.017122841180182483,-0.012022165944595806,-0.006259305258273096
737,-0.02397833390092082,-0.004014077799564344,-0.018281518714267492,-0.01211977860998457,-0.0041688151707137975
738,-0.02604976740687416,-0.004061322955857565,-0.016766238761644816,-0.01278988204108413,-0.000774289665023289
739,-0.02578576886862515,-0.0024436573572960757,-0.013487665213741184,-0.013994576453756275,0.004507903756167697
740,-0.025144527000381618,-0.003179620132254276,-0.012345037115899352,-0.015515788228226645,0.004951842828403871
741,-0.02470963528115805,-0.004020642354479495,-0.012133727800184598,-0.016539772456265298,0.003521496199600395
742,-0.02121905097240956,0.00016671136257618796,-0.007892631257240918,-0.013481041896387169,0.006162776522035121
743,-0.014961557268856835,0.0071108413260280575,-0.0014345093081798092,-0.006007496560554779,0.010780560158576926
744,-0.011422564664825018,0.01135689458313048,0.0011801158773774927,0.00016268245604112507,0.014474437235548787
745,-0.012970378510019875,0.008755649512642771,-0.003537439823768112,0.0007910323304113218,0.01138800483229442
746,-0.017456421888757175,0.0010517901918262898,-0.012951087157907125,-0.0036991755895414706,0.001347672011137378
747,-0.02086070449359445,-0.006217488410373541,-0.021225412574610858,-0.010240504297842661,-0.009003078154038297
748,-0.019525020970402367,-0.007362379408030586,-0.02250803208461826,-0.015039259804143548,-0.011219477170780222
749,-0.011469284627834331,-0.0016287124682182591,-0.016112544348612326,-0.015098895173740755,-0.0053438236986517755
750,0.0010132814000064587,0.007831238542364656,-0.0064863762915064425,-0.011033935977479401,0.0026243422017135742
751,0.00982440148421558,0.013816748488310953,-0.0019162695228324344,-0.008366422126394593,0.003656205461448932
752,0.013166747223121849,0.014188860791647447,-0.0034509278795839884,-0.008352485292798867,-0.0033428775961722554
753,0.015878051748031582,0.01388887939210528,-0.004305974508321204,-0.007271056889170851,-0.007899875215552908
754,0.016703253076371116,0.010534771483790282,-0.006366989992184519,-0.005625113225121614,-0.009630149133632433
755,0.01339721793772382,0.001726085957171708,-0.013525576672447597,-0.00521457685874502,-0.014819101329359324
756,0.00730347391197418,-0.00549759545185087,-0.020035215872552928,-0.00615159259069852,-0.018874797228090556
757,-0.002945881391562011,-0.014410809330087291,-0.029546103635790123,-0.011000132211524908,-0.029324061394865635
758,-0.011316430324706086,-0.020644162716256177,-0.03713804167930228,-0.016666153083227633,-0.0398845785075779
759,-0.007462121001797747,-0.012247721819867,-0.02937412221416931,-0.015750995387642647,-0.03263580363605516
760,0.0036377763689322902,0.002839981274667749,-0.013815675827805046,-0.010295033953601105,-0.016622941550340265
761,0.008918786247972791,0.011741629364840231,-0.004110057897969217,-0.006996696410688557,-0.005917200901318607
762,0.003727349759785702,0.010019961229719458,-0.004827511530501678,-0.00741781790042943,-0.005187687119525823
763,-0.007116476846704804,0.0012821918387724677,-0.011756883723330955,-0.008575936584990524,-0.01152961176512217
764,-0.017089576335712973,-0.009131165765238109,-0.01981565548078643,-0.007773562340583773,-0.021603775350693157
765,-0.02274969725971293,-0.015587333990826497,-0.023418061814221465,-0.005165032704875629,-0.028328730320030283
766,-0.022195605901129782,-0.0150472044395657,-0.019236782377388923,-0.002461916617200818,-0.026792232858346636
767,-0.01618521219750785,-0.009024812868656484,-0.008807519508160722,-0.0007743339834235975,-0.018405917913739803
768,-0.01035604100726571,-0.0012786017871900526,0.0033449680980240392,0.0018458050511842188,-0.0064292240812317165
769,-0.006025283292436038,0.004845657325845298,0.013443096862409364,0.0012443996599375159,0.0050233095115897845
770,-0.0017904666787741544,0.011181910077306312,0.02190586118727024,0.0018238025314322014,0.01627997356653866
771,0.0007387526207988264,0.01563558125697168,0.026593502975524225,0.002347276168284813,0.02501684044677523
772,-0.0035224938398267978,0.007017010437059115,0.01550870677488976,-0.0026350780836043555,0.017375985637815065
773,-0.008612698853713616,-0.005211884190898388,0.00010881041102924372,-0.008826898117553737,0.005268842094351022
774,-0.008642459806125718,-0.01075814958075028,-0.008617853919322996,-0.011694498980184662,0.000560241031393829
775,-0.0020388934181810514,-0.008213647708743678,-0.009426857222704269,-0.010567465111038593,0.003563425230478366
776,0.010964430320041716,0.0035773233428237298,0.001043739908894577,-0.004559099815854116,0.01601283794668771
777,0.020889693516380026,0.011014461991722256,0.008832010473210134,0.0005982948855471542,0.02181737811121247
778,0.023412160901548157,0.007558491374815454,0.00607110207515427,0.0027136703891190686,0.013073548989020795
779,0.022975116608180482,-0.0003462597881778727,-0.0010065997054654104,0.004717318254863487,-0.0018751064023030165
780,0.02080475582837109,0.0031635306875530808,0.0021847529078151376,0.00640990325736889,-0.003025655862366985
781,0.011007664139573778,0.0036302037773026327,0.0007275239550010426,0.002224461303252359,-0.004775690503858419
782,-0.003846404996993287,-0.002992949566329624,-0.008313426220933078,-0.006373981578723371,-0.011862809940438014
783,-0.01426905177417839,-0.002746447510456666,-0.009788903733681895,-0.013357026367747955,-0.009605663138645476
784,-0.017678249525209515,-0.0025219120053486727,-0.010237188401395755,-0.01950527372578539,-0.006511245907197448
785,-0.018404181537108256,-0.002891473271149762,-0.0117063490672341,-0.026480402070474945,-0.0044748783559974345
786,-0.02158220418173433,0.0006734377547890596,-0.01103588469263902,-0.03172028048094056,-0.00022852954042730248
787,-0.025790070531409425,0.011359830397817794,-0.004421383186984743,-0.03228935768988793,0.008950327660625819
788,-0.024758930251577223,0.010176470810400169,-0.0010695407624194079,-0.026748195395500246,0.008387312630446583
789,-0.022498950015845252,0.002868296908900991,-0.0006942111590330756,-0.02186808722834073,0.002579843671134293
790,-0.021257102085778034,-0.0037879390194530513,-0.0013347945180526794,-0.0197068310081933,-0.003430529246349133
791,-0.01700517027999132,-0.012416992298327885,-0.0033640299353566543,-0.01627352016792095,-0.010870421869011482
792,-0.010069312497497545,-0.009413305602244437,0.0019324400597832735,-0.012085268128337743,-0.007276799402658657
793,-0.0029378631149433224,-0.004724684585866657,0.007893912884976099,-0.008046530262248382,-0.001637074926538358
794,0.0036103361444616744,-0.007012867557076015,0.009263436619150245,-0.003945280438184082,-0.001467087087801232
795,0.011574207335816204,-0.010287961816965572,0.01135358672443497,0.001595263107288296,-0.001258429764362325
796,0.017296553164965783,-0.0007158593798322017,0.015895404115112286,0.0053971134692742265,0.0057100271168967105
797,0.017885888802454102,0.006453359408873857,0.014728573898608705,0.005157832517673369,0.006935164125319647
798,0.013983112731932784,0.003949416548939615,0.0060139809352599116,0.001157884922792505,-0.0010802278720627274
799,0.006581008198067883,-0.0007593165144730959,-0.006136022988004636,-0.005570063732306946,-0.012254697370722566
800,0.0013929168072813244,-0.01183092118875896,-0.018083554618987138,-0.010050576201017077,-0.026881625599507714
801,0.0030054860386549338,-0.016371427311251935,-0.021595687558452023,-0.008933333302933881,-0.03359492024514586
802,0.008676536613892198,-0.01015212277463883,-0.018147535642846897,-0.004436178440608692,-0.029990670119281932
803,0.013493688173211607,-0.0027423543761657177,-0.01570790709800206,-0.0005257589019238234,-0.023771847811156502
804,0.011362277814351314,-0.006157309455118648,-0.018551645268042948,-0.002245093018060036,-0.02282908685851949
805,0.0051795443008225365,-0.014194859407416409,-0.024976086542185926,-0.006919005184237542,-0.025737455068585744
806,0.005575038216619278,-0.012828935634668684,-0.02438656403582064,-0.006065403389591126,-0.021724965469382584
807,0.012298973336199604,-0.0038364156709516707,-0.016044278353891207,-0.0006428269299509407,-0.010151578060010734
808,0.01887313841420542,0.008088077126635928,-0.008040431218517951,0.002795258198113607,0.0026940937874141676
809,0.022258504312184145,0.01659965738327653,-0.0020489103573451835,0.0015700799658655597,0.012752382889318285
810,0.020463977811820033,0.017072047023009004,0.0006154800604844631,-0.003980720594431043,0.016014069702743765
811,0.01584829594418446,0.013577660332516025,0.0008769263104689272,-0.010763612407119262,0.01387044388879555
812,0.015636483562111284,0.015159781155511946,0.003830645175054603,-0.013214224441291356,0.013018794002414506
813,0.015586317099950701,0.01610322556609979,0.005730101153224052,-0.01395729726168372,0.010043443501121534
814,0.006362511253926013,0.006298365324285013,-0.0027750684488111327,-0.01869115127136683,-0.0031247088768245924
815,-0.007244940932634346,-0.0069361616958750595,-0.016001068305210486,-0.02385379979571831,-0.018782764310824412
816,-0.016216288974763137,-0.014033480320448615,-0.022597915980629435,-0.024713733653807454,-0.02552625481187049
817,-0.018904758794575947,-0.014620878486788636,-0.022824139870109512,-0.022023863476672404,-0.02458612890694418
818,-0.019000163746013238,-0.013480509964037766,-0.02245758661530172,-0.019352550096673794,-0.022435602368809995
819,-0.019344795602250043,-0.012865757921008528,-0.023579682909853433,-0.018655448702559422,-0.021998404759256015
820,-0.018383970032597317,-0.013487443295360196,-0.024628222643006664,-0.01890906713658365,-0.023531092425034816
821,-0.014986469981484323,-0.011169526521985286,-0.022253145257624816,-0.01938826383380994,-0.022359160611072213
822,-0.009845578131597482,-0.005372315795496085,-0.016892149090296345,-0.019460896783808995,-0.015653213229823864
823,-0.0014680978187198207,0.003575933915990264,-0.008110192400668416,-0.016642971705003694,-0.002155213121084728
824,0.010680508111126308,0.01874128693402207,0.0060337221309653575,-0.009749846676679448,0.017491975970056705
825,0.02077646981397937,0.03282813360100858,0.018727451032969706,-0.0026905303605933408,0.03294609566976122
826,0.021587081857452898,0.03568465690452133,0.02085315405716382,-0.0007384658626116771,0.035026031510706955
827,0.014151330120351911,0.02785129023616809,0.013269512215804581,-0.003438593956778277,0.02717535858588746
828,0.005657184211106558,0.01867491433052276,0.005172983379787658,-0.005781492582161865,0.019927359997792975
829,-0.0006043218724718376,0.01066363383239419,-0.00011449740800730238,-0.005224389487187151,0.014791975099600167
830,-0.0048148624631915915,0.0037249305338103414,-0.0037690071909395892,-0.0031109808640385943,0.00962395912827778
831,-0.006337061739350387,0.0005417392463592253,-0.0056771279954296715,-0.0012749346142293446,0.0059240616857867846
832,-0.006430729213969315,-0.0005116382050244266,-0.008936094785379264,-0.0008306392067023522,0.0033653445507798186
833,-0.007833018675453737,-0.0036444665306888187,-0.013212402322538395,-0.0019953705115578154,-0.0017561046502129636
834,-0.011537449698076668,-0.008398674702540071,-0.01902793509423265,-0.004358357156535389,-0.007340264627525122
835,-0.016088215732567093,-0.013326470330082586,-0.024495674225187922,-0.007277376090788843,-0.011490922080250862
836,-0.01850790613811873,-0.010484830623847008,-0.022211203131518864,-0.009312837764008779,-0.008564212874486327
837,-0.0191968850622747,-0.004339669385324576,-0.016465554326231188,-0.010169891728507841,-0.003252792356531175
838,-0.021744214345779424,-0.0019010961310576297,-0.013911752425630673,-0.011138802529441065,-0.002604297796031625
839,-0.027450649783362473,-0.0029640537190825825,-0.014706613800352849,-0.012964682505337275,-0.007113136050566279
840,-0.030593011132131597,-0.0037979909328231245,-0.014768157392664077,-0.012318906141483154,-0.010487724178131083
841,-0.026446401068223997,0.002472043067104006,-0.006505246351395104,-0.005935647282508911,-0.0031449183766503416
842,-0.02329070034878057,0.008770778519106912,0.002762231047910303,0.0007760096458820582,0.007707593964854597
843,-0.026742507195433654,0.008992385052616231,0.0056994036712402175,0.003094885039608018,0.013382919303500218
844,-0.026965254588858303,0.0003536931772799021,-0.00010454589474243938,0.006121413001373839,0.010218959640421956
845,-0.01641427671700284,-0.0006573303274807373,0.0014305558070152912,0.014408233152486951,0.013045953098265518
846,-0.0020178228117479686,0.004058075375298161,0.008068794729544573,0.02411977050239949,0.01863708151692524
847,0.007574306054802649,0.00020197774065414925,0.005696914722611463,0.03044052188253692,0.012649389667204027
848,0.012612090450965851,-0.004098455618800368,0.001898310973496297,0.03366770977790713,0.0027865073064184194
849,0.01661590954377061,-0.009129964268283115,-0.00299454541061408,0.035793523812117006,-0.008463108362776847
850,0.022432927354414958,-0.014542896754672636,-0.008074777041437643,0.03855195522376739,-0.016519094746131342
851,0.03136192053880894,-0.0148021061019952,-0.008153990774110722,0.04347814724907285,-0.015238949157158557
852,0.03961731476119382,0.0005317620694412921,0.006834121602078976,0.048470495789330846,0.004427443020779043
853,0.042435343394036755,0.015776906063682018,0.020286510890798352,0.04959908720453458,0.021446587405840677
854,0.03799036600932102,0.02148731536754634,0.02264173976976011,0.04314946902757236,0.02489847289594444
855,0.028910535447362423,0.02465641842758782,0.022414934371786804,0.030515812144708016,0.0246747427175587
856,0.015293031169918026,0.01553636883483573,0.011126116707699762,0.01519087689220014,0.011315688881148742
857,-0.004527086581181429,-0.0034179242619004333,-0.008745866913308574,-0.0012676501931844707,-0.011791811984987905
858,-0.023318898318943855,-0.018866437454292374,-0.0246968426231434,-0.013818410456277897,-0.030606437089620978
859,-0.03054935449374522,-0.02300121659903749,-0.029561781243366305,-0.01791623569710485,-0.03746118276074914
860,-0.02318692283456211,-0.020670003104377648,-0.028181555766071908,-0.013916724158894615,-0.03740204259284102
861,-0.009008685364762556,-0.013530350920884376,-0.021696604360538888,-0.006315342938121859,-0.030203357079041506
862,0.0040794448936645605,-0.0031190314050858928,-0.011303739274053475,0.0013384971342407892,-0.01675630575891254
863,0.01684532949247453,0.009669518499847861,0.002371384785743022,0.009544027105590238,0.0010737463628430447
864,0.02734862727688391,0.024270738101217843,0.019361258904498937,0.016170171131585927,0.021921620907009966
865,0.02596860713794711,0.025758621255149924,0.024376640420691355,0.01486558906395933,0.028327906988000463
866,0.014857235735163858,0.014680005109076815,0.016468494994817017,0.007144614844214952,0.02053677482526141
867,0.003059890108698636,0.0033152285129571762,0.007165000717077493,-0.0011073421140231463,0.012590468531578301
868,-0.005751099931805149,-0.0025706724557121538,0.0005151883556252957,-0.005437920805133638,0.00716339500986567
869,-0.010295583598170266,-0.004579492783405829,-0.002467392333572652,-0.00653605309046057,0.003689827955390538
870,-0.007475801385984453,-0.0008129422840132553,0.0016173077154429884,-0.004025823181918252,0.005021290628690837
871,0.0021541839897875475,0.008689029072521838,0.011904819951408458,0.002230365875252492,0.01079338585626856
872,0.011049374071440786,0.012985105893019898,0.018907111852559208,0.007025814437132064,0.013586535095162592
873,0.013144296242642193,0.0075392830232635846,0.016071429207374942,0.008708458593970484,0.00915912585440387
874,0.009172362687456033,-0.004627884841118611,0.005844269342145478,0.009645890334093181,-0.0006519598634629731
875,0.0033412170402556856,-0.0178782227267814,-0.005401960153180883,0.010789146173262003,-0.012137412261222018
876,-0.0033630239759249204,-0.02693489773348431,-0.014550862933003873,0.009420981029324257,-0.02128600168531492
877,-0.00903073485969062,-0.03105083656787279,-0.020571245216246932,0.006981670020318798,-0.027443365115203185
878,-0.01058616612808208,-0.029206207320880306,-0.021342936371172565,0.006492174067034506,-0.027932449187044225
879,-0.005990824868347263,-0.019876003642329675,-0.015001414950179587,0.009421255083544654,-0.02010625709334605
880,0.004528164911749334,-0.00845424811664215,-0.0039290366014501305,0.016533814238160117,-0.010275491484236456
881,0.015723422564424556,0.0009380405866264107,0.00607525760810113,0.023926880411117707,-0.0020974081538013252
882,0.023353288162167356,0.0065702960658648914,0.011621801769949902,0.028180272832948862,0.004291597929047748
883,0.030928674089592652,0.012438696391095357,0.01790165578552309,0.032178601574484315,0.01274079370579923
884,0.03748214136332549,0.019269877670235632,0.02338891076274925,0.03490376233789985,0.020710432942911233
885,0.03974343115755493,0.022649877175759253,0.02518074049696812,0.03656766271529918,0.0234774248445481
886,0.03420392466634086,0.017175352362238782,0.018612747846248133,0.03536263928849019,0.016908782473853343
887,0.02139121155012311,0.002643826592387018,0.0020867199863913066,0.028709052884368192,0.001392552231346544
888,0.01057373980763456,-0.007280951358285459,-0.012751230962653085,0.02129430492451137,-0.008725429560716962
889,0.007146263534496696,-0.007925953118212304,-0.018972355778743063,0.015911990764359722,-0.009292795968279772
890,0.00770222008502452,-0.003811141892446381,-0.019644846969713976,0.011624085731036633,-0.00606931469899425
891,0.0093141734250609,0.0035039677178276825,-0.01766054362925807,0.00876025052220321,-0.0005324922895476461
892,0.016415974302922104,0.0042969414848538475,-0.009336168236887233,0.012032843257494092,0.0010969041256420338
893,0.02738461069195806,0.0053986525964822086,0.0032409153260162917,0.020118482625130166,0.003525989466346776
894,0.037879202281822566,0.00874431959542997,0.01511732620218137,0.029286116469690614,0.007073442544795572
895,0.04552584665809728,0.005338612742356947,0.023401070524804283,0.03684193779729372,0.00448229934286574
896,0.04750732803629956,0.012685016072411683,0.02513126084439975,0.03809849422808017,0.00926776594300088
897,0.040873528886726684,0.01361042192414913,0.01768200503418213,0.03567088196764007,0.008142861626945516
898,0.0330515848387513,0.006912811880026969,0.009103147862762789,0.03442871305403083,0.0025530095001741796
899,0.025497098157791474,0.001342979300819558,0.0017989443670655464,0.034610102268446366,0.00025357598401275254
900,0.016729908202021703,-0.003161386314022123,-0.001108857278751673,0.034674319639590306,0.00015025842924006313
901,0.007914241927394108,-0.005969125738955433,-0.0022046267215900354,0.033544788087396915,4.260033079510576e-05
902,0.00036302347295230245,-0.004054849246467671,-0.005542495025335891,0.03065720793631204,0.0005978726960960517
903,-0.0062397464462681865,0.003462342829093333,-0.012320388806380724,0.02508211582761171,0.004119168237955441
904,-0.009323968787620209,-0.005746331214196102,-0.020352727454545694,0.01796730166753206,-0.005170012987732868
905,-0.005472337706685257,-0.015135650323830366,-0.021506583082097446,0.013907342262451737,-0.012572869823033649
906,0.004517123279111993,-0.014789886684399145,-0.013159672879080134,0.015156241866569055,-0.01076755814634971
907,0.01628797777265341,-0.016344633062209343,-0.00024539061331375737,0.020104771220004272,-0.010574012492698494
908,0.02433740464581299,-0.006195107107754128,0.008780638249037473,0.02524475441218375,-0.0023010192266918164
909,0.022588274846978208,-0.0013779688504288437,0.007908594144924319,0.026609221683931775,-0.0008779079790593559
910,0.011515199654119788,-0.010685570699962402,-0.0025463249866910865,0.023122949116009598,-0.011992655705427397
911,0.0017170480203914102,-0.016103802088156125,-0.01179068001346271,0.020153161837328626,-0.01786100857469467
912,0.001770275179730125,-0.008025289573344085,-0.008217381271223963,0.022810849141405434,-0.009761641097313966
913,0.0097871504921502,0.009351618657386762,0.005291096131212341,0.02890195296510259,0.006821391052158983
914,0.015897564256426047,0.024658746397383805,0.016123723529223893,0.032241756554364405,0.01992789489513276
915,0.01142993748461923,0.02833540830990627,0.014626500969949928,0.028942007316648595,0.02058682044059147
916,0.0014592441875312956,0.013681282518833816,0.0035413060978386904,0.02142544509361337,0.007231731354283438
917,-0.0067783852199751185,-0.0030217205872886516,-0.007202785787753101,0.015035111995839626,-0.0050210142915873
918,-0.006630871617385152,-0.008607910634959111,-0.008590412228187537,0.01463860029167951,-0.005654048327404871
919,0.0040919072899305645,-0.0053392272425916015,0.001458705196717262,0.02151559541949387,0.0025850343197070594
920,0.017927879420934822,0.004656279444741395,0.01593821632065509,0.031547889669541695,0.014785935289144344
921,0.028778481379868045,0.012187052831115661,0.026867763039763532,0.03967957388475743,0.022558304509934082
922,0.03254230140396793,0.010748711670912587,0.02933535314595629,0.042345145809194344,0.020705686917543306
923,0.02765773810646491,0.0012220291978147166,0.021756202932929854,0.038612798742662685,0.01032718645589573
924,0.01618847009409169,-0.012199040513973794,0.00723992576738057,0.03090275525203804,-0.005057286284522699
925,0.00585632344239021,-0.02259190478122555,-0.00587071086423182,0.024471041345584168,-0.017980868713400027
926,0.0007821889034393143,-0.02675612620787602,-0.012639088139304849,0.02180791333839746,-0.024254093566856098
927,-0.0020308955027086243,-0.027837370436933295,-0.015260247195365548,0.020789473960020833,-0.02703978822102501
928,-0.0024852137630988814,-0.027088123911901144,-0.013776315050399269,0.02058643582365816,-0.02672958502341864
929,0.0031325255701692167,-0.019897078019411596,-0.004074198023146521,0.022924052272655725,-0.01810989876100902
930,0.017871135382709406,-0.0028118011756138716,0.01592663073710335,0.02940248357044515,0.0022436634165636975
931,0.036502413189035104,0.017981393760915506,0.03886458811207708,0.036912278151386806,0.026721911170926687
932,0.044896774353737116,0.028358115403949998,0.04772043761139322,0.03806241115156189,0.03770087654810888
933,0.03856537605646046,0.023393599385906703,0.03941381771411149,0.029848712685794244,0.031334612313020115
934,0.023772086062600055,0.009139310821433785,0.022483969100681133,0.01682176413150041,0.01543264791596427
935,0.0062024299246724295,-0.008507801671721575,0.0023934850543481296,0.0043796351587781475,-0.004602216228177838
936,-0.010437442978202163,-0.025524408690856783,-0.016532291558791476,-0.005466176366292528,-0.02326930468652373
937,-0.02145525461779908,-0.036995432019384523,-0.030049128210719485,-0.011714381625234315,-0.03514606736506268
938,-0.024956216274926116,-0.04100408477432003,-0.03670764935976794,-0.015353678969817116,-0.04006286737160139
939,-0.024099008146153275,-0.03999727877800487,-0.03885273447349956,-0.01894608202759594,-0.042048365181936415
940,-0.019232780229989168,-0.03329304348121309,-0.03474819434020989,-0.02162601206088418,-0.0388662312587936
941,-0.010748928246371046,-0.0210923622535261,-0.02492106191913796,-0.021522437541052045,-0.029391656816025565
942,0.0010323578612610464,-0.004536848457925881,-0.010762909458364254,-0.01779620953244018,-0.01432475458777378
943,0.017002270590018395,0.016503237867517496,0.008170205418526838,-0.009783910635678569,0.00615677544797132
944,0.0290217383242472,0.03292882480706389,0.021680363773387397,-0.002658973569801836,0.020517249621976288
945,0.024501075967587837,0.030565568533264503,0.01563952926404067,-0.0053762794079787795,0.013884540852588695
946,0.006748435023466793,0.012433102348260956,-0.005900794563493291,-0.016363851686165557,-0.008627197846968833
947,-0.00924620485534314,-0.0049878986777578925,-0.02601883724911314,-0.02557104878597291,-0.028778365947770886
948,-0.01765442978840808,-0.015589218967524084,-0.03655719134815315,-0.029210451510779282,-0.039170964468124465
949,-0.019173007050558206,-0.019036615185439323,-0.03910189918422139,-0.028368454147615692,-0.04196940854824456
950,-0.011177817759257322,-0.011804469707504433,-0.03156234172262646,-0.02217636335369316,-0.03480560833597961
951,0.0046631842012563735,0.004249503865253765,-0.014776539883553158,-0.012117952271483599,-0.01808889094510907
952,0.01718641941529566,0.017793476992496258,-0.0009420031821641768,-0.0050681139457483095,-0.0036593414474594
953,0.01936623912507061,0.020918041005807426,0.002980563953842166,-0.004622303579206214,0.001134864037599874
954,0.01493346367579675,0.01771452963060946,0.0020839476511201487,-0.007300691713125542,0.0009099080244678593
955,0.0084253788600996,0.014220503037294623,0.001488371796271859,-0.009620253962774314,0.001065850582817444
956,0.001854439289343931,0.012252541021105842,0.0015514510144148297,-0.010625276556894247,0.0016118097624899584
957,-0.002901094433410764,0.01107533110666593,0.00259449863197191,-0.010289097242658382,0.0005371877247593655
958,-0.006068477582824711,0.008825836616186071,0.0022143493086901,-0.010704666392741816,-0.004953058707630002
959,-0.013014768751592173,0.0005758873990748753,-0.007154990510350342,-0.017044378688899787,-0.01886697375923038
960,-0.02485113590945673,-0.013859430084765116,-0.025133432658253234,-0.028161053270062714,-0.03671854039200891
961,-0.03678402882939816,-0.02710066596761442,-0.04274750099083063,-0.03954212131235662,-0.05162429673925725
962,-0.04027535909465403,-0.030398994361189275,-0.04900668962042904,-0.042985908434245865,-0.054447449563618994
963,-0.03741709406820648,-0.026685731733731247,-0.04592519284950409,-0.0395446814901155,-0.049058659583172695
964,-0.028867909087960497,-0.017323292090052667,-0.03554750308041497,-0.031822196914967224,-0.03732501941815383
965,-0.015481485184182778,-0.002766621936591618,-0.02033373258155231,-0.021207425009024367,-0.020812426529648057
966,-0.0018329171752409828,0.012693748273636353,-0.005841512272068299,-0.011617720126113326,-0.004559290777140326
967,0.009135617802830133,0.02570411817120087,0.005536970822093499,-0.005985440780639696,0.008693456288967888
968,0.013901910809236013,0.03130033363662184,0.01089331522749305,-0.0051945310697219735,0.015085079976540286
969,0.011828170025492591,0.02785531903910472,0.009640140943613568,-0.008977793711796668,0.014323403345503978
970,0.006895868618950232,0.01988066912412514,0.0054114380867083395,-0.014682635394928324,0.011039455472922132
971,0.003976250960255297,0.013005358223282628,0.002811815543288336,-0.018292297970803877,0.010119638145724027
972,0.003053098289884526,0.007813037683753065,0.001576023800235528,-0.018130563968435383,0.010403615961675676
973,-0.0005470862366063278,-8.974813892208033e-06,-0.003411625068944582,-0.01779371772808163,0.005200172473908073
974,-0.008282625077868026,-0.011493984156065506,-0.013208609318246104,-0.02074782432628909,-0.007061404722349225
975,-0.015157899460689872,-0.020987300406928398,-0.021058422985721307,-0.025385107361827267,-0.018931535006528794
976,-0.014130038615773792,-0.021182833460383625,-0.018420546755637413,-0.027017487065176666,-0.02065869432535964
977,-0.005596223721471866,-0.013036959520985755,-0.006553547380189143,-0.02440639287580407,-0.012309860319916061
978,0.003844001773599902,-0.0038620930030543884,0.00571756444280111,-0.021073497866842438,-0.0019028179022952242
979,0.01144191741832932,0.0036551995091575183,0.014755262165812277,-0.01894531648058357,0.0074499824526640486
980,0.015188806140877413,0.009040189395791133,0.019311562304180165,-0.016983346240476573,0.013566171636989297
981,0.017728825709244736,0.014341999945321936,0.023435426454846357,-0.014228323537753062,0.019528996606990975
982,0.01877776533553631,0.018101763158206254,0.02624339758852299,-0.01177318628134928,0.024227073036280168
983,0.014219918348555328,0.015958807840121894,0.02159287484439612,-0.012063956914222263,0.02180810013261494
984,0.005668606840685094,0.009085338314750306,0.010841939419397881,-0.015284025823137646,0.013536802615793151
985,-0.002831260785881667,0.0017822341390561036,-0.0007296550072754427,-0.01836541576007827,0.003590923930405129
986,-0.008216811472915966,-0.003129421222954266,-0.008907229919925657,-0.019296771050981664,-0.004396327555587011
987,-0.012140589523711704,-0.007783356280097551,-0.015085046077343464,-0.020042275617232357,-0.011689629403110762
988,-0.015691561795718876,-0.012907746385210183,-0.02056177657519731,-0.022472863357202756,-0.018640499209808325
989,-0.018714869298179813,-0.017056811095915142,-0.025181917863815115,-0.02570909702402636,-0.024381831842955528
990,-0.0215798029903313,-0.02050873197710665,-0.028912597279607096,-0.028849990116562974,-0.0290362513907539
991,-0.022576294575839585,-0.022170721077314746,-0.029600783304644104,-0.030358518015831858,-0.03056096001726486
992,-0.02002190083013759,-0.020371823499933918,-0.025730637028040144,-0.028557433976174877,-0.027112111481288666
993,-0.013944371586088262,-0.015111647889717066,-0.017842154269324263,-0.023808618380351518,-0.01885985645848876
994,-0.005140026114646512,-0.006612783895934505,-0.00690154824738541,-0.016970787036623622,-0.007066675698829069
995,0.0044265326757345295,0.0034172035823182402,0.004912973165758935,-0.009451583026628924,0.005452450161353192
996,0.011254319354602508,0.010992246975240257,0.013206262368117339,-0.003697447941212463,0.014350627698123126
997,0.012438610471408975,0.012486947226820881,0.01497398061594423,-0.0011268547524404355,0.016184791998776055
998,0.009693972816780722,0.009365425153759464,0.012341678642395795,-0.0008944728097566702,0.012674531040101682
999,0.006374222468158208,0.00500021927370076,0.008882326940963548,-0.0014744488822968694,0.007391244171682017
