,AF3,AF4,Fp1,AF7,AF8
0,-0.000529970235683445,0.005374442312512385,0.00833259240809772,-0.005472880970143142,0.008866927444282963
1,0.004904062312045637,0.012397424545310867,0.014060113446855664,-0.0005453327801927887,0.01613114303217015
2,0.009029314866200563,0.018691675766333193,0.018741200142910683,0.002292761847525901,0.02346682682700427
3,0.00989805727950748,0.021148570463646623,0.019385559114333765,0.0012720381759933992,0.026840326537361764
4,0.010090357983381612,0.02182064467724912,0.01847197285194035,-0.0012939428570169337,0.02848491765881285
5,0.011851972052300902,0.02380887930556829,0.018990429604948542,-0.002863788952752255,0.031784499462893606
6,0.012164134162940444,0.025640210379123892,0.018430953046122772,-0.004920762382599319,0.03564613368269346
7,0.009222999316077868,0.02565494016977845,0.01492255239269267,-0.0084414225509185,0.03869778323555492
8,0.004542928874500079,0.02398238547887923,0.009779924918226872,-0.011554154382803149,0.040181703651279176
9,-0.00012089718925830077,0.021030596458925573,0.0048771975386631364,-0.011566724624463395,0.03931855167875317
10,-0.0028807305940340257,0.018844527806718067,0.002476314330063226,-0.0071629290702630586,0.038293263003491874
11,-0.0020119700408799592,0.01988195946246212,0.004187647473667499,-0.000522744678775278,0.04127687639028188
12,0.0020651661881600004,0.024221523823278582,0.009050181008056508,0.0040450047034142735,0.04821922013246794
13,0.007263912555612745,0.030910412083980342,0.015004466399059986,0.004608945750995282,0.055412271218050715
14,0.012730791852528992,0.039131175924934716,0.021976751728254723,0.003517575733425846,0.06046890895990569
15,0.01569407338912849,0.04345068573393486,0.027387546795029204,0.0022160426050041233,0.06011000772060913
16,0.0132840010566321,0.03956670130200616,0.02742613875873172,-0.0003019031042149956,0.053252761780498176
17,0.008455715725416578,0.03170960360654716,0.02379053437949892,-0.0036790173079733375,0.044373306680064784
18,0.005695303805531781,0.025638334705644264,0.020663889731516415,-0.00640920986579685,0.03784216394129828
19,0.006282626134327236,0.02296503501249378,0.020645814030417833,-0.006260961078605325,0.03436772779084896
20,0.006556513380814558,0.0203608502798687,0.02051757487347173,-0.003222398363229009,0.02864927897265621
21,0.0024093751233110867,0.013214471458184685,0.01470650354837248,-0.0010979407734674593,0.0165045422993924
22,-0.0027353801528161104,0.006039583229129488,0.006658640535535954,-0.0009455295874009559,0.0039815209247576425
23,-0.00453602590831648,0.004685516294080044,0.0025086575063547442,-0.0013615981143744573,-0.002412865139342509
24,-0.0059638628821084005,0.005130538303694819,9.205002544230062e-05,-0.003739248171078674,-0.005314666201559896
25,-0.010479137095579953,0.003649294781196096,-0.004216266488750175,-0.009341408703663229,-0.008525332270675966
26,-0.014596361589385758,0.0036495626638553664,-0.007491938146689203,-0.014813108950670225,-0.009004426337551679
27,-0.013359493853823673,0.008612588379278476,-0.005390299419313972,-0.015723424854504415,-0.003232813463509662
28,-0.00867349077142864,0.01501130503252222,0.00019981305314369804,-0.01326156543868111,0.005511377511784237
29,-0.006123786146069802,0.017871844810904057,0.0035903793467069625,-0.011736912445263429,0.010521069906087109
30,-0.005861821302174617,0.018166412189020164,0.004442807009797802,-0.01143269537283977,0.012000945786826873
31,-0.004482878243272255,0.020337399636060276,0.006459702243021148,-0.010521528297772061,0.016168030756994817
32,-0.0026859088744238305,0.02492664710591639,0.008825637321832332,-0.009949090367202136,0.023472380776282657
33,-0.004607374866527631,0.026674527153119805,0.006903534013542058,-0.01171364145327122,0.027001199591155493
34,-0.010389598054135422,0.024003277380974214,0.0010018791127154062,-0.014675104095341404,0.023710845024067763
35,-0.015026166312856247,0.02136987166484233,-0.002845957866547525,-0.015357114776346454,0.018416583679560436
36,-0.014718695350935286,0.020042425369368844,-0.0006588176686097864,-0.012147560680887914,0.015891535302597747
37,-0.008627243901075148,0.022631492679721296,0.007422974740494723,-0.0057380819944615365,0.01950967519835043
38,-0.00010261460622474943,0.027506580647141995,0.016479539039188102,0.0019392749589373336,0.026015652632568033
39,0.0050799700229272335,0.028716638816980698,0.02038588725705767,0.008403778932252508,0.026955050331882658
40,0.00585050676148616,0.027704603769127308,0.019592105484904563,0.012292675106877093,0.0216382517177936
41,0.0041800385787548345,0.025994411362610385,0.01673227736620647,0.013889328811076778,0.014029654070099727
42,0.0008113085083179893,0.02235365148611572,0.011816092653108535,0.014304497981580358,0.006127010475668787
43,-0.002781116463574318,0.01791787591690985,0.006433038474291167,0.014111710898054308,0.0003274672138779119
44,-0.004756223035397083,0.01556752027608497,0.0028824662852238734,0.01268361689187274,-0.0015263175478935657
45,-0.00391511084231845,0.015513403442867672,0.0024325844324801275,0.010091428049836463,0.0002765810990562061
46,-0.00032011707811436586,0.01743535052084561,0.005177703632900394,0.007289386276087558,0.004333167303107634
47,0.003456041512931544,0.01945398696338082,0.008471156357026903,0.004229773851223645,0.0066126554060392225
48,0.0047096688252345545,0.01837062911136621,0.009693370060472675,0.001020288484420376,0.003347349057265661
49,0.0035580208323530826,0.015897653994579146,0.009309971028834374,-0.0011798120286952382,-0.0034502835514129697
50,0.0022868291395291424,0.015763673843904643,0.009537750471623535,-0.0017177007151256017,-0.007475658714218345
51,0.00268220010806211,0.019335425075631095,0.011824477696072328,-0.0007869197526351338,-0.003631502128634053
52,0.0036160274350761066,0.0247350763705983,0.014507967730844364,0.0010063122383940724,0.008564982421941392
53,0.0021189658641844484,0.02664357441717538,0.014025412071471715,0.0023434229417218923,0.021210302533664786
54,-0.0024762569403175396,0.023613714450557786,0.009174008096263463,0.0016765484630666943,0.027633767737435495
55,-0.0048303944919417495,0.021714545288973045,0.005345571986093692,0.00089233026113073,0.030063722380041395
56,-0.003330283181238703,0.022164451203202182,0.0048499975230298755,0.0012183687267810338,0.027974635393613993
57,-0.004329263389166959,0.019356395367846845,0.001958029985698548,-0.0003506079882354806,0.01743091393409282
58,-0.007117072492576384,0.015800153324920747,-0.0020096298982638853,-0.0024244575504844173,0.004426478271788239
59,-0.006536354660133957,0.016891109114790193,-0.0020907449201294386,-0.00043495890790937804,-0.0028339316088233967
60,-0.002137606465010243,0.02148087498385477,0.0017169309492383123,0.005961523659208703,-0.00394278128914457
61,0.0037223407365624627,0.02670529061341643,0.007143320056289803,0.013354999187861955,-0.0006301000083311192
62,0.009190961845589596,0.03007216270940797,0.011811183069722772,0.0200693693481839,0.004246311763476882
63,0.014920826479144566,0.032223193821634064,0.015621707809360728,0.02737021179552354,0.010128301083789
64,0.020173762553016564,0.03238561863962538,0.017992553175075195,0.03349927636414952,0.01740630354551746
65,0.021074377324800823,0.0320778311292195,0.016174848904852906,0.03413929017755741,0.021849653450941784
66,0.016632938876845912,0.02705814311331598,0.010284576843253441,0.029014340502180047,0.02150494727189968
67,0.011130216859159704,0.020480787895270327,0.0038770349202238755,0.02174950289803515,0.020347361729004143
68,0.00886808745349817,0.017874980169405672,-0.0002225978559955233,0.015687991498545658,0.019706991420682433
69,0.01161481962426785,0.023088272140477383,0.0008825228207527149,0.013445452181977454,0.02395306324436801
70,0.01843516276467199,0.03329340970955081,0.00806981170345296,0.015446254568787982,0.03381338092823605
71,0.024483333081542064,0.039881985416337536,0.01573950782558315,0.018322696595615928,0.042148343660022944
72,0.024425002864204418,0.03716367388490743,0.016915440698363704,0.018509034209539303,0.043517734887963684
73,0.018923509593223014,0.0284235215785814,0.011859502890370365,0.0162647138648097,0.03831877017132377
74,0.012372288498852737,0.020756021937760154,0.005840474016670133,0.013724193295612416,0.032840771600495894
75,0.005923575589634035,0.016036576578154733,0.0005967017160589787,0.01087810672344349,0.029342820713616827
76,-0.003485108841380958,0.009011449906063949,-0.007967945694655261,0.00511205435983716,0.02275329654962452
77,-0.016564326979766092,-0.0034371345187799726,-0.021550131075193168,-0.004413740497023426,0.008352411737593386
78,-0.026263924913114925,-0.014124630261478234,-0.03230050184425799,-0.013203066044723679,-0.005971951149706431
79,-0.026329194289601652,-0.015479862818941561,-0.03287143307608856,-0.016875930198131134,-0.00964010900706687
80,-0.019836212630565224,-0.009381197048376849,-0.02600918994525381,-0.01659478118579012,-0.003440070235637409
81,-0.010738577567332082,0.0015406516757475843,-0.015250607527010856,-0.014583469471814988,0.010268096640208899
82,-0.0013026469168446353,0.014340064260527296,-0.0031201844029096776,-0.011673227673501539,0.024980007569471625
83,0.004327343950165537,0.022196410957060087,0.004771673328191456,-0.009009464466195147,0.029675554334043532
84,0.0055367440050912925,0.022767959863185635,0.006808199321644412,-0.007264152533084037,0.02574381657075104
85,0.00281758673812864,0.01739247920464372,0.0033786122716183034,-0.007941010098865067,0.017680198080312893
86,-0.0018319136688513434,0.009630331494464095,-0.002578669707778548,-0.010582948816779304,0.008965537459519246
87,-0.0036979960911917957,0.005538648106236544,-0.004978067835152403,-0.011710861497730917,0.004871980131514402
88,-0.0036119289821658334,0.005117384769497818,-0.00447604857916392,-0.010782637450472334,0.003112101021271238
89,-0.004966514896912957,0.004232809985368131,-0.004846382670138752,-0.009516884457265456,-0.0005222288409183845
90,-0.00668537921656889,0.00331392378514396,-0.005149337160524682,-0.008292580987314887,-0.004251789416465795
91,-0.00689767147071494,0.004273436770798362,-0.003817026206203034,-0.007547576252419202,-0.004912404230084214
92,-0.004785804669374724,0.00804642409562608,-0.00023486571569151325,-0.00665849227234846,-0.0016894713838377087
93,0.0003932431847452528,0.014499083672382307,0.006680349468043619,-0.0032579452189402183,0.005630254760857475
94,0.004551289093099808,0.019242537785579817,0.012607670698742567,0.0006993725378848354,0.012034871499070107
95,0.002028664351991202,0.016308415431468368,0.010739248008190892,0.0011906737366906926,0.010560993182042261
96,-0.00358070558222288,0.008126033623090601,0.004948874615087266,0.0007628360584729295,0.004710459952199128
97,-0.00728506952557345,0.00047687049046838325,0.0010974527353928057,0.0017332779448051405,-0.0003819848995761533
98,-0.011741770501927078,-0.007477926942192956,-0.0043105805687219416,0.00012479483587849724,-0.006846910896960114
99,-0.016190042322826923,-0.013580951978730774,-0.010780020674241433,-0.004320447000593225,-0.012191033622020418
100,-0.016327280007924497,-0.012812758006271354,-0.012803514860710805,-0.007371865266034695,-0.011476654707745611
101,-0.013811242523561397,-0.00914234711898798,-0.011374006664497355,-0.00845453109460784,-0.008580817057595778
102,-0.01345128913767777,-0.009250194977193388,-0.011617852198238687,-0.010049477409487313,-0.009434737301294549
103,-0.016344922269544412,-0.013637970465814936,-0.01466252819278306,-0.013056343938566306,-0.0144416320441083
104,-0.01872818525588103,-0.017084634322111658,-0.016108644576311934,-0.015938482696190692,-0.018379977937992068
105,-0.01717684561081577,-0.014782109239783302,-0.012499840537233997,-0.017224970981611343,-0.016543328543380784
106,-0.013561038573885765,-0.010141774304181674,-0.006799087922484954,-0.016931615913337958,-0.013096223778017795
107,-0.01102296686711512,-0.008295300003977444,-0.0030807225313305136,-0.015352775730709483,-0.014163254817517014
108,-0.00971460421254212,-0.00891341562480072,-0.0012751379754783587,-0.013124097408396809,-0.01860279003043718
109,-0.008337447219980202,-0.00898158106374885,0.0005811222171390767,-0.011317448229665236,-0.02123693077085606
110,-0.00582139755419113,-0.007423229578772445,0.0036182863287611755,-0.0105840468642502,-0.01924552731855935
111,-0.0035440668433738658,-0.006642708442410682,0.00552256297750253,-0.011628864187291327,-0.015414711210313637
112,-0.0024163437776878456,-0.007334604722617686,0.0047053556345091,-0.013659885511506703,-0.012319871974668096
113,-0.001995842539509612,-0.009114708312634468,0.001932095515814799,-0.014949001470985327,-0.010709398072397663
114,-0.0034289717717950747,-0.013284483594204621,-0.003136964268350659,-0.015078518259227286,-0.012730787435044001
115,-0.00688850994481322,-0.01923834390684591,-0.009574578846142236,-0.014256009688615942,-0.018091565071865566
116,-0.009678417468227616,-0.023785582772624193,-0.01434933268300658,-0.012435007119532777,-0.0237950997903153
117,-0.008454996794098456,-0.024001975560357946,-0.01466470093106333,-0.009274434774880836,-0.025893206927214644
118,-0.0049907221029875815,-0.022205664503068514,-0.012822421501439729,-0.0067042842244422985,-0.025994090048636537
119,-0.0034107207063755526,-0.02231321170076978,-0.013315921127690377,-0.007570841787909349,-0.028106126218428625
120,-0.0018326530448190923,-0.021384267194863853,-0.01354013053990853,-0.009611061280023835,-0.028949777444637573
121,0.0024252983397595137,-0.016091855427513027,-0.009233630676365023,-0.008378451715053177,-0.025279709328163636
122,0.006699933952284918,-0.009746055662655012,-0.0031003136757940587,-0.0045369535678866785,-0.020079135152712695
123,0.00771574646028953,-0.005911108633505149,0.00018259366707763853,-0.0024394294640105296,-0.016813320547889598
124,0.0054751394015801445,-0.003246047621965497,-0.00015344533325110303,-0.004109228597564163,-0.01639505594175269
125,0.0019743696402780763,-0.000116108779696652,-0.0026716625165405516,-0.007714169989924378,-0.01838244158493453
126,0.00129392867901525,0.004077783947051384,-0.0031725082219727606,-0.009701755954776684,-0.017350669410286988
127,0.005786789667496456,0.010445812506761425,0.001989329741184266,-0.009243791739395452,-0.007439683596343036
128,0.010948150628686789,0.016051515040356575,0.008282611476712708,-0.00909280182515267,0.005603143543427575
129,0.012767879507599387,0.017090780763400565,0.010384266657011384,-0.009450433064817566,0.012762808171334987
130,0.011802207129007664,0.014259184057531474,0.008728887467287078,-0.008872696500359052,0.012556909932002282
131,0.008397607826273681,0.008872857993163645,0.004378466491599044,-0.008067710832987792,0.007143003581791138
132,0.004538592090771429,0.0034436997734145877,-0.0003558318470867319,-0.006676617609528899,0.00040845162355940604
133,0.003985825201956249,0.002305932665419997,-0.0013563562165790181,-0.0031535728586637914,-0.0015123433495879861
134,0.007825834667827297,0.006821904013000892,0.003456811899087846,0.0028101636704625766,0.003208092931238873
135,0.014731684619409274,0.015409147608982598,0.01331864832806503,0.010423687994406561,0.011869244424983156
136,0.019794234431644204,0.02228025041061261,0.021846795834025046,0.01586925677799335,0.017773340137586878
137,0.017422277919071593,0.020591212019920865,0.021251805255200703,0.014701586627518916,0.013894067039925413
138,0.009760387875183055,0.012176945532165506,0.013210741700153754,0.008785496671960196,0.0031687599622728852
139,0.002781654306717271,0.0031264244028717334,0.0045204727539474455,0.0034860459561983368,-0.005876512742418022
140,0.00019500265120823832,-0.0020464121110323474,0.00017032353017186437,0.0022781501373062953,-0.007250229445958453
141,0.002048235584518126,-0.0012585416022831244,0.0016265716410070374,0.005618775923177275,-0.0007758858580760732
142,0.004886069672283773,0.0026469157359976297,0.005588507341216659,0.011114011028642581,0.0068542146448012835
143,0.007359638152861417,0.006744677068882024,0.009292109535515574,0.01657128299210673,0.010043891051239824
144,0.01231108131545572,0.012740917329153162,0.014288149866881988,0.02150445663664156,0.010368384991327747
145,0.019221422464031985,0.02015661871042735,0.019862503151476408,0.024234016441830306,0.009657475007049358
146,0.021391117170493343,0.022643823875884855,0.01951409471622026,0.02141560441140826,0.0041933611270741885
147,0.01701491478621332,0.018473947021026105,0.011962713902775621,0.014139515920326619,-0.006069741298851789
148,0.011387860804063796,0.012412820049778265,0.003390292484029465,0.007399738744598714,-0.01502148862166065
149,0.010088634010385312,0.01020653184569653,0.00021810286792942686,0.004648510316246333,-0.016838360396837972
150,0.013891528231519627,0.013275926640730963,0.003356699878634116,0.006769190242294377,-0.012121323813996403
151,0.016240886188019707,0.0155018675473067,0.005467427727462268,0.010149358131981099,-0.008498875308216016
152,0.01322081638629642,0.013558714078960596,0.0022816861793983753,0.01057959066390393,-0.008326867739081877
153,0.008446848526474808,0.010430596655899006,-0.0025396629458941684,0.009255457461938944,-0.007791136386281352
154,0.005141799125026109,0.00811605861146928,-0.0059825305767291165,0.008954019105486462,-0.006109958776390136
155,0.0037012787051022102,0.00684946819269222,-0.007490593457379302,0.009769776034312713,-0.004381064296700049
156,0.0037796881226387275,0.006472848331996315,-0.006925304691614605,0.010828275076985814,-0.003007121459926684
157,0.00465572658819755,0.0061620724681329415,-0.00496837783191966,0.012100059001807608,-0.003013015454620538
158,0.0058812138367828415,0.005637294718766533,-0.0024575489929190377,0.013891249366148445,-0.004885779707422827
159,0.007163282711673532,0.005414374846252353,3.161864948983703e-05,0.01562939897055544,-0.007749598681214444
160,0.007998878826136117,0.005424751801244455,0.0016130962718601588,0.016441979615855296,-0.010874086647060653
161,0.009175809245780748,0.006265849985508624,0.002926357748476528,0.0169404946399467,-0.012281446344807984
162,0.011485706844617763,0.008900285810335924,0.004988915733488229,0.017733557234362884,-0.010011290720796266
163,0.016117054485262964,0.014912433097308345,0.009348881146051426,0.019388429149764706,-0.003090006304063029
164,0.02402088775619309,0.024724175267721183,0.016970841299104842,0.022312583705158144,0.007274545263911811
165,0.029922939366107404,0.031769514770307226,0.021695627794023828,0.023385756743087453,0.013077260098174137
166,0.029605477129001617,0.03115954895668553,0.01934278769325227,0.020723431328816412,0.009940389579564717
167,0.026098793251053767,0.026053481108895816,0.013879704272135831,0.016784900647669212,0.0035761353731069323
168,0.02201055314081656,0.02003839198626613,0.008308838369442517,0.013338749460003805,-0.0007617133711503269
169,0.018310214558564943,0.015605117394884254,0.00412400730872437,0.011091592833760476,-0.002011475124184534
170,0.015499004394821256,0.013467322864390854,0.002068387235630902,0.010377902584069633,-0.0024238845587437933
171,0.013779375606982783,0.012189889178260572,0.001981712739986257,0.010911667430724095,-0.00437229806266214
172,0.01384065324835694,0.011144015668228948,0.004155437843715318,0.012093112096900668,-0.007000865655166952
173,0.015643877369322642,0.010742085799143352,0.007735088911078642,0.012694668840728727,-0.007466988875603934
174,0.01686454319716859,0.009222752818638675,0.00965752081698175,0.011430946870512078,-0.005984932644906936
175,0.01497034175344017,0.0040524414662523895,0.00759090720268,0.00919726813219802,-0.007076412669077965
176,0.010338682078984465,-0.002615200908565768,0.002173811773881603,0.008463359549059695,-0.012959849874789839
177,0.005129700114985696,-0.006254118245800819,-0.004441210682106018,0.009770786188213195,-0.020267946346602953
178,0.0002740678829473717,-0.00782434984903132,-0.010973069946033231,0.010902472759612746,-0.02564185504768104
179,-0.005381316789024005,-0.01233136656203365,-0.01830060046896259,0.009147809105265012,-0.03012287798622795
180,-0.007397364163519321,-0.015265183341238399,-0.021671929292315442,0.00704731419729059,-0.029903764359658296
181,-0.001521287786740698,-0.010204063718012397,-0.016166818921432857,0.008043668447483191,-0.02122838185555482
182,0.006364459497268041,-0.002521094945054445,-0.007820076820690079,0.009545853210878304,-0.010899358011545528
183,0.0108439724580929,0.002009041016466412,-0.002840641658566874,0.009228884900941118,-0.004572603424352119
184,0.011756841469454861,0.002981125178577487,-0.0015308729789121212,0.00776329607529085,-0.0022519046843535234
185,0.00912656779219277,-0.00029512837329935196,-0.004025935532144575,0.005177542195748445,-0.0038936133847924724
186,0.004472103363355168,-0.006187559026976598,-0.009044793257613523,0.0020951048778113835,-0.007140117105298629
187,0.0010435819279690514,-0.009940529561312443,-0.012515497070139577,0.0007531999963836755,-0.008091063910360522
188,-0.0008091662267240096,-0.010575343297577585,-0.013235870571051177,0.0015112642543069542,-0.00743365536071536
189,-0.001027020709958773,-0.008623825210727656,-0.011916662716204006,0.0033611513834702015,-0.006488458546192589
190,0.001385868761590462,-0.004297775044109696,-0.009141968141830402,0.00598726424559814,-0.005250220038128101
191,0.004936429388071177,-0.00022037291406346184,-0.006903618359582948,0.008390876370818536,-0.0058284555331101825
192,0.008422723649857567,0.0024450363735177526,-0.005922515493189747,0.009345419242427946,-0.00838655560184417
193,0.011962603473544314,0.004582792387480448,-0.00550300881852745,0.008813627429529418,-0.009926381789339437
194,0.014943196423302343,0.006197073612475304,-0.00564150220530582,0.007668905033120154,-0.009129651092561487
195,0.015513981003194927,0.005673358939750673,-0.00796077182559207,0.005616991350479035,-0.008548456015767047
196,0.012288837801725062,0.002110338730933031,-0.014028861851925388,0.0016004072605960186,-0.010623277555836301
197,0.007995775071024136,-0.0018083041168183165,-0.020842045173739478,-0.0016233082857077749,-0.013090868279880947
198,0.007548612298065732,-0.0017663349674404052,-0.02247222872427306,0.0005149848491633484,-0.01103502463429855
199,0.01218507200774296,0.004262097125724919,-0.016477036283302774,0.00872639087168253,-0.0014423487586448305
200,0.01810057424987929,0.013085220892265317,-0.0067502236628049226,0.020203109859160955,0.012837887835125749
201,0.020685394823711678,0.019031317941087793,1.608047730299013e-05,0.03027279959972925,0.023480923229674218
202,0.020400788252254463,0.021274433752528733,0.002399619532850197,0.03554384564155486,0.026002108980862304
203,0.01985948802045598,0.021878063976784875,0.0029602021756638995,0.03558411074576719,0.023328441387683748
204,0.017748535272386567,0.020108488084504814,0.0010368982643623004,0.030257301099967798,0.01877703631625174
205,0.01245888968552586,0.014743762037174639,-0.00506429746701597,0.020289459572038974,0.012369184719202607
206,0.007520110201402839,0.008973008678826078,-0.011646014162791724,0.009834502125005076,0.005402617486056984
207,0.007891930979503303,0.008094338275911621,-0.012094828001816509,0.003737106637533661,0.0024007533475599633
208,0.01205662027756557,0.010828474577089686,-0.006698350220962223,0.0021029090441551444,0.0035939617646549194
209,0.01453305221469944,0.01106226611141355,-0.001964032639008806,0.0016551725709015093,0.0040605314749651055
210,0.013393854581218655,0.006682762303705061,-0.0018767662809624256,0.0003122360937321679,0.000828983013147205
211,0.008180510076807052,-0.002038501242431677,-0.007675100396552763,-0.0029333889942801234,-0.007841693230488268
212,0.00013231134316878012,-0.01283269512688932,-0.017193892636035022,-0.006961435906357037,-0.020674634808333366
213,-0.005960180888589986,-0.020683274314262957,-0.024418241859246154,-0.007799433639902315,-0.031955897340122066
214,-0.007693544889258665,-0.02375483288157335,-0.02650421866158909,-0.0038018020588111994,-0.038377782057368276
215,-0.004959329068458382,-0.021451323777348232,-0.023256455809025422,0.0025477008542323936,-0.03774909327006128
216,0.00047237590578885953,-0.015077578671124886,-0.016784516285825397,0.007464516483929469,-0.031057026942037474
217,0.003790810068974038,-0.010824793781535221,-0.01314330438916068,0.008405586663168867,-0.025756188517119517
218,0.0027785299008493154,-0.012471768827564891,-0.015434088867446244,0.0062816848373399535,-0.026375042463371814
219,-6.330660286184273e-05,-0.01734728093957544,-0.02038441448094431,0.004349006692791154,-0.029712441005706868
220,-0.0006775610137391839,-0.019404278962648243,-0.021656396343526455,0.005372087785402436,-0.02924932896399434
221,0.0023145270944696173,-0.015535930617107946,-0.01632097643898201,0.009821734987340746,-0.022781971607866644
222,0.005304358944411443,-0.01022317080769666,-0.00948929765313811,0.01542672772978713,-0.016425116221030395
223,0.004934276948872581,-0.008699768553696514,-0.007321322949047709,0.018969726671639413,-0.014812034825721954
224,0.0019634069823253513,-0.010426000692675132,-0.009897671195652855,0.01840782931053355,-0.013867786966443408
225,-0.0029879434054272303,-0.014247382661799339,-0.015488144199576942,0.013855410411600199,-0.01085029267448575
226,-0.008598904441189653,-0.017594234927933418,-0.021388330049467587,0.008085046776019471,-0.0074408239861662685
227,-0.010668943483867446,-0.014679697204765271,-0.02257227551197468,0.004662962181718801,-0.003006156198896178
228,-0.0073336258098875414,-0.005402175749751377,-0.016868741512081866,0.004814328310384491,0.0033444353252211163
229,-0.002854913787834136,0.0023213550519276442,-0.00898813391321232,0.005932233370517591,0.008293289815555755
230,-0.0008618806599166709,0.003866351970273235,-0.004133941718003289,0.0064257588262409855,0.009419571910494766
231,0.0004403014925289776,0.0019313981167232686,-0.002261776009284384,0.009016484823989932,0.008320170741584284
232,0.003237674127135105,-0.00039645800720798045,-0.0017180789149837815,0.014128178857264822,0.006565680942237127
233,0.008539105909987646,-0.0006130263192821668,-8.621899222082341e-05,0.018067426848841463,0.006174024312993455
234,0.012916679945098618,-0.0006128039779367435,0.0008614645455302531,0.016741236079577625,0.005279770833146889
235,0.012799403302799743,-0.003360506381319012,-0.0018309509109938208,0.010124768072343292,0.0013263819726325155
236,0.010884208979788744,-0.005700474928409942,-0.0049292695867631615,0.0022893359818628957,-0.0016291030843694054
237,0.009655111906923412,-0.005490791177180825,-0.006018922898904786,-0.0036990474632920016,-0.001136717971506229
238,0.009988412764728005,-0.0031434617376028184,-0.005025610605763185,-0.006457932692518393,0.0019170931284592078
239,0.013342845510658554,0.0024548931752613264,-0.0007816811820128746,-0.005990419586548469,0.009126333745557423
240,0.018546302155839415,0.010328124905970201,0.005635920994271299,-0.0041874785610706,0.02039169435466707
241,0.02018720305479886,0.013980315455780889,0.008461754857654026,-0.004134177181880678,0.028580471667325278
242,0.015256065522212207,0.008593274023142994,0.004263786573275533,-0.0066513385815620526,0.02764797342863972
243,0.007624330952487973,-0.002378948695620913,-0.002889282497387444,-0.008688497791145909,0.020400011983034455
244,0.001986421137364513,-0.01257949196091881,-0.00785599736813649,-0.007539062125174122,0.012752010269612481
245,-0.002068608969851922,-0.020029855914014242,-0.011201709709927447,-0.004415200335229402,0.006106185144547876
246,-0.00592854307676312,-0.024098438446593137,-0.014741074309251393,-0.0017272808003856908,0.00038594526399887767
247,-0.008657316020150746,-0.02326165656876123,-0.01761479125632049,-0.000659428386870236,-0.003030452430983618
248,-0.010500210886088749,-0.019394572908821787,-0.019939726405613745,-0.0026264957286288816,-0.004610586441001155
249,-0.012552015620955273,-0.016032107152303923,-0.02237237254653512,-0.007397729499181047,-0.006227450514181422
250,-0.014747033453367043,-0.015138582572179654,-0.02464112973036589,-0.01157326544690122,-0.00969969158000503
251,-0.016478056640353716,-0.016402009827784367,-0.026259148883171993,-0.012821759731162275,-0.014775737356464837
252,-0.017958073692077907,-0.018060576144252657,-0.027526785074454295,-0.012721424758068997,-0.019188181863100846
253,-0.01895145039661842,-0.018848750002076697,-0.028873569690492786,-0.01234850501905129,-0.021960770322398657
254,-0.018062293201468835,-0.018049832875166785,-0.029015996640845674,-0.009861022138603771,-0.02286909633383655
255,-0.015761872497763046,-0.01623528034264391,-0.027481536921813654,-0.004941876459487079,-0.02196433747904335
256,-0.013425437637015838,-0.015061642101782853,-0.025952816489482458,0.0001996775781101519,-0.02041814743618106
257,-0.010976621811104266,-0.015344738688480828,-0.02517174356061547,0.004064023247660009,-0.01952935202532803
258,-0.007684129840808227,-0.01600296891347179,-0.023497044545232427,0.007109330970107961,-0.018942114919036055
259,-0.004195197197732415,-0.01629719560153793,-0.02055664855240307,0.0098578477357198,-0.018454208454356247
260,-0.001944970139644501,-0.01698152315420897,-0.018079537264433964,0.012193499904441076,-0.018975951784431823
261,-0.0013871839719471488,-0.018599816359120322,-0.017063760626652966,0.014087203734253496,-0.020581463094596766
262,-0.002101764099111537,-0.020965031465441517,-0.017133842898506377,0.015146130633306188,-0.02223172524687962
263,-0.0024775009068955262,-0.022310663971057954,-0.016013611236624054,0.01548419970178321,-0.02157741920302555
264,-0.002162928027875394,-0.02183638849444149,-0.013023647239765974,0.015176970204901169,-0.018561616881888496
265,-0.0013637303785533844,-0.019732323452347184,-0.009184004379364528,0.014199926085221875,-0.014253592070022863
266,0.0011794904479089589,-0.015156449884200202,-0.004062585399818503,0.013425228138786625,-0.007205533075929386
267,0.00254082670851364,-0.012082984737897541,-0.0009357301594245632,0.011759241927672175,-0.0011500136818959734
268,-0.0009376513360850415,-0.014879052193872071,-0.003106782244430475,0.008716546669185827,-0.0017214010082576819
269,-0.004529925193010189,-0.01769137723899376,-0.0044372867192689165,0.008615099426169571,-0.003664452875458908
270,-0.004127397375291594,-0.015248818212224317,-0.000337259144191491,0.012598137803857018,-0.00113925866851984
271,-0.0032440606903549564,-0.012042001777475626,0.003999802475297648,0.015998928218889173,0.0016703846591366775
272,-0.0054884161209565845,-0.01301360453774131,0.00371636982850338,0.01583245274607012,0.0004170360230304039
273,-0.009681250433757317,-0.016371522059471698,0.0004394198238001282,0.012247162896442777,-0.0022193715909948615
274,-0.012475549957832127,-0.017870052576817397,-0.0022280640029749216,0.006243576813562792,-0.0025988080591021917
275,-0.01189020339334763,-0.016087096661830565,-0.002294753033552103,-0.0004233584554977541,-0.0005579971329460573
276,-0.008939529003442186,-0.012654766663327583,0.0002613557221095693,-0.0062317660505757325,0.002109850083876746
277,-0.0066905167946985315,-0.010283488541201567,0.0032413246703288,-0.011188942695909112,0.002956298361986738
278,-0.004631317882492723,-0.007975649704692632,0.006583630937686769,-0.014299974849941026,0.0037170542988312284
279,-0.002057307525899971,-0.005415206243128867,0.009762315941236664,-0.01535151912637107,0.005342916316825902
280,-0.0022707275822317196,-0.006490317082534028,0.00888344779541047,-0.01704021477586948,0.002863809071551812
281,-0.00616178803753485,-0.01120765005406877,0.003896790659026691,-0.0203873188529196,-0.004202315753715235
282,-0.010876500401233778,-0.015514365869988535,-0.001262658565344039,-0.023257104247729286,-0.010119990609583403
283,-0.013975490280517134,-0.016714705467702238,-0.0038446850358483217,-0.023779302510199527,-0.011283335976674868
284,-0.014744052290987684,-0.013181874311568486,-0.003340945744598372,-0.02286765341174612,-0.008135331615461497
285,-0.013615834375496835,-0.005449542671186386,-0.0010247564685958446,-0.022605939687620535,-0.00341132309847352
286,-0.012265667381127415,0.00135640780659977,0.0008876857451352549,-0.02378401297860599,0.0004063186419961406
287,-0.011895266556946112,0.003252541035351918,0.001382076534768282,-0.02579376137446818,0.004455055954064994
288,-0.013182636523182537,-0.00015916636411661902,-0.0004615194609504966,-0.028294045956793076,0.008608242562967201
289,-0.015472129829781578,-0.007233958695748457,-0.0043531378745730685,-0.030251224343269566,0.009356702201774052
290,-0.01658714122222,-0.014070983382170986,-0.007343987629573572,-0.030160101380910662,0.005414711286095816
291,-0.018073930573132738,-0.020247696910532922,-0.00995795001590721,-0.029595736400937375,-0.004168073669790889
292,-0.01976193070482366,-0.024883351970974188,-0.011525792756391401,-0.028817703112409398,-0.015773959434876993
293,-0.017262903200624645,-0.023465392616103968,-0.007237855365490054,-0.025171493029682208,-0.02102453322060788
294,-0.011472079900298337,-0.0172349736890908,0.0018042358946377954,-0.01938710219893067,-0.01925224291854763
295,-0.0066160730644852575,-0.01104894733777448,0.010402478922152278,-0.01424088270889032,-0.015564555992219438
296,-0.004580651508129165,-0.0069437257649250595,0.01592726130744888,-0.011166620029652009,-0.012545538198556864
297,-0.005706268892549897,-0.005097160147256764,0.018192384758747893,-0.011304146352661623,-0.009954528825545804
298,-0.007047888891181612,-0.0024981152546917585,0.02052319733197134,-0.013530079496132318,-0.004337844371235126
299,-0.004956668176513041,0.0035336967632150066,0.025492435000035178,-0.01486327418824335,0.0062547933430486926
300,-0.0033191828352764205,0.00734906129272204,0.027156367423763567,-0.016416956795912572,0.014074416069798505
301,-0.007190640423899954,0.0033121013825648127,0.020205241549396992,-0.02018057183352268,0.011616210809092822
302,-0.01339089637124379,-0.004721459746897927,0.009532288579492289,-0.02307634951296939,0.0031964171568331814
303,-0.01753266442056742,-0.011205803043799957,0.0011480964662581327,-0.02293014142973507,-0.0038896149925894486
304,-0.02009211652023623,-0.015709653564098557,-0.0052019447901464995,-0.022915097705495942,-0.008792113391615201
305,-0.0209674215990803,-0.017870219697232452,-0.009872827400186293,-0.024709135724638415,-0.011725463883335088
306,-0.018658212193406964,-0.01609393158512146,-0.01063948954366814,-0.02646396774323816,-0.010987910991113575
307,-0.015858499675981137,-0.01356889156033138,-0.009428036124688299,-0.0283699413998934,-0.009525197303314043
308,-0.015849648885511547,-0.013926995714141984,-0.010049651901903999,-0.031306264595455977,-0.011186457664890178
309,-0.01710615218603758,-0.015311041224040253,-0.011527637058257168,-0.03355273831305411,-0.013748231251286519
310,-0.014777566710965312,-0.012961350007721459,-0.008882756138951406,-0.03246782294660795,-0.011138579085932994
311,-0.007530403945150996,-0.0059477623585253315,-0.000955034048783988,-0.02807249609081245,-0.002331044661473299
312,-0.0002638189709598804,0.0005475690714087808,0.006580181167456452,-0.022968797206463432,0.005849215438168803
313,0.0024348365705331113,0.0016388303974011822,0.008835672646992178,-0.01881191996616207,0.00731992195086463
314,0.0006991535900798727,-0.002443478263509226,0.006665776127513163,-0.015489769220489665,0.0021714487396179
315,-0.003050657969271545,-0.008739765510407916,0.0030907244890606704,-0.013340473576126959,-0.005927423387239467
316,-0.00686199026363016,-0.014755488812789071,-0.0006901625228027655,-0.013784380895334663,-0.01362394849533572
317,-0.009477254369687002,-0.01883629357228133,-0.004094425241566825,-0.017333889009571283,-0.01897280910817993
318,-0.009933631740391111,-0.019927534691227097,-0.0057196695548215135,-0.022549393998146802,-0.020801701597637445
319,-0.007924041046499289,-0.017453301728762992,-0.00483138923532847,-0.02771174622954567,-0.018857744516434308
320,-0.00482170569825908,-0.013141725000148992,-0.0028005605322350257,-0.031094924847811636,-0.01530012791493395
321,-0.0014835541156326426,-0.009236387336466097,-0.0007588867161823241,-0.03055140364944617,-0.011395585268644728
322,0.002039198541061844,-0.005741838966869939,0.0016533356682392809,-0.026924520722431594,-0.0050306166772102695
323,0.004348274724434048,-0.0028153347063488727,0.003987566171104422,-0.023286982543437144,0.004025067157577875
324,0.00311207595117175,-0.0029647973746558397,0.0034119719035396465,-0.02146501539279064,0.010425689513615107
325,-0.001477010080512603,-0.007009494024516286,-0.0005870065266347916,-0.021301618417780263,0.01008209867443938
326,-0.005981484092671359,-0.01167482659175806,-0.004168846935699459,-0.021595849015617986,0.005229791865743091
327,-0.007527049440780561,-0.013468098311005785,-0.004293227506867479,-0.021436389216301466,0.000549759160791998
328,-0.007007329879869602,-0.012436353273028894,-0.0021043349094201818,-0.021079864827195104,-0.0022935340410198484
329,-0.007760018505907075,-0.011724429986808546,-0.0011931109773417198,-0.021530530242210084,-0.005557500037086613
330,-0.010332314963568717,-0.012920513366382424,-0.0024580538574689816,-0.02137904856214698,-0.009958466196795978
331,-0.011033618034316859,-0.013124300532925319,-0.002279597124393237,-0.017627095778456812,-0.011229127575532133
332,-0.007350830200008523,-0.009448461401123206,0.0020382408674444394,-0.01136041631060802,-0.006143582314545996
333,-0.001740231451521548,-0.004279457084897916,0.0076118196672136495,-0.007075653736248385,0.0012803771275215609
334,0.003351666191880969,6.420010340763825e-06,0.01175500476768729,-0.006127648975559367,0.007326357281996729
335,0.00748940400300653,0.003523955415339081,0.014657442247131764,-0.006830451538011944,0.012520293561806927
336,0.010008981845355345,0.005655415058578098,0.016097741657462833,-0.008487295726714743,0.0167128486724656
337,0.010323130812210118,0.005570190433077213,0.015314755136483976,-0.011396108480426482,0.018513597826518294
338,0.008855758758959146,0.0034030713626595605,0.012295950430417868,-0.01496690784449991,0.017264834925578128
339,0.006759020791631284,0.0005906979228227256,0.008339927399942233,-0.01837641843300631,0.014056403337865989
340,0.004390647370199638,-0.0016386710828625024,0.004999963409399998,-0.021583944123582856,0.010019057990565034
341,0.00222307614405692,-0.0027218570608645992,0.0035306099853592635,-0.023737156151528428,0.006175068947168771
342,0.00048603555204728273,-0.002982466226994171,0.003046808484321453,-0.02404810071170825,0.003384913376567362
343,-0.0028529117068140973,-0.004995699170006019,0.00017795119483272242,-0.02402637824495823,-0.00021303719010273408
344,-0.008538839317153171,-0.009981134284798233,-0.005399763848230214,-0.025163299960515546,-0.005848890508428711
345,-0.01386375610670799,-0.01513000180494494,-0.009889645934403508,-0.026780432106090876,-0.010940471740781528
346,-0.016974656719097262,-0.01802997270535375,-0.01187888297486369,-0.028433155131346696,-0.01355777077984106
347,-0.017457898531294286,-0.01808587550186998,-0.012220320055684929,-0.030434182459091817,-0.013243937556874351
348,-0.015650114217818627,-0.01606413645328001,-0.010726458246458594,-0.03223804550676907,-0.010498008254135988
349,-0.01213258368626471,-0.013029189158546978,-0.006745407764060077,-0.03208584814119801,-0.005754278208375557
350,-0.007542149517433071,-0.01001714844078599,-0.0012256219720413902,-0.028646666837223153,0.00021084516603598447
351,-0.004529320349972067,-0.009851908926445784,0.0023679676016659878,-0.023521504552060986,0.0033535518840271715
352,-0.005163517711680514,-0.013757961163931971,0.0016634881638481537,-0.019670391205132805,0.0015243033847852018
353,-0.008535250543559598,-0.01997644255336982,-0.0027637895922123885,-0.018255181523889306,-0.0033611651396145523
354,-0.01196363359096588,-0.025760224017468664,-0.008234016488427308,-0.01821230522498627,-0.009011124058096235
355,-0.012508382618429561,-0.027315596170790223,-0.010889632033426957,-0.017505664098252056,-0.01217776176338589
356,-0.010367432829933581,-0.023743427153456165,-0.009673078951437722,-0.01563668790650838,-0.011242975490306797
357,-0.0074634272907844355,-0.017367417518095497,-0.005502597197867288,-0.013357019508849518,-0.006759374270796504
358,-0.0034482001243688774,-0.00926650532787049,0.0019878173945272154,-0.010634427195448383,0.0016420486872084558
359,0.0011664298291834553,-0.00128867287680682,0.010914632773298358,-0.007810092195982463,0.011388957598621501
360,0.003564717139381137,0.0029841900833809804,0.016794975441269316,-0.006125127240748165,0.01681500192618846
361,0.0014077473679910827,0.001238139234610693,0.01652749103595865,-0.006861459425415407,0.01508908341473291
362,-0.0027443291125323994,-0.0024278917684609977,0.013552076982097504,-0.008947378451421958,0.011634841362454027
363,-0.004291130907151628,-0.002015072578297151,0.013485951008678469,-0.010039110403016084,0.013210737764704588
364,-0.004236894699941701,0.0003079968964276753,0.014445078732379798,-0.010507780818317563,0.017107408352788466
365,-0.005724242312295622,-0.0005209280681133288,0.012589345566348746,-0.010417195635039463,0.01749840897261544
366,-0.009262832992224749,-0.005000539746495065,0.008084788847758024,-0.008853270310425375,0.013726773211043207
367,-0.013416135116317488,-0.01002726860842895,0.002675873938579951,-0.008026095980600561,0.009614108648796346
368,-0.016892557362758368,-0.014104591495677683,-0.0025664056340029126,-0.010254045949189359,0.007068147603887304
369,-0.019214218413594823,-0.0182894713675796,-0.007168643432306462,-0.013633327812433307,0.004045483307406763
370,-0.01823928198855948,-0.019847628926590734,-0.008405315638733674,-0.014167148914960436,0.0023682932189752126
371,-0.012921037225236243,-0.015325787986023165,-0.004440070108915352,-0.01102242133593966,0.005957626462302599
372,-0.0066666874673512915,-0.007523280360411151,0.0015747702358369542,-0.007383722291438539,0.012649942197111918
373,-0.002664363809489922,-0.001414788976610515,0.005924026614971475,-0.005905074170551312,0.017161883678944022
374,-0.0007830158104749201,0.00152747975899964,0.007725667080812639,-0.0064835639040950735,0.017391119921477932
375,-0.00029355421565238615,0.002023805076517389,0.007237234950061799,-0.007831478800508234,0.014302351013506217
376,-0.0012988965373810848,0.0006689875092098699,0.004733739270035506,-0.009411287519451179,0.009792039401289362
377,-0.00401845706666917,-0.0023214223065362413,0.0004576556603156213,-0.011691826422973539,0.005442049642018733
378,-0.007707869031646889,-0.006738337673893464,-0.004654274788673908,-0.01438843146030177,0.0019557431791800057
379,-0.010483265215342095,-0.011447191487889974,-0.008768260502362285,-0.015806989983369702,-0.0002143859116048819
380,-0.010835744202293046,-0.014385482900065668,-0.010533159799532536,-0.01517784070668775,-0.0002202654875143861
381,-0.006497612269514927,-0.011625485200138026,-0.007399523389528738,-0.012709303334898808,0.005017320908888715
382,0.0013262860822820129,-0.004131169444266598,-0.000354878274971979,-0.009629045117494541,0.013599093122591131
383,0.007838562849337505,0.0023264183068841078,0.005583860349945444,-0.0072336149385854205,0.01890605889502129
384,0.012822362844303221,0.007757390578970154,0.010939077559332643,-0.004151413395528662,0.02136772617372634
385,0.015530066685746333,0.011562974249972656,0.01557920967507666,-0.0010979234193091625,0.021407036936266638
386,0.013079254544680143,0.010222999459771844,0.015612694772251317,-0.0011522232064342516,0.01594557375804583
387,0.006490817371599837,0.0045328859136106806,0.010798235157883432,-0.004219385496616923,0.005950749352684205
388,-0.00169867851341783,-0.0031731100436233365,0.0028541625538772725,-0.008476975199211274,-0.005561123475697395
389,-0.008698048752947954,-0.010356653205501533,-0.005381856484990005,-0.012214914392084011,-0.015084802150182096
390,-0.010314747878235721,-0.012452540305578774,-0.008621080162539336,-0.013297199759369495,-0.01753879020869027
391,-0.005024035101597871,-0.007576616309065939,-0.004567460365874513,-0.011023137252445367,-0.01136174182551178
392,0.0025278184788572844,-0.00042942753742199316,0.0022816941947087217,-0.007523138981003383,-0.002203388226946326
393,0.006433674804952513,0.003033655934270784,0.005933566813588965,-0.005396845391416371,0.0030994399597098652
394,0.005161349012908031,0.0010558682968322566,0.003998778273283885,-0.0054554633725097685,0.002078044995177179
395,0.0008796391674582413,-0.004402651354724522,-0.0021600201944885085,-0.00668132077851026,-0.003933887098515713
396,-0.0038693071962130955,-0.010520710570158328,-0.00962398276764707,-0.007418391908362333,-0.011828070545842019
397,-0.007361651418801012,-0.015021983214369244,-0.015669562081025858,-0.0064873094880327975,-0.01779424661079854
398,-0.007596880524836175,-0.01603431619703565,-0.017451592144487504,-0.0029487160696291957,-0.018377310853966593
399,-0.004112541879169772,-0.013776549884906803,-0.014273875713104225,0.003010150245458289,-0.01353466633027882
400,0.0010788991553934886,-0.010031374973822102,-0.008561708106238495,0.009609309635250496,-0.006759065967159209
401,0.007367855450666006,-0.004241739087518941,-0.0015643632265247905,0.01644219052961872,0.00011995554196102453
402,0.01403534582950928,0.00353686811025522,0.005906800471253042,0.024153138883859275,0.006793747170944964
403,0.017793894152438653,0.010202604531503075,0.011425262415306496,0.030458825966455553,0.011861041233610264
404,0.01782790716160855,0.014922074688477411,0.014507177951404241,0.03199508027716625,0.015033999256854462
405,0.016539124627162522,0.018301140608059888,0.016135094390980605,0.02951166423898261,0.016635637520214488
406,0.014434519885828273,0.018865385834593913,0.015262705538404414,0.025800287292377825,0.01600433002723472
407,0.010183626470523142,0.015748061390694505,0.010912923779125156,0.02180577907853196,0.012584710482899797
408,0.004292794259878565,0.010703305296559445,0.005194127960166414,0.01826505046443251,0.007176373730964999
409,-0.001967614499795116,0.005624910171578216,-4.71485883313413e-06,0.01546897578150265,0.0008896817363424803
410,-0.008506596453346829,0.000780014556752505,-0.005591391032118858,0.012277347840149146,-0.006136581842984712
411,-0.011277761635965937,-0.00015605921463549517,-0.00801654295060352,0.010708436509367513,-0.009022580105431832
412,-0.006508877669628513,0.006027814855592155,-0.0026243632391464984,0.014013133773646732,-0.002699636109871462
413,0.0005008745427984726,0.013987149288140974,0.005441432096753401,0.019680762176417916,0.007894085979421844
414,0.004345420648736475,0.0194090150783119,0.009749247062996149,0.02387240869444074,0.016366678907817657
415,0.006080586984450137,0.024561351470137667,0.010974152018990635,0.02665875088464778,0.022070265298927194
416,0.007329239390809381,0.02959716097564115,0.011161722655262782,0.028831573467788654,0.02533650514849131
417,0.006821797150470923,0.030008094640820354,0.008715206015486376,0.029096189325855334,0.024377963092503792
418,0.0035249387667879075,0.023787639533486962,0.002092047538550415,0.026329295111862275,0.018755745813482338
419,-0.0008938040661574206,0.014234921232434727,-0.005983030003351069,0.02248153304927882,0.011327115940152866
420,-0.0051153928492635,0.004610960226429347,-0.01214016549278704,0.020239465213864903,0.0038598940446175553
421,-0.008070985604627228,-0.0024140214687460838,-0.014382631294976588,0.020492044580663813,-0.0021459364975172004
422,-0.008708165247033798,-0.004781462286249661,-0.0127222071866302,0.021994541685820816,-0.005036828392811593
423,-0.008345262167561316,-0.004746568111239661,-0.010028848931631168,0.02263673402784481,-0.006514014255901995
424,-0.0064975378192231046,-0.0032506852630574644,-0.006201993839419826,0.023220395134578818,-0.005264522140138844
425,-0.0020961551165106624,0.0009672077826362172,-0.00015675074197388241,0.02502038798385988,0.0012298179066401456
426,-2.482913980838873e-05,0.0030808779007021245,0.002626277313161039,0.02539637547830445,0.0061710412262980735
427,-0.0018899582523216748,0.0013219685337771674,0.0013027509581533822,0.024069681279388657,0.0064597585941430545
428,-0.0025041628657335997,0.0019606972206831063,0.0032452528826279114,0.024485300644983433,0.008741059532101613
429,-0.0025913619262746554,0.0044062923183156265,0.007392898508015553,0.025984791704404958,0.011210224178080427
430,-0.004885047978479737,0.004566800655899354,0.008807593426693655,0.026755012231333246,0.008850972020924084
431,-0.007944278960077426,0.0031919384873800305,0.008149298814666,0.02779015772967623,0.004376007256551669
432,-0.012821848184920095,-0.0009038262353136606,0.004355037561993225,0.02859983585528123,-0.0017466806706717135
433,-0.02212329324325912,-0.010799331751047702,-0.005372656628643558,0.026501820053815253,-0.013358954444684774
434,-0.032082515755394614,-0.02266686130514357,-0.016839577103036553,0.021985456175299126,-0.027134735658892767
435,-0.034716639223440156,-0.027108171018369806,-0.02099443163688145,0.019065838862385314,-0.03254347333771936
436,-0.028313585978137643,-0.021442391602275047,-0.015828552717900166,0.019293248590961168,-0.026211924537868195
437,-0.01607398255388248,-0.009039140627840505,-0.004246354786568049,0.022297235907305684,-0.011921961082424245
438,-0.0031442854098398965,0.004481103844549845,0.00930281760524933,0.026590762593068404,0.004048391643341233
439,0.0033026375482400542,0.011747366096360038,0.01713369577903517,0.028419098140090464,0.013651745791941759
440,0.0017304410443321225,0.011308536627035012,0.01699831618599139,0.02672221935353712,0.015077674183881834
441,-0.0029912410105988906,0.006955543709011454,0.013351514095893897,0.0245644985385703,0.011845519699212121
442,-0.006866887623132082,0.0018847373494967588,0.009427727528832438,0.024146584495431635,0.006729751701369287
443,-0.007566918283577197,2.320508551498579e-05,0.007888111846680333,0.025394784096288994,0.003796556982519455
444,-0.0035617366052290754,0.004510778119455584,0.011382003867029325,0.027815213773871153,0.00703222000760288
445,0.0013388110122349159,0.010999395430626798,0.016001334422080564,0.029338281527415355,0.012636843049256353
446,0.0012564877053795882,0.012347667576838767,0.015231646570874174,0.027425895354761982,0.013632295711466373
447,-0.0035863007542142173,0.008300772519353001,0.009782152290720682,0.0233461109366082,0.010469897914299045
448,-0.008416329286197623,0.004051499380108954,0.005799656713708739,0.020631375544375996,0.00922430637554351
449,-0.011058189133534546,0.0025476264201799693,0.006009686482276457,0.020210177118542665,0.01228869323724376
450,-0.01298773808435,0.002170768091242828,0.007693320678685734,0.02105588739456227,0.015772948141758107
451,-0.014349823070391279,0.001988171019710066,0.009143681898594502,0.022769758987963674,0.016973025212768184
452,-0.015223597368825566,0.0018202553818309837,0.009673171465171196,0.023721951520163535,0.01570102454653338
453,-0.015320586755051905,0.0021766870588855853,0.009548041226145216,0.02296881746462625,0.013493492471317725
454,-0.012771918452248721,0.0044550147718877345,0.011327944849934834,0.022534072486752467,0.012569472287812772
455,-0.009242660423598621,0.006513738118608377,0.014262799004512843,0.022924236967399182,0.010862229420150188
456,-0.0055984910541309885,0.008531592234696407,0.01806724748975569,0.024974969970076765,0.0095389399909869
457,0.0009344289942872887,0.015259655279233956,0.025747267162886413,0.031186181620508204,0.01385262035995296
458,0.008268581925365132,0.025824038657041005,0.03471881975522208,0.038633612195584706,0.020793571398155436
459,0.010647020626802615,0.03274607327102864,0.03864756972427268,0.041300495048061214,0.02319421696334334
460,0.00803809794724613,0.032083069392088166,0.037380232519987,0.03891315170929383,0.02190145560906163
461,0.003932375415593821,0.026222540496142088,0.034600002601497544,0.034804187727421214,0.02165090518943611
462,-0.0004925387692058223,0.018621329677718932,0.03163494773714539,0.030499925262129822,0.022667691524709908
463,-0.004069915399067954,0.012091208702391455,0.02914176385302165,0.026899798329856405,0.02249913942397743
464,-0.00544459354254284,0.008241248614775636,0.027773516557265666,0.02459397850691098,0.019252408515215005
465,-0.0029596875984838297,0.009324104343661333,0.029675918891727854,0.02449331593272678,0.015911691661119554
466,0.0012563661001365031,0.013484337076717262,0.03379893055891764,0.026339971975558214,0.01380631144037055
467,0.0017536476258681842,0.014733853421158221,0.034698039599860196,0.028013062375503228,0.009143928093718619
468,-2.009666976109835e-05,0.012866342057801478,0.03075793992654978,0.029170926408259783,0.004514265885873771
469,-0.0003630266507671683,0.011618442697204991,0.02587844401653154,0.030265214261176423,0.0047198739100829555
470,-0.0010349756463042387,0.00945406570828188,0.019768234568187413,0.02928988549924163,0.007740847046622186
471,-0.0024983010791444294,0.006478074015341607,0.012968710534994505,0.02573732576842456,0.011277812106759344
472,-0.0026905632461692334,0.005643213886683926,0.009246647912184758,0.02231209825558008,0.01368993369609943
473,-0.0033596075495770246,0.0035423044846886118,0.005363286990334996,0.019780559177248955,0.010773843356526456
474,-0.003871949947389557,0.0004056876499458707,0.0008526460053060748,0.01877005501911431,0.006780716937345243
475,-0.002734234871549847,-0.0015384378140240692,-0.002816539160900471,0.018891133330522742,0.006637889408381298
476,-0.0029155891424077858,-0.005279374082080854,-0.008307520485926161,0.01759525947126072,0.005440810471506809
477,-0.0025122302797292604,-0.008586740087085163,-0.013436934320752837,0.0157584082929409,0.004317248944700822
478,0.002403038662544546,-0.006341215849544955,-0.013486576974915234,0.01646256745512607,0.008602657551628187
479,0.008868231225983477,-0.0010023431104170732,-0.011122213659226377,0.01888126741711501,0.014905399417632637
480,0.01210766456474683,0.0018849604511098556,-0.011906563336925257,0.018998590511527635,0.01723871498975373
481,0.013267139939410491,0.0027533879221645053,-0.014433326060766215,0.01638222967981515,0.01627723574025779
482,0.016461298668397458,0.00544452788515894,-0.014766475473444535,0.013645583943675732,0.016673071575128443
483,0.02202247342835488,0.010752277678316683,-0.01301912278477763,0.01128098023269652,0.020758093630016298
484,0.029796567133811392,0.020880656513618878,-0.003025571738064351,0.012469338323828473,0.030379508202081785
485,0.03973255963774833,0.03436966464205954,0.011979795008370769,0.016067077350975387,0.04503629983751304
486,0.047091226545497446,0.0454602281773318,0.02389806525900608,0.018876332395118687,0.05760421112114081
487,0.04706982728122892,0.04969208915595216,0.02928271306822664,0.020088788931403905,0.0614083124803912
488,0.0412441937216789,0.04729250379136457,0.026550312213046556,0.01878139483543886,0.05708735433858707
489,0.03432872973953474,0.04307084347634093,0.022355271684580867,0.018071172238980637,0.048939708093830865
490,0.029261620811474504,0.04051546342668919,0.022050125095450554,0.020068097844408436,0.04151216249773412
491,0.027368808258555883,0.041487853270549595,0.026867919454158784,0.024120645794681043,0.040084207670472924
492,0.02555256108671375,0.0422858187922054,0.03061782609933358,0.027101980296882176,0.04299706633135103
493,0.018381509130495695,0.0368012041313928,0.027707853147678284,0.027670232159633105,0.042123568390976945
494,0.007625009947558339,0.026999048317530295,0.01993581334112791,0.025919319316624504,0.036986233774172435
495,-0.00015892810440936426,0.019924319293466074,0.013825560720141053,0.02338251161922085,0.03288018618443602
496,-0.0023506884542358573,0.018367583192819774,0.01491726939249899,0.02361864153565877,0.030793832585313423
497,-0.0012229457809062756,0.01908431773363427,0.019722558435722248,0.026139498527332453,0.02807350341994681
498,0.0004735453630114505,0.018477990886974334,0.023898913526815776,0.029097072353942988,0.023344730597577048
499,0.003225560682997675,0.0178421797821105,0.029050405137692383,0.032931777035885484,0.019244268297860568
500,0.007782263232451209,0.01872116752774885,0.03142389185542229,0.033841100126567436,0.017904596889782395
501,0.01362591656432804,0.02167945394323642,0.03409874049661738,0.03462064539081065,0.019141360586709084
502,0.01979144079700287,0.026148033299385517,0.0385491934940385,0.03748849902682203,0.02193697734777277
503,0.023725460387594554,0.0290040228598048,0.03967637997290628,0.03877928398992923,0.02310046103788704
504,0.023491618712354025,0.028061623614533793,0.03774058484841274,0.03829426390296017,0.020554138888800175
505,0.020805194887221143,0.024698028156232593,0.03312296336918428,0.03557088935586643,0.01674530588352665
506,0.019879638407469414,0.02285769909628786,0.029154018374662614,0.03237182990175806,0.016166772118008994
507,0.02248163743203228,0.024343806860042755,0.028797059267310823,0.03094753657355323,0.020038873997117797
508,0.024846660372822234,0.02546844967739415,0.030511632026855244,0.03221870281930595,0.023647144301579163
509,0.023160728019562222,0.022832190387025615,0.028377489632746822,0.03325643612518673,0.02348920339593505
510,0.018680534482447653,0.01845828730975604,0.023096188522963985,0.032802633054660815,0.021637668353292425
511,0.014703391989678042,0.014954333135225999,0.01883504828967807,0.03213402843479132,0.019798353114941682
512,0.015506271004503221,0.01580491249245778,0.017608139298934213,0.03179108066629975,0.020867824728992547
513,0.021461648483446335,0.021944758779453562,0.021396321220533893,0.032994412246527285,0.026620874576787284
514,0.02530207920038625,0.02562802947892405,0.023733131685943785,0.03228435417013996,0.030366038617940353
515,0.021644514136248436,0.02122168459028988,0.01806307400377035,0.026687920476978544,0.026570251757975834
516,0.014149465585820437,0.013562698119852341,0.009793356171382783,0.01932945020249857,0.018837792901890867
517,0.009557229034599019,0.010324482843048276,0.005915543158472453,0.013887100947240343,0.014235476506284636
518,0.00881826824111805,0.011556993196632883,0.00653161791361138,0.01162439533457526,0.013804324519209266
519,0.009981862610830363,0.014056412568254902,0.009240578499831946,0.011877145692626528,0.01637972557645119
520,0.011967171999235563,0.01624403189049286,0.01194189384528898,0.012622706799547362,0.02132620376862624
521,0.011908872379449811,0.014978223503813174,0.011761216508429406,0.011754793974792966,0.023955838894077028
522,0.010221613031630392,0.01150896286538459,0.009584457694698538,0.009181119953272521,0.023737836681273033
523,0.010329695043556901,0.010331023077044905,0.00925508525351513,0.006318267242089847,0.02417405451603033
524,0.010755242964222474,0.009141248823718619,0.008433442169158154,0.002663610731196722,0.022679893725504535
525,0.009070193918265839,0.00461425949133837,0.005032459718127646,-0.0011959861820919318,0.01701335674874348
526,0.007341254083854411,-0.0002210830233888852,0.0021237345657848404,-0.003160617882277412,0.012002373868855071
527,0.008904282047772678,0.00027139936886510683,0.0037189825980524158,-0.001397866272253806,0.012443112750078532
528,0.0129249579818643,0.006768939379863821,0.009092294682005139,0.0036227362059535863,0.015443552512862205
529,0.015682301681887553,0.013245652740021364,0.01274630735406659,0.00858272740025386,0.01503071640041833
530,0.015919569190670897,0.014821709025521724,0.012552120330903218,0.010586460407139939,0.011339622497163313
531,0.014384115650831746,0.011449960429160135,0.010022241551691397,0.008701200810488027,0.007507297462415309
532,0.012493624962783358,0.005439776224322762,0.007122803035603302,0.005326225719448727,0.004216053231165022
533,0.012709673514145106,0.0011972955027287106,0.006579014516337964,0.003692623237704779,0.0026627843502830006
534,0.01616823507120549,0.0017474551743897446,0.009996642829852251,0.005947681401633152,0.004303096641786269
535,0.021848037659659647,0.005969001743469628,0.016356367493027036,0.012330047106557128,0.007964851401654078
536,0.02809103428086286,0.011753472289622865,0.024047782981966227,0.019629899448261174,0.0124495749104597
537,0.03277942684436835,0.017178982684797253,0.031247153128271518,0.023855730411979813,0.017284992084289574
538,0.03375095035473085,0.020271237182920166,0.03522572679403238,0.022784628886971067,0.02041413608361278
539,0.03061867163457698,0.02026669566421111,0.0347521887355632,0.017142875063344495,0.02000467675549507
540,0.02450754983342374,0.017069780213116933,0.030256571827416135,0.008858440662001043,0.016350969222414805
541,0.015546674375773213,0.009167293697344222,0.020744382742914822,-0.0011644201073876196,0.010094066820990514
542,0.006748720810857714,-0.0011040895984129212,0.008919169662864199,-0.010707428953717206,0.004684308160250003
543,0.0026314038782853013,-0.00813970360597571,0.0007318115160431338,-0.0166380400047689,0.003990658334811513
544,0.002442893560417767,-0.011293687923098289,-0.0029031589516003223,-0.01865368694280087,0.005709779614000872
545,0.0036493197520621004,-0.012404439517397869,-0.003659157658125488,-0.018563563575891617,0.006396839307112413
546,0.005005266653586541,-0.012814884332161424,-0.0031439851419283135,-0.017902585983286888,0.005203119309023715
547,0.004854437596516823,-0.014394690889697973,-0.004248355562218521,-0.018093392623677353,0.00140874129696787
548,0.0019936555690969857,-0.017918803694701738,-0.008356022880715939,-0.019497598534543643,-0.004738560305544956
549,-0.0031414439366989036,-0.02278988116637268,-0.014510614096431196,-0.021146682593212406,-0.01220348617644501
550,-0.00799038338008233,-0.026800693828236466,-0.020190774144785577,-0.021905425670069895,-0.019090838774468856
551,-0.008319745331628948,-0.026264644509379823,-0.02091471375759246,-0.020141901784694303,-0.021736179563439918
552,-0.0034968935374758373,-0.0212085408287723,-0.015634821900078772,-0.015919141805743612,-0.019739080320650935
553,0.0021129694116867373,-0.01595039237616978,-0.008953270066772597,-0.011903985163580521,-0.017235739270054215
554,0.0029288694123494495,-0.015490946447725223,-0.0072688225206449285,-0.010579139623107062,-0.01914667366496553
555,-0.002695067334544635,-0.020952340158052002,-0.012469483025652501,-0.011942319288322447,-0.02585740646943279
556,-0.010409038214133342,-0.027235783185848683,-0.019206344168284074,-0.014783292930283121,-0.031228025726766327
557,-0.01718504075401849,-0.031614229487590725,-0.024220741962324786,-0.01913087277179372,-0.03302501348794128
558,-0.021156490611175624,-0.03384888668189958,-0.02664377570632323,-0.023315366162582393,-0.0328104761740416
559,-0.019785204820364964,-0.031841284454842175,-0.024046728199050564,-0.02507890863744792,-0.02916761737546948
560,-0.016660526440806653,-0.028346899602510647,-0.019628856906463536,-0.026863335501482292,-0.02418535582378524
561,-0.01611232288502704,-0.026681794351246915,-0.017527544046889304,-0.030874819836096305,-0.020430690278334978
562,-0.01711441982265195,-0.02519417379495476,-0.016570671834455472,-0.035000966134323554,-0.016736311535537125
563,-0.018480546681476234,-0.023857672885151948,-0.016354008916305132,-0.037149369083980435,-0.01491728664518591
564,-0.02036532502632495,-0.02444200452789086,-0.017621594175438855,-0.03669696895049573,-0.01763872294308479
565,-0.022023702022010032,-0.025910953877444694,-0.018557154357675385,-0.033513416432264104,-0.022702240028518315
566,-0.021860751976425705,-0.02551697479568834,-0.01654618128245321,-0.028317247664624366,-0.025199977317977632
567,-0.018288621631450126,-0.020900469165293766,-0.010674924560089703,-0.022216054873085204,-0.02136456235903361
568,-0.012108329905265761,-0.012340989129227832,-0.003494424114396347,-0.017234158841540507,-0.012541987647056255
569,-0.0076794126539302355,-0.004422452097622052,-8.669492176524374e-05,-0.016191956071358114,-0.005441643727908084
570,-0.006924768755980675,-0.0006229846503459506,-0.0013339609741602225,-0.018403467392990237,-0.0037318798825379954
571,-0.006598997402909348,0.0007064346269458547,-0.0031671473435778215,-0.01983232145739575,-0.004272652506907367
572,-0.005127403375467061,0.0011792953207970963,-0.004062389416081049,-0.01943911668682679,-0.00469358048617086
573,-0.004118866537442366,0.0005125847926409187,-0.005539348209935488,-0.019413538524141568,-0.005864652715407938
574,-0.004107881124731062,-0.0005254982224193062,-0.007833897331187962,-0.02098996994467888,-0.007957064228433702
575,-0.005649724736096614,-0.0026056764287781167,-0.01192362430936236,-0.024341303917760262,-0.012734942146204508
576,-0.006703691027036031,-0.0044439035181741615,-0.015713108184957275,-0.026162949223308536,-0.01744256038209909
577,-0.004445108396434214,-0.00323875329649296,-0.014992499566384827,-0.02259856355507568,-0.02269214275555384
578,-0.0011883629680465994,-0.0006917366531944778,-0.01201626907111357,-0.01675722926850044,-0.027081805410821308
579,0.00034210901334898305,0.0016602340968580253,-0.010869697770649875,-0.013651413438105732,-0.03042857005935525
580,-0.0009230721444022471,0.0031227683043291,-0.009918583113992413,-0.011512629517682027,-0.028675540522830438
581,-0.004288700021321154,0.0031793004234835697,-0.011128193989089426,-0.010824523853536218,-0.025047075859442852
582,-0.006581957272767202,0.0037922224361643503,-0.012639413658642955,-0.010972477299581201,-0.020489255059215172
583,-0.006183094574328092,0.006136225568196291,-0.010440193925464525,-0.009825480869771449,-0.01342441768678882
584,-0.005345732311489315,0.007504363111416361,-0.00843289678352075,-0.009984252325570143,-0.008828233716197455
585,-0.006814166515924517,0.0047807720945982,-0.00883894020088671,-0.012109857251923917,-0.009135613409882006
586,-0.010221138875200627,-0.0008965254366923169,-0.010414864541617596,-0.014612923590624018,-0.012267752284457988
587,-0.014163117261065021,-0.0066805360927726775,-0.01185385469024557,-0.016437062205910204,-0.014900896354176131
588,-0.017499322617085762,-0.010546394737604176,-0.012612968257628431,-0.01780668248026733,-0.015519153806456605
589,-0.018648361553790804,-0.0114999239337359,-0.010031560263529386,-0.016288492220994353,-0.012723933702640551
590,-0.01886647529183955,-0.012390075612483087,-0.006346318077379838,-0.011901281751476395,-0.010203798199663206
591,-0.020225887015445965,-0.015333212180104187,-0.0052372015024726186,-0.007322009524360435,-0.010761004199194424
592,-0.0199231282655361,-0.01598268895965818,-0.001865744548293701,-0.0009757132239089359,-0.0071767439365216165
593,-0.01707277262575009,-0.012955968579764774,0.005431097484371389,0.006610988936882133,0.0023507040869004273
594,-0.015524720969389633,-0.010724585703078682,0.012699191301178839,0.012854093347808756,0.010647162072610314
595,-0.015013236741653214,-0.008674249055857291,0.020272792913056163,0.018708691389179584,0.01733001068223455
596,-0.013600847222622073,-0.00430067996396488,0.021500416641817996,0.01931772056719435,0.018711696990151884
597,-0.013054075263494731,-0.000802251273593982,0.016939751895500538,0.016470752119564384,0.01736141433973978
598,-0.013714173687451432,-0.0003849041423265797,0.009459938198868156,0.01292923383314461,0.014284604850011463
599,-0.014154679841436217,-0.0014815263340836901,9.295303134152286e-05,0.007439336908484438,0.007456717618482147
600,-0.014647297167158973,-0.0031676912328894723,-0.005797396408687533,0.0023418579811551,-8.709794583667234e-05
601,-0.015206311509331405,-0.004807548404372418,-0.010215453288434099,-0.0030704704596564276,-0.010489864419260034
602,-0.014619482921393876,-0.005201484279423936,-0.014955408498636732,-0.008314265953899433,-0.021690143500906138
603,-0.011888997266031242,-0.0030361233969163036,-0.01868506340176578,-0.011894022296680651,-0.027019624401658747
604,-0.006285619828769454,0.0016263034463662432,-0.018116584107865662,-0.012644016839944521,-0.021411508740614402
605,0.004049934656740815,0.0070039407448602795,-0.013980247984774,-0.012685040144855024,-0.009571533253304988
606,0.01779359687135239,0.012107303198437214,-0.006333472755347722,-0.011568605816531264,0.004390313413101164
607,0.026189323830961356,0.014212515379240077,0.0009562596622624656,-0.00915851536553383,0.015766414848285046
608,0.024774736017070753,0.011376514819319337,0.0011210466403466881,-0.008143103307750347,0.016811867185176296
609,0.020490220635606415,0.008405130516848228,-0.00018187014599211888,-0.005220274965283924,0.012002559086773137
610,0.01776684477630794,0.007809698593695039,7.611028436327203e-05,0.00017775935394311024,0.0057498519546320855
611,0.01380047076665423,0.005993182731967045,-0.0033009388663840854,0.003866486311143075,-0.004636338072100404
612,0.009203411667126191,0.0032578741264778937,-0.007267474380544314,0.004142195155034141,-0.013444943345526664
613,0.00853448047612027,0.004055725871458273,-0.006687632143120924,0.002936895013502247,-0.015843656687442403
614,0.011813619814418549,0.007744124248258409,-0.0016401852191986397,0.0005311092774358428,-0.01246951984046881
615,0.01647413937484715,0.011184080803384193,0.00630390540483285,-0.002907606194667104,-0.004807724343104565
616,0.022495994590268263,0.015162044228073846,0.01581055273188393,-0.005189915817412909,0.005700825009243058
617,0.0276695531310098,0.018130157700595853,0.02331154728552997,-0.007389001533897832,0.01577625305171024
618,0.026574408083751548,0.015593549215861311,0.023188212493397205,-0.011565484505825877,0.018115736978504562
619,0.01862210741126781,0.011279208714795633,0.016573714328851658,-0.016981717052679007,0.013712991658700753
620,0.009618738144019185,0.012595729066644686,0.009895890921082832,-0.020422164782307427,0.01025225414727562
621,0.002853843859094386,0.015760301551360045,0.006378564481973463,-0.020792311274484745,0.010552186814972801
622,-0.0034479369825517014,0.012728118100041118,0.003010290277003422,-0.021226678483530294,0.009594983057872635
623,-0.009684814998608415,0.004147070869781293,-0.0022504161908460892,-0.02430312131928564,0.004341716001898313
624,-0.014176534650067065,-0.005085377047294937,-0.007783370494131604,-0.030241150479587895,-0.0023609291756835305
625,-0.014992485949400064,-0.010836690806996565,-0.011585844283461662,-0.03778734742328922,-0.0071783879090906895
626,-0.010937965288215572,-0.009659402435863433,-0.011108083270764227,-0.04498339415399712,-0.007045602321800433
627,-0.004012401955065637,-0.0026298473943364587,-0.007172152173457428,-0.05093031452292098,-0.003518050853486258
628,0.0020900019425246197,0.003360157602553006,-0.002428823976614141,-0.04868918813727255,-0.0019662747566018936
629,0.00494032312073408,0.0024059151615167655,-0.00021119991142419533,-0.0409811668028788,-0.004797190429040326
630,0.0057896835856259,-0.002415260246964099,0.0010444199903938715,-0.03133550739994345,-0.007336398342261548
631,0.006582183301513337,-0.00521329019460254,0.0038101862545386724,-0.021271101811496582,-0.004958101331110934
632,0.006001183123968004,-0.0061233872514974644,0.004433031732157752,-0.018856295781985447,0.00036799786003536227
633,0.0025014252100763836,-0.008226437822307362,0.0007677601323711659,-0.023798382502083666,0.004835887266717295
634,-0.0027112028925620514,-0.012409377445656575,-0.004807324203961396,-0.030755028839934574,0.005391147701725683
635,-0.00796497052791527,-0.017569868719884467,-0.009850710559327677,-0.03626143615225475,0.000305652582539658
636,-0.013986722686700691,-0.02427158082333451,-0.016312999440319227,-0.04180008186153217,-0.00914082703611939
637,-0.019760659445529922,-0.03139962015851079,-0.02394192785505903,-0.04399010614588132,-0.017369383270184443
638,-0.020936038729113395,-0.03337413241754315,-0.027501654440342596,-0.039048930337267626,-0.018218910476073033
639,-0.016051126219751088,-0.02685197223736861,-0.024158252517896852,-0.028298894182293588,-0.011208566910641822
640,-0.009174959826953216,-0.015831822397751348,-0.019166800279444045,-0.013895984207730088,-0.0015015478466054604
641,-0.005266705038585817,-0.007351798313067695,-0.014149994433146044,-0.00222747872406434,0.005418032568222464
642,-0.00502233582115243,-0.004345598524827203,-0.013305631707992923,0.0039499050792214255,0.006831015066532596
643,-0.0051411414222983995,-0.00511999781223173,-0.014442177155947786,0.007100896365747041,0.003949049181576244
644,-0.0009111531588826682,-0.006185379105495598,-0.012241234819410307,0.007966821078704181,0.002429616819802894
645,0.009311281193960328,-0.004940871509788235,-0.006239512176164975,0.009451188347223702,0.0034630423961832676
646,0.019210727216829506,-0.0029802385739020956,0.00033520566110317154,0.0101612350867629,0.004118839494740072
647,0.022828414010704123,-0.0022162199081139076,0.0059107484934660705,0.007203030849553302,0.0033864701383681034
648,0.022058897216658786,-0.0016656082173599105,0.009849143385939577,0.004143142372219013,0.0016534614855350646
649,0.01966009275250881,-0.00156074184155436,0.011997251308520529,0.0018327717637444138,-5.091103794667892e-05
650,0.017063357459974247,-0.0017354291355131876,0.01311435726226604,-0.0008574301241065803,0.000226793726188717
651,0.015207674734444584,-0.0017482355540698032,0.014236726671504055,-0.0034158873311010167,0.004351564996806147
652,0.014276382671318805,-0.0023872499409117137,0.015248425918928452,-0.0033891935468398507,0.011575451125597404
653,0.014381798603484647,-0.0033649615046058698,0.01772736919000656,-0.000610029580922724,0.020460874072467494
654,0.012879024025446575,-0.005621885275320646,0.019957113784940632,0.0024131507585863268,0.02537352142141372
655,0.008477646215555823,-0.008322318041533217,0.020039279406256483,0.0045643731506809105,0.023438698303231895
656,0.005385521126954371,-0.006198846418441797,0.022238793915244377,0.0068611925021078955,0.021288979051173714
657,0.005325654160179472,-0.0002560534959660555,0.027354310990736912,0.010263214172833254,0.022137962070511302
658,0.004163617090111336,0.0006189569075125791,0.029635171176670503,0.012489292849572292,0.022014917445173154
659,0.0009546549052569871,-0.005111951714974802,0.027787465254096432,0.012480460835041883,0.020776842489122323
660,-0.0003317776620258742,-0.010227572278304427,0.026015594643321333,0.01344188749995314,0.021135042966784624
661,0.0016951160999224358,-0.011505084309758827,0.02738597784147244,0.01729590692781331,0.023596794359321792
662,0.005364527781629605,-0.010941870237245707,0.02981623546581192,0.021621697156830086,0.024969187417057684
663,0.009145138308014007,-0.009940872976642466,0.03139889820083479,0.02428752361948197,0.024047639333853885
664,0.01198208814049821,-0.008449754452601184,0.03307556185543802,0.025127082462279262,0.024165183686259962
665,0.013217896348366434,-0.006880335592326776,0.03407976710162828,0.023720855081413004,0.026790465307512248
666,0.01324534660402633,-0.00573873646623292,0.033945668473100654,0.020502147642237734,0.032080692758165386
667,0.014096186426414237,-0.0036479093098366866,0.035354684042941426,0.01799814663090248,0.04055705874528
668,0.015896234064660737,-0.0010352677671675978,0.03926703878454514,0.017335856108147425,0.04881456068954573
669,0.015422208486456007,-0.0016641497744198208,0.04101218385193832,0.01591344070672943,0.04931355953290139
670,0.010502235993080838,-0.007505047424707414,0.03747324454226122,0.012170103648104395,0.03989677416932846
671,0.001209974794486333,-0.01782925175481371,0.029066873015636565,0.007991409212670192,0.023779437329756115
672,-0.007530410091906115,-0.027202385080724825,0.020470636037918245,0.007328027335554095,0.007976518604328145
673,-0.010207506777987532,-0.030020279773442914,0.01704934914670877,0.011355767278488749,-0.0012200218585924595
674,-0.009811022332392576,-0.029209332749612613,0.015906763278731372,0.015340160965621687,-0.007016918703336744
675,-0.010645298723735418,-0.0286897682234415,0.01341884477470574,0.016120498526761975,-0.012406369068675566
676,-0.011004275438776894,-0.02656439143104481,0.012277397479670969,0.015980506551580283,-0.013300093394334864
677,-0.00923809213790741,-0.02177573454813406,0.014633230391889612,0.01669116093365226,-0.009358975843556664
678,-0.007427925019534894,-0.01735530331740635,0.0180272363547821,0.016992319845599565,-0.005508151286126317
679,-0.006425332750247243,-0.014100071855872413,0.020937540066677227,0.01639632708759534,-0.002220175299851589
680,-0.0067844312003640895,-0.012057004319884707,0.021968791436239324,0.015464782527451666,0.00048685078354666954
681,-0.009461433812085645,-0.0128124106380119,0.01897060189349779,0.015059373180419236,0.0007392947654689453
682,-0.010680893766918002,-0.012860875763467821,0.015857075889517073,0.016778065584901088,0.0023061259480945478
683,-0.008338977656511488,-0.009148377085972334,0.016502694133132614,0.01955274787873378,0.007169129557168515
684,-0.006122796034989025,-0.005055758165271287,0.018267333248295728,0.020446965323605987,0.01015678300469372
685,-0.005169216739918847,-0.0016857836912997125,0.019689016567487727,0.0194314183646673,0.012720669131500748
686,-0.004379437995719032,0.002409163694685324,0.021213237307295414,0.017147823598475734,0.020124367384378054
687,-0.00671197092171519,0.0036945784302967895,0.018867457252604615,0.011454181992875045,0.027197989795604314
688,-0.012777785845213656,0.00040297253760485644,0.011556911873573893,0.003762453218805591,0.026583570439531662
689,-0.017958079674850577,-0.003328325932149748,0.004656827872232038,-0.0005082166872799703,0.018406130331472474
690,-0.02040789957746187,-0.005177725109396041,0.0005250777906284648,-0.0005912357705693781,0.006117049237797173
691,-0.02006277588370782,-0.0042162816848329895,-0.000534029236946158,0.0017225901884460897,-0.005118218036181636
692,-0.018004264871547864,-0.001750248361706131,0.000564431601753055,0.005191266189194214,-0.01068643453393764
693,-0.01667014175309729,-0.0011681381168930055,0.0011232863801108946,0.008223141096908044,-0.013087470039926531
694,-0.015223150510268403,-0.0011981769354375742,0.0021646035033164946,0.010559474584166161,-0.01221164051636493
695,-0.013036702148749434,-0.0002618459249735402,0.004591668670816698,0.011556279225544593,-0.007769066226593278
696,-0.011766779648931682,0.0002072193723769635,0.006511493937479745,0.010314926378502504,-0.003947832465141304
697,-0.010834893094966113,0.0019697598239941036,0.008387794781158768,0.009377458136460242,-2.2747237920241556e-06
698,-0.009745862632993001,0.0058581893697526735,0.010628502345785194,0.011810400277791644,0.0039975266082321985
699,-0.010219706649529906,0.00734458036584438,0.011448279408229439,0.016139865023546068,0.005150625264673826
700,-0.010976951076186292,0.005779879453349719,0.012491017202503289,0.018954333134800088,0.006453234712069346
701,-0.010034978890220788,0.0037851313124103387,0.01552303119064404,0.018649298953758383,0.01171734491357187
702,-0.009030282817711639,0.0006725899899332845,0.01740406257917028,0.015545885506376722,0.017123311140245373
703,-0.010113528071947056,-0.0046766558429694035,0.014802925863190427,0.010110772272099252,0.018924091518256015
704,-0.014181236212407541,-0.011981410129473522,0.007509349639376261,0.0020043211108286686,0.018225852179654976
705,-0.020158088877918777,-0.019891197863900662,-0.0018841319906082647,-0.0076426837033464765,0.015849997657762703
706,-0.024048595537817064,-0.025173131994933432,-0.008549185255342923,-0.01454834562148497,0.014613533107642823
707,-0.02210339327222358,-0.024510216758873382,-0.008327680102950513,-0.014532285013687186,0.01811359321724727
708,-0.01633758308807755,-0.019308746335267853,-0.0025506968646647086,-0.008628465530848034,0.022525654635267813
709,-0.01191920083842336,-0.013921874092191096,0.00396924618820504,-0.0011654882215054142,0.026465067032408463
710,-0.011811335681482652,-0.011340388622596368,0.0071657948792018394,0.004245138197058006,0.028944738338763095
711,-0.01450700317198183,-0.010892401934238119,0.007215400531742036,0.006909529108811682,0.02956890327787586
712,-0.013664468213341887,-0.007203213940625115,0.010351957996170093,0.009933909411477227,0.035258223014878506
713,-0.0068089336691261,0.0013216494866788563,0.01876589939600419,0.01441385308596068,0.045394982024153645
714,-0.0002244192897550674,0.007942038158911606,0.025579203125081246,0.017191460992978067,0.05062465380718769
715,0.000135107492628106,0.007318495236756089,0.02532804409308,0.016499885339698542,0.04586211080088696
716,-0.004281275785379961,0.0020440801898315665,0.020054362339833657,0.014164108250154241,0.03690272854642346
717,-0.008353444449120732,-0.00359501864422888,0.013866970859816702,0.013145146578108908,0.028087665666967254
718,-0.00857233739664209,-0.008796853402421503,0.00905824779769486,0.015480148907865816,0.018879418645461932
719,-0.0047447189860312395,-0.01243106252106,0.007849053106120251,0.02110125500885888,0.01102518069349379
720,0.0012797426717389496,-0.011163115825768665,0.012298781406671008,0.027615991831813427,0.00840726067398512
721,0.007174557230040505,-0.0053935811773725565,0.02105690884476286,0.032264362214221756,0.01328906826020806
722,0.010453120679214735,-0.00023769793928241396,0.029691092439896104,0.03389400683169135,0.022501671668878464
723,0.010144741498219964,0.0011621419286874037,0.034892313159938106,0.033153412650560043,0.030411637969933732
724,0.005912404202259707,-0.0020547062238436427,0.0342450702082879,0.03081216835301592,0.03130721766535774
725,-0.0009522570757569984,-0.007999239552630572,0.027919545708251177,0.027832366972803176,0.02475103112635373
726,-0.006574894046358168,-0.011876794891023067,0.020295361881640193,0.02603248615056795,0.016344349677367902
727,-0.010884316638596818,-0.014074002296597573,0.012636363915998613,0.024876251223056412,0.007670071316960297
728,-0.01455265736295044,-0.016507041530912807,0.005537424155245329,0.0234230035048216,-0.0005851219307987006
729,-0.013484665091410103,-0.015729618918781017,0.004076716949134391,0.023777076957249593,-0.003054106447767358
730,-0.006754876904971782,-0.010637873515594537,0.009075439755991453,0.026649356938322624,0.0014085102336097845
731,0.0003321370658401184,-0.005587708412735812,0.01477574283706831,0.02980722788412553,0.00630648488017886
732,0.0037775774693852415,-0.003420416795256441,0.017185547158071846,0.03180392417022775,0.006540990282584067
733,0.00539503700800711,-0.0015342399237186712,0.018238748355022146,0.03335679438634547,0.00392841970305202
734,0.0068785736613588624,0.0017786414215990591,0.01982426090277823,0.03400010564791186,0.000879188797491982
735,0.005375717604084555,0.003070377514947051,0.01926302581187681,0.03125466520915345,-0.0042150780821007565
736,-0.0007450934950106572,-0.0004974867450458766,0.014192093447349135,0.025619232622338377,-0.01249541778050518
737,-0.0070485832801854284,-0.00475341199440363,0.008406281042866136,0.021203994173619966,-0.019855200981060743
738,-0.00834268901805443,-0.0024921815283321454,0.008144691567305901,0.019889005942989695,-0.02120032408723402
739,-0.005352117071512946,0.005355368389502131,0.01311851781108982,0.01906983437661333,-0.017846983705898968
740,0.0007845636097872013,0.013908917976087702,0.020827122742530436,0.01806948124150382,-0.008326913892460498
741,0.01051456022923957,0.021983938264881736,0.031083827630931128,0.019936238522321376,0.004755498478855915
742,0.018933135794029908,0.026508118611279902,0.03919718724511345,0.0242102400912199,0.014895845649070729
743,0.02238705299176131,0.026414745958066164,0.04173816950115015,0.027514542340063917,0.02109829520385774
744,0.023980092594051858,0.026460229565154324,0.04258644130982093,0.02794642187487498,0.025902567607895718
745,0.02321246327216764,0.025739673629862767,0.041199440597272485,0.023845299075973027,0.028977339053389686
746,0.01820384064080938,0.02037795342187014,0.03448710629060569,0.016966113596623422,0.02694925398874409
747,0.01177068477692184,0.011832958016580823,0.024887275774137945,0.011534257326280333,0.02060661669006907
748,0.005393276002824735,0.0021354443846793294,0.01459901373307126,0.007357954072043234,0.010567062011528993
749,-0.0017059999341025051,-0.007848721360219113,0.0038611648143722405,0.0018368820672873263,-2.7450305169059327e-05
750,-0.007760567102911092,-0.014674797622489055,-0.004382584547197918,-0.0043389346753427566,-0.005728259131503543
751,-0.009850251120768495,-0.01507623372193494,-0.0064199918910737945,-0.008148575815220034,-0.004155059184355908
752,-0.010236462201990766,-0.013055758815094201,-0.005026422951869958,-0.009676971090907803,-8.517019288523971e-05
753,-0.013431750262255474,-0.01480076227305655,-0.006150693251317862,-0.011154960069071726,-0.0012813721829986557
754,-0.01852641913502674,-0.019094922652865304,-0.009978628462958725,-0.01205719475152834,-0.0059637280907752525
755,-0.02062320757967137,-0.020197715539610563,-0.012075862933175757,-0.00972343744122821,-0.00607339003332543
756,-0.017937245092191204,-0.016815080225629116,-0.01086349934540638,-0.003574844771320757,-0.0023868403776308423
757,-0.010589929568834207,-0.009548839174161973,-0.005963142806262248,0.004473942541070463,0.007674207785152272
758,0.0017885032865113059,0.0030859066922628874,0.004757942253710128,0.012722331366938646,0.026595716270201353
759,0.013526313220814535,0.016347845540849167,0.01689515886817646,0.018918029236761946,0.04428320447125003
760,0.017232613836534277,0.022624103219800226,0.022232866332793203,0.020424912902665373,0.05041839237545646
761,0.013451657044032412,0.021698414107960813,0.02010122406785312,0.017373419727224254,0.043157339092628914
762,0.00863843347678669,0.01880263991940733,0.016896542325928535,0.013438455349403062,0.029876268101174424
763,0.007370419006447789,0.017850393382413586,0.017457682180112368,0.011413901543279226,0.018717425002397918
764,0.008245489954605867,0.01790306953484281,0.019959377285798628,0.010364210823460014,0.012508217882418834
765,0.008843210693018463,0.017799235104371116,0.0215669712283224,0.00960484746041836,0.009159587373614336
766,0.008868215899747865,0.0182245534638365,0.021865564000802182,0.009427184265486182,0.007982465251318191
767,0.006705647890445769,0.016910670538726053,0.01897892633439308,0.007885912816697179,0.007356708365457491
768,-0.0010015204094635116,0.008726374753502124,0.009558187848569016,0.0021640941286716854,0.0017661369879021815
769,-0.011716554448682687,-0.005040606800774898,-0.0032809644498131454,-0.0052125169660549465,-0.007356184967135459
770,-0.01794076631204017,-0.016124480014015435,-0.011033033005449893,-0.008084289954549457,-0.014032229260361753
771,-0.01668948163865916,-0.01938444974611336,-0.010410886886791858,-0.004462565503818795,-0.01581366797771586
772,-0.00972985889768537,-0.015400100476906594,-0.0038987616952722765,0.003771600380129823,-0.011609223200047512
773,-0.0036233899474565913,-0.010916249288908142,0.001175808962438102,0.010834684527717589,-0.0067333627221019664
774,-0.0037785195369352898,-0.01156684296970253,-0.0007404966549979659,0.010170093655477027,-0.0068839897331313005
775,-0.006058621629138606,-0.013586505613115248,-0.005176582186157942,0.0035000437647167157,-0.008681744691120846
776,-0.005316877663449449,-0.01236820285262919,-0.006619517402362096,-0.002710451885748388,-0.008357896089681216
777,-0.0027915546387879734,-0.009208174247658562,-0.005548268139271008,-0.006387606233492307,-0.006814412728064357
778,-0.0021648206827957176,-0.00806756823241815,-0.004976158916176408,-0.009000288974467424,-0.0075364416270549675
779,-0.004286157204734633,-0.009789817412320318,-0.00587674730922765,-0.010834975454104724,-0.010842483324435052
780,-0.005086728465651923,-0.009641191667429804,-0.004443845003116652,-0.009633840608072167,-0.011228205355716081
781,-0.0024487890683694375,-0.005227023275959587,0.0010451270320923245,-0.004713901855817283,-0.005937344636892841
782,-0.0005161690523836177,-0.0013868072874158469,0.005317923024838365,0.0003676656068195997,-0.0019194169344958927
783,-0.0024660034908905353,-0.002393597308961156,0.00433034199352259,0.0027425637747481835,-0.005469458264781913
784,-0.006252936642384522,-0.0064861762140538785,0.0004789649879274804,0.0035726037908763207,-0.013262879596504486
785,-0.00736591710106053,-0.008613301488523004,-0.0005624857697398975,0.005387668443310108,-0.017146161293689323
786,-0.004602642118178761,-0.007039185100022957,0.0034841326843702714,0.008015605268030412,-0.013489676594442177
787,-0.0012099012124766248,-0.004870093251167021,0.009161735035614087,0.009621783704297638,-0.0071803792391118195
788,0.001162242388491839,-0.002979455724502042,0.01372297224276754,0.01027765311349415,-0.0029648254795323096
789,0.00269966963200885,-0.00014008388903785036,0.016856672617382117,0.010611684773357999,-0.0009567648375418248
790,0.002229905295705972,0.0020969516343511485,0.01763974689697655,0.010427359954241293,-0.0007056999592126464
791,-0.00047661618069196944,0.0026336300910997103,0.01662825608217214,0.01017058970382823,-0.0009210649821279242
792,-0.006435233011587315,-0.0004137955484248505,0.013085229204497126,0.009743545159683675,-0.0034523774395863595
793,-0.017339328356615294,-0.009642661605267762,0.004239192715226805,0.008734681183153835,-0.012754849868785492
794,-0.028443590685638665,-0.019819726657200835,-0.006074334151276385,0.008268404456334711,-0.024368246237010935
795,-0.03280658042891951,-0.02325533143885846,-0.011114260306487631,0.008389604902018557,-0.029749989535432755
796,-0.02964772027297095,-0.02029902497994689,-0.010411944372684025,0.008378429671900101,-0.02889075952647441
797,-0.022958493669145263,-0.01599601970825924,-0.007800831053672079,0.00823768725113274,-0.027118187472960745
798,-0.01742613999134262,-0.013725995635539908,-0.006734800795414721,0.0069334077480387325,-0.027753246917432115
799,-0.014657048366927506,-0.01264821431788767,-0.007011576289154612,0.004637527254947517,-0.02915337262789453
800,-0.012000151747571575,-0.008940098721071885,-0.004834429510234738,0.004333122884908163,-0.026107144367275223
801,-0.00604574633636984,-0.0005029673093404991,0.002793590054882534,0.00843590788099641,-0.016201076322729525
802,0.0037937796302491287,0.011147966926471535,0.015233712970219844,0.016508460540940274,-0.0021306157797677237
803,0.01427918991657047,0.021708683539575904,0.027938898292704063,0.025301910212101653,0.010852255038625408
804,0.020881604702592694,0.02690236954680603,0.035682998550113906,0.030808756644346822,0.018003436341070843
805,0.02169772131254854,0.026131490539649298,0.036693569318040554,0.031252994733757575,0.017847190922986533
806,0.01759748355481489,0.021420717206697443,0.03189311139897591,0.027380811959696258,0.011961156729302397
807,0.009469877743328022,0.013568059701765393,0.022037403391717194,0.021017120347104852,0.0017983324316540965
808,4.469813749032393e-05,0.0041735687686721284,0.009760008056224566,0.01590993262477131,-0.010087164696175007
809,-0.004308188022095664,-0.0008180107446410682,0.0021284044601257053,0.01610317963392734,-0.016536655806319803
810,-0.0021242193222039203,0.000587597994947575,0.0020595249349853783,0.020036476340839788,-0.014559102665014692
811,-0.0007206454836353732,0.0010562634341159695,0.002702540703322552,0.022120774343328965,-0.011703453732528608
812,-0.0036562197702276187,-0.0027918727881415814,-0.0003127924768526546,0.020821420388518523,-0.0124936761863657
813,-0.006646839603545502,-0.005890674331518696,-0.003732577108722496,0.018607218612542477,-0.013158027366419823
814,-0.00757785668107623,-0.0061617205023053,-0.005775315870512819,0.01678675722568398,-0.012628287148310359
815,-0.005772176063317339,-0.003300781300923322,-0.0047694383834527435,0.016855104677176297,-0.010830193051639068
816,-0.0002911200728819951,0.0039759236821446655,0.0014971312084787625,0.019533250998947885,-0.005841877344258345
817,0.005134815996372432,0.012095292462830799,0.00886571462211142,0.0210494820481342,-0.0005227052600427778
818,0.00643005640548589,0.015929719705272124,0.011719936163790285,0.018366691949354086,0.0010284746093399816
819,0.004139384405626462,0.014711572486750172,0.00958653060969509,0.013229821593664502,-0.00018840425492886275
820,0.001788695759534158,0.011867836764655505,0.005767974929870472,0.009103366398714202,0.00022501988968134194
821,0.0008718089936952286,0.009650978934333837,0.0023266540473055233,0.007269648807821849,0.0031870092315960017
822,-0.0024640296337566426,0.005239260252337304,-0.0033935614636407207,0.0049787553053905675,0.003180719035506044
823,-0.010477701030682738,-0.002732335673341009,-0.012643568638231208,-0.00012281892183816672,-0.00291231577361416
824,-0.017766423299984506,-0.009101249374482251,-0.019747340257693678,-0.004707876433385798,-0.00997717564752043
825,-0.018802192714595108,-0.009229861625674449,-0.019504933495326088,-0.004311839676842547,-0.01286812434688736
826,-0.016640790372948768,-0.0070567836251055165,-0.016072180819518417,-0.0007767881156947044,-0.014813330566448818
827,-0.015767798567332895,-0.007695299359321323,-0.014868071452679594,0.002289270172489117,-0.019173007974615873
828,-0.015583498326636833,-0.010223834575692814,-0.015521137249171335,0.004349213902121493,-0.02318856657184481
829,-0.015220610411807627,-0.012577395196134579,-0.017115387873471385,0.005146257874984263,-0.02440164247873628
830,-0.01406417541324322,-0.013263360595495556,-0.01821054844604849,0.00550366849589385,-0.021951735176979317
831,-0.01297263592785394,-0.013685273127675037,-0.018743702900416485,0.006053975047682672,-0.01905380379322287
832,-0.013855264777101946,-0.016240800829531877,-0.020451251102324253,0.0058279191298360065,-0.02034865065177842
833,-0.013809707333082491,-0.01682397602642593,-0.02006358299780778,0.0064125249661761904,-0.02181878395687281
834,-0.010039659945565322,-0.011741239616260087,-0.01462441411745923,0.009585422715435343,-0.018531612494706428
835,-0.004919082662941871,-0.00467309128869499,-0.007929812260768311,0.013070528373416662,-0.013363235462257475
836,0.00013391970423228664,0.0014705820337710602,-0.0025782715433773974,0.015316773521453516,-0.008464508804445945
837,0.0048851574067291514,0.0068216385970871355,0.0018357234702780154,0.01699784759268486,-0.0035861444541627472
838,0.006830397671695074,0.009725620128552832,0.0034158729592655987,0.016350024999973185,-0.000938811137069021
839,0.005010723436249298,0.008918476687142582,0.001069584671674022,0.011433950923000879,-0.0015194775307564765
840,0.0017919558567953337,0.006387236215266404,-0.0023738996614732382,0.004047336057264385,-0.0028067088046407978
841,-0.0010186054732676793,0.004369264521764126,-0.004682975183550145,-0.0037884624584907556,-0.0037308497530766454
842,-0.003532332290528053,0.0032550602734340932,-0.006511348730398924,-0.01174248633871269,-0.005582305520914577
843,-0.007819245269090584,0.0005834253372559991,-0.010768513903562985,-0.01971814232290063,-0.010528811573383434
844,-0.014056726142682892,-0.004933762028009152,-0.01824314359530959,-0.026354856747629666,-0.017391208052964444
845,-0.01656086030676122,-0.007736248141163775,-0.02274427174061504,-0.028163409739954428,-0.018015693416182848
846,-0.012453003337361946,-0.0048285382095215905,-0.020179383519132486,-0.02411158729432478,-0.009662361142931578
847,-0.005711882163868984,-0.0003194959753546862,-0.014312641279437831,-0.017579057642417455,0.0010521404375495292
848,-0.00021494614678409504,0.0026663823644817643,-0.009802552602250818,-0.011997500689323476,0.00887171210018675
849,0.004439947897334267,0.005166833446179874,-0.006723305539877782,-0.007832514372073909,0.013927500738570252
850,0.009984668672651775,0.009277848850484936,-0.0026610802775529157,-0.004196175486361176,0.018609581246132725
851,0.015853291829739786,0.01489062184692513,0.003299347745357588,-0.0008563595296942826,0.023712787934414142
852,0.020193937657372426,0.01972094575067983,0.009864951668573948,0.0018111687405804977,0.027490440503081533
853,0.019317359298289875,0.018836336161523626,0.01186011449487996,0.0015945847183164604,0.02484570644796078
854,0.012579177359473304,0.011390297021717746,0.0072664074838690905,-0.002522644218174586,0.015345646714013261
855,0.005908889317314212,0.0049259431368085665,0.002566208016877399,-0.007838825878056876,0.007823997189526987
856,0.0020233775327494112,0.0023861168601362792,0.0006823171870748815,-0.012210217148874243,0.005394998247552686
857,-0.0024803387338961235,-0.002224159724184881,-0.0032915443117564535,-0.014847803291375977,0.0005485671744741436
858,-0.0075785505422795805,-0.00935412725731335,-0.009934792990784378,-0.014389672089066267,-0.00826340440823182
859,-0.010765408028319375,-0.014103610046194487,-0.015520916608617718,-0.011986314643324593,-0.015960278298521802
860,-0.012133303446475095,-0.015702345057985304,-0.01901936893681493,-0.011032351971712843,-0.020642525553909302
861,-0.011928341035142702,-0.01552288926190296,-0.020497821279127977,-0.012251760335223507,-0.021846181188902816
862,-0.009231586583456986,-0.01355598930318457,-0.019394022543874654,-0.013310285286635663,-0.01915994168032939
863,-0.0028784313625477113,-0.008244493164892492,-0.014752606641495391,-0.012233612287773678,-0.012818800922183427
864,0.0042478359454982875,-0.0021575223652082016,-0.009453475793753491,-0.010493836198018566,-0.0070956048075152
865,0.00852046907312116,0.001110713933578178,-0.006660357432826553,-0.009555189689846118,-0.0058305112534051545
866,0.011234672144821574,0.003363528942694302,-0.004529749251212002,-0.00807801737246983,-0.006625371841212157
867,0.01452272107182915,0.00684080522450335,-0.0014655882067848812,-0.005194470249626895,-0.006319235095425472
868,0.01815486328634116,0.010852328504119105,0.0016090390413320043,-0.0013236674338618633,-0.004859522179761323
869,0.018633997921805697,0.0116531870217012,0.0012964536250027817,0.0015494544374038785,-0.005552090620072587
870,0.013315628949312715,0.006697522573242796,-0.004821078990643669,0.0015716839394720437,-0.010443964923354889
871,0.005942322681836423,-0.0005709688799406494,-0.012557122602882765,0.0004891101058922872,-0.016035752012122696
872,0.0032187571274826573,-0.003659671866934312,-0.014258224549764569,0.0011197467198736705,-0.01587167328872213
873,0.006978292605850184,-0.0004313679486368791,-0.008085706531958302,0.0029563644870307182,-0.008097634644861532
874,0.012922969134431552,0.004930982073071562,0.00022589416810776344,0.0036096079580009034,0.001554499356893622
875,0.016488692877212694,0.008129983555918603,0.0050463681223859615,0.0029150717344464897,0.007057648306086538
876,0.016095094879254517,0.008240601500914983,0.004757788303790594,0.0019428924589681043,0.00686457441973379
877,0.012875162763896742,0.006350591755363969,0.0008864226780196269,0.00018985455611100416,0.0024939011093404245
878,0.00924349245748065,0.0038170302239808967,-0.0035228507071173977,-0.0028595447990478954,-0.0036059150443578515
879,0.005811379247018563,0.0008253997970834532,-0.007524998754569122,-0.006874408004635621,-0.009855337804377792
880,0.001300561472997657,-0.0029881078259104995,-0.01262763484685775,-0.01203666845579159,-0.015028428380796266
881,-0.0026783843008584742,-0.005670816303545141,-0.017184573135963194,-0.01642731348575503,-0.01658738572053761
882,-0.004078762782881604,-0.005892800774486162,-0.018984998672423797,-0.0175753717165055,-0.014935609511798674
883,-0.004827458028740678,-0.005860157774983871,-0.02033485371731302,-0.017340212053782278,-0.014468937411405593
884,-0.004150806723852945,-0.004446009983071947,-0.020447923000993115,-0.01681911527500314,-0.01395762536242087
885,0.0014893321011675586,0.002541914556544907,-0.015118818434082117,-0.014132731907840031,-0.007598925111101681
886,0.00899410769116075,0.012261456512882315,-0.007221785016946026,-0.010831395041607851,0.002032548728920706
887,0.013207016971318413,0.019275729849832,-0.001462099763584389,-0.009600688424060267,0.008696351872016915
888,0.014314574864487168,0.023244819970336547,0.003048030223743855,-0.009276928882615783,0.011830047279997945
889,0.011318343625398597,0.02193609044257879,0.0042569922225318985,-0.0092710123523606,0.008737139155675214
890,0.00336975352116249,0.014094003683218089,-0.0006330220108792153,-0.010535546272299502,-0.002095664548198656
891,-0.004348799408746351,0.006319971679974607,-0.006723650533210244,-0.011986507090984021,-0.012704901670161837
892,-0.007966875654406066,0.003199325425213604,-0.009598865787868538,-0.012405688282910797,-0.017174144172017732
893,-0.008042716059233216,0.003585287023241537,-0.00988802138854212,-0.011794514152453021,-0.016651307125550904
894,-0.005423391573577718,0.0066625825038531695,-0.007979040662410963,-0.010515363682661575,-0.012258940482038022
895,-0.0023782830628007426,0.010460271675266393,-0.0051497509988289985,-0.010287416537798902,-0.006445327372176264
896,-0.0005783916528529261,0.012634254456097057,-0.0029410842054565472,-0.01179185485454655,-0.002602202269000966
897,0.0022061668544123363,0.014268504937125094,0.0002664936747395711,-0.012278015913560307,-0.0005898435756643426
898,0.006795012920760161,0.016210806804715757,0.005193595917237726,-0.010370289745401298,0.00038485451511293756
899,0.010360285533525112,0.0166477079790036,0.00921624666156775,-0.007887962559836977,-0.00035435556543081566
900,0.010878667020522101,0.014114183572608265,0.010057717397769833,-0.005504286372589371,-0.002791035252098341
901,0.007113590244251914,0.007702662855863842,0.0063402334598772515,-0.003763071848016757,-0.008205789085314526
902,0.0015761385586552641,0.0004406675436430029,0.001023680092491809,-0.0032544328300102335,-0.01504231717102848
903,0.00019124512560951128,-0.0015997700779796155,0.0006601648122955569,-0.002382961201838563,-0.017344835299290626
904,0.0009668047695473342,-0.0013115718264515752,0.002379147928000374,-0.002298981201485014,-0.017874800201829574
905,0.00091597185120841,-0.002116802245712179,0.001924302070947136,-0.004402917150509666,-0.019732313044086618
906,0.0027968780549852456,-0.0004581662691446095,0.0029668868589151393,-0.006525407094805937,-0.018177840624164544
907,0.005021120618981863,0.002104109840527679,0.004980452604099307,-0.008358071051503343,-0.0145576112815742
908,0.0052260774246250434,0.0023145534392282965,0.005201238237276088,-0.010518441726566234,-0.012825043127434627
909,0.005086010680763251,0.0013566195624217163,0.004883473879363881,-0.012071907930444896,-0.012415411095704796
910,0.005472508299204216,0.0009601094761050125,0.005047946599867192,-0.012915636807730746,-0.01204592430980899
911,0.005982663068268894,0.0019745616718399865,0.005340736074038024,-0.01377490582612175,-0.010930221014133563
912,0.005657735163610274,0.0027494232298706242,0.004151391960357667,-0.014353410464483435,-0.010637208341997186
913,0.003939800289549602,0.0013957669196233374,0.0007710038770030354,-0.013702524303380512,-0.01252535616968769
914,0.002609502497019755,-0.0004751255066794566,-0.0021320537929954897,-0.011409801674979094,-0.013940926610953546
915,0.004184007783674398,-4.98695253902804e-05,-0.0014110068455831365,-0.007645027841990291,-0.011458870408674765
916,0.009576306144083419,0.004776293285673207,0.004502486079529818,-0.002893965052374829,-0.003644499188571702
917,0.015867230165045088,0.012164753033118364,0.012829694482756173,0.0010694200314960596,0.005591429022942281
918,0.019566438931981005,0.018230692165516562,0.0191773858154205,0.0028746247407127026,0.011294614220187496
919,0.020948567368907954,0.022416352459830903,0.023111948475678958,0.0037552221475102366,0.013645462245097982
920,0.02038250372584624,0.02400175955368774,0.02405811680112962,0.004608615885926219,0.012056417167242877
921,0.01788757106102807,0.022134903845585183,0.02088084727300972,0.005039485124432603,0.005713987570661659
922,0.0159167111761616,0.0196282536824405,0.016596795595472183,0.005838841707256718,-0.0007900872733340183
923,0.017291152936825996,0.020192302625078682,0.015998157967167078,0.008437232281573651,-0.0014676325436720776
924,0.020640010604792498,0.022986620851471913,0.018306757630852724,0.012191527610296193,0.0035363350615847267
925,0.019914559063994374,0.021986665697250725,0.01626943169222221,0.014415279090336458,0.006794871276286761
926,0.013133783062696877,0.01478824077569081,0.00726422208339372,0.01356509084027189,0.003410995448060565
927,0.006691278571721281,0.00765488295071679,-0.0013232410143744393,0.011208160639576867,-0.0017521898011922028
928,0.0058287222664016895,0.0063572482252772945,-0.002900136200921267,0.009413710353974494,-0.002512349928402784
929,0.007804307629306672,0.008095975961284918,-0.00034604244881413507,0.00759431473319429,-0.0010765825611041464
930,0.009881064445151107,0.009742777935694787,0.0023761233709706574,0.005538998542977671,0.00014762384189558275
931,0.01298607210732729,0.012618247940682338,0.005828125202888465,0.0040237905709262735,0.0035726538253681136
932,0.014739626790551219,0.014613691895772754,0.0075312987409281145,0.0013070547955068557,0.007042089370901657
933,0.014586885061083623,0.015151594484946069,0.006868971521752672,-0.0023400822214773164,0.009653285545212836
934,0.015863160389902604,0.01762144119164898,0.008193037213102682,-0.004006241344430214,0.014906926842656935
935,0.01542598762479923,0.018833565348356455,0.00889778796254991,-0.00545608301400896,0.01834113651558727
936,0.010296887179636047,0.016112951157520386,0.0052260226289857666,-0.0087399203854712,0.015789336540137415
937,0.006906201663855931,0.015478129026105528,0.002586913000729488,-0.009771382652614775,0.014031947346411312
938,0.008186991086054966,0.018089598566395148,0.0030950011055722775,-0.007054207460683256,0.015637841774918004
939,0.010135995487350804,0.01892365504722374,0.0029903746707747054,-0.004263119234061951,0.015790190985870395
940,0.010781878777944847,0.016435069717032402,0.0016848740656552974,-0.003272237095593208,0.012880805196156076
941,0.008704025603086625,0.010370951616151501,-0.0013445930604059058,-0.005224252742896549,0.0067697839870377065
942,0.0049627933471581495,0.0033135798086979026,-0.005017567427361116,-0.009121796675246808,-2.4884419335169423e-05
943,0.003619129356988876,0.0003012372520942263,-0.005476719767461167,-0.011105442477683272,-0.002269880117647855
944,0.004451303925233324,0.0006871954378866703,-0.00357907341470548,-0.01072804656685398,-0.0005001837570805262
945,0.0033283477335538667,-0.0011237377098806576,-0.004533644392881487,-0.010751555028539566,-0.0014371665728000723
946,-0.000952599989242757,-0.006952695870916901,-0.009807055224631973,-0.012442197598191406,-0.007914700876194938
947,-0.004219337507776759,-0.011742929080763099,-0.014201428403906789,-0.014203471899698703,-0.013907277729289019
948,-0.004539196196433935,-0.013085240676385036,-0.015199970020345737,-0.015058373455920858,-0.01554795440527707
949,-0.006156560368724164,-0.015784949840704148,-0.017500310920429325,-0.016225357400592805,-0.017303938551121334
950,-0.01093335373574766,-0.022078857394555892,-0.023273708911369814,-0.01784585163058874,-0.021577443116169458
951,-0.014409797774179339,-0.026845384416758083,-0.02733938967156638,-0.018845612679766012,-0.023466667184556225
952,-0.011539673096568375,-0.023861135837935022,-0.023213192581495883,-0.018179944982302142,-0.017015547873677216
953,-0.0032045837265310007,-0.014104899414861398,-0.011895741023384315,-0.01571737512462835,-0.004059682874143397
954,0.005436742543862689,-0.0039001253049624277,-0.00048395591315151957,-0.012613399048085214,0.007737498237761611
955,0.011513577713191928,0.003062124308686704,0.006752705373840482,-0.01014371740503443,0.01442258496953775
956,0.016612431503931924,0.008018515856707162,0.011465429708401639,-0.00842171869481761,0.018365641432467487
957,0.023141446026412545,0.013110637728537258,0.01688745125332391,-0.006672163306347553,0.023161520716590472
958,0.029638900447008575,0.01706833305634049,0.022215658035508536,-0.00519239985151727,0.028062411086263676
959,0.03306784987624311,0.01777268092545969,0.024339343170251472,-0.004706707166775236,0.030207164710289485
960,0.02942244022914607,0.013091868235276399,0.01968231569652347,-0.004895673436102688,0.025393189136056128
961,0.024377649192245034,0.006682341858303628,0.013086349899025839,-0.005691131689095344,0.01898988658289849
962,0.017860310641808562,0.00041792094308563987,0.006187465051295677,-0.005343627105509347,0.012371035094929286
963,0.012297811843914642,-0.003349300262007957,0.001759296692321137,-0.003047319129916271,0.008055057114476634
964,0.008536944459545092,-0.004820384858479908,0.0003512933101241513,0.0001013059407174867,0.0057261945321793635
965,0.005500442691152779,-0.005730947676866089,0.0003890287545003881,0.0015810780035621084,0.0037317788794643883
966,0.0035277633154335553,-0.005581302961075851,0.0016420312291347376,0.0007032688764410773,0.003027898959433099
967,0.0033820235856484985,-0.003881632663713904,0.004106929043764728,-0.0007162121313645373,0.0042573071415287185
968,0.003058201589965389,-0.0031612139458637154,0.00501821043395805,-0.0017140687485484106,0.004369552952343761
969,7.786106760898416e-05,-0.005495957524121291,0.001967474197480136,-0.0033631477817933106,0.0007420217126265052
970,-0.0036869199963092563,-0.008276232658899705,-0.0020379240542608705,-0.004936689853706337,-0.0035479766541087225
971,-0.003512657044792091,-0.006061584557635443,-0.000746832019969195,-0.003334404189088146,-0.0014712636167123732
972,-9.158023385103581e-05,0.00045129251895236985,0.00537895676737428,0.0012348971486431698,0.0066330950299037985
973,0.000885167874204511,0.004192303383298171,0.009078495543939096,0.004517489686089927,0.011949568739271802
974,-0.0026131010373704943,0.001924765235372673,0.006992834690475443,0.00427448354451204,0.010144709987341648
975,-0.007564021668847012,-0.0031341237735510842,0.0019544403824879454,0.002232414122250308,0.004874612750185037
976,-0.011160181673188016,-0.007388586316386087,-0.002873939809266442,0.00044918480314623874,0.0003155904755301937
977,-0.012543728967149628,-0.009393111084985955,-0.00578258697057945,-0.0004927324489410995,-0.0016140936763441398
978,-0.013043042052489871,-0.010207330240050156,-0.007440727212710399,-0.0012138873869149544,-0.0019997164434989102
979,-0.013586884296079621,-0.01065158164173837,-0.008426313960816103,-0.0006791063197105614,-0.002289042339862246
980,-0.013323116405332382,-0.009671282953526875,-0.007303017108579903,0.002789794592866496,-0.0017495108792068624
981,-0.013418680516187624,-0.00848057719785799,-0.005427331380719007,0.0064341225241825025,-0.0015065819158559108
982,-0.014862842405382878,-0.008523375866199409,-0.004920689192812055,0.007076612315340866,-0.0027102497226540677
983,-0.015235055626230825,-0.007498592028956172,-0.003942816137309319,0.005756913896886912,-0.0023133097191047622
984,-0.013029560310387581,-0.003897282541693366,-0.000761814123337511,0.004369220571575352,0.0018409605381563472
985,-0.009141001086212812,0.00103382641630515,0.004088119121346702,0.003970533766718245,0.008358641285246259
986,-0.004641452030563138,0.006082726227605274,0.009925291141445493,0.005032707679579513,0.015565316827457315
987,-0.0010929971451324654,0.009612168856265662,0.014925538119591766,0.0066394240960022605,0.02107268127610881
988,-0.0006468620323889227,0.009233187787764911,0.015608909363623656,0.006882140030180195,0.021017841715900386
989,-0.0038136069852108354,0.004631571796454594,0.010365377101368298,0.004545917351508842,0.014260088135449671
990,-0.0072637666290418755,-0.0001237451354273609,0.003038940821811335,0.0008752838368296134,0.0059965272132507024
991,-0.007352495568402326,-0.0008629679960513207,-0.0007311259810309026,-0.0015339136577410275,0.0022269853496080187
992,-0.00546588419372243,0.000630880130004385,-0.000944934635605117,-0.002223354089649806,0.0019230881655631935
993,-0.004728318091544907,0.0006075354381170549,-0.001103007354978176,-0.002566509999638073,0.0009480876681477921
994,-0.004948353782277393,-0.000791738658785691,-0.001914986456350606,-0.0028002493360989762,-0.0010252299860238929
995,-0.004524893238463211,-0.0015689751311060787,-0.0021245542152580296,-0.0021867620549520365,-0.002085296938492775
996,-0.0035401684316511326,-0.001298943316462618,-0.0016006134297344321,-0.0008133953030510699,-0.0017585439102227871
997,-0.003301788562658969,-0.0013334708474687744,-0.001402829625671354,0.00033749083311549014,-0.001319035036907498
998,-0.003355328146599067,-0.0016230821094073307,-0.0011197086311315304,0.0011546378443457487,-0.0007620578144510961
999,-0.002767526399888494,-0.001508157931117205,-0.0003673710577982118,0.001934987457276653,0.00015284251301182216
