,AF3,AF4,Fp1,AF7,AF8
0,-0.0021093870118167705,0.00812874645549144,0.0009074592484637768,-0.00783616926844458,0.008612149042806595
1,-0.005125427459997338,0.009766429946419072,-0.0017484069167070949,-0.007425956833860486,0.011759236446605979
2,-0.004463058506311401,0.01689135200823337,0.00022141464827579174,-0.00484687725450464,0.021089263803580026
3,-0.004519984112361649,0.024287835266774596,0.001548420847699425,-0.0011640096852994087,0.027888269225576166
4,-0.008543162614205495,0.02884956229782721,-0.00028275662185362757,0.0018752965110186556,0.028439363212597792
5,-0.016072041909906912,0.028397482459785225,-0.004462252852219587,0.0027650843268579375,0.023339654544118415
6,-0.024606377746221375,0.02339333995996624,-0.009626660211292512,9.209996839003385e-05,0.014571770314613333
7,-0.031922473473497165,0.015679941795807527,-0.014961098666915505,-0.006327815662475696,0.004177768477866382
8,-0.0350316519746319,0.008322209165244175,-0.01689220667082607,-0.013278434008711508,-0.0035693428128989167
9,-0.03345827131146172,0.0036347070355748456,-0.013510484494454529,-0.018532768557316382,-0.006083853907527347
10,-0.028993133789375066,0.002467411698247476,-0.006589135212178087,-0.022260268441225913,-0.0034497008096578095
11,-0.022156201746299724,0.005885449288150617,0.0027776430161238455,-0.023570630888238436,0.004512090168400446
12,-0.016175208522096446,0.01070149948513359,0.010907170365624809,-0.023064944278486165,0.013826199964911138
13,-0.014655212773383724,0.01270162333796252,0.013909659009334965,-0.022581259198769386,0.01906788332029132
14,-0.017003287266576995,0.012135838484414272,0.011997606351076693,-0.022496057068028385,0.019441486369035334
15,-0.020216959037665856,0.011010101326744917,0.007234093130635278,-0.02258400615983087,0.017216253975132947
16,-0.02228644158399861,0.009963683954739233,0.0016395077738454483,-0.022989252816385856,0.014299145771764523
17,-0.02148459546404877,0.010075705947269739,-0.0007524570438086761,-0.022059820790857176,0.014531583533222162
18,-0.01283716731018418,0.015060441660381535,0.00593366763813376,-0.015517677104598478,0.02294930771969874
19,0.00330824341076304,0.024753478313071665,0.01988288265507505,-0.0038961360592166417,0.03518031574730821
20,0.01621396606264367,0.03335097918265216,0.03187062553416088,0.006649087556538689,0.04118513671325072
21,0.018557288754427338,0.03800216020910215,0.03767991184275157,0.012513357234317395,0.03878511603414535
22,0.012508248042372582,0.039825851171566395,0.039212157151133194,0.013750411187193326,0.03496006537954499
23,0.0021390179310563327,0.03883412036583692,0.03739395422106315,0.010840880933800864,0.03362169287880006
24,-0.00881007221216796,0.035333766069322925,0.032792781536091886,0.004838192060339579,0.03206646132574409
25,-0.016844589155753875,0.030899839205979114,0.027587517957055205,-0.001594554542758511,0.028237224743092853
26,-0.021049899488543675,0.02583822332863539,0.023174418439769567,-0.005270587923053533,0.022280960941715094
27,-0.02166918021175307,0.021368943445756856,0.020677450866640315,-0.00436056078387974,0.01721039930148609
28,-0.021654637069211804,0.017383420191722534,0.018630783639167883,-0.0019186946106774987,0.012849681433081806
29,-0.02479108187700986,0.012005787559433895,0.013831871103111902,-0.0020543649548172404,0.007607301820453503
30,-0.02961048083054497,0.006796603072715709,0.007366033299285953,-0.0030920116315396517,0.0030807105609816253
31,-0.032862071730161736,0.0037063838461228824,0.0021327437636885125,-0.0023894876321069454,0.0006329506084684514
32,-0.0321555375410522,0.004315178445126614,0.0010984022540589436,3.126669437495428e-05,0.0030286686580801784
33,-0.02851471524400066,0.00841065932070589,0.003997175752489232,0.0022742609434165187,0.00925582645154297
34,-0.025484165050450418,0.013134939481347068,0.006986212837037503,0.0021197335729688676,0.015062868844037064
35,-0.02357401192092076,0.01698634778592099,0.008879749940678918,-0.0004912904698582499,0.020585769221380727
36,-0.02173744040028395,0.019711374805183677,0.010556734547795902,-0.004560087396888121,0.02501701363542884
37,-0.017932777593297745,0.023871337954550317,0.013998919965751132,-0.007801131116833761,0.031244779709007867
38,-0.012030982590475347,0.0309864793766866,0.018464514886032225,-0.008465857762067696,0.03939656319765979
39,-0.008309411672671992,0.036507119735655486,0.019327928799189237,-0.007961826493061654,0.04278648087549188
40,-0.008578289837454206,0.037556226603949076,0.01653009408132705,-0.006940543725205725,0.040494613780932165
41,-0.013073827727190705,0.033440319402670435,0.011318210319783183,-0.006073900705188698,0.031496065163432625
42,-0.02187320236786836,0.023292881494591414,0.0032692469112295367,-0.005917063269749961,0.014589575983715576
43,-0.029446634894089475,0.012086101422248651,-0.003302100810726434,-0.0027537938767055424,-0.0027331728778106153
44,-0.029318862131493956,0.005399385345465212,-0.004442292774964359,0.00511775245361606,-0.011088591728801918
45,-0.020996940686323202,0.002707867522669324,-0.00121301988986634,0.013342307716748334,-0.01093006195539966
46,-0.012059711981894554,-0.0002818783044682337,0.002107207555659739,0.01655556056189048,-0.008173458547486571
47,-0.009848665181956377,-0.004747711984727922,0.0032893691428805345,0.014703661920650937,-0.006059751555139754
48,-0.01182481277371775,-0.0058449162283623094,0.00575118988716253,0.014244056502829549,-0.0033298680538855828
49,-0.013148881464344188,-0.0008906882614468869,0.010864628113763852,0.019784178152489677,0.001789493303119746
50,-0.012364859997642683,0.008281401270751762,0.01606478795058151,0.028815003228310272,0.007561239678884794
51,-0.009178361748128694,0.018908486143622446,0.01922992334355466,0.035438118797431965,0.011978990585302801
52,-0.004537125915598053,0.02797666583197276,0.019171960302199344,0.03552108855016382,0.01619237484485766
53,7.525025130481094e-05,0.03362889423042454,0.01676868340242504,0.029354762906453544,0.020905482133808613
54,0.003478735076617036,0.03558815493865682,0.014705969680040603,0.02104509184767346,0.025654298197892573
55,0.005907419458590624,0.03558090430190702,0.015644303657606867,0.01491041622738389,0.030567745243681842
56,0.007839446959548536,0.03521797308914363,0.01931701648377701,0.012203517783134483,0.03434086057313002
57,0.008765220724931539,0.034140087182690605,0.022401728959687794,0.012706870399306285,0.034992554760010966
58,0.008855045751145981,0.032362658426873664,0.0229644352041571,0.016651707572545155,0.032541304120053696
59,0.008578519701479895,0.030101778183378246,0.021890819257296124,0.022919022916632538,0.0279941867477367
60,0.007284539323401456,0.025955240037469254,0.01933331440702623,0.027620282988231434,0.020540312217221503
61,0.003781332805047088,0.018654517285250676,0.01326528729125072,0.02626870528746101,0.01094778661062205
62,-0.0004131409691884084,0.011250032173765044,0.004879030339941761,0.019226492285690667,0.003432180313642892
63,-0.002493065992408933,0.007950123103049288,-0.002005092781430093,0.011467767921502581,-0.000471335242347308
64,-0.0008232915803574039,0.009596223911716857,-0.0050123578177074714,0.006643218320863139,-0.0017980077501453691
65,0.004088052423273671,0.013215837774939902,-0.004992915357160365,0.0038670037697281726,-0.0008163766663881798
66,0.007231711733138576,0.012871223908032036,-0.0073561141457569625,-0.00015267209355926124,0.00010247277192938348
67,0.005931031019589404,0.007987405656243535,-0.013421295530339238,-0.005287498590527791,-0.00019669988079851138
68,0.00425787333119773,0.004988132954381957,-0.016489412439592427,-0.0080592340891287,0.0016057153474445197
69,0.006416499519168011,0.007244851256426682,-0.012374152179586982,-0.007179910703039436,0.006950749271304334
70,0.012207533698329474,0.011926466986376413,-0.005292381285489565,-0.005455586388734319,0.01249383710123878
71,0.016920176629287697,0.015476316224047562,-0.0008646193479806471,-0.005383139589056315,0.014414226752077063
72,0.014251503384099118,0.015336467709352455,-0.0014097924746203712,-0.0056237054762398216,0.01049016773384353
73,0.004949147316390767,0.012410917444890963,-0.004787766035625798,-0.001986098107515173,0.0037611764806866703
74,-0.0026786234117870174,0.012234627809832234,-0.005108205008335949,0.007447578952210818,0.0019745503857826674
75,-0.006321007437155051,0.0148155741969817,-0.0026107907687122904,0.01633091704791729,0.005283790323561316
76,-0.01172017408856395,0.0129947173938033,-0.003924765790993204,0.017013643793703376,0.006044204936836141
77,-0.019313224303759875,0.005225557413507036,-0.008869625691159129,0.01158390924988068,0.0021445737257391965
78,-0.02202653658168696,-0.0010139958777444465,-0.009515940014338808,0.007814511634052959,-0.000688026562139662
79,-0.018469969660506173,-0.0018212246340157162,-0.004451520932736005,0.00866633311253068,-0.00011874094575138861
80,-0.013224501960175685,-0.00039558343338522736,0.0009136808363006196,0.012367403034204114,0.001978697478177666
81,-0.006293314471199133,0.002881591046925116,0.0063299687835701056,0.017510324405531852,0.007438094257511643
82,0.0024258529559834934,0.008913175454846389,0.012747205723891597,0.0214905399973939,0.01613121981210071
83,0.007901689425737752,0.013746378686869325,0.015744276687934163,0.02041240147943366,0.021778851304768677
84,0.007293125690809274,0.01387157540644409,0.013000760716586143,0.015300383654169317,0.019558313870832393
85,0.003823743165029388,0.01162070298057622,0.008791887789093617,0.011919933384823752,0.011278054595573676
86,0.0019556783862330032,0.011234299070320036,0.007280778405760363,0.013119207790490108,0.003780090304153243
87,0.00239544954044396,0.012858973768294084,0.00724003727323412,0.0161846732034241,0.002069672245343408
88,0.0021194337224099366,0.013628753058010454,0.005199261992386583,0.01679205865357967,0.002878444762929063
89,-0.001250361270220302,0.012516203888328161,0.0006243791207896142,0.014185343849460467,-0.00022776144481749438
90,-0.006032119950177294,0.010811488115089375,-0.0037748673093699714,0.011380479473029118,-0.006987830256077548
91,-0.0075771071478181965,0.010947682779496716,-0.004466138766918865,0.010885745746135097,-0.011978943862402048
92,-0.0021764726135712286,0.015744380404987393,2.8147959329053794e-05,0.012697218425381794,-0.010483697058302325
93,0.008022259916115755,0.022788173102408715,0.005868801743646356,0.014765476897001454,-0.003667918272937419
94,0.014015294767648033,0.024357060146317604,0.0067075918329451865,0.014925325972878453,0.0010097571143366346
95,0.010757074616261568,0.019543916077026446,0.002916752874744098,0.014067237968121107,0.0017008346851323849
96,0.0027655373113601458,0.014196529594996017,-0.0002316292942355051,0.014369396981652134,0.00225563872466343
97,-0.005470366419662614,0.010489984000303616,-0.002264589171181813,0.014474233065653113,0.001963284389516098
98,-0.0106674061456855,0.009787754650550779,-0.003021946668799549,0.013244583074435372,0.0014604686845226752
99,-0.011931081787452419,0.011872424642749197,-0.0020917465293270304,0.011422275588028242,0.0017701900359618056
100,-0.014110665520468935,0.012541581993434968,-0.003964481970711133,0.008005075619064338,-0.0014671431313003954
101,-0.018057869334757278,0.012774271511078381,-0.008659945782561823,0.0045592687904876085,-0.006363023598761821
102,-0.019725649348480496,0.015459595092821129,-0.010682381391540966,0.005314054837665481,-0.005043144905744971
103,-0.017035718868456205,0.01894495497571744,-0.007308388575972691,0.010385746306584358,0.004761868252817267
104,-0.01133550849451342,0.020119692702889845,-0.000619933590207616,0.015468940592188991,0.017214595226336515
105,-0.006787823870179496,0.01591780010302938,0.004097131947892843,0.01669650712013398,0.022662768155650295
106,-0.004817582908746934,0.00717416827224361,0.005259977433414394,0.014456512569915082,0.018613129689879424
107,-0.0032275077791852334,-0.0010749901704706138,0.006208242869103272,0.013169674594658416,0.01163187609631797
108,-0.0012338312362174498,-0.00580954115811216,0.009062871353765305,0.01722219231982989,0.008027195278277967
109,0.0010057995239083236,-0.0065533342402668785,0.013551794960878804,0.025843101517557504,0.010090952594190995
110,0.0033657152577876697,-0.003954581293362597,0.017505681412938363,0.03332987446291284,0.014760365898095753
111,0.00492881491261695,-6.961374252518018e-05,0.01826407019663091,0.035771908616030086,0.015526304981204893
112,0.00474020233093182,0.0030499812843785903,0.0154871045379885,0.03305598450132467,0.009063888889036918
113,0.0033931787693929076,0.004608806111412426,0.011534680506715725,0.026569774182535408,-0.0017204796128638975
114,0.004817934981960644,0.007270614111232591,0.010823949924492777,0.019424054830140605,-0.008492259777809447
115,0.010383907011108083,0.012746489152767255,0.013620402774041175,0.013159240105572302,-0.006900142807385082
116,0.017884250178045343,0.019127163125787928,0.0160487534294843,0.0076314966409289,-0.0004166410476098454
117,0.026402641332695386,0.024468669323232037,0.01675089123724977,0.003948711448219114,0.00695249371917212
118,0.029845467905246982,0.02355401231442085,0.012572377590470696,0.0011063416245228723,0.009873015326012154
119,0.02279387269892468,0.01415510573369256,0.002290050099163399,-0.0016676757078955538,0.006270793715208872
120,0.010135622341738358,0.0026480169026762528,-0.008089504468076172,-0.0025402997463732876,0.0005543735869120565
121,-0.0012211707099843837,-0.0052033231342924315,-0.014266166306700823,-0.0008484580579269644,-0.004681517643547236
122,-0.00841771650753913,-0.008016837252374166,-0.016424401051714253,0.002702505286831866,-0.008515059341917694
123,-0.011063012400981663,-0.006410248482729597,-0.01485274493165176,0.007093359106529405,-0.0078009075190354155
124,-0.00884917808276393,-0.0010655418725195253,-0.008723024343043135,0.011900857579662055,0.00073652077953183
125,-0.0027779485124736734,0.00642005814164518,0.0009034200955039942,0.017614316695869492,0.015383745630319785
126,0.0034417019368405723,0.012266275754377887,0.009459798538813215,0.02381015734211904,0.027985851358130674
127,0.004981299158492844,0.011777668652089126,0.011095322591170765,0.02665887694948423,0.028760394205254967
128,-4.850374192646975e-05,0.0037905063463700007,0.004719029732506755,0.02281369330667741,0.01627328783942153
129,-0.008124301790728419,-0.0070635767313374466,-0.004349292643184694,0.014344828465924867,-0.0011319769147727589
130,-0.013809702862540936,-0.014364662029869331,-0.010994132567684594,0.00571568641789929,-0.015427703924138388
131,-0.011234449536870946,-0.010314534630913638,-0.009892195529026192,0.0014013595225813454,-0.019185015088149855
132,-0.0008961395740605353,0.006310889029139547,-0.0007558452697140511,0.0017027252750652895,-0.010107547723053435
133,0.007150015221227118,0.022990402948534962,0.006176369598824575,0.0009387739858387062,0.002163627034697795
134,0.007291774768186869,0.029093879751644888,0.004959129515264381,-0.003664122832828092,0.008516145950911422
135,0.0019197032872638028,0.024742750731743198,-0.0018366512616033528,-0.009439337300396509,0.0064665358835631305
136,-0.0041224840169030615,0.015271832542523489,-0.009478622458285228,-0.012818828458729647,-0.0019303129606942598
137,-0.007006607670464305,0.005925707829255152,-0.013582430921738563,-0.011884850059323398,-0.01117575978390582
138,-0.007132840245355634,-0.0012173807294648064,-0.013900707182123663,-0.007335893656511088,-0.016580341737558728
139,-0.004625129917696003,-0.0036864978478387328,-0.010645617223411062,-0.0008664341269792537,-0.013784889948962339
140,-0.00016817622412693055,-0.0013827962287474532,-0.0051278750317692275,0.004113178062831955,-0.0031335737612415517
141,0.0020674250220080238,0.0006503271300292944,-0.002579246042418168,0.003434520214728646,0.006411244778620054
142,-0.0005575924643844178,-0.0008083062526250827,-0.005833657580641288,-0.0032284182612282745,0.006363436863750432
143,-0.008018163681690019,-0.0052338270217993955,-0.013979715725359908,-0.012608309467996714,-0.003616168772587589
144,-0.015774829244189468,-0.008187540222493177,-0.021700671411909362,-0.018849713344626498,-0.013491208234499296
145,-0.01665638877471836,-0.005014899904746768,-0.021864241315555786,-0.016414172552096436,-0.012620108778603688
146,-0.007844075214711116,0.002839113337662458,-0.013683390828790155,-0.005117286296695463,-0.0017716145301130853
147,0.00795073539301511,0.010479300086020778,-0.0019653108799089153,0.009234533716613546,0.011268854482196947
148,0.023986752323866784,0.015569422525001554,0.00931845128355024,0.019555028143833465,0.020787434683776546
149,0.03491948995590849,0.019867493659869145,0.019527799225319963,0.02469892635931607,0.02642816446810267
150,0.03887948988042347,0.023157547657812565,0.026675838893207283,0.027096372216175713,0.028208298395967512
151,0.03604470025226078,0.022803213618925722,0.028154242000905896,0.026861984662682394,0.025649028226023895
152,0.027679587448444957,0.017900701108020847,0.024049990724941756,0.022541959124769705,0.019052640428922418
153,0.015461247816662442,0.010096300349691518,0.016046078531458556,0.014339233857719166,0.008348789592099752
154,0.0028514119228963968,0.0036011017835552435,0.007499101221624931,0.00545803068573627,-0.0036501729498893305
155,-0.007009342583410702,0.00031264506696680803,0.0011874602749860556,-0.001152126134024665,-0.012578160106606954
156,-0.0126230870042122,-0.001561968240842889,-0.001659610317545017,-0.004472033146622766,-0.016106012925590274
157,-0.013806580481302724,-0.0035478061201690875,-0.0007493162210851368,-0.0043436235384129865,-0.01498315648557398
158,-0.010404893059620135,-0.004016100877392745,0.004396160672477706,-0.00051285984816672,-0.010673329040610175
159,-0.002703782139615539,-0.001024456101548205,0.012768876123623332,0.006737087173090701,-0.004555165454532766
160,0.0055899320927577335,0.0022531823055823054,0.019292855105557574,0.015336283996075287,-0.00047325085051118273
161,0.010386132520635832,0.0014226936329914657,0.020203011109073455,0.023157166921850006,-7.769490223906347e-05
162,0.010499020816041331,-0.003361701536929998,0.017101830059188368,0.028275513569413015,0.0007426538826932557
163,0.006502489864661317,-0.00888613997317569,0.013002559802589984,0.027884118423353393,0.005960774651653782
164,-0.0007087221148792934,-0.013636765540636808,0.007175061898279479,0.02042519184253193,0.013039645480632916
165,-0.007652052726420677,-0.016519272417144515,0.00011680360205215903,0.009209090293193618,0.0183856525367401
166,-0.01007201210316792,-0.016149066858049003,-0.003752942340000206,-0.00014578440104544806,0.02208575397315002
167,-0.008797000496316246,-0.014763812935329306,-0.0031870748741431483,-0.0049639267873968496,0.022923023350028354
168,-0.005857725518013273,-0.013591671074640505,0.0008496893561815979,-0.004194972463755467,0.02137795304759947
169,-0.0017321588121136451,-0.011018829618727893,0.00688989980446875,0.0013727724732990228,0.021034973475286302
170,0.0018931944623723888,-0.008133534002283895,0.01176300851593406,0.007029565861400488,0.02230114517427405
171,0.0025649621778182506,-0.008811326980573794,0.012800798329624451,0.00795528666467355,0.022098138778131517
172,-0.0010913878097259446,-0.015499918045685021,0.008981070516333798,0.004267869690376117,0.01762269857195037
173,-0.005962955292039698,-0.024224347720704108,0.0036004098919322045,0.001196090607452662,0.011259952780856517
174,-0.007763085589399848,-0.029373054269448372,0.0009217244245188919,0.0010658720988119244,0.007138671450651157
175,-0.004633347181790363,-0.028254332138693612,0.003020047992667556,0.0008004578425885386,0.007668460907827693
176,0.0033818002884116573,-0.018806816968378482,0.010470856453453314,-0.0010706591470485973,0.014076915930706526
177,0.010436610208485495,-0.0056381923401904,0.01690681961810783,-0.00491849893419931,0.01987147718198661
178,0.010532773031183246,0.0014240887792950781,0.015097754474409785,-0.011221385688757057,0.017560419116772457
179,0.0034621894645779834,-0.003860781989491577,0.004375393829514141,-0.018473354576493396,0.007915525227404314
180,-0.006306990746344942,-0.016990379566064275,-0.010053821134324344,-0.022701071944806896,-0.0020039835039759746
181,-0.010497969256499587,-0.027282754938425847,-0.017330925554773495,-0.01930701396668127,-0.0032203541810153116
182,-0.006666208619750087,-0.028856531633126414,-0.012566026249494502,-0.010046280649129422,0.004308600159253795
183,-0.0018758874081030055,-0.02649008260766928,-0.0037804123176990345,-0.0024940227433981536,0.008774236530087047
184,-0.003759630390886455,-0.02946360814685773,-0.0029863284281285156,-0.0022493097384388944,-0.001099677311719792
185,-0.011769167408726588,-0.03716718386118923,-0.012908954272985667,-0.008809274928371474,-0.020571731068680793
186,-0.015606606178797063,-0.03899123920662235,-0.022705737747014853,-0.016006756928061142,-0.03087954356166902
187,-0.00901550820298297,-0.030440098918645197,-0.024309386444669706,-0.019337480028170116,-0.02480239956323678
188,-0.00037585233014549263,-0.020087445632455056,-0.022999468994885534,-0.020627367032572935,-0.015111750302422173
189,0.0018095519202650937,-0.013300049778935131,-0.023533053108959326,-0.021419144080820886,-0.01219753694856496
190,-0.0008174301327740943,-0.009147479587435357,-0.02454225174508284,-0.020384979386201776,-0.015909900236672474
191,-0.00389606056834914,-0.006912470937428933,-0.02444209579994859,-0.017143356070221875,-0.022731717487004463
192,-0.0027985606300861914,-0.002881436459311672,-0.019054348378520228,-0.010864323474200228,-0.026558481279795598
193,0.002072847076690545,0.004796607042379499,-0.008777452753399789,-0.002496805852895264,-0.020906754468614293
194,0.00488894557317721,0.0098684138575532,-0.001209207515359622,0.0037154703963499444,-0.013507323022850418
195,0.004240398659556515,0.01112540528557418,0.000803982763136869,0.005949345137112172,-0.008902320435386217
196,0.0039337346820469766,0.008486139889809239,0.0009636742637266519,0.00632812255105615,-0.006232353522992074
197,0.005200197073265355,0.0066192836618954,0.00034813229260844346,0.00617571608416413,-0.005546134637631177
198,0.005745981037100251,0.00474078819586251,-0.0032962827879875973,0.004686813321357815,-0.008366661529967534
199,0.004801496442465348,0.00011545250211063781,-0.008848903159895926,0.001407346766166499,-0.012417643316894577
200,0.002302871485570969,-0.004521883029583318,-0.014435457700927396,-0.004371975735920498,-0.014815634682499555
201,0.0006717059384921267,-0.008081314937447709,-0.017456805774677092,-0.011980159358342006,-0.013016805368358395
202,0.0028304802512563285,-0.009533851174447334,-0.015379160826229856,-0.018631770719115967,-0.007237997024757124
203,0.006638419819138141,-0.010277368707632286,-0.010633098116105811,-0.023035318790369314,-0.0020673827387110858
204,0.00921179353645246,-0.009939669733906973,-0.006512641072747933,-0.025900315801931466,0.0005140824953845406
205,0.011369475003802728,-0.00830916730928042,-0.0028242230396528863,-0.027312784148591843,0.0027600716069086087
206,0.012437870606740353,-0.00811799833921358,-0.0012005134182622376,-0.027794925459619334,0.003206503185263448
207,0.009250053221268173,-0.013477243351690187,-0.0049069147976705954,-0.02866039780882835,-0.0028832177022046664
208,0.0019065042445182935,-0.025587832117931378,-0.013275655381411235,-0.029766220365712127,-0.014174876095590087
209,-0.00611633776207802,-0.038450664689567426,-0.022951496261066753,-0.029734547377119433,-0.022805847965021653
210,-0.010911352526773412,-0.04569235432353657,-0.029288312830569742,-0.026531907967474684,-0.021870489163077635
211,-0.012985708196138597,-0.04923299794623061,-0.03137088564378922,-0.021244534536194935,-0.015326926167563506
212,-0.016103320711403326,-0.05034049369300735,-0.0330199623168125,-0.018539345080068343,-0.013176061979731679
213,-0.01761231604289801,-0.04904820388020235,-0.033126252378653624,-0.018600937909483455,-0.014019109432850634
214,-0.012480206899956695,-0.04205036663457166,-0.027866505612468468,-0.017403277069619832,-0.009602333597347313
215,-0.0041957648001711475,-0.03054018126628757,-0.020491909755373378,-0.014782627384956558,-0.0016089002463570753
216,0.0015905784420591222,-0.02115320145906196,-0.015202906722664684,-0.012644282597064542,0.003582812368990673
217,0.003982457151912474,-0.014150004962408824,-0.01134867160685511,-0.010756583163587198,0.004283045857113529
218,0.005526755584230022,-0.009086552154131266,-0.007773749267563145,-0.008960663468187772,0.001987956966843451
219,0.010353894984584663,-0.006012696910092535,-0.004216021670364103,-0.008116733298180051,-0.0005538074661338758
220,0.01860836815937035,-0.005010984924137391,5.56892155437776e-05,-0.007519172480750627,-0.0016588692036547687
221,0.02477484486096529,-0.004223700224447815,0.005010747551011573,-0.004996352830336696,-0.0027046920655529982
222,0.02421821297116035,-0.004750109760287783,0.007928621424971236,-0.0005830158205540058,-0.006087566642708846
223,0.015862116241836373,-0.010736911689369473,0.004480551160223911,0.00249742821622346,-0.012987449592977733
224,0.0023504493540645387,-0.02093138405042435,-0.00586972574506564,0.0016353359544493912,-0.02173789977394962
225,-0.007098721399257609,-0.026509042837341037,-0.013810983925692157,-0.0005796996374159855,-0.023655337521182016
226,-0.007194101402245152,-0.02231998079182161,-0.01209994011074914,-0.0009200685739638853,-0.01506223002800613
227,-0.004631420010600659,-0.016081301986596803,-0.0068641419831114315,-0.0010631410508840152,-0.006953942135935855
228,-0.004671652916435968,-0.013868590772822037,-0.0043647749530574724,-0.002514850458557934,-0.005246602235207268
229,-0.005395616351991211,-0.013734639693327128,-0.004077614130654007,-0.0043515602388988816,-0.0080722755677063
230,-0.005355128027072715,-0.013641602915946589,-0.005090626707409601,-0.006166700757765104,-0.013045735914862086
231,-0.004762768459131929,-0.012639250802807901,-0.006464371907055151,-0.0072999306066556064,-0.01692567883860076
232,-0.00319358314770277,-0.01014684380508421,-0.006376908561145502,-0.006513376978064692,-0.01748226576608042
233,-0.001789777360217111,-0.007624219405023327,-0.006342335031143945,-0.005324243579355165,-0.015466961164079569
234,-0.002609707450318656,-0.007337989094543114,-0.009510926905743256,-0.007018582867209514,-0.013634050676417243
235,-0.007004584912456243,-0.010829239857050988,-0.017055511348327782,-0.01280616967967774,-0.013826717138096852
236,-0.015546508896231855,-0.017771286029854422,-0.028567608414281017,-0.021129192596407054,-0.01787415894998313
237,-0.024121405956401765,-0.022994495679192133,-0.039163608318255064,-0.027547134552372732,-0.022894784702136448
238,-0.02821326686648206,-0.022297498970964516,-0.04439584817792467,-0.029387060633906257,-0.02597028311092325
239,-0.02802074879246526,-0.01725444916758182,-0.045017004520933566,-0.028915666446493005,-0.027182292519700692
240,-0.02330637425695547,-0.009287502405569987,-0.04036451974519396,-0.02771022663831377,-0.022800959352906915
241,-0.014995874633391585,-0.0002780563770205511,-0.030669045308201383,-0.025642801368391973,-0.012034648722540764
242,-0.007646653180126645,0.006163385912439158,-0.02136428595334191,-0.02348474135409755,-0.00012994711742278777
243,-0.003268442529029268,0.010772682313753298,-0.015589243899951661,-0.021545090542091354,0.011261268200905
244,-0.0003910623140523879,0.012745929200728336,-0.011439900827482329,-0.019996927126750434,0.019044188763031475
245,0.000893892322099161,0.013623559700699554,-0.0079549440129253,-0.020152400034536704,0.02386045390409175
246,-0.0016082246980215235,0.010925787353863075,-0.007140366148187445,-0.02225127739392726,0.02317159757278201
247,-0.006552611893119734,0.004040801992784879,-0.008392470605084948,-0.023229976346847675,0.016754721098227707
248,-0.00941209255853578,0.0009834364366332637,-0.008306127019148112,-0.020560972027921044,0.014096321383448731
249,-0.011064383471900127,0.00021057344461209755,-0.009561469923826133,-0.017185825115497416,0.01338133119727968
250,-0.01359792937200616,-0.0028159673939045,-0.015973043358312695,-0.016686196051648,0.008030735410966518
251,-0.011404236296741935,-0.00586352264278599,-0.022005918944047166,-0.016957255309297106,0.0011112214576302294
252,-0.0010424957077485254,-0.005408542822514445,-0.02049247920792803,-0.014202036508294599,-0.0006802919380735066
253,0.011513181279943155,-0.0026985182723104025,-0.010675899085827327,-0.008022857722085398,0.0010227392989813106
254,0.018554060795164567,-0.0008860793734071413,0.001577645708675046,-0.0015279236869548505,0.0017046904731142357
255,0.018547975669237132,-0.002492935249627307,0.009332410492377098,0.0022343148518076295,-7.964137807636048e-05
256,0.017053788743046718,-0.006967665253978928,0.012498523489715285,0.004275306149960922,-0.0026069818420628426
257,0.0173787489684294,-0.010937902407527622,0.0136986272341156,0.006909968791690408,-0.003279891637425112
258,0.017091370093728363,-0.014412208840767108,0.013839967784688515,0.009545836575625818,-0.005590947699797199
259,0.013896599031383787,-0.017378188387935527,0.0127533285776212,0.01010564443367847,-0.01144840332992919
260,0.007050891591560314,-0.01672334988084785,0.008259006083835174,0.007096169328933416,-0.013618126232995138
261,-0.002031066600622085,-0.016369033527844502,-8.290086729434749e-05,0.0011511470965175664,-0.011827934104368405
262,-0.008121749253004877,-0.01649853451258064,-0.006697300095692285,-0.0037782942493388644,-0.006771661244940865
263,-0.0069764494389743205,-0.012365452857964889,-0.005830172861489699,-0.00521025635345821,0.0028999352515849375
264,-0.0008707115762400648,-0.006945526717313976,0.0007719347137056225,-0.005527727051689844,0.011812054085645448
265,0.004548111579919248,-0.0036586187665397286,0.007104168231309346,-0.0077952009332222395,0.01663552308041886
266,0.006921628862421591,-0.0023376210059451613,0.01032400463862604,-0.012070715142043305,0.018051068568795108
267,0.008738923723103762,-0.0001902224224132705,0.01249447574594638,-0.01603583601410644,0.02061844685250167
268,0.011945874477324583,0.0028982691584393838,0.016267322898813084,-0.01797827177744467,0.026151933052790576
269,0.015232910659296007,0.00730223214502079,0.02160338643996551,-0.017518196127816767,0.033717709189786546
270,0.01746915744760923,0.013178099361132267,0.02759112851919929,-0.014552066962687484,0.03982325070282128
271,0.017378426678272392,0.01644373283354091,0.031197657807879177,-0.011091179147678935,0.03853152266736484
272,0.013058640425763298,0.013201762225913617,0.027932142232702604,-0.010414721630784175,0.02745815498300915
273,0.00622813108880484,0.004955409367257379,0.019503674036940206,-0.012611023119885703,0.011405931534152178
274,0.0015128527259587574,-0.0017041817463674816,0.012596815286976927,-0.014869210649119564,-0.0003844659747979665
275,0.0016639204250865982,-0.001855368206925566,0.01163461238144447,-0.014714584157198876,-0.003382694587921168
276,0.006037950302995661,0.003402925983163541,0.01661146429829306,-0.01171856478227822,-0.0008161659748864414
277,0.011709005107888384,0.010601299747198823,0.023695868975980125,-0.0074145293792577125,0.002870410731417866
278,0.015640892016868135,0.015384175464762024,0.02823330531607764,-0.00458898556589326,0.0035943222206911343
279,0.018165316244091637,0.01671696698863785,0.029483917685278603,-0.0046888423192821315,0.0017970076883854686
280,0.019790038808284345,0.015777251767355154,0.02773885065054297,-0.007346155135787321,0.0018064768547063229
281,0.017008240199080264,0.010475233321572314,0.02048208610866838,-0.012297069630994808,0.0026746047230546918
282,0.009284160529732223,0.0014929346734918099,0.009243662406759912,-0.017260459636975947,0.0010378688576250772
283,0.0003887787407396615,-0.0073908250582129095,-0.0007820179716649804,-0.01891396257483741,-0.004816078535438433
284,-0.007752935647400402,-0.0155529726607275,-0.009580533750292062,-0.01780633909586626,-0.016153822442152292
285,-0.011351713258406015,-0.021131848259815757,-0.017339026976711594,-0.015569570131451443,-0.02955547710830816
286,-0.006439362769645399,-0.01820619443542434,-0.019295646459356545,-0.011222344463354976,-0.036603263380282615
287,0.0027183332467077123,-0.008087478005865007,-0.014263852024627243,-0.005525639270869188,-0.034722892855314776
288,0.010030736391520861,0.0016849380689117227,-0.006061210496609919,-0.0011086207559990722,-0.026665626463092257
289,0.013401786272550682,0.007122646395626736,0.0008752588757184936,0.0010785121576841617,-0.015960870096663998
290,0.011717348926300901,0.006731940363098784,0.003036693873060533,0.0007333544015656351,-0.008868475420381657
291,0.004695623827418741,0.00046924819395679503,-2.0192790490654853e-05,-0.0030708999961683663,-0.009481733790534866
292,-0.004867329118201123,-0.00829582247779041,-0.00447609760214652,-0.009280427671431335,-0.0145620637128308
293,-0.011971744309313574,-0.014170547347475608,-0.004751965332754348,-0.014089940472232864,-0.016527833267578885
294,-0.01369494579307775,-0.013668305557444903,0.0005452744195071404,-0.015350918211288256,-0.010910988382460001
295,-0.011752549538362416,-0.008824578057908322,0.006116725864410621,-0.014077720601190846,-0.0023514683878957656
296,-0.009491506430563979,-0.004931876755272393,0.006502892699750113,-0.011713534772755678,0.0005206107679560418
297,-0.0067275628458924935,-0.0028597439228515162,0.0035818423055290825,-0.009092116381093886,-0.002667091483246579
298,-0.003454381560642953,-0.0016814248838554796,0.0004003578389630364,-0.008504309649695896,-0.007196104162611079
299,-0.0025625107671147338,-0.002573643464767872,-0.003662972171181062,-0.01208747119665784,-0.011485293815940448
300,-0.0035437210023258137,-0.003133710204829446,-0.005978620116246885,-0.01771988999675362,-0.013697738016837144
301,-0.0028291705872532606,0.001352612851497471,-0.002127172809053833,-0.021359030099929645,-0.011333017481875237
302,-0.0022201920581696637,0.007545779822993252,0.00384266863630578,-0.022983845495930435,-0.007871344540739813
303,-0.006342132733009225,0.007733787433591138,0.004132342657698898,-0.02415689799035536,-0.008159079014697788
304,-0.012644762621833465,0.0033959570015237588,0.00033690264379974304,-0.02303145120191452,-0.00845018369344014
305,-0.0166309909581566,-0.000658566115755025,-0.0024923924217285197,-0.01928453723001468,-0.005033486978558919
306,-0.020357135115096955,-0.0062492845153521975,-0.006550352468596746,-0.017462537427796125,-0.0035736477837944327
307,-0.026921249417567125,-0.015643626381910993,-0.015584475387603729,-0.02111694962506721,-0.01014006179413058
308,-0.032960806317175094,-0.024496368361916755,-0.025461196503260338,-0.026957144537656304,-0.02057906696528404
309,-0.03277301740572588,-0.027022143405502987,-0.02836558341736002,-0.028841943543204854,-0.02614864847957015
310,-0.027554134501157037,-0.024525829124251775,-0.02432492340682684,-0.026246966975155106,-0.026096288420900997
311,-0.02156387958082965,-0.020232411803968984,-0.018171251868163107,-0.022314584351420405,-0.02310633518548487
312,-0.014068518240951577,-0.01278256016447588,-0.011244969006967864,-0.018649970676325622,-0.015686698364880344
313,-0.0021383085445842794,-0.0010788876439592626,-0.003473500370402796,-0.015305461154225838,-0.0033203133517734104
314,0.01272962306824363,0.012936914459576065,0.004504740529170598,-0.011239146534000054,0.010954463689683943
315,0.02200508053255446,0.023531163218219176,0.009239076608465258,-0.00809812613215805,0.02085007934105529
316,0.01881409857705268,0.02374922623109808,0.00608818677716932,-0.009800742138817032,0.02069843450398424
317,0.0071641443857466455,0.01457347121279653,-0.00243030103328258,-0.014920397295744159,0.013384094979744998
318,-0.003968761462378986,0.005535056444719458,-0.008406587119352342,-0.018127164943683258,0.007314918924142181
319,-0.010455241616873926,0.0031792641280239424,-0.009136374357644705,-0.018504375749373372,0.005815764210293314
320,-0.013763475939442929,0.0036466369037655077,-0.008539309915103087,-0.018905483124373366,0.00644630154049916
321,-0.015861364549831274,0.000713794371492467,-0.009610810622515741,-0.020077460156036054,0.001293380258608086
322,-0.016871843965795382,-0.00583226380163245,-0.0121984929271,-0.021226981335889367,-0.008306581892591211
323,-0.017538498077963774,-0.01478821731358703,-0.016752240338387,-0.022614769673152114,-0.02114343822834764
324,-0.018556393567138032,-0.025048372731967482,-0.022127049439784028,-0.023210826339363177,-0.03387357207876341
325,-0.01871145293146212,-0.03255828174561635,-0.023921202717184176,-0.020348828038460096,-0.04037604787223463
326,-0.016204936748932666,-0.03318010966954761,-0.019560516045290927,-0.01320193275296301,-0.038125824593629544
327,-0.010381030289873857,-0.026195662588753367,-0.011131643383094164,-0.004074086871572929,-0.029803567977747164
328,-0.005252539513660296,-0.01684866725631686,-0.005458969793983792,0.000942098175821516,-0.02193421648996214
329,-0.006305989675347854,-0.012817393278585101,-0.007977295175420873,-0.0034851786967871976,-0.021320159352572362
330,-0.012609738924103315,-0.015564032389858097,-0.015755059133966284,-0.013956906451841994,-0.027824433251296386
331,-0.01672046746346215,-0.018295379843732664,-0.01990195443005176,-0.020360795773074144,-0.03309562634563004
332,-0.012354479968959943,-0.013535155522506231,-0.014093209814966355,-0.016604151857145113,-0.02856805006007556
333,-0.003178185445009388,-0.004031137371773022,-0.003012160953453527,-0.00647082314540521,-0.01743614311582879
334,0.0036678432379071767,0.0027341258235470947,0.005281136437792404,0.004011161854579632,-0.007575904666844821
335,0.008152494750807222,0.0065016593905524,0.010660500279284158,0.01289478405720519,0.0015551838885867393
336,0.012859631299435745,0.010145564853267276,0.015436482015775244,0.018580870563284526,0.012097345967593827
337,0.018200343087653906,0.01522989779584791,0.019917401266166847,0.020290866360683342,0.02236160095132916
338,0.023173483677451732,0.02180778064733997,0.024175668002572273,0.020150132374348043,0.030153093018769773
339,0.027811614107899063,0.028885991080810105,0.02889013215252385,0.02119443645512211,0.035781622985814894
340,0.030254863733866478,0.032328415194935324,0.03105297151313927,0.022842988057930776,0.0399585086608549
341,0.026796351759031656,0.02706261332167401,0.025729671623453975,0.021142278979206754,0.03772655601649064
342,0.018924870896588314,0.015314285516465378,0.014186987070623226,0.0153461902692265,0.029114122970262845
343,0.013129698921145882,0.0035980882213609987,0.0023068916932108266,0.008897741265822162,0.019341507767344116
344,0.016075755410802427,-0.0014849383683677043,-0.0017950721513374601,0.006370976434925134,0.013935843077213177
345,0.023553764872882455,4.994396257388498e-05,0.0031807591584028716,0.008684992721491173,0.01519314709024693
346,0.024360958702822778,0.0005342238518927728,0.008259212387125736,0.01302284184064198,0.016199454976723236
347,0.01768288111049239,-0.002422802392808752,0.008449543176988372,0.017184357832392305,0.012675632372485599
348,0.009712264422333914,-0.004741259900187548,0.0056026685124012455,0.01863290370134397,0.006151139719119346
349,0.004077990428924934,-0.0029178632188239643,0.001537471538661705,0.015494664705063114,0.00026359034966588236
350,0.002519402853376077,0.0034394371374263035,-0.001977848174146154,0.0095683401868308,-0.002010013718733761
351,0.002682442374354465,0.0077421660839929445,-0.006394558714627108,0.002749028800195625,-0.002783537114562838
352,-0.0019967484396832733,0.0012527833343838838,-0.017174835152502697,-0.004530578530956395,-0.008062548473562076
353,-0.01115286930102527,-0.013104751374738719,-0.031763830468807125,-0.009640678723304567,-0.017391447242407272
354,-0.016836233930815972,-0.0244098988601626,-0.04003014643172294,-0.01021916471018955,-0.021319240892726236
355,-0.014553143298907265,-0.02708512518983435,-0.03766076399805982,-0.006859003764139603,-0.01448869715964596
356,-0.005355969059213969,-0.021497156556491266,-0.02730479637770564,-0.0007134187394933887,-0.003483559139582364
357,0.006195544162237697,-0.011573277313084381,-0.013980918326075169,0.006200625622034166,0.009373262307636744
358,0.012405075071344028,-0.0053121473707811425,-0.004900675859592425,0.010380518769134511,0.018973735231148276
359,0.008047061068349109,-0.008616062573543774,-0.0056452496948804195,0.01007584773631492,0.018525277405765858
360,-0.0039287932400223725,-0.018648185029522965,-0.014317453561538945,0.006734052038326073,0.010799394284917614
361,-0.015965325163323222,-0.027915427405596913,-0.024228916248244955,0.0022324808226878465,-0.0017866883762723436
362,-0.02339681037545946,-0.03221449643975733,-0.03108984834093647,-0.0020218752209845924,-0.016631337567879545
363,-0.02601499137009151,-0.03177840621556276,-0.03403855553493064,-0.003969917341284158,-0.029067950660607116
364,-0.024503177782248472,-0.02738977325114883,-0.032351023360551324,-0.0017625074561207516,-0.03298720698152147
365,-0.018547843767179873,-0.018647837533608057,-0.024949167223662555,0.0049932089679465075,-0.02764663943113961
366,-0.009944009969824811,-0.00801974610713086,-0.014395490297993935,0.013075186244614267,-0.015887983435341282
367,-0.0035960308892297368,-0.001467299409419933,-0.007079766438178167,0.016171531358267297,-0.0037806905956333553
368,-0.001692769850682981,-0.001391551569217644,-0.005935114636718482,0.011669416890107727,0.0009538677876077335
369,-0.0025353252949631418,-0.005777851048207296,-0.009103448700592154,0.003219893561292306,-0.002247927486879371
370,-0.0036966051860353546,-0.011252933189696323,-0.013602684105369103,-0.0036670082687222535,-0.010396638110993256
371,-0.0020305483851791586,-0.013346978562660693,-0.015182231774056504,-0.005212795466216843,-0.01943441973447279
372,0.00434400529528605,-0.009673622278676661,-0.010453874257355226,-0.0014188663714305339,-0.020270122385034065
373,0.011458146360079339,-0.0053482406547167415,-0.0033029708973486903,0.003172259887834381,-0.015233301163165028
374,0.016287186539057225,-0.006247457517184713,0.00037629203802289003,0.004977013214055007,-0.01056915171536558
375,0.022776076262202172,-0.008223534722108463,0.0028260825615057964,0.006086553615262529,-0.004847728590540271
376,0.02836446841178476,-0.008660098798946168,0.0038179661805547607,0.007647238028843664,-0.0020742945488167156
377,0.024544439914823614,-0.01305064180269719,-0.0035549881936520504,0.006711753037008801,-0.008580069391193629
378,0.014001529363669076,-0.019550486629482403,-0.016406728228165336,0.0026737519871438934,-0.019769637437251124
379,0.007188924667267652,-0.018836945586986186,-0.023045286919561564,-0.0018457531613567555,-0.02349390056534181
380,0.007977101860420428,-0.009144003101318809,-0.018688126472935208,-0.004224525134837454,-0.01841137125608875
381,0.012209984540487622,0.002263727716141629,-0.008192999842230361,-0.003076471653476348,-0.010646286350589531
382,0.015320727119219533,0.010264635749500798,0.0018820280039852776,0.0008498667013340121,-0.004887475257300386
383,0.015003906532052663,0.013999780279413296,0.007094525784770554,0.005017474651027002,-0.0032851785128566414
384,0.012047716700551417,0.013042195629294377,0.007216652516546972,0.00832267184964532,-0.003950787175325618
385,0.009796590750272692,0.00908101667459687,0.006206843210094086,0.011937858065459233,-0.004655445611218777
386,0.009302175031164497,0.005205872924695303,0.006194154448823243,0.016304082130662877,-0.004464234957759247
387,0.0092475446057468,0.0029742710785833275,0.006252975430186086,0.021253177445064653,-0.004048282166604837
388,0.00871454725456836,0.0021848757165111128,0.005225326521021097,0.02497378048674149,-0.005149526083973445
389,0.006437041096261016,0.0002390969849096184,0.0008267113536195728,0.02556931030774087,-0.007768431059122479
390,0.0028746384338727616,-0.004416338839838671,-0.007133800914797701,0.02157047696086989,-0.010470247293636553
391,0.003806002498869098,-0.006565085930360358,-0.011301444856697183,0.01630149873614729,-0.008280598074455612
392,0.01213636085584938,-0.00205195146048126,-0.006493066352771289,0.014126396458591943,0.0010939954562651606
393,0.02227791430062927,0.005991240919914149,0.0028546350117278447,0.0123126653049593,0.011973954217247347
394,0.029626026827577603,0.014612380812061981,0.012390336423120553,0.009024334241900791,0.021131491792017724
395,0.03282810064747837,0.021551862862693637,0.019867894936118333,0.005393095803206295,0.028191333359330478
396,0.029972385817166776,0.023208121909915745,0.021599645437483772,0.0012924244686175754,0.03035175489446456
397,0.024046107015561924,0.021125784828474024,0.019215063051298262,-0.0028936409640611034,0.027186036874699362
398,0.018697021957292177,0.017592941775445854,0.01590828567083116,-0.0057860407795745274,0.019818413853709253
399,0.01221943380691884,0.011179362271522891,0.010626068770726083,-0.007661204854476642,0.008176820736784891
400,0.004724147520454495,0.003624380008667753,0.004859805458634465,-0.009006142143186015,-0.003826910968801282
401,0.00011289046749342074,-0.00030581743614769386,0.002900606414154639,-0.008503565551583872,-0.009774194557641011
402,0.0002506794658365147,0.0007150110492735554,0.0053217554990564325,-0.0060664222825278944,-0.007837828723622
403,0.002888581448923167,0.0028511167294487847,0.008133309139767037,-0.004627148393281218,-0.002057613333132466
404,0.008310712158292587,0.003994236528025686,0.00977399869268111,-0.0014138291123638894,0.0046714777936759065
405,0.017411351653407854,0.004793034158261267,0.010455072711198665,0.0012917980999815456,0.011338169177261517
406,0.024742680664135906,0.00553723751245362,0.008530931008869223,0.00240430162099486,0.0153151300967036
407,0.026382435609269124,0.008093631049299917,0.005071480778226765,0.005458509291170559,0.01666269144488152
408,0.024659052841438434,0.013780651016245803,0.0029889676594813046,0.007659352279545847,0.017538328437990757
409,0.022814104372633662,0.020822399122482526,0.0036872438229129216,0.008063351457987138,0.0182294077902013
410,0.02320401456565401,0.02640262418344125,0.008158235455526148,0.009905658502326472,0.019104717991659456
411,0.02469331618763756,0.027468522418209816,0.014033541264393703,0.01445624501087541,0.01987884820154723
412,0.02080646683797519,0.019860304742553105,0.01369146346357395,0.016095816974745977,0.0157885352673907
413,0.009934565083667139,0.004969631634534869,0.005425429019419276,0.015387696947560005,0.005459347007293298
414,-0.00013334425715032128,-0.007488253070256799,-0.0020770193185595948,0.01736492067199432,-0.003126087011959682
415,-0.0038441773851339528,-0.010121305927613967,-0.0026951375408669096,0.022568957622239136,-0.004019986085729137
416,-0.0020933491252857496,-0.002330211749743983,0.0024946039208592315,0.030494002745648008,0.00146248254474608
417,0.0014727041215461564,0.009813492990123062,0.008690228118324617,0.036908397007288665,0.00898587315201937
418,0.0037948174349097218,0.01716197139121782,0.01135804683921311,0.03787945366940699,0.014931242583574434
419,0.0033845429891058215,0.015693708767938182,0.009165037766100372,0.03418585374752177,0.016835708348212484
420,-0.0014181318393636146,0.0070911198401112235,0.0018899317130917914,0.023370047934636973,0.012180152641803669
421,-0.008881085391862192,-0.0030624414818228455,-0.007362955383860031,0.010615383167792484,0.003339741997307946
422,-0.013247199865399932,-0.00847975230970115,-0.011994116344919415,0.002192529599327326,-0.002729875338609143
423,-0.012284588069668763,-0.00842798961990972,-0.010214819077191718,-0.0014570777771790232,-0.003056463253837532
424,-0.011295383788468243,-0.00902071215322981,-0.008988409577945734,-0.0012610502910540683,-0.0022547278882667737
425,-0.015244905712415425,-0.014869402901137816,-0.014328667981136557,-0.0012939799226863364,-0.005142402970431399
426,-0.019555471855639304,-0.02062600648379902,-0.020412065642281034,0.00016242278685078961,-0.007656820001403239
427,-0.01595516399740362,-0.01707154847562984,-0.016935178262793362,0.00773122240186078,-0.0021012350487472783
428,-0.004497350169933729,-0.0039309180247310066,-0.003943235821299014,0.02057841068717237,0.010591892775643935
429,0.007372457720803229,0.010739213698210917,0.009209028761036851,0.029718086098868307,0.021648039322224706
430,0.015068660538764473,0.021940188927534986,0.016321950898608804,0.030698069725596622,0.025950431489063463
431,0.018169703850690527,0.028555203014561006,0.017149238302706742,0.02566639747111812,0.023733085956538554
432,0.017362022991553126,0.0297432751059785,0.01409079189893473,0.016275529811448308,0.01720018554044777
433,0.01431378086945878,0.026452684579461434,0.010331667674709107,0.007009246975737405,0.010206141947172575
434,0.008408613526013468,0.018493086583198006,0.005118594844974719,0.00037378292255257407,0.0029950556004770617
435,-0.00020483395369032704,0.006679664333549859,-0.0021434118138707182,-0.003539639098795091,-0.005389760074899724
436,-0.00704860300139888,-0.0036601696831056263,-0.0065437069399312455,-0.0021731011655222675,-0.011830947548239261
437,-0.008217336888360696,-0.006818418624709884,-0.002845116187335338,0.003935810668495715,-0.011267214201818119
438,-0.002893820717595481,-0.0002830700816595084,0.00969456955182155,0.012499832725417175,0.0001578433135699634
439,0.004786236740392144,0.012365247407932602,0.023862561281841003,0.018950623354311722,0.01930008741935667
440,0.006820406662199689,0.021617946577931858,0.027461877294883526,0.01606279395172609,0.03385668785167241
441,0.0027995585160919463,0.023918968918918378,0.01883571562924309,0.006113601621414077,0.03677049812301807
442,0.0007891862143570593,0.024708803308781505,0.008928588273457645,-0.00032374819591331856,0.03339872020311086
443,0.0036830897692547993,0.02604171650869753,0.004377413834647499,0.0006228458921570106,0.029049788767553594
444,0.010328159178101436,0.027805220204195544,0.005264429880954882,0.004307574110756399,0.02682458373723485
445,0.02114454806789777,0.032134670235600626,0.01105894062921499,0.007466896707480026,0.02992473558808578
446,0.030747730438816415,0.03634396892784929,0.017022767572103643,0.007654469260826657,0.03549022735766813
447,0.03102838232333859,0.03487424869727789,0.017457831831752927,0.003164065898056583,0.03735835807812142
448,0.021413158868910712,0.029515386925154506,0.012112915865616287,-0.003963435159088825,0.03577823582031272
449,0.007555989611911856,0.018923855016875133,0.0046504699527313,-0.010807640531525407,0.027123328499307674
450,-0.0031862860655925466,0.011876598769116491,0.0001271750818452036,-0.014733773713348407,0.020416238376206104
451,-0.007959804431936427,0.011207935372842967,-0.00011021698482960212,-0.015499007416876306,0.018506781774380046
452,-0.01068985154750614,0.01071385663873922,-2.4000893721338967e-05,-0.015468129789701423,0.015078754248027508
453,-0.01553172247668275,0.006146597725593687,-0.0027698399332811365,-0.016091052141197538,0.006466441626600975
454,-0.02075193587215471,-0.00014282034308378823,-0.005514650672748934,-0.0156790610939707,-0.003626250191021962
455,-0.02123427826037648,-0.002507581916320702,-0.002907868974626357,-0.012063586038126307,-0.008318454994958344
456,-0.015991133878331624,0.0015331252700935885,0.00459132245402514,-0.006276055371407281,-0.0051941264039872545
457,-0.008497581279970442,0.007333230297811885,0.011789792707415704,-0.0011136688543228355,0.0003572940672336256
458,-0.00272748035309969,0.009975561660386564,0.015468618998742703,0.001688940825379963,0.0029205046113479688
459,0.0004540871353989411,0.009861547523361842,0.01743452828894445,0.0029089927510146823,0.0027695313867174024
460,0.004260451291039207,0.012958097018349511,0.022116681316149567,0.00447951490895078,0.00589110037497455
461,0.007809395635509983,0.018448312264825482,0.027475041086633293,0.005080404891857124,0.011328305010239022
462,0.005138695390923139,0.018603287723126517,0.026243062663503423,0.0029268344912087847,0.011132640171393255
463,-0.002671773904209141,0.012480573782607918,0.01988164156053538,0.0023671232199728135,0.00479132097775258
464,-0.009214553160368757,0.004116681740679651,0.015820625683525154,0.007236681500830859,-0.003001507001277585
465,-0.012053403748996515,-0.0036397955895716132,0.016107913533297623,0.013909543531690022,-0.008871990214022046
466,-0.011572396031921058,-0.009498953037908285,0.018131704175994554,0.016974180656515295,-0.01157100192166744
467,-0.007798622202056271,-0.012298071168223961,0.020431927757407407,0.015737150759371852,-0.010892717893264466
468,-0.0019155861971845707,-0.008567455471955046,0.023486244503549688,0.012905635389341539,-0.003972188408162465
469,0.0015647999016126391,-0.004472887778859014,0.02476470508616742,0.00947035120449101,0.0022782319116562114
470,0.00027177998598166045,-0.004730164243385591,0.02177059892315152,0.005258436137828561,0.0017272187542917573
471,-0.002683240808235975,-0.005197450207524292,0.017328650906748004,0.00122967270277035,-0.0011525673269214025
472,-0.0040311590822655705,-0.0038244559023208387,0.016113533271088096,-0.001161252834635375,-0.0015631891770434593
473,-0.003917799271592301,-0.00020992693893781713,0.01909805055985726,-0.001398864285694373,0.0024894630881251954
474,-0.006231953454225206,0.001078442222917009,0.020847086891501426,-0.0014437100346240724,0.004769738690164871
475,-0.012550965546194984,-0.00285060376096077,0.01762281319452753,-0.0022256168950669612,0.0006900156908241092
476,-0.01804203405579946,-0.007432824020336467,0.013830778666410103,-0.001761965420530446,-0.003749935329070418
477,-0.017970496913690192,-0.0058987175171149875,0.015042455083818913,0.0008493982021647708,0.00026474502721015946
478,-0.012863612468116497,0.0012176053449734032,0.021899022747360063,0.004469208619680944,0.010760424512667998
479,-0.007744401846241973,0.006816819962489278,0.029221858703406756,0.006761097869679293,0.01737418040924693
480,-0.006821712363251495,0.006696884177861467,0.031151122088863375,0.005740144076006867,0.014729207194634445
481,-0.00760096615941762,0.0040698739383745975,0.029908879298294888,0.0033449978340282195,0.007112528618138344
482,-0.006190296528426941,0.0046475716142790275,0.030558952326129412,0.0025630738251840243,0.0012849012773768413
483,-0.0031031550807671753,0.0076240848219639515,0.03243194497570394,0.002732525754858233,-0.0020848678593631655
484,0.0001629855535544855,0.010205499603469512,0.03326917383179386,0.002266824025724024,-0.002753637441350173
485,0.0011892783025455626,0.008748748675754486,0.030600600988882832,-8.060506288868374e-05,-0.0012959683430410303
486,0.00015951614607708796,0.00388165920202311,0.024570125879441032,-0.003655597232008616,0.0005279517241667467
487,0.0011366959693075733,-0.0001866420683871795,0.019024474590632265,-0.0049234239024344975,0.001827658726871367
488,0.003922014082658478,-0.0031546981618896216,0.015561389237144998,-0.0012615619353564724,0.0012203379858548755
489,0.003941377348744101,-0.004938113349453405,0.013314783020131185,0.006479652644531697,-0.0007997309003097269
490,0.0003946792046353237,-0.004412018793584628,0.011870735423769973,0.014206478317714152,-0.002188153142158803
491,-0.002816882450200809,-0.00014259294476864828,0.012277042161941514,0.018068202533967497,-0.0010946467734694145
492,-0.0026630430263745695,0.0077568091496998505,0.016194648066051122,0.017591261503129462,0.003674531100578551
493,0.0013366894299148449,0.018543611335074907,0.02472480462826719,0.01568510380276822,0.01294657845668382
494,0.005907021561732428,0.028993949936669216,0.0347817902293197,0.014463673812187376,0.023086662884954402
495,0.004982753534883392,0.03324856573676101,0.03918391711902321,0.011267444287022688,0.026960534605408246
496,-0.0037750018449503086,0.0290358532416903,0.03384107485436164,0.003606018838003793,0.022213764904591274
497,-0.015741435458853772,0.02015474614902002,0.021926986517119326,-0.00477169518838684,0.013537475397083864
498,-0.022570716623636442,0.014670782733043388,0.011726601870226061,-0.008193124747034826,0.008865185082047065
499,-0.02059698930708869,0.016983146439901207,0.008005383911099244,-0.00758727542110229,0.012403199626544554
500,-0.012845267299731091,0.020634435758975434,0.009503441130935136,-0.007607593702845994,0.01979276270210018
501,-0.00434102248096799,0.02493845819509335,0.012690151681620679,-0.008734468244527144,0.02850457806225156
502,0.00026091903334903667,0.02866771916350995,0.013584545107866988,-0.008331572486964376,0.03329356339862421
503,0.0009664054829427944,0.03050644125223169,0.012817511790829909,-0.004623532580914717,0.03275547177175158
504,5.0623326989795775e-05,0.03327999828606422,0.012440176318770235,-1.8474687789012873e-05,0.0319496811676399
505,-0.0020063259040222934,0.033405955764016025,0.01187275139097962,0.0008173982387716593,0.029804167983075065
506,-0.0066557611047110415,0.02727199943599158,0.008556488767149414,-0.004495242495360522,0.022453108386444383
507,-0.014022215294918695,0.016613703292526268,0.001377877635522753,-0.013928638817545018,0.009808245019934032
508,-0.01984329532159321,0.009148852424061946,-0.005069627009482767,-0.021815066047535348,0.00017322101767700516
509,-0.02209654617156556,0.005160361539499488,-0.007435853329912577,-0.02393493264063178,-0.003282494995924221
510,-0.022893080523978163,0.00179640163987671,-0.007129453264934281,-0.01982689067555576,-0.0033260289928329816
511,-0.025187776284330582,-0.0013608732647787526,-0.007628499513181882,-0.013612587884295185,-0.003304810172636811
512,-0.03003796484934439,-0.006180398601933718,-0.011298569335298915,-0.011461890725000114,-0.0076383663495373875
513,-0.034049648416162766,-0.008871718542954104,-0.015123458493518004,-0.014169939850057866,-0.013253448810402406
514,-0.032508787308728915,-0.006584203422163364,-0.014208458216574566,-0.016779693447410725,-0.014819304514968906
515,-0.02601192813587161,-0.002522836886126541,-0.007905338274094573,-0.015278407565800588,-0.013033627534916693
516,-0.0176119466523567,0.0016902804607561153,0.0010776237131927633,-0.010042073284046276,-0.009895436410116438
517,-0.010284489975459804,0.004343836856282396,0.009914567752604376,-0.00399747791876339,-0.008286581114310838
518,-0.00721882669054072,0.0036983601164640267,0.015232587442718139,-0.00013404544864315576,-0.010901870485273612
519,-0.009729899879037296,-0.0004560460990262585,0.014410522169646608,0.0005425366938368899,-0.017597873747314613
520,-0.013763230242346288,-0.004814749618692824,0.009704356856616391,-0.000522332368439367,-0.023812736194498724
521,-0.013294278334595492,-0.0046355113523774165,0.004939104343193382,-0.0023370745234582413,-0.023374777604103152
522,-0.00981039058172682,-0.0027079807466074512,0.00036889919483899683,-0.005197575221474392,-0.016840366433124886
523,-0.00944883280494481,-0.0029368373480235226,-0.004421846328052615,-0.008163307329237693,-0.008824321232818667
524,-0.014311006450783604,-0.006179489932930074,-0.009823354088582332,-0.01002967171069732,-0.0043057404270880765
525,-0.020764761916013372,-0.009837295195853458,-0.015009371583990589,-0.00997522520408677,-0.003959427402798174
526,-0.024442189649108957,-0.010141593370377474,-0.017198590068492555,-0.007081233423330281,-0.004900462909937751
527,-0.025309427994086017,-0.0065788282947215225,-0.01636909395337969,-0.0020261751612095365,-0.006238145319790191
528,-0.025057775383940675,-0.0005117514611167757,-0.014431461144408088,0.0033532060066526464,-0.007079530980396369
529,-0.02495503970304223,0.0035792073752144576,-0.014082362692568467,0.006855797174442478,-0.007728175486811811
530,-0.025055945460950687,0.0017161021959182113,-0.017549505971382634,0.007483742130198998,-0.009812984106466307
531,-0.021901470695630792,-0.0020519538815093547,-0.020342374517646204,0.007740130913279671,-0.01001670781155251
532,-0.012866189383636593,-0.0008969469584317376,-0.015475706987512567,0.010696309266052384,-0.004302913712126232
533,-0.0024233500120178753,0.003090478019656891,-0.00593560884063166,0.014514821796667446,0.0014407248924608522
534,0.003979096704727968,0.005173363880675792,0.0009827970055737863,0.015462732247613877,0.0012259029520218267
535,0.005710470246942616,0.005371469076104272,0.003158122651440767,0.013283602934854427,-0.003018411980952415
536,0.002899593143472284,0.004305689795170427,0.0005122989767435917,0.009336853806152503,-0.008391641469028682
537,-0.003903092402403455,0.002662016180148809,-0.005079483977864189,0.0048172115155358936,-0.012625947205947995
538,-0.013112247293878559,0.00026136572174083333,-0.01115305759496314,0.0003651730476520222,-0.016001982607120768
539,-0.0204159540086848,-0.0010706433345812581,-0.014402746678645016,-0.002519256391444268,-0.0176765069639836
540,-0.02130328200140538,0.0007711897903904616,-0.012060002388860984,-0.002630200562291853,-0.015861983208158327
541,-0.020367854428473567,0.00030283722126655914,-0.009714077418026741,-0.003287423107320123,-0.016077432934635653
542,-0.022318060664060765,-0.005388892896717338,-0.012271910587801131,-0.006814503664493482,-0.02075170154498971
543,-0.024769159216204376,-0.011055145643661226,-0.016487681139560565,-0.011153877050554917,-0.023870001445596912
544,-0.02776716171718364,-0.015061070530011874,-0.021270037856311066,-0.01620313948135416,-0.024807542890481284
545,-0.03151812032006927,-0.0178768998513213,-0.02637667445228683,-0.02217759186459062,-0.02612707216619807
546,-0.03204951879628368,-0.016827362985595222,-0.02732725474715071,-0.025406556334485263,-0.02467174539269457
547,-0.027544068915808358,-0.011832875637225708,-0.022461096206230522,-0.022794835134479437,-0.01828290761019563
548,-0.020671724824224347,-0.005817387553940705,-0.014926510348009665,-0.015687116292469706,-0.009628556738921875
549,-0.014422055891511545,-0.0005171485117279171,-0.007533956566775829,-0.007402673822998125,-0.0013731853770213391
550,-0.01112760518803629,0.0014964938379410282,-0.0029249025547636517,-3.3246486594112286e-05,0.0031553888628600446
551,-0.011946731214032386,-0.0020214112390142974,-0.0033457899828093717,0.005795573574612325,0.0009678273758168032
552,-0.01558005968894713,-0.00884610829786894,-0.007614136658676013,0.009616587923680638,-0.0061586366928456935
553,-0.019501386227729265,-0.014683395836864156,-0.012179672427854673,0.011476759382195348,-0.013517715928762991
554,-0.021109835848031572,-0.016325460594808775,-0.014119038109338407,0.012589856349394383,-0.01632139358593451
555,-0.01956721303416396,-0.01348363617464837,-0.013524085401893343,0.013365284360146414,-0.012229898028529675
556,-0.013059349732659903,-0.007079246367872415,-0.010560572064035191,0.01391156000165544,-0.001831187752609486
557,-0.0010876746340242763,0.0013686512014197349,-0.005423870072790118,0.013993547376352248,0.010699349297928703
558,0.00944184135064002,0.007689464344993732,-0.0014240713013795802,0.012474301583321853,0.018161425279627417
559,0.010958725746516844,0.0065441963523835385,-0.002344573224810845,0.009196623442651626,0.016003926390755773
560,0.0041916955403067165,-0.002377793197784886,-0.008159912667566811,0.005197099776386121,0.006669692639560321
561,-0.0031908975798719745,-0.010930556274171357,-0.013009081219104698,0.002687630161170672,-0.0018991843372810875
562,-0.007068858693845552,-0.013751531379033018,-0.013079908433180035,0.0026023032448550276,-0.005464259751623665
563,-0.008040577627978981,-0.012501456385502348,-0.010014942939869141,0.004439111957261435,-0.004681162885894493
564,-0.004435583621728958,-0.007415843432431949,-0.004133645304420006,0.008708191012854909,0.0003574675124807044
565,0.0032160117928603663,0.0011318333931018244,0.0029477636212537025,0.013811790826807278,0.006346775442658444
566,0.010436456319777385,0.010119056776124282,0.007322453224073538,0.01656661956145118,0.008187941060324196
567,0.01363150195119426,0.015211622579621904,0.006796253894144673,0.014948700349719575,0.004259437000009044
568,0.013050086642589033,0.015349647296718425,0.0033362920864748215,0.009854002165121542,-0.0019702775027306235
569,0.010917144542466006,0.013477578272006097,0.0007192398199964512,0.004603005084651094,-0.005395862994819724
570,0.005955245535292707,0.009171969819170712,-0.0025647849873626223,-0.00043253945964837054,-0.006776283578763493
571,-0.0010546890754105334,0.003078177429163035,-0.0073723968036824876,-0.004889210969466253,-0.007941923499440048
572,-0.005614185574353171,-0.0008643496099042216,-0.010739878667996276,-0.006021444167758651,-0.008221564241788982
573,-0.007414226120754632,-0.003381893891828736,-0.012931778001060785,-0.004146112189135585,-0.008842268554213616
574,-0.008940989004668849,-0.007204483260383257,-0.015731044922155824,-0.002280782671265839,-0.010483270085157885
575,-0.010780602650582735,-0.011445287237069777,-0.018459894613749098,-0.0016063887919530115,-0.011750664443171662
576,-0.01011434300640638,-0.012444100038271911,-0.017438887717237905,-0.00012112565332007622,-0.0103640324318361
577,-0.0037212566392969817,-0.007221917746820392,-0.00960839865109446,0.0035857552685502124,-0.003946670045189654
578,0.007553683239811708,0.004070310103061187,0.0034213828894424088,0.007438023084895603,0.007971324804536759
579,0.01873353529574606,0.016844717378775288,0.016265668064434618,0.008314243248129322,0.021430826798321322
580,0.025181023652684313,0.024580850552663923,0.02432156179393186,0.005254350398111044,0.03064257890478724
581,0.027707970513508446,0.026665052265650833,0.028619100396719367,0.0009190664612824218,0.03641791269023854
582,0.029459234249104363,0.027459218852571722,0.03260932119849579,-0.000733020993536284,0.043172729234026944
583,0.0295008566179195,0.027397830578242487,0.034830006920835765,0.0009340307437604955,0.04810518343129715
584,0.02569131908791967,0.024484338357938402,0.03165208796953345,0.00341018489933414,0.04534477822005779
585,0.02074342461750242,0.019997663094289363,0.024164258305281325,0.004624636218362261,0.03556434557384805
586,0.01931507690068637,0.015572975783548786,0.01564808078381753,0.0040283350418348915,0.022846838945239648
587,0.02290864083042496,0.013961415413703342,0.010232696355854004,0.0036667164310011007,0.01208193556425947
588,0.028824692855929677,0.01851786632764224,0.011082948340531758,0.005642761410423524,0.007193200299713329
589,0.031735367538195516,0.024999450145017164,0.01404254263868768,0.007305470227764794,0.005503855799197383
590,0.029357516464144945,0.02696910940491349,0.014148931801032511,0.005643730038071678,0.0032417500787674104
591,0.024069202977037633,0.024746875148781003,0.012350628111516633,0.0018883841733934074,0.000686838328851232
592,0.01839204263182077,0.021218291936760288,0.010354494040372877,-0.0013100298577590503,-0.0016768444624150963
593,0.016175289510760072,0.020535226587516532,0.01142236786992982,-0.0004357159059983278,-0.00013548898872232763
594,0.019524398633912983,0.02441720532962951,0.017586084167261783,0.0052051402879490435,0.008390144575471452
595,0.022797729956682524,0.026927165413330404,0.022829038165998343,0.009384060012992175,0.017361496243264614
596,0.0213553982239907,0.024531347316528614,0.022664726689856547,0.007802170423388677,0.020292070535734764
597,0.016784958395682684,0.019826833727707598,0.01963029126574543,0.002824502638245371,0.017750852093728942
598,0.010299239426284544,0.013423094370157434,0.015140142708368587,-0.0034091348696895386,0.01093632159346475
599,0.002569667559604355,0.005658542850457407,0.00865636525382155,-0.010506755060576136,0.0004497287136938703
600,-0.0050499415818127495,-0.0009855280746494035,1.316155898537336e-06,-0.017984362717095637,-0.012521878597107834
601,-0.009822739244607191,-0.003172970968047493,-0.007092857004647847,-0.023768927444315344,-0.022023761506684475
602,-0.01055813197257188,-0.0022127048632866646,-0.008606624517408562,-0.026535010074867513,-0.021748633577266314
603,-0.010129461079727863,-0.003058036742622367,-0.006533779937770919,-0.027425795562521133,-0.013640448743599917
604,-0.009038832113151214,-0.004011816203336994,-0.0023384065320559986,-0.025063263134883364,-0.0025941160153658467
605,-0.0075560321870371105,-0.0027423788151272727,0.002512129143602689,-0.018845286135455015,0.005156748192081976
606,-0.0079237360636561,-0.0014203563573375803,0.004497538355787495,-0.012846112478719047,0.005727560364194664
607,-0.008591153514434362,0.00011895941928892062,0.004753776532852599,-0.009941273580138164,0.004489853682728101
608,-0.007015120729855003,0.0023574771008450257,0.005951929862534218,-0.010023062268222957,0.0065330510348610565
609,-0.006807411552122171,1.9159008023990747e-05,0.003374042102994457,-0.014299717090442546,0.005388963559939987
610,-0.010645049032191243,-0.00938924042409391,-0.0062515347860127805,-0.0221174619084233,-0.005045353020533409
611,-0.014152692374632785,-0.01942711127255448,-0.016787874192041294,-0.027897327275183445,-0.018634875865615883
612,-0.01398403677295396,-0.023925093835297073,-0.022283203777506918,-0.028298177735038323,-0.0265030675317861
613,-0.009527292286099427,-0.021010784715484745,-0.020230151249407573,-0.023935007560181992,-0.02515269007565091
614,-0.001514774880746009,-0.012930554318214361,-0.011081206558228059,-0.01601404621005695,-0.017107725654986843
615,0.005700386826906071,-0.005323452375450348,-0.0005765030663744726,-0.0076964217983585045,-0.008896189571370325
616,0.009550275040288072,-0.00105437914415325,0.006523138205913277,-0.002480471940220071,-0.004091388572755449
617,0.012823442106304846,0.0001326795214315412,0.009568956883851669,-0.0014377715986972398,-0.003621062203534087
618,0.0180330401583512,0.0003822069352867466,0.009698455321067419,-0.0036691894080499196,-0.007102357344102256
619,0.021999948903987657,0.002000690285395099,0.009082857015897302,-0.007889618016159984,-0.010970257263401754
620,0.021054492532602373,0.004685444241398804,0.009829019090367978,-0.012716416791616,-0.011830398764239134
621,0.018148746258448,0.00880053066564995,0.013373358876457046,-0.015264525688284252,-0.008140169032481197
622,0.01753051020169353,0.014600231169104015,0.018785168356269158,-0.013321586579171658,-0.0002609435176576976
623,0.017246076981438364,0.018090689644986932,0.021423781936869866,-0.009367532185515011,0.007846621999116133
624,0.01273835736753904,0.014398694153640165,0.016548964362501854,-0.0081553592724622,0.010727589391835025
625,0.007860641909377374,0.008006215859178064,0.00886967492682213,-0.00854845881017245,0.010530160432444778
626,0.008714602444477332,0.0067998715244876,0.006422042512252304,-0.006243838105172708,0.011828853592757003
627,0.01190765181217428,0.009167147030926106,0.007454518349160168,-0.002376996331862355,0.011664992318855486
628,0.014255522040957952,0.012527511469956565,0.00890159339258444,8.859673279308834e-05,0.009690398788359816
629,0.017669317626172965,0.01785615287448051,0.011829158821322891,0.0005259902206522513,0.010413419906238812
630,0.02179443922382551,0.023324064604635784,0.015068816532678149,-0.00173482485106451,0.014067061272928902
631,0.024966058213885752,0.027541898225185397,0.01749851758119458,-0.0063720063011846115,0.018362063042682366
632,0.026554867740334196,0.029841929801821414,0.0195000276439077,-0.010860858838032336,0.020862929513977002
633,0.0267138309577768,0.028800498713467133,0.020732922237799194,-0.012600845539288351,0.02061680707616413
634,0.02453198117660239,0.023770395460422644,0.01923679798798467,-0.01128306268788254,0.018281305674004242
635,0.019772072347195576,0.0165221578686743,0.014981417939012278,-0.00794785028989834,0.016443953512494572
636,0.01500525422035562,0.010970711853664376,0.011982706248572884,-0.003653775186278585,0.018409991088460104
637,0.009956853275353887,0.006424499764785347,0.01019669740930012,-0.0013998566311411139,0.0197914810717622
638,0.005232479555835011,0.0027759642665096187,0.00853885423517592,-0.002358504544737701,0.017215822347827103
639,0.0034046915219441225,0.00320074829049147,0.008087779102956565,-0.0042865362837431744,0.01389242948492815
640,0.0024985054104447206,0.005832526177144574,0.00642741441200769,-0.006007343947272279,0.010098275830427767
641,0.0010873765875915166,0.00820777512639005,0.0030742231426506353,-0.006512398127793796,0.0067421799078559615
642,0.0006935476288983427,0.010162061749242989,0.000659121489788051,-0.004611021494562658,0.005761208088121476
643,0.0034294314077102078,0.010295740888039718,-0.0005316239373502092,-0.0003979871617306912,0.004730058981611732
644,0.010958109059291374,0.009385998365181157,-0.00020121729539541758,0.004650569756021403,0.0029346549141789752
645,0.019324927471907588,0.009131307084842165,0.0013178632529037015,0.007038535640546331,0.0022765476515123565
646,0.021523324645241246,0.007671361259238873,0.0007933327683986847,0.0047641885539567936,0.000724747003782723
647,0.015601775006151264,0.0026738752371021635,-0.0036109701964394197,-0.00048760928208327364,-0.00502577417972212
648,0.006270711074426651,-0.003992416998503294,-0.008335077352315142,-0.00585934145388655,-0.012613320290301159
649,0.0004948708094191101,-0.0075287433317142655,-0.007330328875205985,-0.008170065008398559,-0.016206188171353896
650,-0.0004563922584095916,-0.007265264140123517,-0.00044505402069121264,-0.006344246874091969,-0.015474153357194875
651,0.000773903618219195,-0.004699494607243028,0.007497140203242952,-0.0023789626098377373,-0.012775192305168805
652,0.003633804104920046,0.0002605853546981614,0.012334075403933546,0.00043218103156762933,-0.00849701805155255
653,0.006031380660428105,0.0036900455777381398,0.010210973149396806,-0.0016580144152833732,-0.0064582910692664395
654,0.005916088329007224,0.0025016214195632148,0.0024595330991128666,-0.008253007497250067,-0.008869582992246109
655,0.005513478544576508,0.0011319411632217445,-0.003562290402189404,-0.01430952791263441,-0.010704276708315216
656,0.005905038884087264,0.0026302032183328555,-0.00480820371103864,-0.01685001213840299,-0.009693227793070748
657,0.005215662386422326,0.004070283681590083,-0.004087121725535521,-0.016553056633833805,-0.00950200686187723
658,0.002583193261756697,0.0026930732153363683,-0.0035122732994649912,-0.015138087098669257,-0.011283483441611569
659,-0.0011724716220694784,-0.0010948523860299768,-0.0032088468136634175,-0.013807121694309362,-0.012513026413036279
660,-0.005186729083227886,-0.005178923385449299,-0.004149969859875907,-0.013119359144905278,-0.012948096768956013
661,-0.010394115562911893,-0.009967788760710703,-0.00992318229433833,-0.014075506434117962,-0.01725002124318198
662,-0.017431354021626325,-0.0182049189577455,-0.022203731686710502,-0.016668532844617525,-0.02849159921783337
663,-0.02059182781239708,-0.025671804946383894,-0.032990060645803954,-0.016931461214618138,-0.03848660859770381
664,-0.012222654441008675,-0.023262885309014148,-0.030586073557368507,-0.0105348072036687,-0.035131369510589726
665,0.003790665772698479,-0.012981953955184106,-0.016900984260244573,-0.0002682814294554451,-0.021276340389072574
666,0.016680839518062235,-0.0042547709238461425,-0.003472507184294436,0.008390616569138499,-0.009169974149008745
667,0.02377176295648348,0.0018648609079393449,0.005794998886304698,0.015441135006514606,-0.0020267622398724905
668,0.027596282778685966,0.008888089423836289,0.011909480991309156,0.021123012052278782,0.001785878993657661
669,0.029442354978928973,0.017739431458141906,0.014808999296630414,0.023110185313624566,0.002575332210799121
670,0.030864323650474007,0.026482336366330177,0.015899337046498978,0.02209763018589239,0.0032024582022317748
671,0.0332446573461627,0.030451674929181174,0.0162538703848787,0.0205006407524316,0.005687223129874863
672,0.03567080182958185,0.026261171790276375,0.013346225200428812,0.017327898080847455,0.005773982407509809
673,0.037582596741596856,0.016153296030726808,0.005529573749343729,0.01096113748952677,-0.0005840461741275406
674,0.040736041892473485,0.008096067729182956,-0.00171379883943611,0.004362159791762859,-0.007779757792173793
675,0.04456181093043826,0.007543476481432571,-0.0019786859992307936,0.0020043494917325474,-0.008365726023799697
676,0.045540009794237064,0.012223162014373658,0.0034299204062177313,0.004641880590174242,-0.0024371512639935
677,0.04233421161536982,0.014925669684300593,0.009104200741448538,0.009803045603490856,0.003420750778836204
678,0.035923179258131904,0.012507584134804628,0.010526185895928134,0.013500062995805771,0.004771326123466881
679,0.02811539836289656,0.006750868516939538,0.00637820142006498,0.013604011143319559,0.0016336722210538949
680,0.02056788431064672,-0.0010766928260210712,-0.0014922610302173195,0.011827887905201598,-0.005658386809070082
681,0.01208122472324637,-0.010943567734355458,-0.012770487730360904,0.009030791864771083,-0.01722311333741717
682,0.002347290887593785,-0.021058674302057264,-0.026706029177908878,0.004940530462449234,-0.030278257013026433
683,-0.0049639070746273556,-0.02674506852259167,-0.038727066395960845,0.0009655517685651381,-0.03801200026639137
684,-0.006897642673099188,-0.025780064278557658,-0.044269022157421595,-0.001677727284082686,-0.036344509629242745
685,-0.004653800750435842,-0.01962757337767828,-0.04300124927999233,-0.0022003820638776084,-0.026611892869966777
686,0.0002410503851262622,-0.010416752071626676,-0.036003890153418136,0.0025848491934884962,-0.01312304023506521
687,0.008091647685313712,0.0007467138100259821,-0.023159491801892737,0.013982425685853256,0.0002442678058965694
688,0.017345295146454477,0.011569278225147842,-0.007333170891252247,0.02594940411167054,0.011058416931842648
689,0.02430847957983857,0.0180624828823802,0.00510846916541612,0.03198910652864953,0.01753638470533358
690,0.025872057136977666,0.017978847677035784,0.008653012352106753,0.031053887070016988,0.019059265417771358
691,0.02241521418797682,0.013159238804862415,0.003523456042309316,0.02560557305531042,0.017214872329038615
692,0.017662065997124252,0.004890255722907206,-0.004411391545507928,0.019760808726683902,0.010963451215016592
693,0.014374817875530334,-0.002232941099390827,-0.009930925279890583,0.01647392367046041,0.0031462545072843216
694,0.011211625307059627,-0.008209944987988375,-0.013511419044340951,0.014676526403913856,-0.00457632041339077
695,0.006210219776016027,-0.015601881101684896,-0.0183883749633548,0.01162761447070151,-0.011206156636444364
696,0.00258978222368647,-0.017609490680735956,-0.022791885000596653,0.008343418813259604,-0.009975747898476562
697,0.004389602738235124,-0.009713046993802254,-0.022498249922156686,0.007959276282326967,-0.0008840617949915225
698,0.009864570137344769,0.003450046492617499,-0.018264261748228185,0.009650755410670335,0.008799217121550509
699,0.013468604766240625,0.0132276677333591,-0.015090041446046152,0.009313831557675381,0.012233154989084383
700,0.012707443681578213,0.01434207214732325,-0.016600485321107063,0.005848870148667107,0.006918961847410874
701,0.01463618814785423,0.010531637189692062,-0.017569300292061548,0.004730196172142933,-0.0010964547683963055
702,0.025364975359118046,0.011525690541179572,-0.01007583959569875,0.01041750304451061,0.0009987706782004244
703,0.03606119595183999,0.01577072288687852,0.001224538330232049,0.017900747600892226,0.011507988314305226
704,0.03636323649630134,0.016194005653605317,0.006587208111572134,0.020283029953488487,0.018024979275283782
705,0.027755825646897755,0.008949237003157065,0.004111661133490355,0.016832609459967493,0.013915988625007467
706,0.015975116977707177,0.0008892374583949656,-0.0025013166596539634,0.010561671677366088,0.005254887456444784
707,0.006183017622177412,-0.004455449771123375,-0.008611580146014697,0.005074626657243032,-0.002534668818272206
708,-0.0006727757513304514,-0.006602467025788309,-0.012497183619557473,0.0027413463166701397,-0.008100165040093931
709,-0.006133180537040973,-0.008878902489537372,-0.01534540749723325,0.004010409063639466,-0.013525733543892941
710,-0.009935132527290273,-0.011329954837088005,-0.017221971864513613,0.007019160594064246,-0.018428083250250415
711,-0.00868448459353949,-0.009676079301769539,-0.015009993540982002,0.009705607621227038,-0.01813488786878388
712,-0.0024040208958074397,-0.004581234316334086,-0.009123219968764236,0.01078196382208308,-0.012332015035038259
713,0.0020810227677627606,-0.002363472830772483,-0.006583120862018112,0.008987496796643145,-0.009039393410920098
714,0.00046249598110782714,-0.0060484857129428655,-0.011512858199086576,0.004944876458050377,-0.013052243871770779
715,-0.003372148566192452,-0.010272364406216138,-0.01903337199181833,0.0019045071845981286,-0.018315974184477047
716,-0.004344758781008456,-0.009466579724896557,-0.022434167367107915,0.0021202770566790528,-0.01663003230265331
717,-0.00511369711992911,-0.006229747449674058,-0.022939893241663675,0.0034270403527344295,-0.011212815750005605
718,-0.007891390972399326,-0.00422345429623686,-0.02288803752234011,0.004505462381969029,-0.008934132776548
719,-0.008159016761678661,-0.000541964138251782,-0.019519466088214164,0.007635963358606625,-0.008278754205198139
720,-0.005672324620763355,0.004914664992210931,-0.014248710841313598,0.012508373768788541,-0.009139422428928613
721,-0.00537216988283526,0.007155025222398688,-0.012267585780931546,0.01588409477827326,-0.014306897090376318
722,-0.009084308869356928,0.004686944705739822,-0.01468030756000632,0.016260558458559598,-0.021373507494300333
723,-0.014714002686455683,-0.0002196009957120797,-0.019046735943550178,0.014681603835117091,-0.026758113577030118
724,-0.019250951569197945,-0.003576526267691557,-0.021042525537571157,0.012179132377821575,-0.02528941187822072
725,-0.024999738668797105,-0.006953533286949783,-0.024803223662202167,0.00633951608180511,-0.024389979080014005
726,-0.032985541209789644,-0.01153897303945906,-0.032420436144417725,-0.0032780322876700212,-0.02625064539309006
727,-0.0350411554222001,-0.009389867659586514,-0.03352203991089583,-0.010595419457620702,-0.01794714085565011
728,-0.027289273761976044,0.001351912214509319,-0.02391326025290219,-0.01151268582363319,-0.0007691360990025747
729,-0.01598052143863689,0.01104854722149758,-0.011685389248949912,-0.00795517130770106,0.010611746636719594
730,-0.007669016647183996,0.013992077501696214,-0.004133771767431523,-0.0022687967794759664,0.009090786962318438
731,-0.004114780813968129,0.01372289899084998,0.0005609175317174293,0.0046630209456742944,0.002506708027347556
732,-0.005097561230650551,0.012368184629664596,0.00417073643805544,0.009638799108780216,-0.003385838832617106
733,-0.009005928335788569,0.010742243062222812,0.005937715389589867,0.00925424865248779,-0.005340622787652636
734,-0.013417653171374184,0.010728955436174276,0.006495664167517841,0.004766408697268967,-0.0022156452109018915
735,-0.01807611689946044,0.010136457173768298,0.005505778886992753,-0.0012067904641442993,0.0006694638031084432
736,-0.02391288994884691,0.006090410396244668,0.0016335648253345482,-0.008778902532892369,0.0004046803824114001
737,-0.0287496892429329,0.0017750282749559242,-0.002582868284778897,-0.016418667620553433,0.00045928258944165655
738,-0.02850127512953336,0.0023408897554415484,-0.001531429391280838,-0.02009786292038505,0.006397392018260135
739,-0.024366520283994227,0.006033531650634549,0.004252583459701201,-0.0200535724756658,0.017000355341773358
740,-0.02116109397071743,0.006082822069731781,0.005277950655664218,-0.019672461338751602,0.020016938949255818
741,-0.02183505996744453,0.001856040361605552,0.0024414081975238223,-0.020917138883232243,0.015722720891640868
742,-0.02552194733813678,-0.004254364052531242,-0.0012713439261444273,-0.022960133967503835,0.00854953068240919
743,-0.029706731646531186,-0.01067389534853188,-0.005922010709265973,-0.02386291680038673,-0.0006547975522937389
744,-0.03389278137732164,-0.01632121348857357,-0.008870050812761649,-0.02370427666234859,-0.009395838279516146
745,-0.035874598419578095,-0.019861932463193593,-0.009728376041240652,-0.02195717550617764,-0.018064959719932806
746,-0.03231745573779829,-0.018421424813472195,-0.006947007322103485,-0.016664117697064253,-0.0238212921345698
747,-0.026165578256142727,-0.01451707651306676,-0.0034247443340336223,-0.009152689528188334,-0.026810492347676323
748,-0.02228618867018567,-0.012066580671024622,-0.0021246130873952608,-0.0022655327051384526,-0.02718435904797229
749,-0.018770037768447177,-0.00913625464349644,-0.0015942314151339693,0.004279403846337016,-0.02366297481335703
750,-0.01298511270480011,-0.0028225228410576147,0.0014314666584871241,0.010115322848179373,-0.014564590775926943
751,-0.006982025208187088,0.005614117656111203,0.006704984701374799,0.012830241960221946,-0.0010611899285053314
752,-0.0023223518397901986,0.013200934305251778,0.010142019520035225,0.01233160035463129,0.011257040417007619
753,0.0007915094739616289,0.018073971450392735,0.010201382958150821,0.009680076552513505,0.019341602315558103
754,0.0005310826256813636,0.017780737074727746,0.005576158337723493,0.004244819788675256,0.020267738237598677
755,-0.0034505565203318393,0.011032449388282756,-0.004574517199193881,-0.003756842292106553,0.013133595505314769
756,-0.00532616414157518,0.0023839752780862827,-0.01165513447191853,-0.010964145879345301,0.006849403483899901
757,-0.0018324913200525002,-0.0019038677619350956,-0.013930457503995531,-0.013958609720624453,0.0052641144608614856
758,0.0008762351705789856,-0.00324773808511238,-0.015013240945888663,-0.013451337204229058,0.004294840889479608
759,-0.004121335529812626,-0.007715526367981937,-0.018003631337266873,-0.014041817899379873,-0.0005578306868446643
760,-0.014591792894238337,-0.014439468575021293,-0.023928023414704968,-0.017403930154269796,-0.008389652278924638
761,-0.02399016369019778,-0.018622558157139882,-0.027117784502953112,-0.02173163932091683,-0.013276949638491633
762,-0.031268759617708426,-0.020342404976402276,-0.027647158966786364,-0.026745251475356162,-0.01589203834002478
763,-0.03630002670856142,-0.02080267815267603,-0.02700922468302523,-0.02995305293904876,-0.017662102977874357
764,-0.036293889104913546,-0.019287901870339064,-0.023910717144225963,-0.026837870955284133,-0.015460619945221113
765,-0.03246932947849672,-0.01799765012881741,-0.017236206198213023,-0.01886878358881145,-0.008401883574931908
766,-0.029805742930164688,-0.02025027912103729,-0.011005209073698726,-0.011989255362631323,-0.0023345747879278712
767,-0.03017727403563993,-0.025580661203335967,-0.008355221234601156,-0.009470477951772001,-0.001441966064558774
768,-0.0334812673103107,-0.03353215699505492,-0.00565225130714472,-0.01048527690395136,-0.0024144912153963504
769,-0.031169159646479545,-0.03547078932918353,3.9328459462771086e-05,-0.012136846995114949,-0.0004999750643099276
770,-0.025425881299961442,-0.03402561793039072,0.008077286244516344,-0.012673129209026586,0.004587522480251404
771,-0.019811464833234416,-0.033143194983365695,0.014751588267342974,-0.011787331769323188,0.008179647396688519
772,-0.01663027400119466,-0.0310153508228506,0.016266067400839926,-0.010506288778256049,0.008890440360844782
773,-0.01652013851886036,-0.03026563434372629,0.01398505960275471,-0.010602474366890647,0.007871686498903066
774,-0.016377473422433238,-0.029994948553529417,0.01242010961996402,-0.010580596583403077,0.009767642350510882
775,-0.012795326630543887,-0.02549779812024937,0.01449124718909944,-0.007853151096004587,0.01809736482233133
776,-0.007780272854830564,-0.019284292102735193,0.018441393802723527,-0.0034226207578957565,0.028072382515079927
777,-0.005366414606847921,-0.01288994072163089,0.01944208578987913,-0.0006022439818683629,0.03285676905394801
778,-0.00793243590979492,-0.009432899178537311,0.015018752977146062,-0.001777567265285483,0.028571198310665832
779,-0.013245530868759871,-0.010699492953802884,0.00753030162616305,-0.005500392329896068,0.018470875480802333
780,-0.017290602557412493,-0.015248509091913236,0.0015014240263762,-0.008491612793756011,0.009540179560211309
781,-0.01945562753406721,-0.019550507914860873,-0.002989811460346475,-0.009516367777334429,0.0044887884900937265
782,-0.01978072390485233,-0.020701307125470643,-0.005358000539074627,-0.008237646679664893,0.0036972169990602687
783,-0.0168342133969007,-0.016994892399608708,-0.0031416017708062937,-0.004352322647540113,0.008354995006678629
784,-0.01105462184720328,-0.008982823218970322,0.0012052351581978372,0.0008600423819866794,0.01643581530030849
785,-0.006744346843557074,-0.0038933261111433483,0.002277896391757281,0.003674763755982054,0.021344570912231676
786,-0.006431311381816521,-0.005645553551363463,-0.0011371198324956722,0.0015654343729654316,0.02029871685846451
787,-0.008689658221803122,-0.010270490987487967,-0.005682886669079878,-0.00333555711752278,0.016429420565687466
788,-0.011064742527766375,-0.014946012320139288,-0.00840099168394754,-0.006356645482728117,0.010813333904223057
789,-0.011427398218166221,-0.017197949216566807,-0.009016937072027758,-0.005530647461075778,0.005692301486373675
790,-0.010658169732236815,-0.017122185565930242,-0.008882556635764623,-0.0033896930094996893,0.0015390273568812321
791,-0.010574548890819102,-0.015533894773273885,-0.007962026135250004,-0.0028905489932448927,-0.001746328367570749
792,-0.009764424650226824,-0.010787185828987656,-0.004571746602042694,-0.003685879735643879,-0.0007159977633683747
793,-0.0070051120092625265,-0.004826547066854025,0.0007235896518241232,-0.0028806131979184388,0.003911972343255618
794,-0.0061877933073809475,-0.004246600071491796,0.001819149858943381,-0.0011642787109817918,0.005765535711236415
795,-0.009089993309704588,-0.010284903168535383,-0.003592209482320764,-0.0022009958127784737,0.003314701323006917
796,-0.010140779158498042,-0.014926792736149235,-0.00862215386317063,-0.006154774424690536,0.002178510386772016
797,-0.0045628561271285,-0.013306438882577399,-0.0077019386282375915,-0.01059680651122897,0.0032988799364354303
798,0.005962022146018274,-0.005564356772028809,-0.0014120205729964655,-0.013748672150390676,0.005233545577616905
799,0.014938089374412019,0.005396562187817849,0.006627606681004574,-0.015130029682318386,0.007265948639604408
800,0.020002592162704846,0.01648226670641646,0.015065789573871419,-0.014185069512802092,0.009583176731938748
801,0.024008790517088572,0.027133238078970112,0.024665940221872587,-0.01026946535421329,0.013886723060984941
802,0.02496603564620681,0.03310270217179954,0.03133099847570358,-0.006008864526477769,0.015259904529812286
803,0.018951495717046674,0.030270191198440072,0.03004529755338197,-0.004966146563991282,0.006472939759496142
804,0.008645669813807703,0.021827659555063855,0.023087409282211056,-0.005949435754844467,-0.005247172271464136
805,0.0022396118286577738,0.016277393881703975,0.0190340880832513,-0.0045619066569185735,-0.008071324604955347
806,0.003041434572520987,0.017224248174977634,0.021817081705246797,-0.0003475046335051587,0.0036645217553458115
807,0.004068939868189175,0.017871284358387807,0.024016325322144812,0.0018560257400951634,0.018607691473858434
808,-0.000108221291086598,0.013035863785702326,0.019192092242954886,-0.00040068272716397744,0.019892798879466572
809,-0.006593311198233893,0.005169642579718014,0.010098662504987655,-0.004416931527465801,0.009195731745413969
810,-0.011835450840936526,-0.00351041571672443,0.0007232978751924753,-0.0076344306315766245,-0.00473546832649797
811,-0.012887788920709834,-0.009883855047684907,-0.0050677596150811455,-0.008178208488154618,-0.01400309393379782
812,-0.008961115129201398,-0.010638389047842743,-0.004769301771454245,-0.004267429832492156,-0.015604218974510246
813,-0.00527807708086589,-0.009062030574071251,-0.0023573301299375468,0.0026616027670697943,-0.012014721085607806
814,-0.006050703056065715,-0.009533069475337486,-0.002113273428233852,0.007703917772161251,-0.007915108896593161
815,-0.010654527082692674,-0.01219165726065976,-0.004716736436779058,0.006094545689672671,-0.006317982163927828
816,-0.014375745973206676,-0.012043346640752796,-0.006451244786861232,-0.000521470556400605,-0.002187656589190019
817,-0.012472042237356365,-0.004097754422430709,-0.0028238255030721775,-0.007001026903154533,0.009743316609030836
818,-0.006303995298315787,0.009158590261248977,0.004002615475011636,-0.012545376189726128,0.026364415496155036
819,-0.00034428327417019574,0.020576864305889946,0.009435551751128177,-0.017920937497649593,0.040241417456292075
820,0.0036133586058232064,0.025481265504057053,0.013453781570518629,-0.021493856528455837,0.04525723272799803
821,0.004184237247234839,0.02270467932915161,0.015780060151374384,-0.023121324059841016,0.04526782965967597
822,-4.853263637223698e-05,0.013759284253632847,0.013568671858792819,-0.02455076734561009,0.04129961729452064
823,-0.007480491827468616,0.002438854184402265,0.006367906725289063,-0.026548368415725714,0.031629019528620086
824,-0.014539023146373646,-0.00687077501524591,-0.002866421240972081,-0.028682255908015566,0.02080397943994457
825,-0.018138637202448935,-0.010914156600073511,-0.00973050283305373,-0.02912579670369449,0.011512489903058322
826,-0.01834535251973881,-0.01096364089226603,-0.012690265244631578,-0.026818484094405036,0.0044253679393791556
827,-0.01651894087987016,-0.00955300024305215,-0.012710091480916882,-0.02184818609626468,0.001917895728273356
828,-0.012856378699193642,-0.0068022058869917235,-0.010793335743357889,-0.014970263559541891,0.007790043301213068
829,-0.00592438177053639,-0.0027632121096498735,-0.007961726302438554,-0.008097822099051006,0.018118476250291084
830,0.0033977793818108057,0.0008222367626670554,-0.005322979053793791,-0.003223674783733352,0.026033375045013043
831,0.008054544143896747,0.0007055436037076464,-0.004677095502062422,-0.0016670928639309747,0.027272112145624954
832,0.005076303863909735,-0.0029573562185608283,-0.005220168165666571,-0.001224046064610912,0.021896473958646724
833,-0.002225326019701232,-0.007971978533823212,-0.006394161534089308,0.0011826849752309676,0.01376614604373801
834,-0.011505416581157517,-0.014283470969328334,-0.010831042055555544,0.004447596163210439,0.0031344666713275563
835,-0.01798855704947963,-0.01893516176425721,-0.01584618158581461,0.007322318070319203,-0.006097300218716462
836,-0.017920995647317806,-0.018823285758971898,-0.016180541717043428,0.009360006530999302,-0.007399907768957977
837,-0.014010856103364723,-0.015616921050381075,-0.012064536812259934,0.009306903094722385,-0.0027769024051821603
838,-0.0115727881572786,-0.013258539234338325,-0.00781542775186043,0.0060334784355449735,0.0009881421787202255
839,-0.01343606755467988,-0.014940571914290568,-0.00743759763178394,-0.0004941968074683999,-0.0010002111447788898
840,-0.017160282414050265,-0.01934475390137249,-0.009966186625074447,-0.0077855424323538345,-0.007224092491818961
841,-0.017957181785561868,-0.022045183498108897,-0.010761138625107343,-0.012539254484673973,-0.010904580391846566
842,-0.016119155964249395,-0.023497264361761302,-0.009913143718250021,-0.01474669343105677,-0.01099481042170197
843,-0.016655086570313758,-0.027876650803855058,-0.012331452592240996,-0.017379872472147857,-0.012551319765633498
844,-0.018825089680277986,-0.032181940606699475,-0.01679796222580582,-0.020062059873587647,-0.01468724521482254
845,-0.018981060856387014,-0.031627579424297725,-0.019350303817075542,-0.020990198728292525,-0.012447893045053865
846,-0.019609023860244112,-0.03036712102116788,-0.022462220955207016,-0.022563554241081384,-0.009831398571714707
847,-0.022629937384752642,-0.03241112785700366,-0.027236895045877646,-0.02578668019266026,-0.011040592395597347
848,-0.024765538231915244,-0.03479264361649333,-0.029517807435054368,-0.027837230922375826,-0.011166845561851945
849,-0.02307985778172282,-0.034338748387142966,-0.027069856722887364,-0.027885045452904385,-0.006793518611557833
850,-0.01750801237764608,-0.030808257063687446,-0.020875929291048693,-0.027254350357049668,0.0006086954164701121
851,-0.008940696309031965,-0.024169994323691442,-0.011630762247348386,-0.02532575044154268,0.009538187573123798
852,0.0006004565499753532,-0.015178351520295936,-0.0005333738512146288,-0.020570900189675598,0.017491854173942223
853,0.007887564715519152,-0.0062788721647406304,0.009500556995874742,-0.013521997852699337,0.021860519972326138
854,0.011320050587469169,0.0006703279310721017,0.0160358167906973,-0.006412722414996517,0.022876100098796055
855,0.010090107667883702,0.003241123196219063,0.0168023533949095,-0.002096220365805203,0.020014598149204067
856,0.005613992832217079,0.0008748776606563796,0.012656125178239188,-0.0015967762464925684,0.013634949386441445
857,0.0029295262593990617,-0.0017729475123914793,0.009382349845471026,-0.0032639808917934105,0.008339379159809377
858,0.0047929372849430055,-0.00106656583073925,0.010331311456223883,-0.004774092450930268,0.00678536879085751
859,0.007002728677433285,-0.0009773885159375744,0.01055175090852853,-0.005617117972757741,0.004084428674460802
860,0.0033090737404532326,-0.007378254870753387,0.0031350800179438137,-0.008303324995619435,-0.005259588921829954
861,-0.005468765719568552,-0.018139951987244926,-0.010161203484341812,-0.014096857520651752,-0.01853875994494169
862,-0.013740308812137083,-0.02586760858154854,-0.022320343292169455,-0.020847675966129076,-0.030271943736660374
863,-0.017414236720007012,-0.024786715303438952,-0.02812417570744907,-0.02551085318590303,-0.03671715953943305
864,-0.015322438002116604,-0.01551572173561739,-0.025828063001775963,-0.026192230792862484,-0.03600234686688756
865,-0.010977168423684616,-0.006187738538724437,-0.01933691557607748,-0.023830155365593537,-0.03152417746009138
866,-0.009410920724594436,-0.003669823799184833,-0.014372416795048916,-0.020692212987445724,-0.028568953815485874
867,-0.01019202778269576,-0.006146296992628439,-0.01154196858382577,-0.017600579017405034,-0.02718266646021427
868,-0.007126927635216316,-0.006846819065632024,-0.006912439221857597,-0.014043080171634435,-0.02287753462966921
869,0.0038218623760691264,-0.0027539115971614765,0.0016299344440536625,-0.009682470744052265,-0.013079557110412829
870,0.016608854511681634,0.00208056532261204,0.009938659166114886,-0.0056448019061743964,-0.0016395703400969403
871,0.021630402132315273,0.0028003539215240097,0.012521344482641578,-0.0028922553973045727,0.004532409115485551
872,0.019548010076836417,0.0008567159890166443,0.011095703603957141,-0.00022951169146144307,0.0042857979255339395
873,0.016744434171539993,-0.0006501953851851212,0.00982899283036284,0.00217887163178325,0.0006837380640917148
874,0.01329599802703909,-0.004152405630869331,0.006159583570378124,0.0010911967658264572,-0.0069982004387196175
875,0.007261655731050943,-0.012036374252979133,-0.0029536805303415066,-0.0038829139398990973,-0.019205288416498614
876,0.0021523239259439763,-0.01986665418255246,-0.012564351016494654,-0.007689017231080058,-0.029678972117556313
877,0.00021109920856822464,-0.023512594127622823,-0.017744465622271312,-0.007955659383839379,-0.0335413983283058
878,-0.0004298854055072486,-0.022778539678511088,-0.018834264848005596,-0.0076683988959999625,-0.031066505953773513
879,0.0005112307277212349,-0.016440513564965734,-0.015880549962961867,-0.007559796272864891,-0.02192722924668444
880,0.002506875512758189,-0.006509594225207057,-0.010749560213563209,-0.0058521829667222405,-0.010520938592437159
881,0.004670754297647556,0.003936627475992032,-0.005699749181666455,-0.0011424758943291327,-0.0026756971539329357
882,0.009289221931281729,0.01597902958698476,0.0006777696692353205,0.006796863726735823,0.0034118668024271707
883,0.01559894364833574,0.0275868038220558,0.007164909813866295,0.014426551040999222,0.008933701331119351
884,0.019322220750172828,0.030726754528758064,0.009936683818142973,0.017238018296253595,0.00968012387622336
885,0.018916803966920345,0.027023216964604562,0.009091262460187969,0.014898480328256549,0.006138687261961576
886,0.014952120138812343,0.02125962646729419,0.006391375254325446,0.009532442777507324,0.0021853944350778494
887,0.008529424097195298,0.01408782375086011,0.0022370915893220366,0.0026348553000550942,-2.1536470170424802e-05
888,0.0022103845468976037,0.007809557434583924,-0.0024078903336923986,-0.004224197329141416,-0.0006737081105915889
889,-0.002565969421512478,0.0021481108083285655,-0.006627721384028969,-0.009369258491738136,-0.0037872289573962718
890,-0.0040270570931618425,-0.0018198849329222407,-0.007980588006390872,-0.010712793667021632,-0.008884255240902706
891,0.0002750737023884816,-0.0009885400592916092,-0.0031715259606509725,-0.006959195526882451,-0.010269595568432292
892,0.007084559366808867,0.0033026874708109266,0.004845323733861649,-0.0012053181637409318,-0.007866153637491687
893,0.010499181705913282,0.00477369271910448,0.009340999643669138,0.002590809342557379,-0.007381504567694464
894,0.00968538237862761,0.0018712705404935065,0.008681443219663292,0.004933547091188106,-0.010740541900790811
895,0.006418995159766541,-0.0039662296727941485,0.00525222774382438,0.007404552692613125,-0.01664607894561065
896,0.004358637845401784,-0.012085058468363786,0.004065838060169231,0.010684675634401597,-0.022080572745249216
897,0.008427885894584063,-0.012923107615484179,0.010408144852366928,0.015443958235789243,-0.015040898808079989
898,0.016989738569123777,-0.009535538691966555,0.021034120605761434,0.019937770077779006,-0.0008945017633533103
899,0.0243917363333999,-0.007801998813441972,0.028366218488884987,0.021530468497474246,0.009758295268798442
900,0.028339981146944908,-0.003321632220688756,0.030197474873296517,0.01999091518179572,0.015330943571571371
901,0.02973884932933418,0.001403698707656102,0.02941123711624746,0.01764636325158584,0.016115120944923206
902,0.03138338765631922,0.005530413001628034,0.030732924622915506,0.018218169931393212,0.015045301269917039
903,0.03252244588357449,0.009900614364753929,0.03321745755460007,0.021126012083516017,0.013387924892167393
904,0.027903396829438983,0.006676003578668103,0.02964970860644959,0.02095352125290272,0.004694237504830933
905,0.01964517299719212,-0.000576895212028694,0.019964654552451774,0.01722199813359124,-0.008641790737450986
906,0.019012236775950778,-0.0018402631975276036,0.013748817409662682,0.015482406912470647,-0.01481000726466374
907,0.02851417498830734,0.0033814711405327556,0.016152172064840806,0.018546753435739884,-0.009968806897737745
908,0.037513408401749354,0.006809668153031147,0.022577543786800953,0.024375989031966184,-0.0018328132984555261
909,0.040092945010162445,0.008493664728340573,0.028470428985422843,0.0306340866309705,0.0059081626032132795
910,0.03681870870258298,0.008058074026523466,0.03001518304911517,0.03394564069741014,0.01077164517062172
911,0.028466738995790525,0.0014320627355467847,0.024115229738689566,0.030782810420734365,0.008499880368750027
912,0.019303368746092207,-0.005986375806918833,0.015448882083200444,0.023086710131088296,0.0025144172759010183
913,0.012331692260550623,-0.010553765955548518,0.008883185429194768,0.015429330411746829,-0.004264741753241426
914,0.006626910780665824,-0.013442056434534113,0.003368823222632587,0.010426368361216224,-0.012160636682755223
915,0.002753027975956688,-0.013816164171143347,-0.0012231641127544927,0.008705851334439555,-0.018130573369644302
916,0.0016281763441935383,-0.013913770176006484,-0.003567687569295798,0.008736629232834565,-0.020834247496244677
917,0.003259910491129806,-0.012424178595863507,-0.002102559917280685,0.009247389895739956,-0.019953250585179393
918,0.007506779867157761,-0.007961779777051684,0.0038853116226520794,0.010311393784941733,-0.015844496793148474
919,0.012259766374582842,-0.004015947640436615,0.011035296400892593,0.01111963886675734,-0.0112173458513752
920,0.016814987580300676,0.00021660126658312786,0.017798039747067028,0.01164729378877312,-0.003055625118768023
921,0.02131539723709543,0.006377557743811883,0.02434248857067796,0.01219309739827883,0.010973632032016033
922,0.023134231086170454,0.01326602862903595,0.02779863278465502,0.01166752358775917,0.02441978372886032
923,0.02142048128157226,0.018940178567309007,0.027493601053191628,0.010737762633383136,0.03149969513544621
924,0.01995646226948989,0.02258652273186541,0.027148488694166268,0.011876298979433686,0.03357547039027866
925,0.02329253153044588,0.024634840262638225,0.030658794000302463,0.016135571660665066,0.03490043426776352
926,0.028874610542347592,0.023981223174243064,0.035073046963084456,0.020620070535846552,0.034224537618136465
927,0.028853522887704597,0.016792779713380543,0.03295517976292434,0.02049835626374127,0.025729089078355145
928,0.021758221205706297,0.003666427142785645,0.024215292522321,0.01527351363599043,0.009937429398982995
929,0.013760700199376382,-0.007677471170336693,0.016114973019617913,0.009376792417709091,-0.004878733274766805
930,0.009666430477064699,-0.012412560276849144,0.012711066366723934,0.006067071022478908,-0.012701889689895962
931,0.008862601506918808,-0.012602520628888177,0.011787538957101069,0.004486029431674924,-0.0147314551536573
932,0.008644081284020305,-0.012406533427208183,0.010488415419583251,0.0024430942643335523,-0.014747653561018372
933,0.009424958690455829,-0.011112168362410448,0.010660632804627175,0.0006496642654993643,-0.013311327983646625
934,0.014156852453325704,-0.005204374775361881,0.016385532846786118,0.0023197135505968985,-0.006661511223100675
935,0.02017809611193234,0.0020842332933178227,0.023892405650412247,0.006433133091082179,0.002605634499860391
936,0.02107778387578658,0.004091612651274729,0.024772409388318234,0.008169860212562758,0.0064982198088872406
937,0.0162177327677239,0.0002903268778772927,0.018734459746827352,0.006502286580567722,0.004000049360236022
938,0.010489765990769402,-0.004638592856341709,0.012621071558398434,0.00459473691100655,-0.0004550446809849821
939,0.007475943966726571,-0.007132173826382081,0.01142208874603254,0.004243401487174358,-0.002536405518824896
940,0.006877101682273485,-0.006531485482182782,0.014981274379311526,0.004077039571368918,-0.000519572028795295
941,0.005347561447309725,-0.006258746473474915,0.018066778265340082,0.001925879863498889,0.002563694878120016
942,0.0015481892986495911,-0.008808728516454208,0.01685609994826029,-0.0008857195723830326,0.0034643876685060515
943,0.0009550472144397754,-0.008794743677542962,0.016291570095168965,0.00019902006293431252,0.006794609274221592
944,0.007632089489731461,-0.0010193893952366315,0.021811442829679794,0.004873535145192546,0.01864697839568429
945,0.01606889429877223,0.008976318674692367,0.029403331519290483,0.00800678977075166,0.03396500482815145
946,0.018558872145729655,0.011913169803258274,0.031951218687360346,0.00780000515250112,0.04273041264683583
947,0.015456758637689442,0.008597413954181921,0.02928037161460459,0.00639774925500483,0.04433803887750819
948,0.012346572431089711,0.007456404391227744,0.025576673561788294,0.005410620746036356,0.04150811888918711
949,0.011978609016712995,0.007335832686431105,0.02160336729852718,0.004044214493153223,0.03550561483639224
950,0.011977131763103008,0.0032033626223759866,0.014548508190853479,0.0007144465522437935,0.02433040278300207
951,0.009600999551203769,-0.0027321475651025705,0.005771941932835097,-0.0033845485838489824,0.011275144750812425
952,0.00760047504917136,-0.004281811936861208,0.002491940905147849,-0.004349574274789182,0.007633520263158104
953,0.0074771352063045145,-0.000577444741124258,0.005818148675631554,-0.0013686773659570748,0.012355016958324251
954,0.0055142251939214225,0.0025184711040284083,0.00950695678543144,0.002453828299819433,0.01491991311310364
955,0.0004304112127550413,0.0030707387063547173,0.010819572991853417,0.00536405576835339,0.012873154868058163
956,-0.00640365906889225,0.0015448187237124442,0.010152709026913207,0.007709144868519269,0.010058625097116889
957,-0.014266876881477791,-0.0014893941588632635,0.00740039131160439,0.009687308176521213,0.006586482758606403
958,-0.022491163970560713,-0.005411395173639806,0.002592567914288046,0.0105290771678435,0.0017532012041167337
959,-0.02904094629725916,-0.00896249233614596,-0.003197784192618025,0.009389423096222855,-0.002730998716933657
960,-0.03018015685779611,-0.0076240071866230915,-0.006410607158744066,0.007062410329017227,-0.003094803952743977
961,-0.025023424238170288,-0.00019225197366193347,-0.004532606625752034,0.0057741754459472005,0.0036428265133870213
962,-0.018612123976057292,0.00886813561919173,-0.0006699426571048021,0.00663968272811917,0.012604254187931131
963,-0.01516104564791767,0.014683809458412925,0.00206255105286762,0.008876047155058436,0.017525066050889427
964,-0.014734748469370625,0.013558273998217536,0.0034219190317769624,0.010647840957623816,0.018070825838729394
965,-0.01580069458918463,0.00896213050634231,0.003695829881104032,0.011456436142113977,0.01681333134520635
966,-0.016235923110751373,0.004999452246675744,0.003759740390764614,0.012597797964488927,0.017402826095371395
967,-0.014956103707097285,0.0018010225565449846,0.003494852294307742,0.013573634320462264,0.019490423899287315
968,-0.011340005346769762,0.0010876802871373692,0.0032295760976735494,0.013373822274213302,0.019414212491031688
969,-0.00571640151468599,0.0013916985114976494,0.003916335220109661,0.012241415211647356,0.015132081858784174
970,-0.0002017888143436072,0.0005981910560538935,0.005102338902052973,0.009930320842649236,0.007898147616403091
971,0.002522525720060125,-0.0020698232433939206,0.005197777030366328,0.00647510915835881,0.0007479473149277277
972,0.001704577259048307,-0.005406455742832824,0.00372644495974429,0.003894541118719108,-0.00500053375641281
973,-0.0003269928753705466,-0.00785424679270694,0.0025404591657325424,0.003840758668786113,-0.007163068308697994
974,-0.002383107353119248,-0.009748667636863348,0.0016300907647765132,0.0048342289931337,-0.0065464047755999875
975,-0.004821476833101575,-0.012519111492945488,-0.00030003638381184634,0.005563840424472082,-0.0069807821438603096
976,-0.004912871315464046,-0.013913632872471287,-9.827711317173467e-05,0.007776218041662045,-0.006387198333034817
977,0.00012386990349614975,-0.010086495458463718,0.005694901323059917,0.012666779775539105,-0.001068657425887429
978,0.0075511376647392344,-0.004389966415396034,0.014145447036423228,0.018218344316565518,0.006819312408537667
979,0.012424927702859901,-0.0023631440157138644,0.02013935279516069,0.02210246543075327,0.013024136550126632
980,0.012909046070200037,-0.00016964842868052632,0.022256674210157004,0.0242922807262249,0.015936516872109723
981,0.010188851902827844,0.0042281220355522755,0.021912492694408026,0.02554021182005713,0.015701437434418635
982,0.0075008965977700895,0.011072275413190337,0.02202318703153296,0.026120667687146486,0.01450571296321988
983,0.00787543514526672,0.019144541266986,0.0245511895361626,0.026392585847513854,0.015463597140151171
984,0.01037828715201062,0.022423428809505278,0.027538850314894326,0.027646658375598952,0.018133878775169757
985,0.011261865861938952,0.019460553310045793,0.0278568968451217,0.031357125970815074,0.01901171169236729
986,0.007930333378009715,0.011825822037921001,0.02380938792102005,0.0354940907399371,0.014143869685683097
987,0.003807331790356683,0.003396070440322185,0.01725357706070527,0.0367353942738997,0.0040792063869952025
988,0.005488322377987515,-0.001299973235876829,0.013488878367612128,0.03470440544647573,-0.004118920886683644
989,0.012765627233977837,0.0012974351456401829,0.01566544980041766,0.030159942837104037,-0.004382806733205325
990,0.02033160684451893,0.009996633171884359,0.022656607241862598,0.024200556449112298,0.003246007434862788
991,0.025169622537202077,0.02094868256947417,0.03102197984434537,0.0185907141289617,0.0139380996116488
992,0.025646395111492675,0.03017993889209853,0.03568695269043944,0.014415489344145934,0.019972391133625943
993,0.018918039569439767,0.030865311686186753,0.031854848991396886,0.010341469944084958,0.014794531588874177
994,0.006559772243832206,0.024139836670945065,0.021933561643669875,0.005429951176670099,0.00209749832439398
995,-0.005845445535087776,0.016972648830687415,0.011947491450763462,0.0009283314017238869,-0.00950555431901899
996,-0.015840388066346394,0.007519429665103371,0.003150951950187258,-0.0022100545231445437,-0.017883813942432474
997,-0.020464236594840177,0.001006407279314538,-0.0013633984260654156,-0.0018704076278003357,-0.020198910403972408
998,-0.018798067377918257,0.001759778819073542,0.0006919431954411221,0.0019452471123747978,-0.01557707260167922
999,-0.015035159114861736,0.005424952251118214,0.005139018400296774,0.0051680182222932575,-0.009950645895876669
1000,0.004015226312282853,0.023235850675346902,0.017418724605916768,0.03720102669702333,0.0040219939693209575
1001,0.005701641336277935,0.01571006584985111,0.013668434407307374,0.035179800254665106,-0.004163347216294703
1002,0.012983364909094214,0.014939732898409731,0.01585655511335426,0.030643565048154884,-0.004418542587920558
1003,0.020553502127463256,0.0195608506861791,0.02285850870414403,0.024691994240512195,0.0032210637660697056
1004,0.025396273952911424,0.028273176718201634,0.031236337787704613,0.019090833449045552,0.013925313930239889
1005,0.025878902264843413,0.034753513386553386,0.03591684254665844,0.014925901207523453,0.01997403017902114
1006,0.019157404310164716,0.03191863766288026,0.032103060719885994,0.010863642893497696,0.014813089169547752
1007,0.006806361298863079,0.02213120182520755,0.022201105913035254,0.005964403838917323,0.0021338452110190435
1008,-0.005592076575983527,0.010717288786548368,0.012233093022676408,0.0014743703332816582,-0.009452518026686358
1009,-0.015581239562444454,-5.2318068886109066e-05,0.003451767752807289,-0.0016539505358985553,-0.017816535968814728
1010,-0.02020032095620739,-0.006224333201226145,-0.001050247248373938,-0.0013057803311770757,-0.020119870663154044
1011,-0.018529886587449855,-0.005580910737791782,0.0010160043180103399,0.0025176235849915006,-0.015487499111250984
1012,-0.014762457921670722,-0.00013043158447214847,0.0054746787268150155,0.005748488938921496,-0.009849943792647248
1013,-0.01138127595165405,0.007020038728132716,0.00930143329813689,0.006356492603774851,-0.005738437159010331
1014,-0.009683426018404818,0.012935047048894557,0.011345989293654017,0.005020735915459284,-0.0029318688166610914
1015,-0.009025660240249327,0.0172813229567897,0.012347624469793341,0.004411573896968779,-0.0007924761849132912
1016,-0.005405174132925958,0.022796844016303545,0.0160976573681084,0.008072779041382433,0.0035702892775738002
1017,0.0005541495767589339,0.028713143386566484,0.021312471348984324,0.01426391584662637,0.008986688509624221
1018,0.002109417131966334,0.02857136678938866,0.020434794406896856,0.016767380256522014,0.008938265481348087
1019,-0.0029406351253871525,0.021047667847319932,0.011860401818063004,0.01421244318569727,0.0020881709177095545
1020,-0.00908342917218891,0.0125402886061513,0.003068819375875972,0.010638486008786736,-0.005161831034793312
1021,-0.013392946436075501,0.006764085061146164,-0.002087389456916455,0.007325286200436277,-0.010310979112650876
1022,-0.014921775319269606,0.0042875998556229835,-0.003210905358287053,0.004869534661650963,-0.01283168445062113
1023,-0.01154330065708603,0.006831232547481715,0.0009590256069731077,0.005650376730128625,-0.010790926972183394
1024,-0.007876355677211512,0.009893385216649444,0.004307117842030813,0.007159357202132103,-0.010191811005852468
1025,-0.007656599534228851,0.008924173158996386,0.0027687880811723587,0.0067322281917545235,-0.014216989082089532
1026,-0.007222846756448526,0.006704223732633511,0.0014970830725498747,0.007127026065032161,-0.0173068331086904
1027,-0.004869918438651992,0.00523917488076953,0.0028396059594795395,0.009614647468085921,-0.01718512232860968
1028,-0.0024903630658397852,0.004992422814504896,0.00459949675482019,0.01174833921306925,-0.015141085075405122
1029,-0.001199507774884776,0.006328543872066199,0.005690054212727816,0.011770748367806673,-0.01211491148483891
1030,-0.0005633247096515072,0.008245930887990882,0.006547100321431075,0.010301236618736302,-0.009311340542596825
1031,0.00019602807723942793,0.009547661181913284,0.007216640715203961,0.008932110794334562,-0.008540072554844048
1032,0.0005870413149834002,0.008944318383085502,0.0065811339890479974,0.008077031163465162,-0.011283680704140863
1033,0.0004857922997845225,0.0065895858128890185,0.005196598286689453,0.007952814489168545,-0.016223717792041424
1034,0.003471967096087178,0.007548097658579987,0.008242002794801112,0.011101042986498843,-0.01712636499471877
1035,0.01048700892985526,0.014549103695474063,0.016975841574582675,0.017705756261309137,-0.011632545751215894
1036,0.014872580409978244,0.02091542936259947,0.02261664575714608,0.022204984998482415,-0.006479252014643803
1037,0.013406573988059143,0.02046814192452736,0.01946676310371482,0.021405170841189383,-0.005523472500188588
1038,0.012408421078590085,0.015296593348223943,0.01220483076559079,0.018899658709832918,-0.005744713815982539
1039,0.016365504641338315,0.010889100919498856,0.00697607857364544,0.019500876061081533,-0.004056682595790609
1040,0.020460430803015378,0.009782487036324786,0.005351455103604097,0.023890424865572045,-0.0005202571096431842
1041,0.01954019331146821,0.010542877093228075,0.005677738075394695,0.02930617042705806,0.0022324423856543946
1042,0.014464364365588074,0.01070061294289499,0.00613937839174778,0.033405704562491145,0.0016184552080960026
1043,0.008298660975645444,0.009858591938776556,0.00671984033725592,0.0346455056504174,-0.0019656409731685235
1044,0.003906652819513936,0.009997774599117179,0.008685018369292382,0.03219806955012121,-0.004744923839370725
1045,0.00044318222499806415,0.009263251385733659,0.009117543348821673,0.02534147422193937,-0.006764861676632808
1046,-0.003847204858526178,0.005326631062326553,0.004569934457535596,0.014584687482802679,-0.010464381321089771
1047,-0.006169656628012054,0.0023581273185988845,-0.0007958948170797618,0.004055219181746531,-0.013671970122852695
1048,-0.005835977174338193,0.0025015113272707987,-0.0032332896332577096,-0.0033327104676390802,-0.01637145807845466
1049,-0.003923076849384508,0.006633983428928859,-0.0016062213818596733,-0.007043365555052215,-0.018600042917637366
1050,0.0007561319880337888,0.01710758353731523,0.005955344535841355,-0.0061859053215576965,-0.016181278681328085
1051,0.005875286207957821,0.0277756139239164,0.014871566303016214,-0.002185680865953721,-0.011141149211289112
1052,0.007670025431765392,0.030109357280095398,0.0178876457027883,0.002298115124256164,-0.009584679336959782
1053,0.006493423391488666,0.025289048418810516,0.014850882311581813,0.005665568745983363,-0.01071273517726282
1054,0.0033159385789048113,0.018216800056801333,0.008961161831518766,0.005593063203661746,-0.011303127409718826
1055,-0.0019332769633966407,0.010171903358181822,0.0015613713727101236,0.0009896584343620873,-0.01242977837976283
1056,-0.007049593596474375,0.0020213390013432723,-0.005400306009236027,-0.0045674961191677,-0.014617835032924213
1057,-0.009735069710655702,-0.004738845150960868,-0.01011648465163166,-0.0075465475709180566,-0.017210742207422604
1058,-0.00952342773273152,-0.008148894324525011,-0.012120963769160775,-0.008621831109486843,-0.019758519792066533
1059,-0.005878739065621144,-0.005674910594459742,-0.01024537964540124,-0.007932994199667682,-0.020095083823275472
1060,-0.00033610300402437765,0.0004082982196000476,-0.006067058949896379,-0.004342102099506786,-0.01857115415074656
1061,0.002412710468417867,0.003306688752002881,-0.005269261514311187,-7.290437273693606e-06,-0.019353326026723062
1062,0.00039568560605328254,0.0008422763393668609,-0.009655317193559738,0.002785141857669068,-0.02302273877606675
1063,-0.00409749135572325,-0.003848073154278606,-0.015248605225508756,0.004634698579884879,-0.026705424633061945
1064,-0.009525133718792595,-0.009391264167192898,-0.019601114593575667,0.004438999047167097,-0.030704153416393643
1065,-0.014733860910317649,-0.015314470095207172,-0.02252366209873107,0.00023262404172363061,-0.03555275980643413
1066,-0.01755027221696827,-0.019561998892658996,-0.023276191218576103,-0.00679811656869491,-0.03844833503550226
1067,-0.01728789747961351,-0.02111621779398175,-0.02212951601036338,-0.014310633423430473,-0.03703127243243242
1068,-0.01441069115415775,-0.019321983318528448,-0.019294918545634813,-0.02040501471978035,-0.030757178216132205
1069,-0.00864228264013044,-0.012898607662187419,-0.012729344768042371,-0.02285639111670165,-0.020599009388509806
1070,-0.0022189172307559074,-0.004793460722273712,-0.003204542739990818,-0.021439866154054195,-0.011260873592812762
1071,-0.0005109008906223734,-0.000902314943852301,0.0032989789684792978,-0.018817095760355385,-0.0077389827273491975
1072,-0.004019771913856191,-0.0009644997318475746,0.004723038738323301,-0.015999521691821523,-0.007685955221086563
1073,-0.006987750637694225,0.0004644057024070869,0.005440141399774186,-0.011665926287289881,-0.004945870946816869
1074,-0.007946992527261259,0.0027607189777950785,0.0053092815135296284,-0.007551077921380843,-0.0017364438398838951
1075,-0.009944269047352761,0.0005961661562437649,0.0004325500659209481,-0.007263553898360564,-0.005079608279467618
1076,-0.012697036456011368,-0.006555099409257313,-0.007929216034213848,-0.010972350515457394,-0.015088449106635378
1077,-0.01610928609060602,-0.01657082697468566,-0.017290043648926282,-0.017274935468875874,-0.028396832568342665
