,AF3,AF4,Fp1,AF7,AF8
0,0.001008283892216601,0.007134486394063652,0.004142911967983665,0.0036119748934045313,0.004087983266742382
1,0.0012359587062482033,0.007104582055685901,0.004440147739947221,0.004328217702355387,0.0029443545643347
2,0.0005903139181418501,0.005715795146322249,0.0029405454538123845,0.005213273642960112,-0.0010195678015447877
3,-0.0004229366985711505,0.003920395705138312,0.0003617284846307071,0.006257521393204794,-0.006164137939681126
4,-0.0006779805487030405,0.00284121150188806,-0.0013730501006308537,0.007818209031428875,-0.010175323441634033
5,0.001139958488155902,0.0036721981763823035,-0.00022233957078822205,0.010293212670953983,-0.01115134462167257
6,0.004766983315579893,0.006427975700807324,0.003279940579913938,0.012766747220141497,-0.009476073647319382
7,0.010096026882134583,0.01188578635659424,0.008991966301749038,0.014857109440299872,-0.004626928277040383
8,0.015979836606159467,0.0190119228682537,0.015659982404348228,0.016180578870605034,0.0027473623774157893
9,0.019164444602041152,0.023765527677044696,0.018846819962674087,0.014952519168153757,0.008723984214909627
10,0.017809588549471223,0.02392088204671388,0.016300039172473756,0.01061435038214426,0.010386998798365103
11,0.013371963460961683,0.021054909439598493,0.010440776474768475,0.0049362833121823525,0.008655380255861577
12,0.009089422887647424,0.018671851807782646,0.004890126139836784,0.00017628570057857723,0.007025947734872832
13,0.005656951698938146,0.01764140039863355,-9.527900411133437e-05,-0.003651964646296315,0.006195653674544292
14,0.002248914378954333,0.017024160247744214,-0.004915117263188247,-0.007507314701579531,0.005271944128338416
15,-0.00023382525394371318,0.017154877963595924,-0.007690718944065898,-0.010649980545614399,0.0051585451973103396
16,-0.0006746751546517981,0.01831989044666837,-0.0069166680335024855,-0.0112435804704553,0.006411296762206959
17,0.0006369735319376794,0.020248354077448648,-0.002910729302884313,-0.00867397783909917,0.00905470475418404
18,0.002155024441489937,0.02232796277376196,0.001966085756353756,-0.005098336534914152,0.012568538783190064
19,0.003848342264058279,0.02500345980412799,0.006949447224547042,-0.0016553855263619437,0.016878259179449906
20,0.0061442231628913305,0.028622852169153966,0.012842887246962956,0.002480219882978803,0.02204219237685183
21,0.00832301910488655,0.03240442788182926,0.0190690888014908,0.0067698173590513165,0.027371964146225874
22,0.009800794469902854,0.03526203442887346,0.024058165329648308,0.009425299935830115,0.03147312720442221
23,0.008865718772290298,0.03475526821628363,0.024970499335842666,0.009074806930266157,0.03138999119914112
24,0.0049456361684708395,0.03044390849368447,0.021312206712341623,0.0065260267762724195,0.026706134491348985
25,-0.0006288209031716956,0.024345411874381204,0.015116417748110686,0.0035859691799556195,0.01970824428580029
26,-0.005719430064183375,0.019005749334294962,0.009192688479937526,0.0018810418173241244,0.013247544177605222
27,-0.007584951260627435,0.016892575864125625,0.006846212146776085,0.0023166494801739844,0.009968204983042938
28,-0.006006619478962849,0.017659149915473075,0.007798317493187757,0.003599097606973996,0.009252220312932706
29,-0.002540966064523296,0.019548551776965923,0.00939176345438174,0.004236287378449158,0.009216707811789855
30,0.0030026085657587588,0.022648001486060502,0.011592845289660671,0.005031948447769304,0.010593624905130416
31,0.011532266315751693,0.02815698352444468,0.01617086234599961,0.007327677243776985,0.015493181677497527
32,0.019861595001568828,0.03351400214457093,0.020728281478698894,0.009413627220098385,0.021187712050623732
33,0.02366462805873982,0.03467469440935755,0.021368949103870372,0.009416212334570843,0.02263075140541353
34,0.02404830180576653,0.03326399315062449,0.019988751603084724,0.008675967462329499,0.021649390162675877
35,0.022899040383825245,0.03153961457982542,0.01859028076481468,0.007807079742848286,0.02153630338504931
36,0.016949649695065717,0.025116164935644107,0.012526491769244466,0.005006560339601868,0.01749066285666041
37,0.005093966347792699,0.011882758561774216,-0.00018411808117329147,-0.00011070982631376474,0.0062376259302303165
38,-0.007398938426750671,-0.0023930283622228287,-0.013432141856400688,-0.005567534670669752,-0.006513545284822303
39,-0.014944714579633029,-0.011053399157604497,-0.02036534688883492,-0.009181152691120619,-0.013561154470694333
40,-0.016047130219199207,-0.011793209629101376,-0.018966432726959106,-0.01047090777838227,-0.012546994548798712
41,-0.012516308731446513,-0.0066346868473941625,-0.011650923299583648,-0.009918926530961217,-0.005661039726245614
42,-0.006435169941678728,0.001394523503655976,-0.0018033892014334822,-0.007522211390955906,0.004096732910678922
43,-0.0038673195817113294,0.005114172278815503,0.0029630900033687617,-0.0064851288000016116,0.009022797102705685
44,-0.008434416915733071,0.0007012773267516543,-0.001654103657938909,-0.00905116960150108,0.004903872987438712
45,-0.014342410812225013,-0.005108745076106109,-0.009010001125899173,-0.011740853524013224,-0.0010552001938219054
46,-0.017435501445392278,-0.007643484828066234,-0.014351842329506545,-0.012509825245081735,-0.004085145369217696
47,-0.01728034894728611,-0.006602761638527215,-0.01689457231499639,-0.011544685770205381,-0.0038364047695573743
48,-0.014359265539370645,-0.002623469650543601,-0.01596794298995857,-0.009164336463433632,-0.000479547021455398
49,-0.011846901470516967,0.0010345526798053836,-0.014008309593628003,-0.007235850828639104,0.0027137134331170175
50,-0.012301557657666778,0.0012988564395268276,-0.014115460521047672,-0.007489682401600256,0.002360542364424358
51,-0.013041677604757008,0.0006530974115283131,-0.014272954221357555,-0.008604241385619679,0.001234917067918502
52,-0.008212930895363372,0.005548278925422095,-0.00833517583970058,-0.006949694493492821,0.006416507729483493
53,0.0009638852598257695,0.014772223717399224,0.002553298998098805,-0.003234666314166058,0.016717177727875638
54,0.007680169630082584,0.021360290226169296,0.01099812817381605,-0.0015892795939636234,0.024862400944104416
55,0.009821066556892966,0.023573450597637588,0.01512097392464411,-0.0025177507005815763,0.02874739496825475
56,0.008474759903777137,0.02242052187701547,0.016245121542621026,-0.004538704542429274,0.02846717764749601
57,0.0045568862757465346,0.018548783544060782,0.014016631981313053,-0.007166723303749798,0.023598755938103535
58,0.0016401972890094073,0.015934374647858154,0.011022468289970184,-0.008669413037964705,0.017996369869693715
59,0.0029651211141587556,0.01794365124425865,0.01055807256213788,-0.007984901300087253,0.016231857059406486
60,0.006602172748675781,0.022134444133606098,0.011154577116407391,-0.007093515900458717,0.017417321857261345
61,0.009829996371915726,0.025501927909430504,0.01188903422147292,-0.00647632472664788,0.01927445247902876
62,0.010547000424707223,0.025792154360325018,0.012284190653885415,-0.0056916631826304295,0.019256921171470022
63,0.008743233485247312,0.023307597534403632,0.011918802310162445,-0.005140015961843972,0.017057639159950143
64,0.006508955638376173,0.021146717380283273,0.011295756999412963,-0.005592473409298867,0.01491234964760783
65,0.0033919813550263994,0.019265978794261604,0.00842909505104779,-0.008697760410649161,0.012208953474519417
66,7.914221613965844e-05,0.017403460378661386,0.003633535045814763,-0.013056332574725856,0.009354380820818213
67,-0.0006534479352693386,0.017333647863059742,0.000707569262842577,-0.015215284739773767,0.00846138328202871
68,0.0017999019863808596,0.02013231339510392,0.0019417979067930516,-0.012724662238592577,0.010603883343260928
69,0.005716101478417451,0.0253763245821938,0.006173578934932125,-0.008691227128964845,0.016097343511200634
70,0.010174165153773666,0.03269615084227564,0.011322004024956126,-0.005357518284770594,0.02461391806466088
71,0.012126989978693443,0.03810234719076855,0.01296320972979576,-0.0037509102075332346,0.030784605831181887
72,0.006391301412825816,0.034964988474547334,0.0054331528135930195,-0.006937357015271755,0.026814421614097764
73,-0.005693499284739125,0.024044992321408158,-0.009355893278565192,-0.012883792677569195,0.01425589218626972
74,-0.016084047062617887,0.013771472358728486,-0.022425316692025226,-0.016996081606766696,0.00377554438458936
75,-0.01935795136871922,0.009884519885444927,-0.028080607325104173,-0.017836388674413308,0.0018565810417513436
76,-0.02039261108099161,0.00727657713954891,-0.03194651230733701,-0.0190426243276155,0.0008809661194677632
77,-0.02256313279015955,0.0031477365377980877,-0.037319429402521996,-0.020447019102978952,-0.0038515423245751154
78,-0.02096045284980965,0.003604312224807456,-0.03779069146724266,-0.018216572790934013,-0.004923688558201604
79,-0.01702372632571231,0.007608484099322353,-0.03421887170343691,-0.01402359965238368,-0.00244180470197886
80,-0.016301645455862452,0.008801628345976574,-0.03296513599519175,-0.010599100784537971,-0.0031161539005693196
81,-0.017637359395150164,0.007446365993259949,-0.03345752726263806,-0.007330579425835949,-0.005954340361080052
82,-0.0171265057504575,0.007987596263870439,-0.031692995386996485,-0.002744354864636597,-0.0054542947828291905
83,-0.012003565667773785,0.013637395505628466,-0.024720296071220393,0.004715426795012007,0.0013405343200837579
84,-0.004459524566215084,0.021439977985011786,-0.015161718401434272,0.008904104286295317,0.01012839409387478
85,-0.0004368175605531992,0.02531544432638979,-0.009741962119636646,0.009914538102369806,0.013761912866604643
86,-6.37437026544844e-05,0.02564280349268159,-0.008388696306490811,0.010108404895665281,0.012929833637790418
87,-0.0012951530746017775,0.023998848208863444,-0.009204309461439669,0.007934491363482527,0.009988665946345203
88,-0.0032811532311010326,0.02059665140722575,-0.012535038507322892,0.0052992515976978335,0.0057665252128808915
89,-0.004967476190492329,0.0164910526376233,-0.017120892442344722,0.0010666083848126485,0.0019282869544727554
90,-0.006370610379322522,0.01220333560536958,-0.021057611701675916,-0.0052528439503536205,-0.0009462571849803381
91,-0.004791477040291376,0.01114967776444368,-0.020131934642849618,-0.009950425232449793,0.0002423214945000402
92,0.0004572937256244723,0.013777139805780615,-0.014650045349217383,-0.009475898653078905,0.005353560260662526
93,0.005130825936269127,0.015901492990012124,-0.01060122579628885,-0.008550066313966995,0.009522862332410493
94,0.00726732018925138,0.016805349786598898,-0.009464735163162182,-0.009667865189382941,0.01176829175265429
95,0.007482121908049961,0.017350267398172428,-0.009815365247322936,-0.011451626940020214,0.012624943734456112
96,0.006005358353051245,0.016598231727431793,-0.01185954764680725,-0.016052940308102462,0.010980387619947771
97,0.0032307871036309143,0.014303940848958988,-0.015512984756581779,-0.02291252157002411,0.007385094241541952
98,-8.012591824261005e-05,0.010863510076449503,-0.01988052473676332,-0.030408103976063715,0.0031084927045724846
99,-0.0026619339174290095,0.00699217202692637,-0.023332224489639397,-0.03741673857585539,-0.0010180883643527287
100,-0.004820752103418752,0.002643746711810509,-0.025916562912411286,-0.03794610701599524,-0.005113857431236531
101,-0.008508585693817058,-0.0032884306754371946,-0.02974783383506899,-0.03609277582294601,-0.010405782031346875
102,-0.010968077797524546,-0.00711019674891754,-0.0316756296668949,-0.033289288257498585,-0.012976692211813587
103,-0.006623182716958825,-0.0029027006017344503,-0.025582654469033475,-0.02552877720929437,-0.006251132754055555
104,0.0034165088296060414,0.0071283911982788365,-0.013067116819695858,-0.01691047025245836,0.007179557902951715
105,0.01260204089721753,0.014701318821693427,-0.001533691761998086,-0.009127112711179256,0.017588733271434134
106,0.017584828415144183,0.016291584776504626,0.005078719531343374,-0.0016766521883938997,0.020609558754813448
107,0.019521722304510544,0.014689655176298583,0.007874438330967359,0.004907652941463478,0.019449572981081388
108,0.01890421667125476,0.011353588705112709,0.007783955362135922,0.007155526420884038,0.016704251486752725
109,0.016229719575060284,0.006378745467969037,0.005455232742036324,0.0067244573462531855,0.013338601116355587
110,0.0141780743751626,0.002030924255456014,0.003300374177058935,0.006735616213686029,0.011432969522002567
111,0.013211940664948907,-0.0012827165629903544,0.0017763622496233008,0.0068259580541248695,0.010396644039106827
112,0.013536228982217477,-0.002858239948412482,0.001785465731224085,0.00887280894436214,0.010557132102084567
113,0.016566102673835695,-0.00045025493983804086,0.005578703926945843,0.012996351436448384,0.01459422175683095
114,0.019826404482464862,0.0035670683314563243,0.010593543874128739,0.017252503095556232,0.01987614356138747
115,0.02025332452719986,0.005541308369010179,0.013167950508712216,0.020545451564644743,0.021978082360302957
116,0.018985251218364613,0.0063345365368903455,0.014536808576074626,0.021464144191927458,0.02206089563504958
117,0.01761881073516937,0.007329239849258626,0.015949644244531404,0.02100199894121113,0.022257537745930662
118,0.015226781454779719,0.006952356436151824,0.014959181245234722,0.019062468291154544,0.02080341726491774
119,0.011361876079123997,0.004322952213342286,0.010085612010749112,0.01535031791430936,0.016193184855712514
120,0.008399177631617101,0.0017627063552888358,0.0041613323400082995,0.01260181358588247,0.010831598791588836
121,0.00845443962362188,0.0016758691450817918,0.0007822363791906104,0.011842895309726525,0.007843671097462429
122,0.011242597803831004,0.004396101459047607,0.0005522235320790665,0.012398327189652128,0.008021068280090108
123,0.015702850750914144,0.00937827297219013,0.002666641017562723,0.013797473752895827,0.011074551831184243
124,0.02055288947171824,0.015412197532060832,0.006612413636932608,0.016389941408323568,0.016362708805622538
125,0.024577012283971057,0.020781162684434185,0.011304457046682297,0.01861380672229983,0.022838646642788056
126,0.027082441678226245,0.024105462726881056,0.01489911091284133,0.01853291908075771,0.02875672783710329
127,0.02663524251532291,0.02299732713168548,0.014712888117503967,0.016028583183035225,0.030094762115027453
128,0.022090534294288863,0.016078230363006825,0.009318326049148312,0.012118746308683202,0.02433791417654519
129,0.01549671815545658,0.007052565736832248,0.001505649258593123,0.008719248042456091,0.01534162314513848
130,0.0094240125337641,-0.00047569230029353434,-0.005907963266188958,0.005746451124178769,0.007050415392165363
131,0.005549442616718974,-0.005586304697881487,-0.011299280062679069,0.0030138701039969444,0.000817248851744044
132,0.0059588476969624285,-0.006491090465762484,-0.011725073954023581,0.0023158311414604327,-0.0008977833790312747
133,0.010907066445254951,-0.002177644893709484,-0.00631452878860137,0.004451213099526923,0.0027967165734388536
134,0.01636716108932667,0.0033909390644296543,0.0003854419554233765,0.0073078633341269765,0.007242275177655493
135,0.016142241177176858,0.003178216590629224,0.001439522543744899,0.008027015962634275,0.0053245378197669035
136,0.009980524436957346,-0.003015657402950441,-0.0037841907519903326,0.007065839900631396,-0.002600261607251276
137,0.0041921880393025026,-0.008605922150034124,-0.009054698549148874,0.007335883842436136,-0.009347001864479948
138,0.0032091657817923556,-0.009964344108552495,-0.009724525416625522,0.009987700740507933,-0.01074008164415464
139,0.00694923891685609,-0.007930225904405636,-0.005849882865164629,0.014216191499565753,-0.007532661482779848
140,0.013919489671776059,-0.0038286451621879192,0.001173069885708426,0.01971182147921755,-0.0013261807115098048
141,0.022629020649062206,0.0018728674818815105,0.010561117145307797,0.02643619320934701,0.007048530772964654
142,0.02902171774299827,0.0059350092435557925,0.01813597299627559,0.031776556535270624,0.013114622370671531
143,0.029773811467672072,0.004992310434848878,0.019671455558623704,0.033181460264368086,0.012443198286519309
144,0.027858834813618647,0.002110339923670124,0.018557616127263796,0.03257946136815176,0.008730046317502306
145,0.02561812787544265,-0.0002769446856576826,0.017587999569793518,0.03131062813138946,0.0055857192269643564
146,0.021309108657979223,-0.004201779218642519,0.014349775464262809,0.027671575811079006,0.0011409141564471897
147,0.016116067320480675,-0.00853181165957,0.009667442439265655,0.02249014319291749,-0.0037211776117353663
148,0.012957719378000401,-0.010430179159263855,0.006394699402010811,0.018466092140821636,-0.0060347910059896075
149,0.011102826634324934,-0.011146641769955971,0.0038869347207256054,0.015753858594870634,-0.007192685337813643
150,0.009167532227952881,-0.012556459000704777,0.0011844873370972042,0.0131201557974004,-0.00923565667733884
151,0.008428735802807173,-0.013272247521786032,0.0001464838120230822,0.010601587078177871,-0.010531647909308415
152,0.009388671772614507,-0.012288050821011955,0.0021506083498711156,0.008568343497443513,-0.010075108129385368
153,0.009656417286990598,-0.011685265278914747,0.005129531701672957,0.006462434051433996,-0.010288897099205016
154,0.009226897270330076,-0.011247455507813553,0.008136901345197574,0.004834359619987645,-0.010785916906782413
155,0.010439093183311734,-0.008617025160245654,0.012234683514482798,0.004553146997388816,-0.008476406846628785
156,0.010852625801275186,-0.00744836399277091,0.013889163902962699,0.004072499437106434,-0.007240429643312002
157,0.0073355050822265415,-0.011938096321346837,0.009687317568292327,0.002562042379773091,-0.012168231786271954
158,0.0012295592535591067,-0.019756754324265213,0.00211176221780946,0.0008985928165898564,-0.020592397829457442
159,-0.0053665045503593,-0.027546870663423324,-0.005478046014529167,-0.0005354087555593828,-0.02842257057110152
160,-0.01048807517555801,-0.033194154799892954,-0.010952376688340268,-0.001110390302090755,-0.03363714888701958
161,-0.011982723007247975,-0.03474893483925831,-0.012504134332187831,0.00046167678109862047,-0.03454409590827631
162,-0.009568122276039061,-0.031799884405966754,-0.009978876255037832,0.004732683622420552,-0.030696087317042108
163,-0.005290701116764337,-0.02644851574434613,-0.005867918595596189,0.010167428971323472,-0.024236812634418913
164,-0.0012012520425595142,-0.019254097269628734,-0.002490614285672983,0.014761262976043773,-0.01590900969892559
165,0.001757759297606464,-0.011977870546821656,0.0003450086501620014,0.017774592896001966,-0.00802732578849237
166,0.0024487483375605665,-0.006023641267393195,0.002880852332990517,0.01833530213042345,-0.0018004635044790278
167,0.000733305298532816,-0.0013150812614990944,0.00453151464241835,0.016066901682814598,0.003274158140276743
168,-0.0021864326036731743,0.0006891139178391316,0.004362155427152492,0.0122550535944413,0.0052252169993398006
169,-0.005877664148748584,-0.0002272095811615445,0.0013813802825790899,0.007826406310240258,0.003916527632326442
170,-0.01022662640274019,-0.00274623625732883,-0.003549144094586628,0.0026479043601527466,0.001311381019616545
171,-0.014568911954364487,-0.005124433465567504,-0.008264707715774122,-0.0030614116017221283,-0.001170586081893824
172,-0.01854008654672391,-0.007017344954566318,-0.011740477241704505,-0.00827345347215959,-0.004137166748283178
173,-0.022461543238515375,-0.007809576411602783,-0.014661969884792285,-0.012054484895132445,-0.006765693719745034
174,-0.026323916782854076,-0.007137150806242783,-0.01803072288619266,-0.014677992134646347,-0.0076576081956532555
175,-0.029831691185446114,-0.0059293160666613045,-0.02223832977224973,-0.01720774423025641,-0.007109211850751041
176,-0.0333119954495968,-0.005299144892509331,-0.027182866853179635,-0.019759280342182817,-0.0065230031561420996
177,-0.035439144108683804,-0.003958148111979,-0.03030716652877061,-0.020923809439985577,-0.005246999725222764
178,-0.03472567349309339,0.00035440947432008416,-0.029594105288908015,-0.020297355521854698,-0.0008337106465168481
179,-0.03239894384432662,0.006450508354774878,-0.0270780157838037,-0.018912937856229915,0.005906244371714874
180,-0.029457070332670924,0.007724811751045956,-0.024305826653005527,-0.016632539948210966,0.008454102059434117
181,-0.027789425187276843,0.005724289664775161,-0.022726817298640577,-0.013680358002231332,0.008027988545189805
182,-0.028080163526362476,0.002683391429195306,-0.022685021855653572,-0.010430706176429008,0.006942961325809356
183,-0.027323529234845902,-0.00016739563203505532,-0.021584996832767524,-0.006487977447595328,0.006548894692440397
184,-0.0255649689259976,-0.0010734523646718046,-0.020261117574924593,-0.0036206910987294292,0.007518310723946272
185,-0.026237903773277893,-0.005744307984548046,-0.02219886034421373,-0.003985756265095395,0.003495378985448394
186,-0.02930785798287924,-0.01449706182573562,-0.026404110539355187,-0.0069141224306034765,-0.005054466894995995
187,-0.030592915552809,-0.02072853630015432,-0.027920959421872886,-0.010067799181770585,-0.010447073980176736
188,-0.02844530409561277,-0.020028559283056708,-0.024911812044567733,-0.01152716290560226,-0.008194422687529682
189,-0.026642937229323385,-0.01869659496959162,-0.021784679051272425,-0.01166105205472983,-0.005267192616568296
190,-0.02909219892298499,-0.02259714310122103,-0.02365373705944004,-0.012693985738917637,-0.007878135100163173
191,-0.03326994618151031,-0.02844021911786597,-0.028102596327434108,-0.014303382820685762,-0.012168614744314648
192,-0.0326829810919725,-0.03356377166537599,-0.027624056702126816,-0.013381427390591605,-0.015265909763708792
193,-0.02557269265850507,-0.029457089956169854,-0.01995708970641253,-0.009206891152235823,-0.007958167832306903
194,-0.0162961252937558,-0.023014293239915766,-0.010166506995258215,-0.004653146812537592,0.001865396399256593
195,-0.01259623044419052,-0.023471859798092885,-0.006870481806266589,-0.004378582708909163,0.0041727872382918115
196,-0.01714131136550855,-0.028132834129803004,-0.012204670913577308,-0.00958999110874028,-0.0011365767223253016
197,-0.02338271824127193,-0.03202240378919392,-0.01850948253608837,-0.01569276778020024,-0.006991222238634641
198,-0.026587788072487063,-0.03207034062569412,-0.021218235010284588,-0.019636883178999906,-0.008698650793088616
199,-0.028163778883534833,-0.028345688699888672,-0.022573264249393644,-0.02247179689785883,-0.007308820814220449
200,-0.029183643010052652,-0.02540770272143129,-0.02399337389254472,-0.024433195575991884,-0.006242714477114751
201,-0.02770799972347316,-0.020760990413150278,-0.023277016803821982,-0.023992112551498173,-0.003690471088002975
202,-0.02320813328791997,-0.01268100724794353,-0.019196870687313298,-0.02141979225948918,0.0015739512636103613
203,-0.02029335079587291,-0.00668641425261459,-0.0158968708708673,-0.02013368045884734,0.004502771377976999
204,-0.02267419580673628,-0.009009327983549146,-0.01731276852161134,-0.022073649794222952,-0.0003104552331316447
205,-0.027771902994649794,-0.0153879276117328,-0.021540795567622468,-0.024772317885069232,-0.009004589863710838
206,-0.03247918147920789,-0.021602020183126954,-0.026143506264408835,-0.025852689024275365,-0.017474554395101406
207,-0.03644914883386636,-0.02796306916971829,-0.030850908823231955,-0.025547219693486348,-0.026222773957138353
208,-0.03884050024982176,-0.031835031451726795,-0.03384215817067642,-0.02449879832749179,-0.03361395691927526
209,-0.03717308445629838,-0.030890598051067843,-0.03157304706952911,-0.02238516510883838,-0.03670891167935129
210,-0.02990657388067329,-0.023671897312516055,-0.022964025902468734,-0.018717267756953555,-0.033163594658031106
211,-0.02035426767570784,-0.01290975976057558,-0.012391327661058776,-0.015028033492402842,-0.025529023438516468
212,-0.0145858659727022,-0.006422129924806369,-0.005988136523030639,-0.014058638976977742,-0.019261827716930118
213,-0.014107849072210958,-0.00567383662538725,-0.004981160165508956,-0.015607308507882292,-0.017664260899667914
214,-0.016815405531793393,-0.00828745640947615,-0.007629120894810476,-0.017826725527744294,-0.020028222241209166
215,-0.020891158012111208,-0.012957536892360955,-0.012746596216825005,-0.02039903980515348,-0.02465979941871449
216,-0.02342542099101332,-0.01600377517393514,-0.017145404711104883,-0.022353383762729006,-0.02876821436930349
217,-0.02321629938508169,-0.016012183090391527,-0.019060799291955543,-0.023266152630548834,-0.029918580743559547
218,-0.02155405680507245,-0.014659508275101832,-0.019860400362134198,-0.02388061801282665,-0.02906660357764816
219,-0.019140046229227617,-0.012859736958415366,-0.019623676007850904,-0.023451453420022507,-0.027406851865690512
220,-0.017265462635431727,-0.0112660000323196,-0.018566315127739902,-0.02215181755785928,-0.026225731041950213
221,-0.016958052221047654,-0.011387077016355834,-0.017953439510146593,-0.02101835600518493,-0.026416336872932652
222,-0.017917054701772347,-0.013988174158700043,-0.019048626798231497,-0.019911345869077883,-0.02866675426762448
223,-0.01848831185440939,-0.017032086213970184,-0.02095191218969279,-0.017829473503032357,-0.03136487465582128
224,-0.016310778610880414,-0.016806560747813955,-0.02028481886879232,-0.013897828992756565,-0.03027922527804574
225,-0.012186202815920456,-0.013401339071176525,-0.01691007001189602,-0.00919681321501389,-0.025505442533721768
226,-0.009419786098392152,-0.010704092871961649,-0.014289909561600615,-0.005765213833374534,-0.02093234966692889
227,-0.009163189157194867,-0.010364529086891255,-0.014305605505756306,-0.004641595275115532,-0.018087840777094542
228,-0.009859375498056955,-0.011177563103189948,-0.016230517728826697,-0.00576209865271757,-0.01678038369007101
229,-0.009951312385975058,-0.01176884273545611,-0.018447887111997976,-0.008058826681855156,-0.016064598480394106
230,-0.008714930856042693,-0.010849120934742062,-0.01875488441560461,-0.009351368817050718,-0.014796229624025338
231,-0.006075328040454011,-0.008065646086439268,-0.016300029456724822,-0.0078746131191403,-0.012334253581049627
232,-0.0027176751737541904,-0.004463824972958639,-0.012420307612901593,-0.004174644278244275,-0.008583338454512968
233,-4.9289191212298865e-05,-0.001546016227682857,-0.009104994215005019,-0.0005336128387130674,-0.00472358953995431
234,0.0010167757172736551,-0.0004199311782602259,-0.00743672766092154,0.0019708908288150746,-0.0024717132350350443
235,0.00038505780886045465,-0.0020926931828396168,-0.007500195101257072,0.0042539498031368824,-0.0038218907994624005
236,-0.0012587013730162445,-0.006110617569862049,-0.008251142852041829,0.0072652603583201695,-0.008352625746926733
237,-0.0020212007266766233,-0.009299641349710916,-0.00702757220860556,0.011138770976407678,-0.011938081861636094
238,0.00032005399765890226,-0.00796240040244637,-0.001348169904790567,0.015796449487199552,-0.009786127970795888
239,0.0063652687481067826,-0.001037696148499839,0.008287332960531524,0.020786917926804704,-0.0007800424555268514
240,0.014862632063193956,0.009823786791842391,0.019067423293916697,0.02540080708183696,0.012522313253223295
241,0.02399951931447694,0.022066544360266352,0.029114882876556426,0.02932397496616036,0.027369303657299723
242,0.028845249019094167,0.029102957996667678,0.03449639260075244,0.031023901052182973,0.037016968201799325
243,0.026395915664146147,0.026656348274953442,0.03244338539851721,0.02966414834427639,0.03647431290870276
244,0.019541080677863386,0.017842754249400992,0.024725673790976847,0.026050119589436305,0.028323918194779977
245,0.010638835962406801,0.0053712400700556395,0.01262454502077726,0.020570523324426934,0.015006697544468357
246,0.0029931855727489587,-0.006844749326459926,0.0004495985976583271,0.015466841213486,0.0008651104796849716
247,-0.00010826382392331143,-0.014819901614739374,-0.0068837367006796225,0.01289563878746423,-0.009080168768038362
248,-0.0005003013165589918,-0.020049328020749966,-0.010746900599281923,0.011676684103957806,-0.015558580267895694
249,0.0004176921512543498,-0.023060685588309076,-0.012003221182362727,0.010967023684860563,-0.018752399058151525
250,0.0035895082483567682,-0.022288726003111648,-0.008861548085757716,0.011471695342898897,-0.01700841467940117
251,0.007828348668027856,-0.019236226160618104,-0.002555259128489507,0.012999505610961713,-0.011927081510844255
252,0.011361465526229268,-0.015795419692514575,0.004424842198290416,0.014820326058713093,-0.005670984649514604
253,0.012971477152089558,-0.013164439474147497,0.010152874715413466,0.015974643494776265,2.2671178430447165e-05
254,0.012141330308019737,-0.012427442182971468,0.0135015295289193,0.015953867823228694,0.003343319150923366
255,0.010950028709496056,-0.011894305854696157,0.016313227538616422,0.016096853968334882,0.005805418120996942
256,0.009891989316282587,-0.010764090608790973,0.018820778281152573,0.016754046054070725,0.008410944387557552
257,0.006815048680078944,-0.011292481463459531,0.018706454486883368,0.016806581540953613,0.00900952747170024
258,0.002077267750747773,-0.013932232824439644,0.016684293024547554,0.016230322855613308,0.007354332058068325
259,-0.001659332326490165,-0.016107127951804124,0.015560803929266643,0.015333040871067766,0.006138276443313513
260,-0.0037512990514169055,-0.016291975569643048,0.0158128235741331,0.01348814496093921,0.006985400884871276
261,-0.005706007202282513,-0.01571973346005128,0.015528928890909146,0.009954780511780338,0.008724008350038927
262,-0.008507213676381332,-0.01643488130223125,0.012883018019596095,0.005104217305563833,0.009105206121490603
263,-0.011029223995804735,-0.018658428782317556,0.008672683069527532,0.0012049188258330863,0.007454947409587631
264,-0.010500888158386325,-0.019489057742074288,0.006909584811243542,0.0005899024580227811,0.006529185872397549
265,-0.0075553046308987045,-0.018134278194321066,0.008587056906932376,0.0020490626581635848,0.007154995228195937
266,-0.005627625427298063,-0.0171545346544373,0.010753431565400418,0.003131869975593139,0.0067188250301902655
267,-0.005979558038066444,-0.017731649741237074,0.011740536628651849,0.003380707196872303,0.004222604356241273
268,-0.0076746608195598235,-0.019018533778717893,0.011597785022550605,0.0033561634362013933,0.0005580940707872714
269,-0.008369387668160892,-0.018685949379998304,0.011918032335169602,0.004238225509694563,-0.0017328481804485473
270,-0.006228160927305066,-0.015093801555937043,0.014690370874064176,0.007090878388153156,-8.841216595474534e-05
271,-0.0017184628221199529,-0.009245079486583175,0.019898270165418508,0.011675666825451125,0.00552250150332585
272,0.0036085266763025694,-0.0033607376386601013,0.02601058697786071,0.01679102925674185,0.012910754050669694
273,0.006721107736188209,-0.0011651620196600641,0.02915414295559803,0.01997188060879742,0.016686840463380745
274,0.005478240651590978,-0.004854151261386879,0.02621737851743395,0.019779786663952605,0.012897129682838307
275,0.0028155743394608313,-0.010149376795809878,0.020757275598195363,0.018302852710085214,0.005924429370213438
276,0.003623136184353926,-0.01001533614458032,0.0193780308879887,0.01838410103821669,0.0037653674068625505
277,0.006982428689680326,-0.0046004663566728944,0.022047564168779833,0.019278633682260224,0.006711980214560201
278,0.008071633273494963,0.0003663888563256473,0.023723693210086917,0.018280740500124494,0.009517687802952016
279,0.0062895571091813405,0.0030992302125676225,0.023213332308176918,0.015526448430524148,0.011013331598587419
280,0.0037340210724630322,0.004406115405343382,0.021659134079270153,0.01255575501445778,0.011895184608344603
281,0.0021364207991795845,0.005199392995497087,0.020419020692815225,0.010239438219162157,0.012710208253586897
282,-0.0004330066687677302,0.0036917038762147806,0.018024117400485776,0.00742168172424684,0.01141161186956021
283,-0.006299716227031069,-0.001709937786054384,0.012064289593094529,0.0028603481347926345,0.006188743401942841
284,-0.010648738770161516,-0.005326624305623962,0.007074853376116505,-0.0007071902934964416,0.00309357075944556
285,-0.011238317671079703,-0.004722828027807658,0.005592079056101579,-0.0019319471271729916,0.004629586774128554
286,-0.01160852529774916,-0.003574316532423527,0.004789796029739832,-0.0025834250200343703,0.006497026791308744
287,-0.012185109943252472,-0.002255185763032689,0.0047167397895107556,-0.0030456808516814487,0.008320479107015456
288,-0.011955997649477808,9.751368591759781e-05,0.006033601979007637,-0.0034003801627831096,0.011275565847179252
289,-0.009829916755854986,0.004601315710625086,0.009646324922030278,-0.0035233178851886557,0.01635909882802085
290,-0.007508788572925246,0.009072781762506182,0.013578661742599082,-0.004222791781052332,0.020696797190704986
291,-0.010294207098143606,0.006886972342597738,0.011627788944342833,-0.00736138411905835,0.016847747761378377
292,-0.01824751373143022,-0.002277222606453014,0.0032560203788326355,-0.011977520501791168,0.005026570291457865
293,-0.024942603611824068,-0.010843281926925396,-0.004884620261969779,-0.01471203859787991,-0.005697450246719285
294,-0.025960936519679637,-0.013431253275681775,-0.007715747897641209,-0.013871832123704391,-0.009428282022546744
295,-0.023426204235408435,-0.012006199080256562,-0.007271077557379727,-0.0112804614432423,-0.008683151906086444
296,-0.020560179191040646,-0.009661753978688105,-0.007019485228837143,-0.00896800263646317,-0.006838775466423831
297,-0.01804858761421363,-0.007306686669088401,-0.007434886349757896,-0.007122050291757617,-0.004976753703501773
298,-0.015728682798080006,-0.005530620287543785,-0.008074576663456368,-0.005277338206565948,-0.004074673260939207
299,-0.011899443807834966,-0.0025750773793808816,-0.006479191247548535,-0.002075101118220207,-0.002062784306785636
300,-0.005929611871159163,0.0023605523185573052,-0.0018752756648160434,0.0027273971881722116,0.0021887862466875227
301,-0.002216027620857292,0.004521238799436163,-6.014295001902028e-05,0.00550385176372789,0.0036489689965715174
302,-0.0015656555794509688,0.0037699038028934694,-0.0016069879903364659,0.005587809238150225,0.0026708245904150003
303,0.0012351898786545554,0.006055939446010482,0.0008055984657220011,0.007294364120994376,0.005830823922228347
304,0.005522642868903965,0.010258837147098458,0.006536447829954971,0.00975730202177473,0.011215636214719599
305,0.007524627920959113,0.012372685610211324,0.00978133184716756,0.009368148721707876,0.013523049814329604
306,0.009723233711817065,0.01507836943815697,0.012079824532490631,0.00872548814228456,0.01535393244420075
307,0.014324778127916172,0.020423257744900388,0.016162426216268663,0.010352067472342212,0.020001632875631694
308,0.018623279828299623,0.02543251322798098,0.019882633288165828,0.011867731773948951,0.02534380123831672
309,0.021145861033005434,0.028724989807659796,0.022371185755982292,0.012098097271046054,0.02966048407725832
310,0.020132568310265567,0.02823472493833956,0.021817565602536095,0.010589794223306135,0.029988309724087277
311,0.014661776255721508,0.022555417364959286,0.016660064985139732,0.007097018545445878,0.024495500559465394
312,0.008072282932079814,0.015543250528044852,0.010295761097500683,0.0034557295465933017,0.01738669825222564
313,0.0017108906649364454,0.0088139986450516,0.004185798244707777,0.0001235129888554271,0.010503112137960012
314,-0.0039015603411050115,0.002748459277471197,-0.0011780883834969637,-0.00283098888235865,0.004216679227745617
315,-0.007142120104178936,-0.0008021432997563655,-0.004060970359276686,-0.0046462892706387576,0.0003923479970808741
316,-0.008600681348227866,-0.002587647716365791,-0.004982091239205439,-0.005463062513333839,-0.0019080786586963207
317,-0.008279810451958863,-0.003067768912449729,-0.003952808338981746,-0.004516103015835893,-0.0032091552528211286
318,-0.00454371128861815,-0.0007072281442007282,0.0005264993626048931,-0.00035860877028668357,-0.0013653606943888575
319,0.0015282660273298438,0.0037953970612638944,0.0072225959400948085,0.005656831922651284,0.0034875131354160237
320,0.007461736210204904,0.008665297318786394,0.013677121596191496,0.01073977899279031,0.009289207405599404
321,0.013060616697330737,0.014340424850289633,0.01969242298730018,0.014330604972311367,0.015649493553036572
322,0.017448741778107124,0.019878712896003875,0.02378867112370417,0.016000647224849365,0.021067699024719676
323,0.01831075001763874,0.022365048613237282,0.02317728654503903,0.014463125209854157,0.02301697613727149
324,0.016387255620686266,0.02195121738859493,0.019242599685849834,0.010963851282882223,0.022397777663032477
325,0.013971577380491146,0.020353389882571692,0.01496170736381544,0.007934979699022357,0.021029002335600917
326,0.012542966756855123,0.019153279756173473,0.01191263626123901,0.0065696628827708,0.01983074981253209
327,0.013326252649359804,0.02045671911513039,0.011374711722387023,0.006872778705469871,0.019919563472752113
328,0.014472975695447267,0.02296085836475611,0.011161759250863289,0.006241745755308394,0.019980163604296344
329,0.014891077966510005,0.025596393709457717,0.010045511415636003,0.00340852355080224,0.020364032278905864
330,0.0166737028352003,0.02971178680996026,0.010986512079645027,0.0011079420548405765,0.023146482935911927
331,0.018715274886720694,0.033016877804739594,0.013044724884785714,7.271089718150411e-05,0.025249705572585213
332,0.018813666332807556,0.03319600525383726,0.013164191311049787,-0.0013497667801058216,0.02378428541366096
333,0.018016984941010058,0.031904750889692766,0.012357851693296323,-0.0027236762652666836,0.020621858916190353
334,0.01856475882339873,0.03185176512573207,0.0131430078820445,-0.002295639929206503,0.018932767498113647
335,0.02107388194721782,0.03389853542569571,0.015735695196806156,1.0121783663571364e-05,0.02033091682170271
336,0.023325683827902944,0.03522546314156688,0.01751760269734871,0.0022244265565570503,0.022643998696785288
337,0.023168699943862458,0.03273299767568855,0.01626467052643183,0.002843608861749709,0.022661358336478685
338,0.02075565454384924,0.026864093525076693,0.012262434538287983,0.0021016486804707334,0.02009596538618375
339,0.017331823015779627,0.020073296644345887,0.007540304984777339,0.0009353014572464407,0.016711697615327065
340,0.013900850831207012,0.01411208442606251,0.004082628097189097,-7.761196385141578e-05,0.014093186566367938
341,0.011592317694446052,0.010643010539144961,0.003050775622581643,-0.00041893274646540897,0.01387770756208581
342,0.01080598527557498,0.010260256259280823,0.004031550742136006,2.3772534279171444e-05,0.016146144868748026
343,0.01124651132805091,0.011830002628098666,0.006034627097882876,0.0009696564565032915,0.019397540512276816
344,0.011860721388011636,0.01336219867354337,0.007989168173630061,0.0018267394559232533,0.02194033001675553
345,0.010568728496418977,0.012417639712409865,0.007809716340496082,0.001613240541995426,0.021322624445398824
346,0.009165861094941491,0.010942863303037318,0.00719744850768727,0.0015694018417614253,0.019216401257530397
347,0.010045435743493347,0.011594124978901242,0.009007925113132902,0.0026691290234682695,0.018601307777119575
348,0.009655371324070423,0.01064288182894043,0.009786087065171907,0.0019842835193002247,0.016211664914593724
349,0.00634671446069221,0.00690533569393441,0.007512478171553479,-0.0017759076586168305,0.011159301625434133
350,0.005760223957918167,0.006783176553984307,0.00817181855475946,-0.004088901640167632,0.010306323177841935
351,0.009087612266812269,0.010655030012272975,0.012790966954635432,-0.002186967726132945,0.013910338286669847
352,0.009711880322262178,0.010993083698580243,0.013381475165100397,0.0003921725477654821,0.013243691275987159
353,0.006103067425048815,0.0068419998456277446,0.007865932190519617,0.0012452170203347756,0.006516066207558706
354,0.00300583746764407,0.0036073094862360128,0.0021400251160629833,0.0018731748631695474,-0.0003152829685488662
355,0.001984380163905217,0.002533592171980588,-0.00091026023591032,0.0027160894537163562,-0.004884187901784897
356,0.0027706187540755644,0.0032870814350944417,-0.0011548292240510043,0.003369570175214805,-0.006667755108347758
357,0.006950608272831417,0.008108879182918546,0.0028767097289913164,0.004829884715382069,-0.003150745656381917
358,0.012597021803585273,0.014833040834339147,0.008634798500806068,0.006534228497002265,0.0031796752690135253
359,0.016944979002769405,0.019985261079289843,0.013015648790501032,0.007360426352830216,0.008457813485670526
360,0.02090023316324847,0.024522394647793086,0.017441763691337608,0.007756237213906141,0.013427034523414389
361,0.024417927179057924,0.028304828655085518,0.021545181327047337,0.007545024944536257,0.017735384580159677
362,0.025553762106807626,0.028590331900989377,0.022089238004011396,0.00631254871464231,0.018204750800068167
363,0.024876352067563366,0.02601815445129678,0.019880889995179053,0.005623021782925311,0.01529283643830443
364,0.02578909677968603,0.0255281591994555,0.020327165740220646,0.007869278294448598,0.014397899084662224
365,0.027629045891169466,0.027183535688291564,0.023743590303792646,0.012122255995725702,0.015890227727561802
366,0.02664602820517676,0.026226563980107122,0.024901819649682185,0.015244427762903424,0.014978367579563105
367,0.022983365137454515,0.02185407239615604,0.021690907057516105,0.016206827255765027,0.01069293516639482
368,0.018304229360076484,0.015677937086087747,0.015382296060624705,0.015521546575564678,0.004278935771229909
369,0.012148122762981944,0.007551626267759366,0.006584639470088413,0.013148029053724844,-0.0048032902985186985
370,0.0065138794540182815,0.000572100013249342,-0.0013667359335224841,0.010219584843006628,-0.013228993031709964
371,0.005514106900176173,-0.00011896768034562915,-0.0031628186024079876,0.00892036041147506,-0.01503543415880579
372,0.010028341024131967,0.005992502328606706,0.002122948111627132,0.010198287833423365,-0.00933454611193687
373,0.01638831861545018,0.014165973952129434,0.009791823432446724,0.01246598013614055,-0.0012118462034005479
374,0.018170912985820988,0.01690691840571959,0.011878337061075855,0.011754777641768124,0.0013477714163568641
375,0.014349796505764923,0.01354477770940969,0.007088254487367105,0.007597490782112321,-0.0019842060998852213
376,0.009157985775286693,0.01001790274738697,0.0012643011421580152,0.003282944528231339,-0.004716138898263697
377,0.00501914146755765,0.009432744710917023,-0.0022083637440165247,0.0002444951500548977,-0.004312027650747357
378,0.002778705828940792,0.011242214383264289,-0.0033305472246867433,-0.0017513308616565696,-0.002069793419443107
379,0.003338804069306751,0.014392569896524866,-0.001880330199404973,-0.0021285136320292417,0.0012996933761464972
380,0.006405514917197395,0.01810492303157384,0.0022220133938170867,-0.00014371638660669436,0.0058624024141155666
381,0.009581713072938473,0.020996935906300626,0.006639151294615948,0.0029522894761223866,0.010428974911925043
382,0.01017039656135504,0.021455400296900278,0.008430562844318283,0.004712037674455126,0.012803350665673108
383,0.008282750445419452,0.019229237893450702,0.007494674626136297,0.004276518169535446,0.012253082320607265
384,0.008453844345197074,0.01807300727397227,0.00821460291580267,0.0035397557654194512,0.012534677616434932
385,0.012762137672887468,0.020561329611395365,0.012736854540667638,0.003496223274792852,0.016103260536496928
386,0.01750436188186967,0.023821276201512885,0.017292411789601392,0.0027810948976581475,0.02014258531676464
387,0.020032085679143483,0.024932862204171805,0.01899632411897534,0.001179140925864342,0.02183190216196651
388,0.020330746374605548,0.02305551685162202,0.01746437052163718,-0.0006123469372584993,0.01994064412706722
389,0.018622480523092608,0.01861963212402284,0.012752016593067482,-0.0025822034886583533,0.015004501101379115
390,0.01740280159893476,0.015530193033150484,0.00819755795064189,-0.0036895518728269332,0.011938820849825118
391,0.019505395506053482,0.017422711861091483,0.0077131599099531,-0.002796077327503961,0.014887761876821322
392,0.022301228911496645,0.02064555051067126,0.008786228176437684,-0.0015556824809881856,0.019492844568185928
393,0.022179125389270117,0.02086260826695281,0.00772372537946546,-0.0018992640088913498,0.020999944703371805
394,0.02011974406911171,0.01953051011654055,0.00555376385686624,-0.003307590504075318,0.02118469939086163
395,0.018296326746158092,0.018496229872661054,0.003803953021401945,-0.004195135434106007,0.0216926752174165
396,0.017644942477582016,0.018255908116501598,0.002776052580382754,-0.0032145576282007608,0.02248877576698411
397,0.017970449741093214,0.019033787537669836,0.002358652997125288,-0.0006036860313490816,0.023802562138549258
398,0.018221458250495943,0.0196115050680841,0.0014875429777942556,0.0018484409264588495,0.024844488108015157
399,0.017916114900848528,0.018832475863665325,-0.00021181934825431032,0.0028848507141091325,0.02483013330658882
400,0.01685245686113955,0.016472948132994204,-0.0022524972030699784,0.0022027528068447864,0.0232678906278336
401,0.015017986672887293,0.013413403744459068,-0.003970653596459031,0.0003809677324651937,0.020199467245184163
402,0.01282076970384119,0.010885007436545937,-0.005006360108285428,-0.0015991692421843066,0.016493452389789096
403,0.00927737844238297,0.007569241078344413,-0.00734953889220445,-0.003897969344823232,0.01114622532117719
404,0.0038130980574656477,0.0019976076235535597,-0.011956700591678363,-0.0065184781949302545,0.003127683003136957
405,0.0005426193268747718,-0.001764115827711469,-0.013333593193613904,-0.007143818590814077,-0.00260464914172548
406,0.0014168892206492022,-0.0012904036710451518,-0.009081455857478259,-0.005816963046342858,-0.0029257365553219438
407,0.003255654605058568,0.00022231105093448948,-0.003963747784591728,-0.005403022525895312,-0.0014667147683969798
408,0.007056963107394522,0.004167230586406951,0.0023765456580014635,-0.004709789404107409,0.0026232312134842482
409,0.012515607205061023,0.01006953049802602,0.010101517633717368,-0.002327434222862693,0.008525133107723256
410,0.015910699731231413,0.013086783704142416,0.015599803857952012,0.0004066258661371797,0.011257741739150605
411,0.019767031493394663,0.016157264390658153,0.021601541225443277,0.00414232566774464,0.014669686912346875
412,0.024893242780468547,0.021298705039650454,0.028613773027608994,0.007879998057305186,0.021434533245038866
413,0.026013945169480187,0.023256791023984112,0.030559121681807206,0.007969876258205352,0.025549936558937406
414,0.02088998096114576,0.01858586211577697,0.024803148903597538,0.0038395050902208573,0.022781240981891247
415,0.012633582137239197,0.00957321338140298,0.014494169566205778,-0.0017615088542921444,0.015117374112508441
416,0.0047373476445691075,2.192779745417584e-05,0.0037118229098475728,-0.006557776174547434,0.006075027330861237
417,-0.0009145507923161517,-0.008055969417052507,-0.005047052945287348,-0.009236484374668986,-0.0020042209508070903
418,-0.001292092516760923,-0.011483845453509205,-0.007979344575374577,-0.007323093445573027,-0.004738364096502906
419,0.002973484678298785,-0.010044099693787566,-0.005036086340878375,-0.0012046210977778127,-0.001553437621685682
420,0.007710370686361522,-0.006846397013731662,-0.00022571965385181862,0.005395650830645311,0.0037990782656027668
421,0.012434155704589943,-0.0022095789379225593,0.0064587099439732095,0.01120924305479971,0.010844723248692421
422,0.017575970246976776,0.0033772093902882305,0.015301397535917211,0.01611799463827822,0.01858481917038871
423,0.01936525293330132,0.005311226552912862,0.020587315473114674,0.017508353394438295,0.020943581699939783
424,0.015222810182311697,0.0009375311871308123,0.017897865009996284,0.014239962915849131,0.014417199882019522
425,0.008795684818944934,-0.005839189299940712,0.010953825733251264,0.009594916230922816,0.0036262406986178556
426,0.003514765111759752,-0.011831151319589166,0.003934567858248622,0.006296548143254312,-0.006752741119795859
427,-0.0009174320735690537,-0.017601524279774343,-0.002707574052935793,0.004339158869851881,-0.01604961307084599
428,-0.00424165856229283,-0.022615135452106853,-0.00736288042894032,0.0037983069190811037,-0.022892778972340922
429,-0.004262294328635599,-0.024156618193977766,-0.0071226167385731445,0.005588747807921722,-0.02408560020711986
430,-0.0009892208247448367,-0.021692293356196886,-0.0029963075583279855,0.009007245620322532,-0.01963650433695633
431,0.0032959324748432304,-0.017412119857775785,0.001541762389436588,0.01204279981714717,-0.013012646170702653
432,0.00620739555807926,-0.01394579184585716,0.0038084966621903782,0.012876139774605931,-0.0077445613033943015
433,0.006277255065518546,-0.01246059429218302,0.002777979490075261,0.01036288515780747,-0.005425299190852148
434,0.005383495946874286,-0.010803673363125986,0.0012128378736809152,0.006091564851751704,-0.004007836726002876
435,0.004398912976797986,-0.009177703849587519,-8.391289365989465e-05,0.001960368708310412,-0.0037066596118504984
436,0.0011692347676608497,-0.010906688244760512,-0.004331329180994733,-0.00239991775403217,-0.007602680586099145
437,-0.003573315716950708,-0.015025568302888344,-0.011164664034654081,-0.006652846255431836,-0.013810824482882032
438,-0.0062718800713384044,-0.01759070207115437,-0.01600039578195674,-0.008508938368840946,-0.017522063570145217
439,-0.004008145530670928,-0.015554746478320395,-0.014291437933741777,-0.006011049632285507,-0.015488899664773672
440,0.0034280796608879764,-0.007782488584017694,-0.005233383076213763,8.986614992712626e-06,-0.007109540488371976
441,0.011322313671528032,0.00163123206893497,0.005196785764804386,0.005350999335794768,0.0026789462911039645
442,0.01445886565946621,0.006789967722295634,0.010159594210657746,0.0068201359159088815,0.007906505322218116
443,0.014396647709925386,0.00874140443430423,0.011109512259348735,0.006163146852281307,0.010011738292896253
444,0.013885272445498701,0.009754810474569563,0.011015161102708419,0.004816597918090209,0.01106700019181949
445,0.0099634964095019,0.005474624076660984,0.006208232202804404,0.001473940578802841,0.006204507413815011
446,0.0010654914076004553,-0.005850884438332137,-0.004738068967253972,-0.0028342641086026763,-0.006179330754290432
447,-0.007701826132793549,-0.01693538857997009,-0.01532432666756376,-0.0048520947741250145,-0.017952773218307846
448,-0.011352115805102547,-0.020969111313371043,-0.019725334510045017,-0.003517856587963468,-0.021955310554688162
449,-0.010861721035316482,-0.019393946426108602,-0.019365727133245515,-0.001255023714625501,-0.020364701011930435
450,-0.007812116061654038,-0.01499489043865693,-0.01643601476397355,0.0006944452616655163,-0.01673537135209407
451,-0.0029063768248292774,-0.008820327417918345,-0.011438258939669092,0.003007841767821034,-0.012257319677695635
452,0.0006668665277113903,-0.0038896558101123987,-0.007625290011074691,0.004545188046205102,-0.009835868031133522
453,0.0022571642879474353,-0.0006388301273783151,-0.0061152555054442455,0.004744763399564301,-0.009499886334336571
454,0.0030662437120812084,0.0021157878264546604,-0.005168660953116487,0.004302298566134368,-0.00939050957739729
455,0.0009387233731828393,0.0016639690478304266,-0.006491528241944287,0.0023210085015726977,-0.011904403220075832
456,-0.003115594798261942,-0.0011806138136918934,-0.009512661470026856,-0.0006338231854468685,-0.016142307319212897
457,-0.0033227068173916335,0.00018949203499584195,-0.00817889681430873,-0.0014324530239503473,-0.014886503616290646
458,-0.0003733555908101023,0.005331027607642789,-0.002928874668885261,-0.0006200123104456781,-0.008424030453463835
459,0.0007137156234228446,0.008641883751882063,0.0004490267359890434,-0.0010006728115407476,-0.003239605531003709
460,0.0010352634610603822,0.01110477360500807,0.0028327498855638066,-0.0016543185491375368,0.0013738142320329717
461,0.0012086099530611177,0.013057264825337322,0.004941146639024662,-0.0027175392617287326,0.0057429053104649744
462,-0.0012305691376234666,0.011487464822874343,0.0037208706842408196,-0.00602281878336243,0.006053528219912827
463,-0.004257130086719823,0.008463374352154747,0.0006892414728583705,-0.009522818052461282,0.003936832758782003
464,-0.004763244306693415,0.007359451563767638,-0.0010639690619740224,-0.010850538744580595,0.0029842597630943845
465,-0.004045682036354052,0.0066691753696321585,-0.002305216839335219,-0.011164078449351139,0.0018253236446099791
466,-0.005473420655681762,0.0026618281892788528,-0.005478762406007018,-0.01276053298971947,-0.002943968771807965
467,-0.009085612863395985,-0.004210282734745306,-0.010188330360459604,-0.015891672290616315,-0.01023366778619901
468,-0.01205598881397771,-0.010058898078275393,-0.013777736589795558,-0.019006947583463312,-0.015586386430181723
469,-0.01240349670986595,-0.012444073193864529,-0.013941922468844962,-0.019990909907820223,-0.01636284486798741
470,-0.008975534336334795,-0.01032811559285829,-0.008775315529654168,-0.016809664392564604,-0.012080923819685781
471,-0.0033591589555324263,-0.0057891141726716675,-0.0005007952230641248,-0.010626555911630527,-0.005891564504641493
472,5.0615086000045216e-05,-0.003729934670765355,0.004726935820906152,-0.0053429246083099985,-0.003265459453810957
473,0.000875194283700349,-0.00398259283652376,0.00614338412689608,-0.0018490096152874024,-0.003587550087317958
474,0.0007760649680121512,-0.004170708355689296,0.006051504033687563,0.0008225167844373266,-0.003882655546159024
475,-0.0008019985942918218,-0.005384290549989021,0.0037156623773870246,0.0023975525695255954,-0.00496275023114076
476,-0.002384527475130502,-0.006661164107568078,0.00036573922719770305,0.0036502490736247677,-0.006069785872262318
477,-0.002294521704734407,-0.0060325972990186655,-0.0014451667594233184,0.005300837401795556,-0.005721253727173394
478,-0.002670724405371926,-0.0059696158558043035,-0.0032852590705531484,0.006021699046247348,-0.006481290989404843
479,-0.004792682816150033,-0.008512444112234953,-0.007040027178568445,0.005531530541895304,-0.010272407601818977
480,-0.005452554424396476,-0.010047227512902867,-0.009244360307668412,0.006050197618539564,-0.012853478200098035
481,-0.0046097896966248155,-0.00946416970119986,-0.008795198593044826,0.007168503355688784,-0.012618373949638878
482,-0.006823913184107951,-0.011164245516517502,-0.01037794531638876,0.006005803353390924,-0.014735233176448486
483,-0.010871284504794736,-0.01455468095968898,-0.013452906441784694,0.003808235253205331,-0.01907320622051448
484,-0.010922119643450683,-0.013960267067488288,-0.012122515214519848,0.004030604017377992,-0.018891828457040703
485,-0.006752673948176935,-0.008652896582549195,-0.006243024685181714,0.005941481548227353,-0.012588257588780878
486,-0.0031312779655111845,-0.003239317776974488,-0.001631158292320394,0.005988044555372191,-0.005570127019429616
487,-0.0028625852890745607,-0.0007206667015138743,-0.001647428368878186,0.0025989753888303107,-0.0018988489249804402
488,-0.005119685585022853,-0.00039815379762959973,-0.004597719673200149,-0.0027478071290465643,-0.0005825769438155706
489,-0.0075508540425801,-0.0006517508277401892,-0.0069869636387426175,-0.007067958751768993,0.0003938292633779117
490,-0.009258164040741028,-0.001393854375990427,-0.007875558971686123,-0.009438436624738361,0.0005512009801848383
491,-0.010942611417679146,-0.0028995666949755833,-0.00907706378358509,-0.01158419106244751,-0.0007220654668487482
492,-0.012208488820747949,-0.0041608788643799875,-0.01132624749460746,-0.013598785116129412,-0.002209038709912158
493,-0.01163501279228262,-0.003719271890049969,-0.012985643497930384,-0.013461577159519041,-0.0021830702955694184
494,-0.007536148877953517,0.0008722463873762065,-0.010820208374867957,-0.009885323478819917,0.002264239771439423
495,-0.001986266491984227,0.007993620058042975,-0.0061603643979462695,-0.005090387521517257,0.009254080700424695
496,-0.0005307425322176842,0.011498916214677336,-0.005158502297670475,-0.0030669578622668434,0.01167632974764018
497,-0.0033989701394651086,0.011079505668864132,-0.00878227340112092,-0.004289370003383018,0.009403484103497063
498,-0.0071673785761108425,0.00998322157533452,-0.013845336478107616,-0.006666021872385395,0.006654471089816952
499,-0.009241954899601397,0.009903675262966805,-0.017061491985904464,-0.007288119150727495,0.0053722496719927244
500,-0.008618220876431016,0.010975508354391643,-0.016850757985590253,-0.004386471779270186,0.005468791416030954
501,-0.009249949667087599,0.008861602253554984,-0.017725861515886437,-0.0008733673760612302,0.002331020085847373
502,-0.01448112808315802,0.0010148990936514582,-0.023540026525758463,7.05677232351071e-05,-0.006519595765012238
503,-0.02077369555435822,-0.007486836458418957,-0.03058740841493424,-0.00047698228120771763,-0.01515901175418689
504,-0.023246698760426177,-0.010803255771510369,-0.03348608364793287,-0.0002885409669842607,-0.0171420987782268
505,-0.020596718385290286,-0.007648885540332388,-0.03060321981687592,0.0010755681529230512,-0.011563940036475226
506,-0.015093476997843398,-0.0011437443690704464,-0.024669566000358505,0.002446954838997136,-0.002423629909440003
507,-0.010838334753331298,0.0036137257287512043,-0.020424089542335332,0.002592015899693485,0.004194368926409357
508,-0.008498010409250228,0.005797940459702374,-0.01848645651795595,0.0022389638982998486,0.007124170159419142
509,-0.005982202315484756,0.0077623432705627195,-0.01651403611863724,0.002312834727252563,0.009210065252005647
510,-0.00477647109239286,0.007715840854529275,-0.016156313558324132,0.001218645676214758,0.008883897377191531
511,-0.005183875107938445,0.005583326008387301,-0.01720325063770446,-0.0011234252965651665,0.006247479912291622
512,-0.004528473443757762,0.005286986507231159,-0.015739314993278044,-0.002889684336140809,0.005939831370458503
513,-0.004322582330528489,0.00578508506750465,-0.013560578111839448,-0.004915129187602071,0.006835411818502818
514,-0.006188251890226337,0.004608162293908235,-0.014064469364006092,-0.007961230486312476,0.005696694623595559
515,-0.0061172634052817036,0.004790779800401947,-0.013891065557717583,-0.009601510719966165,0.006104955209581232
516,-0.0006479158139856576,0.010179331049695605,-0.00833350559197259,-0.008099934877007654,0.013072673662294948
517,0.007067407717704759,0.018554746846593206,0.0005919531010782136,-0.00506718259257178,0.02423186060762804
518,0.012277945044443793,0.024489753883447145,0.007511319088337407,-0.0025724925121292028,0.03277047548414048
519,0.013931238447875492,0.025907369850274017,0.009865421271368342,-0.0015522683336670407,0.03516808218860091
520,0.01224905517923945,0.02292049553229299,0.00719214393421357,-0.0024443115755763147,0.031177209355632358
521,0.0077496230893401305,0.01625679315593589,0.0009123212723804616,-0.004383401480816903,0.022527385195287207
522,0.0026760559423231658,0.009138910719399821,-0.004987781041635932,-0.005470941772373359,0.013935366375262362
523,-0.0011300860571302356,0.004508883910154049,-0.007960286565449694,-0.00538994703665184,0.008909068820037096
524,-0.004760783411370638,0.001076183721743967,-0.010145926780900608,-0.005774941464657434,0.005463589808028773
525,-0.00972447599663659,-0.003747447634759213,-0.01458044282404578,-0.007440120282958883,0.00038157871469244193
526,-0.013700498254182387,-0.007910328815910698,-0.0186773513423388,-0.008629303365494697,-0.0037594084279891247
527,-0.013656439828948328,-0.007525003769325158,-0.01762147347675968,-0.007445352101532471,-0.0023270431124139605
528,-0.010042614759065625,-0.002675273434362013,-0.011071676934648084,-0.00406954508337962,0.0043989922147473345
529,-0.0038427230679216216,0.004932501596755061,-0.0008040228273933797,0.0008609759256848077,0.014194035129041199
530,0.004312211397566179,0.014015755428794996,0.011172698446687732,0.006116699132129693,0.02555716157234165
531,0.013160979468289246,0.023428715378660377,0.022903512924040418,0.010230060894084196,0.0373299172943217
532,0.0184385234115952,0.028678074165641155,0.029965897079280192,0.011502331688478076,0.04463684433651705
533,0.014628222685266399,0.023633298861939808,0.026482369529296574,0.007440472010131541,0.04064672285064018
534,0.005130708970681997,0.01241369672808992,0.016135365301869754,-0.00015158287643769603,0.029102511910951197
535,-0.0008511666252306735,0.005427139417594984,0.00905996747317595,-0.005725192100646444,0.02058331965659875
536,-1.4487865904085307e-05,0.006085789300457902,0.00922800761312915,-0.007053975219480465,0.0196083963670117
537,0.004255587902634248,0.010498908069006075,0.013247737205056578,-0.006210956327610463,0.02331224148877889
538,0.006495749372009347,0.012906148402323172,0.015002259240168899,-0.006613234452118087,0.025625975639670506
539,0.004322694880029553,0.010744889409894156,0.011855070231287953,-0.008938615090093933,0.023173694705023267
540,0.000801441015840395,0.006782359271236957,0.007622943385841161,-0.010046022010648916,0.01857132988324805
541,-0.0008585640977560667,0.004263658479016745,0.006363096200343993,-0.008400329247979028,0.01568664977955998
542,-0.001781450686268701,0.0019668185209606626,0.006571513688493154,-0.006223251517955806,0.013779818352939292
543,-0.004745488526299449,-0.003186279110683959,0.0043414650979910355,-0.005838329657696763,0.009378341267132996
544,-0.010779588153082274,-0.011793496091225496,-0.0017584322862518992,-0.007890673995778495,0.0010323649073095708
545,-0.018283485079577656,-0.021071416431162046,-0.009816509328411101,-0.01171921957245405,-0.00878279911952018
546,-0.02513448179728563,-0.028424893153824547,-0.017357412188199382,-0.015997408083654185,-0.017104123323099765
547,-0.028754457365577527,-0.032030716125493554,-0.021563711225444603,-0.018655341420161488,-0.021815421113713748
548,-0.02769625713837588,-0.03069913649391624,-0.020897715793469687,-0.018816016200622225,-0.021792828059212545
549,-0.024261601404662127,-0.02618296552624774,-0.017650272808060228,-0.01807132789893374,-0.018874025724985997
550,-0.02046440552338289,-0.02062276865791687,-0.013628765578243883,-0.017500585044525088,-0.014985541800273275
551,-0.016455470139088886,-0.014996574757259655,-0.008996275164588003,-0.016888982432529058,-0.010630226355623967
552,-0.012842232488186275,-0.010284341335075267,-0.004986381492794138,-0.016100888413363577,-0.006485955515881489
553,-0.008537519283901078,-0.004663871258873204,-0.00027037931796698126,-0.01419605702157682,-0.000872023342008024
554,-0.0018121544973955777,0.004300602714420962,0.007774776119954486,-0.01061194570887037,0.008062146103423564
555,0.004673683589608488,0.0130460213740014,0.016038296896523724,-0.007315731729752671,0.016240220728108993
556,0.0072099185473334495,0.01666442180471729,0.019964693956552287,-0.005713924930559294,0.018937651246441367
557,0.005225751585390844,0.014590238435920104,0.018371263651403742,-0.005627886839619429,0.015764972339448634
558,0.0008856463703025867,0.00989128693426241,0.01328742373949702,-0.006799680549497612,0.010080153944546956
559,-0.004234632022872767,0.004574882363989015,0.007222241358058611,-0.008723331829568103,0.004426406332566118
560,-0.00969997777349035,-0.0014970356611779063,0.0013193867276567383,-0.010300542452536894,-0.001347291826710556
561,-0.01456426491593351,-0.007832928179484984,-0.0039044706545975374,-0.01111527778026413,-0.007227392998457813
562,-0.016707281521538348,-0.012190720288350942,-0.007085669650287054,-0.011033550444402834,-0.011680291821822146
563,-0.014781173389600185,-0.012881960713253912,-0.0069994972335956,-0.009576633733736663,-0.013241740179259973
564,-0.01200900242328678,-0.012755107549892715,-0.006416819836177381,-0.007892195578123505,-0.014222858184680939
565,-0.01083938345893901,-0.013700104345896271,-0.00680740518102173,-0.006414391557291478,-0.015803179006670838
566,-0.010259024453737867,-0.014360122396093678,-0.006513387768857994,-0.004299916019288899,-0.016191674212168057
567,-0.009439577070903581,-0.01400809130630977,-0.005248879857071269,-0.0018059573228120483,-0.01464463767657039
568,-0.007459150740077097,-0.01214970504929845,-0.0027346527979709365,0.0009637847036713207,-0.010811066395023298
569,-0.004270933769040882,-0.009371230979959939,0.0006893640454964778,0.004027431524936802,-0.005632988640185379
570,-0.003985722645001369,-0.010296074372053165,0.00014869849517477562,0.005266929951918457,-0.00463769019327687
571,-0.008840053054622576,-0.016988084647649324,-0.006493835468281661,0.003963750543155931,-0.010502410229836466
572,-0.013195379336078313,-0.022696210887977308,-0.012345758331385341,0.0035686181249300133,-0.015923236029375502
573,-0.012362006626990265,-0.02167715916383959,-0.01210250264953517,0.005993416116087329,-0.014493246806011793
574,-0.010603030738347502,-0.01868547364333077,-0.010551781397206675,0.008007300006772133,-0.01126802652067314
575,-0.013332386313462634,-0.02024777794851363,-0.013599288492815949,0.006599243546863771,-0.01339582955349516
576,-0.016780802132574622,-0.022462710196930517,-0.016888310397237143,0.0047187539373509235,-0.016891580110343404
577,-0.015646752035941743,-0.01985147886723713,-0.01473744073521177,0.0058725017001228196,-0.015405259360323015
578,-0.012703159039267917,-0.015709328812880258,-0.010815784281816728,0.007948376795427007,-0.011606627279862336
579,-0.012594764634606686,-0.015091411949971524,-0.010797548761266696,0.00760506616768037,-0.011096149976927486
580,-0.014490816965415744,-0.017098158082749917,-0.013760571202575386,0.005531382733498462,-0.013519455896340092
581,-0.016557689748788212,-0.019257492205264105,-0.016991099577696872,0.0035094439804506266,-0.016453407783665296
582,-0.01971841357936243,-0.021997278334106463,-0.02112047359089008,0.0014435954155690538,-0.020738116276157074
583,-0.023186291279741686,-0.02454072387586176,-0.025425116830367776,9.667104010267359e-05,-0.025353006124398243
584,-0.02435431638299932,-0.02446698163523571,-0.02693866504850743,0.0011783428586573997,-0.026746541471590675
585,-0.02162698980571014,-0.0204963854572982,-0.023662483739803567,0.005218710188908279,-0.02322006179402625
586,-0.015378611661461967,-0.013331995167430792,-0.015939715390566354,0.01111085645254205,-0.015962008168568697
587,-0.009187598459060281,-0.0066392259154680455,-0.00778897345280171,0.0164100942948854,-0.009148623456340594
588,-0.006806408342046618,-0.003987096129590312,-0.003647009509042772,0.01949642186505193,-0.00651521187484388
589,-0.008798922701818375,-0.005640421017462728,-0.004631681790384058,0.020130335546917268,-0.008411857672267603
590,-0.01271845358649806,-0.008569586795632404,-0.008275670029176351,0.01875251158868659,-0.011486529582044935
591,-0.01485870464693748,-0.008619215397263298,-0.010412049770273367,0.016630715254627847,-0.010601595531565814
592,-0.014748210947181492,-0.00616874680496532,-0.010486337941741196,0.014719223106956881,-0.006368294913131982
593,-0.013084339531047425,-0.0030712366951167187,-0.009202589948942597,0.014295485362886622,-0.0021971999424691127
594,-0.009218986691570412,0.0010706733164168164,-0.005876289879455044,0.01588739223209173,0.0019274680684180326
595,-0.005096702486153644,0.004775366257821636,-0.002825997680185508,0.017065686444094615,0.005162260561682921
596,-0.002519843369820959,0.007148546695753009,-0.0017026036284497814,0.01644858326436079,0.006969429812992291
597,0.0006168739386047066,0.010702279430904897,0.0008221708681091112,0.01628494918633185,0.010304515951249425
598,0.004409693876857384,0.015082386439642622,0.005598577184411325,0.017392613098948094,0.014896470878474836
599,0.004929242306783072,0.015637882664045356,0.007904776715474975,0.017905042657603475,0.01530149257833932
600,0.0018655511993531711,0.01161504504150544,0.006060123545137845,0.01761482881295609,0.010264308621126638
601,-0.0016906578155750768,0.006178581933250055,0.002421085955117673,0.017205821524469457,0.003146739031710073
602,-0.00396167336959263,0.0021357936984993577,-0.0005898110682907715,0.016549479070231677,-0.0026193448523233382
603,-0.0033095067259180117,0.002561418634607275,0.0001557079186822943,0.016080839409377573,-0.0030610740701367866
604,-0.0013452945014329242,0.00541664255748498,0.003449733626744379,0.015227250476618218,-0.00011891185851718281
605,-0.003229598043248421,0.003830208218622825,0.0034475270197398666,0.012402718917273077,-0.0014571724648221808
606,-0.008289607886569877,-0.0015816311060034712,0.0007272176718842753,0.009160265337648514,-0.006968631308875859
607,-0.011241051080159126,-0.004416832052625995,0.0005860855848742888,0.007719200471223154,-0.010152108464044804
608,-0.011921620365330829,-0.004249024736518975,0.002124713954115103,0.0062049366628128145,-0.010231602613712218
609,-0.013170252091142585,-0.00478430174324459,0.0015154261334965704,0.0025339684404154287,-0.010544748163074354
610,-0.014616151797225639,-0.006439540196020024,-0.000641187132814973,-0.0021507957384029218,-0.011418946326502893
611,-0.014054141590137967,-0.006949356784325536,-0.001655936952267884,-0.0060462157735422,-0.011053695477983036
612,-0.011187978984738885,-0.005818700922402823,-0.0011558924966997672,-0.008482684220781488,-0.009445886697664004
613,-0.005953900833291446,-0.0021966727850200618,0.0015357122304953256,-0.008949163221523358,-0.005754654486600275
614,0.0009931624944234721,0.004200854766610429,0.00686161417017878,-0.007889702441744447,0.0005415601737610184
615,0.005638344996616115,0.009079027054726681,0.01081050915533362,-0.0075848786121813895,0.005647092301679289
616,0.006056401260585564,0.009954873943165903,0.010418947762356334,-0.009039802565329026,0.0073983754567725005
617,0.0020290988339430587,0.006245432045322621,0.004999514772900007,-0.012192769950752956,0.004566301561658822
618,-0.006690046327891259,-0.0025253611293159406,-0.005301019320197806,-0.017134465861736555,-0.003929410807913688
619,-0.016051057770336618,-0.012000057261310424,-0.015885367168420966,-0.022148243277160945,-0.01342273503557969
620,-0.02279062345039962,-0.01852843789729678,-0.022872410708261397,-0.02551423272395851,-0.019888177005957436
621,-0.028164140278244973,-0.02323536288635327,-0.02710819840887105,-0.027489872374881846,-0.024317287300359137
622,-0.03066238881091049,-0.024259685905241385,-0.027303624335560158,-0.027477430135892083,-0.024643098891343952
623,-0.02753421772293998,-0.01876344088633894,-0.02150127657236697,-0.024447850412211827,-0.01812268311957123
624,-0.021393789461090957,-0.01070004738459371,-0.013920012739679155,-0.020091904528341184,-0.009343413218477937
625,-0.016190048972909606,-0.005198317174579216,-0.009417234009938219,-0.01680932000285407,-0.003735878830736127
626,-0.01342503996462427,-0.003016527038838685,-0.008052198309477617,-0.01510673419251276,-0.001586926335255457
627,-0.013047704490149848,-0.002977970258536006,-0.008240140727302999,-0.014333256586715077,-0.001296823579313293
628,-0.014718980361521099,-0.00504688410945929,-0.010238108673220758,-0.014214295620327283,-0.0031588416270541446
629,-0.017802726342698114,-0.00947314975226646,-0.014357072129832903,-0.0147956104010747,-0.00799903392546891
630,-0.019347788275243433,-0.013112176666936867,-0.017205972353094096,-0.014796005965756557,-0.012580801080555369
631,-0.017514012593746197,-0.013281489410960556,-0.016332335555710627,-0.01309805475905381,-0.013923813616096766
632,-0.014881734623381895,-0.012297752154748884,-0.01444481495548585,-0.011146652731626757,-0.014322008740053334
633,-0.01113812847956594,-0.009520645236656229,-0.010965146938032718,-0.008998440247969338,-0.012695288870572754
634,-0.004531818377928397,-0.0026084537692152264,-0.0035252981968036876,-0.00550633620375567,-0.006566978370377437
635,0.0005570972504561001,0.003960751760667351,0.0029969781545441474,-0.003315007960851612,-0.0012040654387555807
636,0.0016977212574287477,0.0072230625352777775,0.005267620451127126,-0.004370578716003256,0.00023745453171634373
637,0.002524884814263765,0.00959663652705998,0.007058021430970679,-0.005585850838330905,0.0008439901564951234
638,0.002738706885573541,0.009752039225522112,0.00833996172902171,-0.005528628741042933,-0.00044083980392311926
639,-0.0007175986662139644,0.005327777701760242,0.005456028403201017,-0.00637822644482167,-0.006075939712147828
640,-0.005956047907351187,-0.001042720787474053,-0.0003357489911480189,-0.00813585981433407,-0.01330131387753134
641,-0.008236477622427235,-0.004630417489172619,-0.004089419390528894,-0.008210294625333792,-0.01701146957747354
642,-0.0054599196242416164,-0.0029520558637446954,-0.002810103802279825,-0.005363132950187976,-0.014725605311194231
643,-0.0010855931642852904,0.0006250012450524026,0.0007681162219174688,-0.0017592823214997093,-0.010487457958220467
644,0.0006692044914684365,0.0015333943904567954,0.0025700432154607752,-0.00013912372228727567,-0.009320865684093588
645,-0.0021326792701180162,-0.002221318417495815,-0.0003025675252491784,-0.002379238694081605,-0.013478048571158984
646,-0.007746839178656341,-0.008580420988545643,-0.007266878319162517,-0.007726439661725365,-0.021115916119290992
647,-0.011864474488099455,-0.013001136523473083,-0.013404357981283033,-0.012666132609562881,-0.027515099579553975
648,-0.013684421010720392,-0.0153688293159837,-0.016679925282908025,-0.015267321062427043,-0.03211830869190754
649,-0.013715936017831212,-0.016355362588990893,-0.01687358889685667,-0.015345810587801609,-0.034784280345357486
650,-0.01226986300380092,-0.015323155178551628,-0.01403827593513328,-0.014182087439097811,-0.034111943700165556
651,-0.01085133612226292,-0.013498347489302067,-0.010355787409147367,-0.013245234333612658,-0.03126373777675787
652,-0.008972470237062253,-0.010367331914865916,-0.0062500566447349,-0.0115844514517643,-0.026192387848567505
653,-0.005799764387536187,-0.005147332604442938,-0.001547297814416858,-0.008592931265774786,-0.018546320486888573
654,-0.003286306780930779,-0.0006306684957741943,0.0014617919320210522,-0.005982952507754942,-0.01152022419786635
655,-0.0039016443534119856,4.0850261388095213e-05,0.0005139446161606681,-0.0056012283775326134,-0.009009024493724632
656,-0.00912367955376234,-0.005053759655931924,-0.00590755596694617,-0.008362323333793819,-0.013543091455172534
657,-0.017554175436874615,-0.014916304967775493,-0.016547321253665967,-0.013401579822098365,-0.024011800513482947
658,-0.02426821241155327,-0.023944643650523446,-0.025708471947666584,-0.017943398529075286,-0.03397392517481364
659,-0.025945774697013164,-0.027286426896918528,-0.028968446401068746,-0.02016854589626909,-0.037583821378297695
660,-0.024196626398340516,-0.02609594842914037,-0.027746277112812724,-0.020279995064687813,-0.03606441927741074
661,-0.020945409779296834,-0.022951548022802713,-0.024366214143220565,-0.018239866035099053,-0.032896713038691676
662,-0.015218686689778655,-0.0170593207379313,-0.018243433906139007,-0.01414378940325666,-0.02732269251310364
663,-0.00795789814920466,-0.009618945903634648,-0.011207008688672492,-0.0100568616666993,-0.01970248391327069
664,-0.002174430255476807,-0.00422291693455195,-0.0068095074488714056,-0.007714509673809795,-0.013114188772759924
665,0.0017629312134578876,-0.0011010615353143412,-0.004819692415047315,-0.006528945292673665,-0.008020526457617728
666,0.004675798383842746,0.0012515077183101614,-0.0038978041841339107,-0.005607443875678091,-0.003860823939078618
667,0.006415982006687724,0.002911663125728861,-0.004102208516176411,-0.004722073645708373,-0.0012917834982458518
668,0.007896231307656714,0.00475557102010654,-0.0037785870838258034,-0.0032743383362824094,0.000770747480251093
669,0.010245393530072597,0.008290289436962086,-0.0009076611233179638,-0.0010288353972032125,0.004269323919285645
670,0.012476778396610867,0.012313825917296895,0.0033505196441183144,0.001330300769666154,0.008075542044366855
671,0.014069875320983846,0.01541169807599568,0.0075313923819753,0.0036834539989453632,0.010504247116906645
672,0.014811578739502052,0.017061780197058677,0.01019946458536902,0.005579535604520615,0.010568940895546785
673,0.013099736076330866,0.015857680158117792,0.008917204715154505,0.005795691620728571,0.006642730459684375
674,0.009564482882863363,0.012495535629158982,0.00468036747098258,0.005150454723550571,1.204842024497278e-07
675,0.007921748286948081,0.010629950739750203,0.0025302929809439384,0.0062505137809142144,-0.00451242961992243
676,0.010618726373751212,0.012998351199869345,0.0055017952920508205,0.010137678542452478,-0.0032775299253785155
677,0.014946382089045968,0.017203846715650728,0.010110180391725895,0.014259291193521326,0.0009418466519358652
678,0.015556048746539035,0.017605023258658394,0.010429383429279642,0.015012110917564226,0.0013659250132990225
679,0.013340646291536161,0.015065621959043561,0.007797678706683612,0.0132910418276006,-0.001172872808959604
680,0.013632553024856707,0.015193016959712707,0.00795607581569013,0.012745854267260503,-0.00027000640131256704
681,0.01715269058299921,0.018528079714733064,0.011403640842776692,0.014302097689027526,0.004371503174316401
682,0.021330291843278122,0.02233449738515431,0.015477912674788078,0.016905338218768117,0.009185330221982025
683,0.024047797422983384,0.02473403692089874,0.01822670058172135,0.019011814010909824,0.012117087841181314
684,0.024816803164576448,0.025482698116689004,0.01916491791783749,0.01940124888810176,0.01306385606695666
685,0.023426690588652172,0.023951099628882113,0.017657322774495818,0.017575245130298775,0.011550815630982713
686,0.019050883183018254,0.018842219315537326,0.012719527872354482,0.013745322498949853,0.006571622528894212
687,0.014306198381175762,0.013183871830237347,0.0076027604996131495,0.01004985788748834,0.0013665649473488981
688,0.011878216974785168,0.010222805411813002,0.005135322731309007,0.0075291239876201805,-0.0009308350216118727
689,0.00900588651642886,0.0069785293990263534,0.0018001665882863894,0.004267902387358086,-0.0035961510953120626
690,0.004806711436804655,0.0018934618863269117,-0.0034851529629571646,0.0007630958044139417,-0.008082822374239308
691,0.0032289832053791364,-0.001078677797058694,-0.005767296224986086,-4.4091692045232144e-05,-0.010267402578000821
692,0.0054189003221209705,-0.00025834862742053896,-0.0031036172004569613,0.0017179897714268981,-0.008846184228597648
693,0.009905164365737537,0.0030618384613019275,0.0026227542980564802,0.004333418577274836,-0.005316505030583745
694,0.01542609721093237,0.007868485495590985,0.009477058264923902,0.007217760155728181,-0.0004512411693499238
695,0.01990045693797287,0.012178707847185081,0.015051820502300582,0.009887509545135693,0.0038013414322489053
696,0.021296741306417975,0.013531817602161824,0.017117720205862382,0.011609359908767032,0.004745942176592077
697,0.02021644607241522,0.012459483160042042,0.01682151186925223,0.012973026676283693,0.0030675575643893966
698,0.01972851308547384,0.011986730321253327,0.017925943825886904,0.015264767569715195,0.002284618587098836
699,0.02032212258786228,0.011820935522661363,0.019991785960202565,0.01713737028570401,0.0020654599717867877
700,0.02053507704240888,0.010338595794487565,0.02022348194397311,0.01697482335328315,0.0003903133570357809
701,0.020454150949760636,0.008732940316299887,0.01917095749398562,0.016174371392615853,-0.001864895758735835
702,0.020157954891469054,0.007874764253116381,0.018404983345232002,0.0167020727533906,-0.0040111270226968684
703,0.019218690988661042,0.006942385259087322,0.017895809538604444,0.018596808448709867,-0.006458239859107187
704,0.01700424600312824,0.0043637805673031,0.016258542841064486,0.020196706230738153,-0.01021142246749326
705,0.014293344960483803,0.000912961670301074,0.014125343783861263,0.020762111901899562,-0.014221235676417513
706,0.012986490972281365,-0.00045352005900810874,0.01393666046167784,0.02073462830708642,-0.01542265235977874
707,0.013650218478537875,0.00110881395225142,0.016486293725796883,0.02030237286057772,-0.012973698795822448
708,0.014137813825468226,0.0019160004346831566,0.018950433630307375,0.018804894085808686,-0.010694355197614084
709,0.012184730601863708,-0.0013968689781151244,0.017948513470993025,0.015577492829015273,-0.012532789879385347
710,0.010549207126398993,-0.0042863671324197385,0.016667722240497215,0.012669265772811166,-0.014248242612507456
711,0.009862898851886098,-0.004971220828671158,0.016410332115792285,0.010929875173471234,-0.01402744446633885
712,0.005323475297481256,-0.00999211250128343,0.011400478005519271,0.007751304890338075,-0.018599905354571268
713,-0.0015504946379580576,-0.018216060548425828,0.0030835684097895036,0.0033698382903147722,-0.026728111958578913
714,-0.004543318604841229,-0.021936961053074615,-0.0012465461053445378,0.0004450698559919972,-0.030206346978380434
715,-0.003816761057574006,-0.020915438128576984,-0.0017874151130701447,-0.0012108744419825907,-0.028368501584594422
716,-0.002219622025104612,-0.018916114178826736,-0.00170007422200155,-0.002147418972755497,-0.025313990504381597
717,-0.0006486705905616206,-0.01795466411674272,-0.0016242804967337226,-0.0015336966024044627,-0.023962931904693372
718,0.002320368975362111,-0.016235079288160502,0.0001308268342740262,0.0011570680205747156,-0.022252491891302694
719,0.010135484563623879,-0.009186825779678054,0.007270526996635172,0.006334086922807565,-0.014078931267113577
720,0.02081903742953914,0.0009438818476722714,0.017895853370675396,0.012177235915815288,-0.0014530675928387938
721,0.029565058567810047,0.008977260298185071,0.02728992867638496,0.016720166965283553,0.008963585409873793
722,0.03484881467200729,0.013631464271219746,0.03332865553134969,0.01969761323510647,0.014589986548888073
723,0.03521278598726187,0.013262896514191923,0.03302993697247711,0.019472386933822163,0.013559790655605143
724,0.030652105494912166,0.007820566123318452,0.026253062947234986,0.01563534695820864,0.006834293190967699
725,0.02566999917181447,0.002484262925244719,0.01915652663020052,0.011756809832061284,0.0009867550509244205
726,0.023674487442801137,0.0011397939381013456,0.016218139678246955,0.010341227936158636,0.00015751755615189188
727,0.02141089971141586,-0.00019593840737164035,0.013388649946752824,0.009084733072082971,-0.0006680301106275983
728,0.015413391700760556,-0.005739851446251139,0.006186954700562987,0.00567474041243196,-0.00661897625035314
729,0.00856022889295464,-0.01259935608225863,-0.0023816507355662138,0.0014011346708160915,-0.014425923809837937
730,0.00555391695303113,-0.01630858189163072,-0.007063368740615444,-0.0014943758089233884,-0.018498791263762544
731,0.007631172155780398,-0.01561511118828585,-0.005988273368396042,-0.0022217027319487727,-0.01729072231088139
732,0.01259617611821885,-0.012294333347064928,-0.0010414724297744943,-0.0015896118024192733,-0.01294545758244549
733,0.016748420976912867,-0.009926670799119998,0.003813856614148101,-0.0012235686304789622,-0.008636245932519873
734,0.01837926220278482,-0.010405395052063922,0.0063454034536331565,-0.001824927397818691,-0.005731751849887965
735,0.01775884282944173,-0.013841826437281966,0.006087519846731324,-0.0033432491663073246,-0.005019969409692536
736,0.015859366615968113,-0.01853989922829148,0.004185709935850032,-0.005148407379414993,-0.005835657688846813
737,0.01465745378068314,-0.020983289369339627,0.0036568955579266535,-0.005573671984935696,-0.005106148122497083
738,0.015006813973460171,-0.019950905653156634,0.005524043388165646,-0.004157583956134957,-0.001639099763926816
739,0.01608376288908319,-0.016848180722141882,0.008097355274749848,-0.0023262720122508916,0.003209003143624364
740,0.015506321657977844,-0.014793810567409254,0.008157327770004025,-0.0018639118101016756,0.00598839134494596
741,0.011372634227478076,-0.01628669509116735,0.004016909555399187,-0.0035857181097650194,0.003963167645698673
742,0.005215487644187787,-0.01983616250969454,-0.0017611518497773363,-0.006596153910904239,-0.0009282085628687372
743,0.0006024196688847229,-0.021765809867620778,-0.005195920998629362,-0.008999025149622008,-0.004240074248266197
744,-0.0008847989182291651,-0.02078740469125511,-0.00524933578055207,-0.010282226039729777,-0.003825871748878819
745,-0.0003558963529679242,-0.018480833233640467,-0.003381461195222899,-0.010856565305067368,-0.0009325389515146458
746,0.0005045644228286463,-0.01679393522449436,-0.0011098246837408796,-0.010321774396398052,0.0018024558967747644
747,3.933609440846268e-05,-0.01711011959170534,-0.00011310310946033102,-0.009171429437345072,0.00230981501185953
748,-0.0007038172029966871,-0.017408178927271988,0.0007524553434680678,-0.007425853503893042,0.0025254495784542605
749,0.0009730446072413546,-0.01412919497555354,0.0045996593917953495,-0.0038501171891161486,0.006025010278082133
750,0.003666528320928927,-0.009097995880349747,0.009539682793778162,9.956080005857134e-05,0.010779341317521618
751,0.00404812984166386,-0.0067422042800679,0.011237750353739126,0.0014372060717622373,0.012009741280064582
752,0.0020436105194196323,-0.0074821568574384946,0.009486087039109527,-0.00041488553947796803,0.009498044393616643
753,-0.0009087129712274902,-0.00915540200633641,0.006334257875805921,-0.0040974354961336185,0.006372153536415671
754,-0.003854656713013953,-0.009772318315384927,0.0033606875672793097,-0.007845138452522944,0.005140913881243663
755,-0.0046549489224664625,-0.007008968510153825,0.002915216171493137,-0.009755926353994245,0.007764777921808286
756,-0.002287182288720767,-0.0008560620315608794,0.006044850476915064,-0.00929776512569386,0.014017616509261286
757,0.00028143958585111743,0.004736305922866839,0.009636618148281052,-0.008246325956749683,0.020036806991699883
758,-0.00031315940115687326,0.006219490510517828,0.009843048057932706,-0.00863799579042737,0.02225785595104152
759,-0.00416195299522735,0.003655701886881048,0.006069224625480225,-0.010664943019166765,0.02057727496916291
760,-0.009424216515424253,-0.001006693961524882,5.415451239621273e-05,-0.013502489093036339,0.016453576639949674
761,-0.014445604684864794,-0.0061054616107634576,-0.005928287822681832,-0.016975201299206644,0.011128252868611155
762,-0.018093537423671452,-0.010473035393494525,-0.010151452648378908,-0.020592016031939855,0.006077052807694756
763,-0.019403319625220537,-0.013121800359568954,-0.011842833077339153,-0.022801948142682375,0.002864023183751377
764,-0.017002768675425193,-0.012355591917686067,-0.009774455730654582,-0.022042032796131254,0.0034347044708137172
765,-0.012447365112824347,-0.009480828405224153,-0.0053476292564121316,-0.019265546816652483,0.00632488525300671
766,-0.008374128213372618,-0.006796218951814455,-0.0006814677850087151,-0.016274865842566943,0.009149277746284996
767,-0.003769001377380986,-0.0025792524332142004,0.005897697490132076,-0.012476403062685118,0.01387522779786041
768,-0.0011314882935718402,0.00027272625008740986,0.011029013029294266,-0.00928207509417027,0.017209831439473574
769,-0.005480558760150649,-0.0042576065202548224,0.008072566719998005,-0.00966377868323381,0.012190999849010186
770,-0.012345329711490218,-0.011323010744839166,0.0016265359597611169,-0.010987317978854967,0.0038524084267204596
771,-0.012561089283684969,-0.010484455789037481,0.002226021271313289,-0.007842422356474319,0.003986284384972281
772,-0.006074100245211363,-0.0015968009521586885,0.010389961149403331,-0.0007743486434121315,0.013344513588925536
773,-0.0005850204036391103,0.006478210136945763,0.01764207347771105,0.004524030970099001,0.022095128310803357
774,0.0006859534750008184,0.010123135794931445,0.020009374144066474,0.00573123582399146,0.025543276290219318
775,0.0010248660477534689,0.013420815515809922,0.02092921500753254,0.005160510738594976,0.027743750214881277
776,0.0017785158595455051,0.0181347000750385,0.022572954502879262,0.0038931620185501956,0.03107235417398905
777,0.00022988922112457668,0.02022254185873578,0.02257835837012134,0.0013721361975328626,0.03212407591181399
778,-0.004603820790716051,0.01698241341631212,0.019527216217253177,-0.0015369398899277263,0.028348823496000368
779,-0.010187652443230395,0.011019640572145358,0.015513843498665657,-0.003597710948452992,0.021881351564143548
780,-0.015233964951899681,0.004257191272082717,0.01076868295107555,-0.0051840304242241975,0.014023316624420627
781,-0.018513930248418263,-0.0017105908779379002,0.0055313037208028605,-0.006126560580646161,0.006695827341783748
782,-0.017499373165842803,-0.003442728144031625,0.0034590038019714337,-0.0049621538607503325,0.004658871909108146
783,-0.01478443104893893,-0.00286826664664654,0.0036179057463965277,-0.002545228755921918,0.006667383877885491
784,-0.014655231013137041,-0.004269501822681234,0.00213442348705148,-0.0008832823591799977,0.008096271686454208
785,-0.01462911946990009,-0.0052485862467722515,0.0014995129279318684,0.0008118015762191162,0.010724802353410367
786,-0.01317367212788824,-0.004586492388008064,0.002678786488057069,0.0025382805159449213,0.01459279836694561
787,-0.013346282070163015,-0.005645255051744548,0.0017064447907083923,0.002449458498372391,0.015124422995872737
788,-0.014729147764514547,-0.007884007947987883,-0.0009256854887306953,0.0012131412153561125,0.013259589675451636
789,-0.014830993402081667,-0.008889976925953958,-0.0020444135479080116,0.000454307739694597,0.012567551198837448
790,-0.013796075769499719,-0.009150778540812872,-0.0019929095606331204,-0.0002520448522110844,0.012333140896780469
791,-0.012807493863419213,-0.009661770797268446,-0.002813821518122456,-0.001735237727125728,0.010571422827484541
792,-0.01032084531379296,-0.008016825341483597,-0.0026811066378643338,-0.0023624535441168766,0.009666568700491852
793,-0.0048768446601027355,-0.0021495047815403598,0.0010527088494188932,-9.514419667258776e-05,0.012732353557206238
794,0.0011424163791971182,0.005355844869611832,0.006278787897246502,0.004397775749929707,0.018114139511757214
795,0.005490107274421606,0.011622118209084334,0.009839915649642544,0.00898216017068678,0.022826100520516732
796,0.007333139604076408,0.014865721046393384,0.010200689213799387,0.01152796457143394,0.024599346003950626
797,0.006992663096918114,0.015026514193960372,0.00827270141666809,0.011480889720846491,0.023811138790065533
798,0.005128713204057686,0.013289610053671594,0.005826746409278089,0.009647039847851854,0.022607730804075958
799,-0.000640649105971774,0.007368368126412976,0.0005864395828186674,0.0054755366418733405,0.018293973263435855
800,-0.009380554589334133,-0.0017774462710615818,-0.007157551858681205,-0.00021572588255207181,0.010464254322536408
801,-0.01665782632683769,-0.009566229466814511,-0.013840349148677879,-0.0049202006030393975,0.0030781944993143392
802,-0.019935452933105623,-0.013339052320712332,-0.01754656091660064,-0.0069781270841283915,-0.0007391405378229347
803,-0.01657510210412682,-0.010081687121538126,-0.015037271959135418,-0.004338879545466164,0.003264285553487177
804,-0.00817101275884888,-0.00224384235631892,-0.007133318224299192,0.002463020140049012,0.013351150858517073
805,-0.0010359838415772344,0.0029255344296470367,0.0001582838892150879,0.0090150738595028,0.02168186444430833
806,0.0016337949978958146,0.0030889383687583965,0.0037133253984603233,0.012096086372008144,0.024422144131896195
807,0.0026029045225501772,0.0017796335462205181,0.005442031363694179,0.012716904643950587,0.023657480427407014
808,0.005319900195715969,0.002336188416287355,0.008044781771562256,0.013365233540490457,0.022857211872583848
809,0.008440035081796866,0.003223497678011998,0.010191089260710232,0.01397850946873414,0.021479889316537434
810,0.009151654438561502,0.0016929628759749173,0.00880488753536467,0.013066697285889555,0.017049391368732247
811,0.008898141029828449,-0.0002707168054521419,0.00529784448583619,0.011342498150931949,0.011979419663605589
812,0.01029800342862182,0.0004609370843993632,0.0034160577826213507,0.01053790116537418,0.010466185787607796
813,0.012259135436084534,0.002878978830809167,0.003459802713655159,0.010376684651333365,0.011947816650459917
814,0.012833573089502531,0.004838671648600383,0.0038189808953057744,0.009953229910169233,0.013986229740558789
815,0.01129984066662214,0.004879883377478656,0.0029003791844861102,0.008632332497937581,0.014599483357865635
816,0.007289921450714316,0.0019085434225609161,-0.0006829360972648812,0.005369850836133797,0.011639627050751684
817,0.003452726669712118,-0.001019666507799295,-0.004226862692164981,0.0014601171201904786,0.00792381774661884
818,0.003993513475403945,0.0007779228651792044,-0.002981443753583227,-0.00035973376116253474,0.009387754811943923
819,0.008065633458278222,0.006260452811137857,0.0023675420074345047,-0.0005580720297539171,0.015254670613298509
820,0.009717512450444507,0.009022532566730126,0.005485094179388818,-0.002338639519495686,0.01762855302482823
821,0.0069071638663017534,0.00653227754230572,0.003643880227970917,-0.006182523599547679,0.013185227690881063
822,0.004047348009737465,0.0033159417147086622,0.0011944393350024765,-0.008583276297158233,0.007326043663943385
823,0.0029075805599997925,0.001692605628216653,0.00028597111354864075,-0.008053609336595146,0.0030283878027738023
824,0.0014027873730262483,-2.2888256628306616e-06,-0.0009492971929395506,-0.006159518253052733,-0.001327966243745597
825,-0.000837051249127485,-0.0017267605110411776,-0.0028200883923388273,-0.0038384793867237135,-0.005262334860544776
826,-0.003097487900587442,-0.0026711874711865917,-0.004883313155510242,-0.0014723541630026994,-0.007818038649960871
827,-0.004709229714405376,-0.003021120822466522,-0.006803571788189225,0.0008671916350132707,-0.009407946584019779
828,-0.003840327538853749,-0.0019110288993335993,-0.0066228531630750515,0.004085211626434095,-0.009080284702555647
829,-0.001156586582943328,-9.549617921605684e-05,-0.005048480641609434,0.007300831836353241,-0.007821188158402822
830,0.0008228138074159141,0.0007047686533578505,-0.004875438292551064,0.008622808871563643,-0.007764642006541843
831,0.0018118509139069558,0.000717977947743773,-0.006208358724543403,0.00823260345482768,-0.008807865246480098
832,0.0029412100512665323,0.0009250627253040123,-0.0073865946238310925,0.007354969094261449,-0.009842739035329366
833,0.005920891459368952,0.003225876500553591,-0.006236789642502611,0.007553840552163322,-0.008353640266120975
834,0.010252333426132462,0.007282291144455173,-0.003201571721348067,0.009131376369619757,-0.004261794486214591
835,0.012710050246798553,0.009468340223578784,-0.0018088291786103592,0.009956913861396332,-0.0017185495846903235
836,0.011367231208987118,0.007522876540653074,-0.004325994089002919,0.007940048715592394,-0.003552829604847752
837,0.008356674301942084,0.004262080025129646,-0.008243539263530561,0.004163423458286583,-0.006297756012437343
838,0.005543118336575244,0.0026281818425059945,-0.010908596295438918,0.00031203407262694465,-0.006179963832692769
839,0.0036848849873731817,0.0032119125783014583,-0.011204011946294518,-0.002632326857040203,-0.0028916003435052614
840,0.003192450339773406,0.0047927550074199615,-0.008787165178312378,-0.0033601989659880955,0.0013173123298418105
841,0.0019517261009331782,0.004324992876382641,-0.006269105516918853,-0.0023842250765414227,0.0023667813538083746
842,0.0012619758235448888,0.0041039568499669525,-0.003095273976417204,-8.383231781110773e-06,0.002352680507922722
843,0.001998601982778871,0.005703451683613492,0.0004812311792923801,0.0029030025597036662,0.0032708299809329146
844,0.002881259444984896,0.007640910034141729,0.0026381580677834102,0.0052056290689009065,0.0043959119126439185
845,0.006423220439923329,0.012052267959382584,0.006643725587592249,0.008091466596777017,0.008689052588488908
846,0.01082516056357859,0.016191370266795527,0.011035586471137972,0.010208236131071961,0.013323923053658752
847,0.011301183307617502,0.0150063728963295,0.010873702831532866,0.009292427601781571,0.0123822334380188
848,0.00973075944117109,0.011684735898102967,0.008566756655357569,0.0074384706201658345,0.008673233425721844
849,0.00851474169182095,0.009997310416496458,0.006738593272680024,0.006246583912127969,0.00609099235404799
850,0.008580091808309551,0.011125527563727158,0.006430938288662704,0.005798199414459309,0.005877225232371936
851,0.012531157637866545,0.016851917702347095,0.011324678620208348,0.007619906613362643,0.010422754976157422
852,0.017720709536671927,0.02317802133132342,0.018800210723498988,0.010382442845012944,0.016257572178523923
853,0.01905322317924655,0.024220346103244618,0.022194566977404146,0.010922453811692032,0.017017022066735922
854,0.015545875730419092,0.019272727462955476,0.01962170356669279,0.008891069141316476,0.011024848965022706
855,0.008768852476194916,0.010821093502116326,0.01282670363164746,0.005726304341942839,0.00040733203395019893
856,0.002405226123893391,0.003424345838309826,0.005947387395991704,0.0034341374344826225,-0.009473111831223527
857,-0.0003656107378786235,0.00030178461400543415,0.002365417409807516,0.003337535981659681,-0.01449690995834997
858,-0.00020547512997110952,-0.00010526646810565688,0.0010112503905011297,0.004540135262011222,-0.01614835942833759
859,-7.751327568797767e-05,-0.0013634534942029608,-0.0013008353349226284,0.004904971683092261,-0.018123017314093985
860,-0.0012135617483403967,-0.0037940415172392785,-0.005063646983194551,0.0035646252943810765,-0.02077202928017771
861,-0.0034751178594486175,-0.00594331871591574,-0.009235639570833117,0.0012150706863102874,-0.023326418703019356
862,-0.006471720703603319,-0.0076619024436580295,-0.01334891101076041,-0.0009627116631377671,-0.026224119996069977
863,-0.00749126718295602,-0.007431866728297445,-0.015185636922592947,-0.001395591042793756,-0.02712497784210878
864,-0.0037296990693407475,-0.0032256341495968933,-0.012254373259195683,0.0011263075071758738,-0.023038705661462246
865,0.003438299980362102,0.0034736506433812315,-0.006044899415044618,0.005541113692601322,-0.01553467522998236
866,0.010507279969018898,0.009666994847416985,0.0002679691066032603,0.009474318686595668,-0.0077636008758880685
867,0.015337751764102025,0.013695752821586213,0.005271913929600146,0.011967444102708296,-0.0013616327928632475
868,0.0157165810224947,0.013380228671659724,0.006482055430585731,0.012320416416887785,0.0007190921802853708
869,0.010231738969483694,0.0072774699893346905,0.0012868609892883406,0.009651478867060068,-0.004073784548856821
870,0.0033551834740732705,0.0004356199280026809,-0.006174039776980463,0.0061688149680322844,-0.010714296384780803
871,0.0012048635631970047,-0.0007710054837596383,-0.009208400952591327,0.005102827994290509,-0.011999761656417852
872,0.002436937844782078,0.0014797098784728848,-0.008595628969361238,0.00535059286673226,-0.009861409037637629
873,0.002767849450217283,0.002470024633735085,-0.008286944044955306,0.0038780518599481765,-0.009675255159892836
874,0.0011778545251949501,0.0015345386305465555,-0.009531106815622751,-0.0006629324772937775,-0.012390388830328503
875,-0.0022493038851498547,-0.001272318813616594,-0.012447586543113991,-0.007284218236895514,-0.017115472223242393
876,-0.006158703526064729,-0.005144067834617068,-0.015599549714172427,-0.012460007763253175,-0.022217828184613087
877,-0.008294232714821693,-0.007506494275000788,-0.01692804037841839,-0.014118392365265318,-0.02525735824543196
878,-0.008667239965748457,-0.007811933761602326,-0.016705618470945052,-0.01363511650786709,-0.02604239174088983
879,-0.00796730536109006,-0.006788487414839014,-0.015535706627307362,-0.01207046906461929,-0.024740721491806734
880,-0.005442118123882634,-0.0030059395941953613,-0.011942171829483492,-0.008817243336671323,-0.019056798615205137
881,-0.002041929434752188,0.0030847154117246427,-0.006379844884276202,-0.004220203913202899,-0.009923737222742797
882,-0.0010637267227260364,0.007296896511936965,-0.0030928760171084913,-0.00030308755021035894,-0.003202744305837575
883,-0.0020385629092751923,0.009237737608924778,-0.002611922911070371,0.002658594288057315,3.210388440556289e-05
884,-0.0028015045357942577,0.010700510392738111,-0.0030146399322270472,0.005197166545976943,0.0022149038964461654
885,-0.004968884415522691,0.009654094866370744,-0.006302726105082306,0.0057815718573758015,0.0015503249435110111
886,-0.007959851515428433,0.0066579669524176955,-0.011716031711918496,0.004177383092059916,-0.0017996161711905075
887,-0.007435959892234029,0.006963818215123166,-0.013811824924680633,0.002610063436082679,-0.0027344762501104094
888,-0.001012170446667308,0.014345593157785809,-0.009186967088239439,0.003327076816137276,0.0032139885220947885
889,0.008066817471731052,0.025181601082174036,-0.0011853928744311063,0.005829255875381353,0.01315073278530164
890,0.01357400094698739,0.03121472243185133,0.0034408585749960805,0.007313116866798972,0.01884620851635565
891,0.01338845494175796,0.02968169196862772,0.0028980095455049424,0.006891850117646737,0.01744776212499976
892,0.009385845023162039,0.023425753407956926,-0.0005692426866194634,0.005366224921004975,0.01163007051704855
893,0.005769090318343161,0.017559218400797046,-0.0031316403002089573,0.004131171198730989,0.006528648820791026
894,0.006374605165567747,0.015951534780534838,-0.0015288986009415959,0.004613937738264358,0.00633299417130729
895,0.007852145666460373,0.014725874057081286,0.0006079643477013682,0.005039987939637422,0.0069707283678963885
896,0.005572313571257657,0.009686351643775048,-0.0010607476989754037,0.0031274967007810283,0.0037729041971562953
897,0.0018094944867181647,0.00408027221971064,-0.0038371181218623956,-7.17029897196073e-05,-0.00022212886333223956
898,-2.0983679126992736e-05,0.0013849129832150932,-0.0043087021169424845,-0.002949635962823496,-0.0016579738808194548
899,-0.0008076023064916492,0.00021750281614855906,-0.003511420162220009,-0.005474260707410639,-0.002005940658959744
900,-0.003033517119076898,-0.00200195425539989,-0.004066581026278734,-0.008289832135514642,-0.003555119882271081
901,-0.005305267166307168,-0.0032501964828402594,-0.004553474217655494,-0.010568660660864227,-0.0038224063833584435
902,-0.0036484610598665084,0.0007275228245320444,-0.0007880410714674411,-0.010416459755317693,0.00144095545292227
903,0.0002288897886197241,0.007274145300125556,0.005085039139532438,-0.008921969828325767,0.009074574580931954
904,0.0006168440305413266,0.009190597386475992,0.00600078111693945,-0.008834877554303587,0.01131490019492641
905,-0.0020739457465325296,0.0063276317960755755,0.0016771055838382186,-0.009419655441513509,0.00824896078807758
906,-0.0025669662078091965,0.004988040299414103,-0.0015524913256151098,-0.008160404877133562,0.007020305247353632
907,0.003050225470184438,0.010446815507060194,0.0019767057692103326,-0.003793449561786132,0.013496630902299609
908,0.01213413761672038,0.020102863095099375,0.010230426392936691,0.002285808958872425,0.024773443318075076
909,0.01692868893098879,0.025161396449067053,0.014252089744108104,0.006430249111117581,0.03070016197209234
910,0.016673385426002826,0.024557609617255297,0.01225603284550767,0.007872539932869797,0.029667328234517194
911,0.015122118529421063,0.023001692919290266,0.00858365416753356,0.007722555093036475,0.02726928202381612
912,0.012940221042005533,0.021584790746338726,0.004840493755733912,0.006411514548056386,0.025308372369060497
913,0.009850392671642836,0.01906864303982243,0.0012333735638760598,0.004979611576174384,0.022773866836154615
914,0.005198979546237513,0.014303707539824321,-0.0027018115559747837,0.003363165276788525,0.018490524889962157
915,0.0003229440385457144,0.009463946691982089,-0.005822238674017071,0.0014059633123859046,0.01419681178052232
916,-0.0035837777272141854,0.006451259401892677,-0.007740951723835351,-0.0008256209069961729,0.011194270927790984
917,-0.00827176133234513,0.0031431320846599365,-0.011337772123143127,-0.0041531856901267025,0.0068244223504820576
918,-0.01248228695910675,-2.136404451596829e-05,-0.01536895227910784,-0.007223578441774228,0.0014926228941726084
919,-0.013270443953000012,-0.0004345762015733319,-0.015775954005473866,-0.008033769787923271,-0.0016870107514806289
920,-0.011620447062289763,0.0013579673777489938,-0.013273792682855121,-0.007254250592467395,-0.002747087390670277
921,-0.009781915874238297,0.004123229000645382,-0.010617191063515824,-0.006216318959431996,-0.002322578298800866
922,-0.008373707479931892,0.007361523552747749,-0.008661447996373521,-0.005558966204120804,-0.0003331038194893127
923,-0.0077399584672214385,0.009256532102748726,-0.007997914907988596,-0.006014291564293927,0.0012247024095681386
924,-0.0077159904750536915,0.008882777087007753,-0.008377097812424609,-0.007874618987628925,0.001080392443137938
925,-0.007520666070370301,0.007131451413841444,-0.008593067141040217,-0.01070713147618062,0.0004920178618030786
926,-0.006494268641773242,0.005536329540870537,-0.007536266224505625,-0.01328322917730745,0.0010852590623615416
927,-0.004116636416922122,0.005842207023531004,-0.004268943298886741,-0.014307136953910927,0.003898990917327842
928,-0.0035633804635159133,0.004869889115585525,-0.0027419322406391335,-0.015517331877714952,0.004928797437676162
929,-0.0074480862642911285,-0.00044695109350496946,-0.006407543094935737,-0.01862634844147292,0.0006701926708322525
930,-0.010991768577442775,-0.004759535544478533,-0.009599728337865866,-0.02047999338673388,-0.003332707111398243
931,-0.00972546303550851,-0.0034120938734907643,-0.006918766209583662,-0.018064508393606682,-0.0017510537840144148
932,-0.00529609759749148,0.001518207005754117,-0.00033740527741170037,-0.013106333626500407,0.0037508360204805665
933,-0.0025540291640975456,0.005141694261348201,0.0042195682446368715,-0.009612056405781319,0.007809126822853605
934,-0.00487118255237025,0.004251707743103425,0.0025772197800062557,-0.009867920443216804,0.006536781819298601
935,-0.009813611726676654,0.0009294219647563752,-0.0025037587334721164,-0.012505653954461342,0.0022610623940239817
936,-0.012181882439989716,-0.00033253671055355954,-0.004971251446412477,-0.01465948165933527,0.0004273046530087671
937,-0.010725166666805402,0.0016606239813716592,-0.003409846137023215,-0.015303416316414683,0.0028953581290350277
938,-0.009617712055549772,0.003299539426963133,-0.0021504345108797796,-0.015821722437751245,0.006283570604284301
939,-0.01141952407008702,0.00215215442169456,-0.0036156925654752684,-0.01662269329824056,0.008165139825557746
940,-0.013011354364453878,0.000571751568582677,-0.0051188316508731565,-0.016000957522618875,0.010250634587522544
941,-0.01200883949755513,0.0003024438399164113,-0.004856575418127793,-0.013654677461418265,0.012983247634814565
942,-0.010862195947843123,-0.0009235889406431276,-0.00519767147158438,-0.011660449745430138,0.012696453989264854
943,-0.012509768393936764,-0.005494499575245013,-0.008807199226505495,-0.011524962462809983,0.006483563316073876
944,-0.014678672699452487,-0.010436120807501522,-0.012909189551411165,-0.011553226574423382,-0.0017723565054086248
945,-0.012692141157016126,-0.010949893082626127,-0.012137205495558998,-0.009248127362786292,-0.005672844211124219
946,-0.006830492161084113,-0.007939366566554426,-0.006477751085306303,-0.005153770263799613,-0.004647494690790946
947,-0.001842829868534015,-0.0063502513760738295,-0.0014662642016147764,-0.0021299001886638646,-0.0026769542912693798
948,0.0003278649764273531,-0.007356173217555602,5.091029243004638e-05,-0.001406090468457761,-0.0009457842473818844
949,0.0007165323896105544,-0.00888856334153582,-0.0006089776502482412,-0.0022159555370377167,0.0009063977707188744
950,-0.0005337325268295154,-0.010602636291898069,-0.002347042703493875,-0.0035147002791748824,0.0012243969423250032
951,-0.00270062717515124,-0.012431449216084994,-0.0037955894453486285,-0.0037746473658146987,-3.9043342981554296e-05
952,-0.004530521922442541,-0.013542688339638035,-0.003920190283424164,-0.0023685649580609956,-0.0012701579678847787
953,-0.006461923832346419,-0.014390503920473361,-0.003837769612700639,-0.00020923991203375958,-0.0032162992185692622
954,-0.009157815434142411,-0.015790407983656427,-0.005259876827847163,0.0017953566853928446,-0.007408105917953836
955,-0.011338926236347087,-0.01674239349083027,-0.0075867185612535065,0.0035653090218201815,-0.012189443866154883
956,-0.013317399682858676,-0.01800309286158339,-0.01069699692237429,0.004309088898895063,-0.01697925995184635
957,-0.01600590691446015,-0.020668193262090476,-0.014677304410242023,0.0033673268839807596,-0.022131611826539194
958,-0.017913294209389582,-0.0229197403651187,-0.017274390427561646,0.0017300529671027535,-0.025411768668961412
959,-0.01806870862762395,-0.02342830442449605,-0.017248436639179705,0.0008749941184394517,-0.025594588300295415
960,-0.013006633660252299,-0.017748693758608984,-0.011055574984737852,0.0029439656450535195,-0.018733301496419195
961,-0.004344526904460199,-0.008068750839944202,-0.00015008020400575164,0.008177689804089932,-0.007691872185043112
962,0.003955854974876715,0.0011173529088672764,0.01006906448274502,0.012516826062038185,0.002860856192543675
963,0.007622660985543768,0.005034081311129952,0.014206447566803325,0.013514828000540888,0.007578419167718167
964,0.008043166631874377,0.005737038656262174,0.014000309483253733,0.012587689687504757,0.0077849829616881226
965,0.006557702637500093,0.004642657957139622,0.011233505025860555,0.01085215450231215,0.004587374615246401
966,0.003121310478425828,0.0011009761070722157,0.006486135029546826,0.008310435611410765,-0.0017685058560161814
967,-0.00028637964216847136,-0.0031221683615111893,0.002503525162112727,0.006143455512818155,-0.007924723266735732
968,-0.002309594994331082,-0.006540460478142893,0.000521152086456195,0.004833570048367822,-0.01166059915039742
969,-0.0046531258679797785,-0.010560529741339017,-0.0020081714234875046,0.002510651436525447,-0.01476104983502956
970,-0.007637963399065569,-0.014903651913510696,-0.0059636909933226,-0.0012386724608533088,-0.017701767919429703
971,-0.010346664539972622,-0.018236478902059185,-0.009887859142126209,-0.004663898301230139,-0.019937849378562796
972,-0.012460448398513983,-0.020364360089185962,-0.01251918126681599,-0.006458408671107037,-0.02154553280543464
973,-0.013181054604794249,-0.020800791155298246,-0.012992415632377043,-0.006745881969845927,-0.021436984618888672
974,-0.012699602306691711,-0.020249290269129937,-0.01229121536915549,-0.006634481926730494,-0.02004622551167751
975,-0.01009525573513313,-0.018202333791898177,-0.010156513850427474,-0.005440872923015743,-0.017440443899250067
976,-0.003752411113443409,-0.01263113258744112,-0.0045645562322346594,-0.001727563318073078,-0.01169274256545348
977,0.004088840763478232,-0.004968007803397822,0.002896363234056009,0.0030201463445112824,-0.003584379999569745
978,0.008879207930847871,0.00029799209200373825,0.007417251430593628,0.005503831712813741,0.0025068161459538504
979,0.008796973881645501,0.0009907799781387816,0.007404339723517539,0.00491608280957396,0.0034784246767992993
980,0.006650507123483839,-0.00011281434586817013,0.006511331945939349,0.004000661534063779,0.0013751599302168401
981,0.004599630539406773,-0.0008609008631643248,0.00647669399561372,0.004181300608507512,-0.00126618184867475
982,0.002308250680101934,-0.001813418552338652,0.005554103899061847,0.004248868807536346,-0.003981832978011281
983,0.0007168761562571944,-0.002366359099445905,0.004040267474544341,0.0039011122934423945,-0.005308190189315561
984,-4.7952740653181844e-06,-0.0025533852225405346,0.0026396394983023573,0.0032947419504075017,-0.005201475200091074
985,-0.0014543863150644886,-0.0037513487932973864,0.00029995278603654285,0.0017135942297681235,-0.005574762153538975
986,-0.003062613953102536,-0.005011513423653372,-0.00226600418345639,-0.0001805341895364693,-0.005950069132019167
987,-0.002587250011350513,-0.0040661852151866575,-0.0026542912101887206,-0.0004000620995581296,-0.0041484777348364575
988,0.0005717877800622354,-0.0005180521628633142,-0.0001223283895567178,0.0013883126446413295,0.00017105721524765047
989,0.004328952253970486,0.0033845234999892474,0.0031601935120240225,0.0033980667331862755,0.004350808110028697
990,0.006384411065315089,0.0055809204024167185,0.004825552676428066,0.00410325415713654,0.006118954827565352
991,0.006388596573997084,0.006051740500881539,0.004591604002048932,0.0035599032597507063,0.00566450602010291
992,0.004836569807480227,0.005046241328635307,0.0029134021116076466,0.0022728657871888937,0.0036261885855212645
993,0.0025184376013951426,0.003012279377497925,0.0006228074199663752,0.0007731539452496076,0.0009411928497930147
994,0.0014758799052323806,0.0021469093437553946,6.904215710125544e-06,0.00021185842831134268,0.00013906007320744145
995,0.0026599007251147406,0.0035148261599727425,0.0018424449830312408,0.0008322163810390035,0.0020730005391456584
996,0.0035438140378931914,0.004230468936619465,0.0030258485493735872,0.0009749576063929684,0.003170192379596446
997,0.0024238394761078347,0.0025016817117996374,0.001887617597150964,5.9019848398922376e-05,0.001459835995598868
998,0.0011514149104847502,0.0005879827968576912,0.0008341011565002936,-0.000317950393062893,-0.0001717948550234533
999,0.0013639159531035438,0.00031629365550888474,0.0017110592499103869,0.0007489059791994888,0.0004120175140609534
