,AF3,AF4,Fp1,AF7,AF8
0,0.0054887302142951795,-0.0014463770327291462,0.003555432346390773,0.006307877302801003,-0.003839403560316386
1,0.006843996687838016,0.005569293325860846,0.007347538291016783,0.008921023012022224,0.001520550331964261
2,0.00785501032389332,0.013064214014505885,0.00901512493766261,0.012350513770077932,0.0015370409049336273
3,0.004977439321717252,0.015781062139163363,0.005935236142988291,0.010128486381980778,-0.005484148411247609
4,-0.0009076337289694444,0.011230303328906842,-0.0010041583859792982,0.0015961312645369216,-0.015865132717813642
5,-0.0052378943770317364,0.00321690607494074,-0.00779905969736144,-0.0073560615218964415,-0.022927048707236945
6,-0.004424916127271651,-0.0015662095870841541,-0.009930132274056973,-0.009525262988693873,-0.021818711686098974
7,-0.000654708358723475,-0.001748736691717284,-0.006551344543921051,-0.005405604786525312,-0.016653447565729732
8,0.0008899656088484027,-0.001626211314975105,-0.0008987673373266835,-0.0019586160600441466,-0.014692411550941023
9,-0.0003697715381487871,-0.004703665741566531,0.0054885853668007545,-0.00013208103093968518,-0.014689972737076293
10,-0.0009052343274169357,-0.010818481411897606,0.013902314197926206,0.004743620381717622,-0.011026586556656628
11,0.0015455377786220967,-0.017367755078387646,0.023076622353087942,0.012352765470749982,-0.0049770118952524095
12,0.007298692092213522,-0.020899477045164754,0.029187457614643687,0.017476058862365414,-0.002423403805313258
13,0.015274494710916506,-0.020034641078724637,0.03081858438862732,0.01747756309827969,-0.004253202672523146
14,0.021906033733207753,-0.017325203607998007,0.02929486482092968,0.01483101216731816,-0.007609593096347629
15,0.023882894166506723,-0.01511466221700561,0.02667443873458877,0.013857821590999617,-0.011136856053237894
16,0.021442644689839224,-0.012304460825324604,0.024742517130951415,0.016510911033984933,-0.014240500165619847
17,0.017292580782494443,-0.007195745901914738,0.02383154363532278,0.02015563827973179,-0.01591789307650761
18,0.013038852365262296,-0.0014117538991909207,0.02225551661446003,0.018851191990559672,-0.015699899352260446
19,0.008262361304302874,0.0011843464045557613,0.01894295404341509,0.011834451417544448,-0.014155690844945211
20,0.002503477105940024,-0.0016309492667254814,0.015175051326112717,0.005127937409671977,-0.013602326949185214
21,-0.0021047008902684555,-0.00794181892960153,0.012342232954251292,0.0010569180402278584,-0.01560784152603074
22,-0.0009058308855567208,-0.013328201704476348,0.01055473261328339,-0.003010257446323885,-0.018508370445968664
23,0.0066731442398034226,-0.01662300562357434,0.008602454517022191,-0.010152972495475495,-0.020725077426839808
24,0.01605992062079786,-0.017853468673043178,0.006015522740142684,-0.020915265813896272,-0.0201977739347081
25,0.022742577121246558,-0.013079254994735594,0.0037491735682786296,-0.031236283248226016,-0.013826747761907782
26,0.023282242416335794,-0.0012258894571501135,0.0018881256770042175,-0.037246360055843336,-0.004778435418633967
27,0.017963420645119032,0.011032604467192196,0.0007701871147245423,-0.03805423840311746,0.00037295399817207503
28,0.012901651231281445,0.017292561569538057,0.0014394818026634152,-0.03291285533088535,0.002329789310942914
29,0.012372473522900876,0.01739981146838357,0.0027167955613571436,-0.022701393620746028,0.004158099759903331
30,0.013935174528976316,0.014794082602457698,0.002979539837591943,-0.011544238942459862,0.003647499133849388
31,0.015730102691891897,0.01258463288401968,0.003412757598750744,-0.002855998866278553,-0.0005312893454715728
32,0.018589510037450897,0.010575666862475573,0.004419109499887561,0.0014641737021848244,-0.005580157314655255
33,0.020175862372954132,0.006477889536056685,0.003767269562561594,-0.0003470880746094754,-0.010067552984868772
34,0.018682485859360495,0.00149178052967899,0.0018563200903909999,-0.005890471905826648,-0.013820755990351907
35,0.017006238597915422,-0.001685435050925538,0.0015481098793086179,-0.009573371402348908,-0.015251381586477859
36,0.01768576591821921,-0.0035414597532980726,0.0026726559172897167,-0.010030905913435252,-0.014005373353540422
37,0.02038642185633097,-0.004700457260072036,0.0028742923175777858,-0.009931747570061171,-0.012944047384298073
38,0.022008049254060552,-0.005022178009289203,0.0012139003077769768,-0.011665589029801339,-0.015775860048068996
39,0.019376062415737524,-0.0053962287360142,-0.00173673948106802,-0.015318428642138369,-0.02152581034808081
40,0.014944874006128612,-0.005348046560159836,-0.004289418936435876,-0.017509247038892638,-0.02356422880040434
41,0.014046258731975993,-0.003851447199525045,-0.004753507222502725,-0.015384953502534684,-0.019063262943252324
42,0.016774945572069374,-0.0032246758237774687,-0.0038343285311112215,-0.011326849742974886,-0.01415532592824012
43,0.019167095668450748,-0.005579126230312295,-0.0028924885257287096,-0.008653939672211407,-0.013473893246765904
44,0.01899948781148585,-0.008644688800844262,-0.0009344367589229609,-0.007372968289147486,-0.012809176725070334
45,0.015194095978664937,-0.010093517068540432,0.0028270938072097536,-0.007107647243818118,-0.007700875400829306
46,0.007137437120827631,-0.009257957213836125,0.006859844166579912,-0.007760185369544965,-0.0003145007573832125
47,-0.0016836272296497155,-0.003969270675593801,0.01063573082786548,-0.006832056175190625,0.005158227101116802
48,-0.007452653081568093,0.003842338108583934,0.013807388204797202,-0.0038633536508611305,0.005700101377224215
49,-0.012876487119803808,0.00526474887672938,0.012647631608686951,-0.0039855098904482715,-0.001147717670839182
50,-0.021345121420531223,-0.002684078468524037,0.005397015079239776,-0.00965133270276745,-0.01365372350160175
51,-0.029295242986842437,-0.010660992184867855,-0.003513074876459772,-0.01709818147473127,-0.02380159239400647
52,-0.030984815854885123,-0.010930430683095136,-0.00870859417086925,-0.02206200555842355,-0.02502824935277749
53,-0.026563501567188317,-0.008959449815815644,-0.009275060851267537,-0.022858140255934613,-0.0208841920257909
54,-0.019274837635505797,-0.01391801037981831,-0.007946156838257319,-0.01992571080088362,-0.01956333030867895
55,-0.009210291960010343,-0.025996383873850212,-0.005731861178667144,-0.014931135660250509,-0.02210461757744489
56,0.00423993841663626,-0.035288872986254834,-0.0004580300783989988,-0.009305681871406256,-0.02305032811017786
57,0.017704398174191668,-0.032129127545464035,0.007654302348326574,-0.003955505674811819,-0.02030352539360346
58,0.024478917652488674,-0.020328178731371053,0.013646705370615922,-0.0010622350254184934,-0.016315949165384418
59,0.021821055589439784,-0.010900609697411188,0.0145357793523961,-0.001083062466052822,-0.010377448669457941
60,0.014365872162188676,-0.006557356700644777,0.01217172105724663,-0.0018101831343897536,-0.00012576830775089682
61,0.008644462220275134,-0.002545418289875719,0.009763162203962538,-0.00224025239898765,0.011598493062335347
62,0.007002199780309507,0.0025933597452450887,0.009405875619461228,-0.003176071465223314,0.01850733391189421
63,0.007983330012022491,0.007370454661875695,0.011115717350857241,-0.005702245849758507,0.01823208878874486
64,0.01155645442957634,0.013336332131652508,0.015091392206698707,-0.008456961812673398,0.015640256251154082
65,0.016134113087340526,0.018533712455959236,0.01917510042779676,-0.010637516576938642,0.014544817695152696
66,0.016507360471588205,0.014941254127559738,0.017284075802091778,-0.014527514055799872,0.011221851790344467
67,0.01095684316363438,-0.0005126743548748323,0.007273373008781127,-0.020451657169697254,0.0011572724652421386
68,0.00415019547637702,-0.019141484844267708,-0.005335397237773383,-0.0248932934657735,-0.011757904917259511
69,0.0012490908581510233,-0.02964004903408489,-0.013740823921181266,-0.024665973773558114,-0.018930470567621108
70,0.0007101451670725677,-0.031421164036145754,-0.01803285992116444,-0.021639512870981713,-0.018525881693268575
71,-0.002329376756494692,-0.03062910951177074,-0.022741410681821787,-0.019899755517522322,-0.015300149925943392
72,-0.007888986363173766,-0.029930209921240333,-0.028007260580668724,-0.02014569886696413,-0.013855551550620454
73,-0.013234752964207692,-0.028526063029845443,-0.030592149071703274,-0.021279848697956325,-0.01630659529742823
74,-0.01791915770601594,-0.025693416920452825,-0.03047840743403374,-0.02315250294095599,-0.022237591284804046
75,-0.021365403929821877,-0.022690510935480034,-0.029663365424498024,-0.02528716409149714,-0.03058250700956604
76,-0.020748462736030714,-0.020889768327038382,-0.027040984946945436,-0.025201034919742574,-0.03882292165854998
77,-0.01503542132714477,-0.01961235951241934,-0.0204960766971184,-0.020678794107392394,-0.04088451672687198
78,-0.007521063664544831,-0.018249287375306303,-0.012934742355895973,-0.014458929486505416,-0.03413607319926729
79,-0.0029872360324289856,-0.01752350444318676,-0.010552623102701667,-0.012991502736299924,-0.025221841920407887
80,-0.0037127752114782205,-0.018318446924384914,-0.014056314494508776,-0.018653004189525705,-0.021921877424719603
81,-0.006714977578318816,-0.0186743629428857,-0.016064421414424476,-0.024251568268376756,-0.022928854155179323
82,-0.00807849353377021,-0.014378420873497971,-0.0115947736651358,-0.020990880457769336,-0.020597062482391865
83,-0.008221142685701175,-0.00476840103091813,-0.004509294600533403,-0.009945079115289775,-0.01172357950463925
84,-0.009343187091906333,0.005318960740236036,-0.0002672344205830467,0.0018839415470802722,-0.002235237448682397
85,-0.012747596768620636,0.009849600697531598,-0.001065701737229381,0.00969166766227972,0.000621255588778493
86,-0.017422984650564653,0.007921389829752112,-0.006306070850969691,0.012287551931615782,-0.0015748636813585097
87,-0.021760995220175054,0.0031224239647084685,-0.013984431453451265,0.009266830157670741,-0.003636355218240707
88,-0.02530997839566184,-0.0015169739234660493,-0.021360588831954387,0.0012003070029927782,-0.006177790723831908
89,-0.0262442610635088,-0.004360290813774472,-0.025222916642594333,-0.007101407774637635,-0.011222976307437401
90,-0.02345168986497408,-0.0061516595577664705,-0.02524572077487787,-0.011414010400477117,-0.01664659956804285
91,-0.01785928692397091,-0.008975830704282062,-0.022530618698896783,-0.011150341388425754,-0.018171178909164105
92,-0.010796957060959402,-0.011703776237134813,-0.016848654903035637,-0.0067856824955793435,-0.014185039223632498
93,-0.004285482534635668,-0.010004149499460168,-0.009425672510150144,-0.00034390253636810123,-0.007779715998455714
94,0.0007546701087610547,-0.0016327229087405612,-0.0023254983360683577,0.0058874591539201234,-0.0026640420141030765
95,0.004833466519542305,0.010552415160954249,0.00463201596813213,0.01180022901701879,0.0007249532817987535
96,0.007473107086676418,0.02110032861399705,0.0121554161269281,0.017862982412642493,0.0038133541192877742
97,0.0070169220491246515,0.025473835421269443,0.018172003508860616,0.022427651166280538,0.005966969276905032
98,0.0043270352167934095,0.023229027988708847,0.020483752672754953,0.024520411526298254,0.00702560795636255
99,0.002919642300511647,0.01749241655670414,0.02005036186152614,0.02569146262674983,0.009307723684890346
100,0.0037251196751788835,0.01070028022679615,0.01777315202959643,0.02652498175263482,0.011843807891390673
101,0.0047850966373160445,0.004691499333264718,0.013951338372615361,0.0273324455685707,0.012041807942871576
102,0.004099206826091066,0.001648197064259533,0.010649269773457315,0.02953219824923371,0.009024130900904813
103,0.0015770579183991115,0.002781138066531483,0.01025726115051957,0.03360382379663733,0.0028424277639767064
104,-0.0010730020462529893,0.007799496468570786,0.013094743542941916,0.037796437020095316,-0.0037029314441128715
105,-0.0035532789513943387,0.01454349848504555,0.016633034910189724,0.038394956111598946,-0.00785582702017416
106,-0.006110960585571015,0.019690335824565378,0.01845352517217436,0.0337713912363823,-0.008935150096990705
107,-0.007982130870483804,0.01867999283157797,0.017568827596887066,0.026624120257366334,-0.008223121234029698
108,-0.00941079105467118,0.008608860370647663,0.013731575866280963,0.02040004170218422,-0.009042438385451988
109,-0.010956805083436903,-0.0064000048885091785,0.009181411768163075,0.017367556598374176,-0.011977763215146016
110,-0.01329802614728579,-0.018615371692918513,0.006159756378121436,0.017170040113930182,-0.01484827874565453
111,-0.01690303644771225,-0.023431726691767796,0.004700769724011327,0.016249703061718038,-0.016581449238752405
112,-0.019536343566633148,-0.020752925484263374,0.0055844891929342924,0.012857284062582023,-0.01625910000980466
113,-0.01889427480889266,-0.01410697796294163,0.009460478767205734,0.009416709228109691,-0.013163717198169738
114,-0.01591909230856772,-0.007811080510352855,0.01426566017837662,0.008739477305908433,-0.008072239225146383
115,-0.012116901359965014,-0.0024349882071249395,0.01836582419800722,0.012139956156076543,-0.0016524925464275727
116,-0.007287507869079403,0.004312122536274414,0.020397681333789365,0.01761469376106704,0.00567097188408212
117,-0.0009429395149593338,0.011055150267731599,0.021299266462924155,0.024663870119986556,0.011879706534479973
118,0.007288720384464556,0.014447313291902105,0.021992418824830433,0.03218144518868486,0.015386068683921027
119,0.01672678377444173,0.015002059036313771,0.02400797629192942,0.038097625031366746,0.01669573121910076
120,0.02426484927134299,0.01429652913700453,0.028496844085484023,0.041391409609015495,0.01558708799057226
121,0.027158677757060264,0.013043365944014415,0.031015661430433175,0.04072911489148176,0.012413494112756978
122,0.026227399001944034,0.013017238948833559,0.028416211581957583,0.03822276321979278,0.010361984618005972
123,0.02325580137324205,0.015738481792661494,0.022677158776768944,0.03595673585510304,0.011895016978317489
124,0.01692954745059395,0.01939238894848612,0.016704809436447556,0.03100189348754068,0.01624401831813489
125,0.006868897982007192,0.021305732832353076,0.010619275676760744,0.0186527691468717,0.02156736319653172
126,-0.002537555162031043,0.02332428274802491,0.005566209967230727,0.0023511447512872484,0.02707440025776173
127,-0.007843854781493098,0.02738531226864583,0.002947173272606304,-0.009981377634839248,0.0309515898741766
128,-0.010474863946723026,0.030624750804912924,0.0008099923498040794,-0.015954273476636135,0.031075329719575228
129,-0.013102312362866486,0.030249406967646858,-0.0026733720995452564,-0.01799833860692127,0.029342188091490674
130,-0.01608395725737198,0.02719074819393929,-0.0078905109199355,-0.018193570932510044,0.027786161820739296
131,-0.017539085700360127,0.02437988272297066,-0.013723517638853914,-0.01774244565385882,0.02578400715006808
132,-0.01564004218061463,0.023677035633905427,-0.012986573714175711,-0.01355856684482785,0.022501103173575943
133,-0.010590286972796709,0.024694999724436294,-0.008941426879261782,-0.009748732954848797,0.02015984086185477
134,-0.004529371431760864,0.02613691705957614,-0.005634260498827889,-0.00836436514270506,0.020698652283492998
135,0.001561160538905071,0.027579424563575834,-0.0014278655013356435,-0.006058671705776193,0.023201566084155103
136,0.0092933324290838,0.029567734604522496,0.00269732751140115,-0.0025300389593123866,0.025897663533327855
137,0.018280643579275994,0.031980182262215724,0.00850951434107273,0.0035695229596569462,0.0271020943879396
138,0.02470751626288015,0.03372465887265549,0.014716241540563385,0.01023029552052804,0.02611071356713257
139,0.02643599208027725,0.03358843270184726,0.018740279475046997,0.014505400483772201,0.023886881896205057
140,0.023591855863784573,0.030096731338485037,0.017954574188504706,0.013460981893312601,0.021833342361873273
141,0.01656417644136971,0.02441315213785273,0.013795535980938179,0.006995247606773055,0.0196863426111074
142,0.008317268711987862,0.020946744842454502,0.009319236139619703,-0.002588004367581042,0.01584665593894979
143,0.0034996532177730753,0.0197013586820526,0.00664029689288111,-0.010983550906914425,0.009852962311347416
144,0.004012928574199923,0.016603089803352174,0.007762750738890635,-0.013907209577135161,0.004939472319823875
145,0.008711543224324561,0.012260658103774759,0.0114032353739537,-0.012881575929179283,0.005718843102752634
146,0.013891879023908147,0.009840738201553534,0.01646488621694846,-0.010715795809139927,0.010436236969348093
147,0.015795189858228326,0.010022111468879517,0.02260947855321551,-0.007740987736057148,0.013337372640851324
148,0.016634472679536983,0.01325966930169728,0.025803615960197555,-0.0031774450126691787,0.014914004659046099
149,0.02061084287903099,0.019516748218224116,0.03071555465730244,0.00515304731397591,0.0191033333860454
150,0.025557019551485677,0.025598570789041843,0.03707349216300002,0.01173659849763088,0.024970465923550636
151,0.026150755785143434,0.025944599982866516,0.03743642532454688,0.010988253373948322,0.026702264054834828
152,0.021980971327098853,0.018838505893608488,0.03270671662160763,0.007946050067393809,0.023309852033461257
153,0.016614072831948257,0.008932625475397554,0.025434444457476946,0.006364825278786729,0.021004925188129575
154,0.012145242292134838,0.0013691396650555839,0.017677982663728654,0.004332817351576853,0.022686076162486038
155,0.008827853308823227,-0.0024544235871485696,0.010178336438641822,8.540305134250264e-06,0.02561512134390053
156,0.0054587620356747,-0.00482917072980543,0.0033207127913039815,-0.005824559412365574,0.02442825014918575
157,0.003511009194871624,-0.005462680299082748,-0.002151599990818118,-0.009433084312168164,0.018798574872240095
158,0.0076511468341781365,-0.0011019122704001858,-0.0005210906411200439,-0.005431699352899086,0.016256186878409934
159,0.017087788633317585,0.005974258358895463,0.008969073447591847,0.003367708483991845,0.01984653073669833
160,0.024837663221756467,0.009637196869988885,0.016619462952075517,0.007609948267889593,0.023329107054795323
161,0.025914975954664694,0.008020917043899196,0.017442021497973047,0.0053484702408706335,0.021102896692177693
162,0.023287625046775454,0.0059601169556251,0.014445021138651936,0.002649004893474989,0.016037583674508957
163,0.0214156542346361,0.0072040815040256,0.01132988254851761,0.003002689211094297,0.013324488879687516
164,0.019395786374190937,0.009656433360182393,0.01077748922688476,0.0053192648132526915,0.014076864475132754
165,0.0146561947647784,0.010019509193736263,0.011231710006716668,0.005476324628115935,0.016075642034666125
166,0.006953762664786846,0.007913966362081071,0.011578043106609884,0.0022414132524797205,0.016534627411322986
167,-0.0012181176661448265,0.005611738269868381,0.013140530653512039,-0.001970784027376915,0.014892482325570056
168,-0.0067191271391304555,0.004561687774712822,0.015477919830079656,-0.005347524085144655,0.011961398197860596
169,-0.006586714102482465,0.005730217697528082,0.019158698108142067,-0.004799104503564497,0.010135097876720674
170,-0.0007912127695657183,0.010668794667672397,0.024781299414808108,0.0008676434129387049,0.013124304596723702
171,0.004334774931955491,0.018247474891482787,0.029659011942345742,0.0076790369064738675,0.019926580097144854
172,0.00276953145356312,0.024161227052728267,0.029112615771368092,0.009701493684524703,0.023046527893733168
173,-0.0031500480398982777,0.026469094164866064,0.02446674388401964,0.005889246305960505,0.018513927613737505
174,-0.008843413989445699,0.025238182013350836,0.019314712766709877,-0.001665609392600709,0.010688840238763304
175,-0.012582070159660525,0.02017247555972382,0.014833811598089228,-0.008576772710823256,0.006505989386936133
176,-0.012678374118330778,0.013880991417616543,0.013585282193297648,-0.008182811061459263,0.009416652322915341
177,-0.009538197801708058,0.010067439505254197,0.016028629432061806,-0.0005126779549746968,0.01647290052065345
178,-0.0056797467492130495,0.009563196797541869,0.020003429220918422,0.008950526493260646,0.021054089319018626
179,-0.002523627395634076,0.010560960328217317,0.02400095059062215,0.016285741002722544,0.018916032328616276
180,-0.00014104166079333312,0.01067358754729109,0.02733412965318857,0.01735452556012028,0.012316617997834045
181,0.0031734547209570727,0.00975628684487261,0.03041613606150737,0.016216721005345158,0.007197422494335507
182,0.00808012896845685,0.008835641294530495,0.033288651903325514,0.01683415400994447,0.006152051273200612
183,0.011781996892329977,0.006991733923603835,0.03420020910077399,0.016683282174912932,0.006167877178042603
184,0.012698370705440899,0.003124343700318783,0.032805180058711705,0.014999070305247894,0.003943720396274894
185,0.013463717247998856,-0.0007270168453685866,0.0315106374629082,0.012853697169717728,0.0021266681255581433
186,0.01508426716098672,-0.0021037905564351067,0.030328499087895127,0.011345353729215654,0.004710681212785172
187,0.014204915961556402,-0.0011774368160629243,0.026688350695674202,0.008740074673856475,0.009545861679452707
188,0.010945593375433757,0.000975345876155049,0.022295390176433273,0.005761209222911831,0.013093369718904119
189,0.008401089098110057,0.0020554642594750026,0.020401342679043435,0.0032985505944046617,0.014947713311065739
190,0.004897713857431665,0.00031944938102673596,0.019400632303027448,0.001425792505919537,0.014412000142198312
191,-0.0014003405984293275,-0.0019026671988873459,0.016753383378676587,0.0016870918359715658,0.00987563222571176
192,-0.007088822298466698,-0.0026733708523037883,0.01334924331648695,0.002651610961214888,0.0029482864483678407
193,-0.008142921278023971,-0.003987610889942339,0.011736041590234628,0.0020119504251458766,2.1346133324173382e-05
194,-0.00538147451465916,-0.008975317210312066,0.013077728186720282,-0.000527901365465734,0.004038119515433555
195,-0.0035926539152736103,-0.01845990552582067,0.015843090473689952,-0.0029468335073617896,0.008708783176322774
196,-0.004412820590458328,-0.026118083347190683,0.019014566142556928,-0.0008131740376324517,0.009039797551292823
197,-0.0057170859877220224,-0.024266490552271307,0.0236559618389665,0.005155604353152273,0.006844025835262198
198,-0.006914136841503515,-0.016001025812411213,0.02917791563045054,0.009719188559484587,0.003422852416775905
199,-0.009612840481449326,-0.010336656848356504,0.03247062699009506,0.008879180539984396,-0.0015939261888544287
200,-0.013945540700982193,-0.009467221906678454,0.03185254351358209,0.0030063509331150003,-0.0057501946812156535
201,-0.017905631292687588,-0.010210263112167446,0.028762252286964513,-0.003887275064828554,-0.0057426414956875844
202,-0.020892893404596723,-0.012074564497506518,0.02457319684893337,-0.011284787306138364,-0.0029125384554121994
203,-0.022317132870087485,-0.015004595828875027,0.020520435025371344,-0.01900863948675274,0.0007479906859622257
204,-0.020004661205362456,-0.016641070092779185,0.019077111243085983,-0.023899703732472067,0.0064396344354535175
205,-0.013526702792426718,-0.01561876977050207,0.021162079095325557,-0.02285459265988982,0.013613504820811638
206,-0.0064791756838974545,-0.013136099184387387,0.024183038191814953,-0.017494972608438943,0.018116657611455745
207,-0.003432042064077641,-0.011345113681575989,0.02425338137257165,-0.012970326144773642,0.016898322332524803
208,-0.004833692265667377,-0.010585533496129148,0.020758760923295046,-0.011670212785448716,0.012038880556258581
209,-0.007356550195032372,-0.009447120008999579,0.016439697711823846,-0.012258314961006165,0.008552118055104285
210,-0.009399065401131754,-0.007971993961123401,0.012640590697931421,-0.013643132612246572,0.00942102311916972
211,-0.011787291409246739,-0.007397094958427356,0.008927372630491415,-0.01630659225963777,0.011919238231296406
212,-0.014290446615950489,-0.007959697706569083,0.005378432884976892,-0.01939367675221409,0.010650232742437886
213,-0.015847820789642236,-0.009288721159708609,0.0036362416942160893,-0.020700253178395488,0.005502942581523637
214,-0.015524031703797056,-0.009978093373575785,0.004704875305371458,-0.018755396596048503,0.00016204077989993688
215,-0.0131072136264415,-0.00818410087271289,0.008019900905362911,-0.014400448981494151,-0.004355259007090591
216,-0.009380014494050109,-0.004171920263598482,0.014264996168087416,-0.009746554837792328,-0.008454614909766277
217,-0.005907726544902653,-0.0005703575425834747,0.020316463807504043,-0.0061191015101530865,-0.010766311071597683
218,-0.004844625240109417,0.00022151600580567208,0.023144226873557695,-0.004373453171807578,-0.011134240828307933
219,-0.005899064664269556,0.0003336298406715157,0.024572795893455117,-0.004609844350623623,-0.01076827201299917
220,-0.0072531380786670496,0.002826647942558776,0.021754467268721416,-0.006779561246109989,-0.008010488060167232
221,-0.009774303005424216,0.004916452205051475,0.015154123460098118,-0.0110548611330012,-0.001304806893022029
222,-0.012855031038773078,0.0040573222829011,0.007132292888076814,-0.01498038270445565,0.006999049947837253
223,-0.013230847739056268,0.001145752653966905,-0.00020637850730924193,-0.016997340841343925,0.011766387491370855
224,-0.010486102146183379,-0.004147529780855851,4.095777261481254e-05,-0.020088286056430947,0.00871049747803412
225,-0.00666224039747567,-0.011257091867283192,0.0020390035258608325,-0.025632745585184427,-0.0011809328489472309
226,-0.004276590176104977,-0.017498188830267627,0.0004711959029630313,-0.030749673380584763,-0.013838463516794521
227,-0.005536587091030214,-0.02074053760105508,-0.0022201023484815273,-0.03292178300267323,-0.02599463174548205
228,-0.010083386832274922,-0.018536894814309805,-0.006829524258274648,-0.02985495090253089,-0.032100084257559
229,-0.01531565622777093,-0.010398587521873209,-0.009658065906966166,-0.02522188575693056,-0.03138563736954211
230,-0.01925947728463238,-0.001001889411153579,-0.0108222824369124,-0.022216261162766024,-0.02353387426729296
231,-0.02175524330469505,0.005175175563049718,-0.01390679120540503,-0.020810198064779975,-0.008182926867937227
232,-0.02295233613014309,0.008599204593833324,-0.022804540250934015,-0.020875373347120255,0.006011502927959164
233,-0.02213409880288125,0.012406660168802104,-0.032047323393698264,-0.018829145532110788,0.011076020922125805
234,-0.01855989645834478,0.01813794585365933,-0.03826629992419535,-0.013435679331043074,0.008809185250928588
235,-0.010713274512222197,0.023211213599932706,-0.045255653478564015,-0.006803410988141887,0.007069851283794105
236,0.0019969257089158354,0.023737766789961312,-0.03550115402007542,-0.0028456808610998604,0.006816049330884084
237,0.01434057439046576,0.0197779819814649,-0.02800191725970268,-0.005260265070684808,-0.0002521510336305786
238,0.018668836530771418,0.015251245358722024,-0.03461050568929817,-0.017575687300039746,-0.019783848081856622
239,0.01099585689921239,0.011459606329960683,-0.03813461781734294,-0.03497409326021437,-0.04401385145363829
240,-0.0062490155148413155,0.00507153423608862,-0.05561996382620076,-0.040144825779333905,-0.0567590167216721
241,-0.02247588895045568,-0.004284753748168879,-0.05965728709838297,-0.022539434916931923,-0.04732757491691104
242,-0.028273792772323048,-0.012726038513415567,-0.0389111629254837,0.008366480799358117,-0.019545656850094472
243,-0.02487939171185281,-0.017636736177206395,-0.018300932309901676,0.03340818082938297,0.012043156247246225
244,-0.01863172781096628,-0.01696876492914904,-0.0017564449493473488,0.0392859153222771,0.03409528300472989
245,-0.01313543339217507,-0.00874684161253496,0.004582082698508535,0.03385354685597866,0.045039917288685456
246,-0.007156521322784497,0.0034885193222858987,-0.003640867635552709,0.027328912281369806,0.04419384387665039
247,-0.00020055042332338857,0.011005648220740093,-0.02371488398824638,0.01923031442625986,0.031316715441000606
248,0.003337416040911262,0.009587358504877668,-0.018565272724996335,0.009153382957910442,0.014880076390390198
249,0.0017630306694157644,0.003770237743174287,-0.005252504494480154,-0.0018621298084886607,0.0011524824328695777
250,-0.001562710598623394,0.0005781384684773863,0.004742297748469951,-0.01025747067895988,-0.009334336709163024
251,-0.004985946053870662,0.0023660013368800893,0.025684460024820496,-0.013865881356386587,-0.01617787272133715
252,-0.009145072113712066,0.006226017544969501,0.020877828600900535,-0.01254067851997016,-0.017027316227101484
253,-0.014003722825815289,0.008023316486647412,0.009785881499246259,-0.009494781485739899,-0.013086647359213591
254,-0.019805803915792303,0.005070887285964142,0.009843020635021793,-0.00754051169238951,-0.006348517595976915
255,-0.02750284272372936,-0.0019151823328013256,0.005976111572594662,-0.008263993384259587,0.00019685761557079303
256,-0.035181654949295836,-0.0070298000127558295,-0.0008687302074157624,-0.012577095326738398,0.0020785032688997304
257,-0.03852031093484504,-0.004986203088084301,-0.009023895874003495,-0.01466951647154767,0.0007264684451535503
258,-0.03424535353645087,3.557520466419397e-05,-0.017571884079929278,-0.009709641221573702,-0.002851015551323764
259,-0.022130864975335323,-6.367601217960703e-05,-0.024738607195093347,0.001411745780021131,-0.008503204314175191
260,-0.0063654311970783575,-0.005721093393385768,-0.021563895285402007,0.009501694450631416,-0.015477507717859166
261,0.0033684625694695466,-0.010760680535412332,-0.01212201453315518,0.013754062997318846,-0.015881050355026023
262,0.0028708063006971287,-0.010155272317418224,6.305404333990196e-05,0.016580875256530837,-0.00773880511133125
263,-0.0025813877025048283,-0.0050857149834106575,0.015494223010852804,0.01654945227034356,0.0029338227097556366
264,-0.008399660833425292,-0.0009674485540709756,0.023700711630890468,0.01268361799576563,0.012926598522333245
265,-0.013450355045141488,0.002183976837665132,0.02127719483085917,0.0012980550090213845,0.01620943309039859
266,-0.01599590638066491,0.011441468112006003,0.012878042414031394,-0.013289504827841424,0.01116076575058531
267,-0.015939196678399898,0.02755331632992159,0.0034488697531757533,-0.022375267061210406,0.005117873353416187
268,-0.016343523169023738,0.03881643234685844,-0.0008618974999589098,-0.023730394246261464,0.005787273468463437
269,-0.01697967033786764,0.036691801979263444,-0.0019677104678275732,-0.020655604700906407,0.009966567807094448
270,-0.014628914546662949,0.025867539521331848,-0.0005754197403986225,-0.012855706441179886,0.011287206109737682
271,-0.008603078490240902,0.013773456566136282,0.003127564076505262,-0.0015432693988310815,0.007818053678015023
272,-0.00026788767201357724,0.00399650802681235,0.00465736251345965,0.005555801842199878,0.0025497876192116372
273,0.00847939567234892,-0.0012788400375982542,0.003767719801035736,0.0039369641127900805,0.002182457713095352
274,0.0164787275413041,-0.0006845684738184781,0.0010143214430046392,-0.005303550654403308,0.005179332651247469
275,0.023251228615816515,0.005024147646980755,-0.003396338137906307,-0.016754881585150167,0.002570049330485537
276,0.026489460277488507,0.012363563523679058,-0.005222316295889328,-0.016195300724261015,-0.002892295005663566
277,0.02399501485429781,0.017268210774794766,-0.006933853158671291,-0.010705605287108802,-0.012311049925859935
278,0.017276673307545412,0.018606364253806833,-0.010238118227591386,-0.007841716840229692,-0.021585722865550525
279,0.011429107585733204,0.01892006794059596,-0.011349294887703835,-0.0032379916458317574,-0.02142744488477254
280,0.008957713608274617,0.01951955579588579,-0.01109333535466211,-0.001341911395760057,-0.015919678167405114
281,0.007676199169538033,0.01803466780858797,-0.012480272194587234,-0.0026311579987414375,-0.009234662605780779
282,0.00843950471298673,0.014778050019988376,-0.015083506737825502,-0.0021218396153707677,-0.0016207295545613608
283,0.012514048034857466,0.012828585194353849,-0.016578608953805023,0.0032204689368709907,0.005784201305268805
284,0.017023576874845993,0.013461365937332062,-0.018976236152437837,0.007162454795160393,0.007177748940365404
285,0.01892548940452156,0.016584213037635083,-0.022375440560559144,0.009311614756025568,0.0035117879043897403
286,0.01656341241315358,0.01994074646560013,-0.02611159262544822,0.01051002037464915,-0.003130440340978888
287,0.010757390451066799,0.021296051375879768,-0.02991645496927119,0.009998290574912702,-0.010379451379701175
288,0.004627984622285152,0.020413735303985315,-0.031467541282963696,0.011577436447900373,-0.011645830328092723
289,0.0016878298416558284,0.018075335833838524,-0.03038150736762666,0.014310473112290082,-0.006484573708848336
290,0.0033531986327020426,0.015836287075186778,-0.027232271035851536,0.017653107772763698,0.0039361573898689375
291,0.007478436033047719,0.01396359709203534,-0.02428313302207577,0.021871457688768848,0.01683832872628002
292,0.012002160761715607,0.012006817559050463,-0.022071540151301805,0.02198701361348753,0.02534125398570196
293,0.015736016733630835,0.009201183967729343,-0.0210548725868838,0.019897337321320343,0.02331602906853804
294,0.01658795661193256,0.003351874680405925,-0.021660323166186646,0.018366640735286283,0.011901983251862041
295,0.013077873425665411,-0.006182973020239533,-0.023290169982479028,0.01780899877304024,-0.0020482846810917885
296,0.005374053340562085,-0.015847872306457986,-0.025592461945141073,0.018504608660549714,-0.013030224944578011
297,-0.003452112736348612,-0.02087827434396106,-0.02623268289392445,0.0161939395920684,-0.014921750042462573
298,-0.009745910976731588,-0.020266595948046293,-0.02433642172504007,0.009915619186130467,-0.004703977619156775
299,-0.012943556322723258,-0.01670031716210405,-0.021179330462307994,0.0031572221387693865,0.01166685455860728
300,-0.012855451232513485,-0.013632478159303263,-0.018187657493736922,0.00013608276791538906,0.024388800222025504
301,-0.010212650645509039,-0.01164759615765913,-0.018016937822949837,-0.0021614567823873116,0.02663430276775624
302,-0.007446066559064842,-0.0061503854226470315,-0.023430962580286763,-0.00552713713960274,0.01963920406298919
303,-0.003603450019697726,0.0038585719530695273,-0.03180967051490247,-0.005223155240617103,0.011620729858161954
304,0.0024430347692376776,0.008693406992173719,-0.036022381534168965,0.0004975008681982858,0.008625972562233337
305,0.008780522449097425,0.0027603881415117046,-0.030049241688049417,0.011930616382697911,0.01207082515095932
306,0.013402678649605315,-0.006862857319228325,-0.014359208849182091,0.026569828405361446,0.020054738989559003
307,0.014749647839615377,-0.01274245119438067,0.003099039648817936,0.0385296566384819,0.02882714009281845
308,0.01356468787138147,-0.012735428268590114,0.014305437472452252,0.04430790570673939,0.0343742246605371
309,0.011306908883036074,-0.009007585725792548,0.018046304058637518,0.04326348349222863,0.04016888967582038
310,0.00806688303735559,-0.005902518873029305,0.014999926670941844,0.03626130577002276,0.042653541924968695
311,0.0031735489674081098,-0.0064740482874559285,0.006004578442392762,0.025596749736255822,0.03620008056252293
312,-0.004042079440641645,-0.01089289080394083,-0.006752486368157443,0.013270317361760039,0.02573885572131865
313,-0.010114373199718208,-0.014071371579936572,-0.01831895401048928,0.003010297289042517,0.014444176198763575
314,-0.009314260910797609,-0.0103875876575632,-0.02143692391170301,0.0008349879655901836,0.004873889040447192
315,-0.0019168033000565544,-0.0015531651946451821,-0.01638262978403773,0.00803104579309877,-0.0018898285026534042
316,0.00519850680754288,0.005226439526040122,-0.01163463563894206,0.01843464978587017,-0.0055223369397580145
317,0.007785458133379278,0.005526862244084532,-0.012541018018580706,0.0250768026698114,-0.0053392295145376365
318,0.006129941456142216,-0.0006415192015780772,-0.01515485893757302,0.025110852783804455,-0.00010027505086778868
319,0.0004910775285270572,-0.011797181362056028,-0.01445644036802418,0.02060685474355226,0.004923174479358505
320,-0.006185805222941161,-0.02205660981182702,-0.010036578432372796,0.016434267555356073,0.000745714742494444
321,-0.008966100569130936,-0.023584331308560094,-0.0030861512795135495,0.015252026327870562,-0.0009087875706490763
322,-0.008699908470136943,-0.018051774736360403,0.0028352568655107516,0.01542366388277131,0.0020253736505845828
323,-0.010527200061890904,-0.014764029834113268,0.002979511584269355,0.013558870374686586,0.0031821685017466815
324,-0.014221338889952443,-0.01665794593415938,-0.002417415091896415,0.010041734039594958,0.004361737146720685
325,-0.015329506823625395,-0.0197895357427165,-0.0088635403979045,0.008041230515775492,0.0038546107588555032
326,-0.012673257560679461,-0.020595512355533967,-0.013413699973662733,0.0075369179801770825,0.00024240083212828176
327,-0.009359905936123231,-0.01851371060812762,-0.016094846813731318,0.005147521173637641,-0.0031135891532843426
328,-0.007280825495442822,-0.01480135607548591,-0.01733589542473817,-2.086877285994363e-05,-0.0062549886679024716
329,-0.005151155571515838,-0.011271059172906656,-0.016811945725506847,-0.0045284196285211385,-0.00594468706732287
330,-0.0031028709508616487,-0.01140587649899443,-0.015543019284881337,-0.006228349220938543,-0.002061988549605711
331,-0.0014708313040911708,-0.01580099719798779,-0.014700649447053328,-0.0054930993841083835,0.0032490275656592025
332,0.00135634425766629,-0.019662605405428277,-0.013580895286535855,-0.002769394234713063,0.007912606376164259
333,0.004783893875564086,-0.019405104871456778,-0.012120062463612516,0.00031092791060183787,0.011086587873384856
334,0.005446724711113759,-0.015849604782647145,-0.011762956182274223,0.0015191107471604732,0.01066781990593174
335,0.002266256630489363,-0.010363949975071339,-0.012611520556583228,0.0007532701039461578,0.00980919136638264
336,-0.0015731261347230478,-0.0036780376415754576,-0.012640352669465392,-0.0004773765159984429,0.0156435896800638
337,-0.0016266189223740084,0.001352536711528742,-0.009882119821128497,0.0004780667563259966,0.025021638985549745
338,0.0028627683586013144,0.00017136072978363913,-0.005811841879773022,0.004753505947396087,0.030455346948333423
339,0.007848336897896288,-0.008987773166010187,-0.00428743446947006,0.008835555406527055,0.029044320844650254
340,0.009918852098388607,-0.02213369920322574,-0.004525205345817943,0.009074838278780315,0.019792329749488174
341,0.009046119793057781,-0.03247748426275216,-0.0059308221785865315,0.005490335611122491,0.011951437627113442
342,0.006207993522689818,-0.03627011144538955,-0.009044108068215635,-0.0003039151171388556,0.011355769737005975
343,0.002853221449320961,-0.03421278533954546,-0.012480660230953315,-0.006468062785109514,0.01360141764574877
344,-0.0012208030992167725,-0.029632645255397393,-0.015229462476731936,-0.011467384975025108,0.013555343022955182
345,-0.008293332645330257,-0.02629804637814782,-0.016368537622685655,-0.014353898965606822,0.007040215270694868
346,-0.01678988746110173,-0.0252888428059931,-0.014896584304821003,-0.013508476718984485,-0.0004367013892038712
347,-0.02266911059992914,-0.02634852264270629,-0.011109129436893371,-0.008976371629894855,-0.0010823636980838074
348,-0.025393896950078532,-0.02931646663397423,-0.008163554004596542,-0.004398626016144072,0.0035950070887757393
349,-0.02609412127172156,-0.032519069793892644,-0.0068505008991414165,-0.002226794287204587,0.005202516894912869
350,-0.025394549947636333,-0.034789571453660295,-0.00572504811451542,-0.0022923989913273494,0.0022028177367197656
351,-0.022141069236482725,-0.03463883916938116,-0.00287401202296048,-0.0025987663575873913,0.0005065366259885646
352,-0.014926592119955381,-0.030405751241474672,0.0035769194862471584,-0.0004931416834938947,0.0029555617014122766
353,-0.00775431446492643,-0.024776696553686927,0.010303494517681406,0.0020178860217948636,0.007183885014353792
354,-0.006010898798135628,-0.02091917959202258,0.012298302137288273,0.0010817300213309085,0.007474151885852616
355,-0.010126205308085936,-0.019416156124250936,0.007747361356006525,-0.0032674645859065467,-0.0009936889583532257
356,-0.01627985461867338,-0.021060695691098634,-0.004593016507701783,-0.007625035274632577,-0.013901736841296163
357,-0.02040437538505739,-0.02593595970047596,-0.01387805637933384,-0.009407972665509934,-0.022361701123221746
358,-0.021408123364132427,-0.031061589094677124,-0.014117460364362724,-0.010300326389096956,-0.02157001893561439
359,-0.017769250358532926,-0.03220413583154025,-0.007944796412230181,-0.010465021141811538,-0.012172760613733404
360,-0.008515497475889942,-0.029054968668271612,0.004926670931062612,-0.0061484872840666515,0.0010581076107946874
361,0.0020335138124394528,-0.024631857429844632,0.01809869593299801,0.0032628325745907103,0.013433803952591278
362,0.009281740814611916,-0.020494780119868737,0.02561404137430888,0.01325494853297831,0.022890995686000188
363,0.01330123642856764,-0.016643935648900522,0.02746689878426164,0.019356972314152857,0.028968316550166705
364,0.015790320623908477,-0.01264395728492784,0.026840113933392244,0.021209996907180267,0.030393552933229553
365,0.016216481688013668,-0.007751176021388142,0.021978982121632736,0.020099050531690935,0.02765380465729674
366,0.012864362085864424,-0.0017154567184783783,0.013141836333013534,0.01619999348426893,0.02206449934234058
367,0.005354665182498813,0.004779692840484431,0.006421076131726921,0.009736200285330654,0.014920077348100448
368,-0.004632885120600316,0.007766936416055908,0.002794445511796894,0.002148722254606742,0.008813178216215932
369,-0.013657115453526615,0.0022927465101177154,-6.707557220706937e-05,-0.0047783084981952405,0.005307787693414458
370,-0.01871802370900806,-0.008990872734289205,-0.003341720798985661,-0.009735356488676348,0.004131418716857754
371,-0.018344638782279685,-0.017999792478966846,-0.005589376893486309,-0.009668460258542315,0.004147052030623007
372,-0.011797182599695694,-0.01952513519486005,0.0005114958631697586,-0.0015634246590901647,0.0077064345959031305
373,-0.0007264659916673332,-0.014311790508128279,0.011616768853189357,0.011424423450332394,0.017339917202929715
374,0.009410456522016119,-0.008585521408210312,0.020394202876326536,0.021703389550107127,0.028269591666642023
375,0.013257686448654328,-0.0075234467770144,0.023974461104428555,0.02430905127452736,0.033490383078028325
376,0.009846693702360096,-0.011133860075264892,0.020671499685660115,0.019387930406823174,0.029643581090149466
377,0.0033123946979484154,-0.016780061366652194,0.01595203480781367,0.011560076615265442,0.01839947670943499
378,-0.0008740929830224194,-0.021374304641518817,0.014917899403842581,0.006629205846876169,0.005953431489041554
379,-0.0010166768234258824,-0.022956311350767762,0.017763686951838845,0.00665986889467987,-0.0015907487846213264
380,0.0011313512916927356,-0.021372695370797775,0.020727172769782212,0.009021362160143143,-0.0019132595151822062
381,0.0035034290583843227,-0.018087453761786203,0.02338133458373811,0.010284411105970856,0.0032176533687685617
382,0.005477584984007982,-0.014915753634825606,0.025880631223197968,0.01055205678228524,0.009413611690080266
383,0.008319605089910514,-0.011625725300626793,0.027424753461056703,0.012902202453325122,0.011893414524429357
384,0.012987036445029111,-0.0062310968620696155,0.028843294277778958,0.018221573793597526,0.008501313515548616
385,0.017752630069681738,0.002377372076392605,0.028916737803942796,0.022664472993519404,0.0031088791093377703
386,0.01981724006082196,0.012168369701582256,0.028773499162788676,0.022501881105795738,0.0018966999147580585
387,0.018203243061450023,0.018580633802259845,0.0301316286893776,0.01872905075307135,0.00484835853740414
388,0.014784809200944212,0.017689782211649744,0.029118161431899502,0.015062531154094607,0.006981398295982666
389,0.012212892114533051,0.009171645127382732,0.026804687568360266,0.013740365246492785,0.005663284865998883
390,0.011415482783359325,-0.002408781717907025,0.023415258443786606,0.013615677962767246,0.0017244568966721513
391,0.01323888675709255,-0.011111515620657255,0.016909675241002925,0.013196602519105054,-0.0037031434638545814
392,0.019318327289438227,-0.013899984095142096,0.011047955149057768,0.015069071715886864,-0.007937458791310126
393,0.02748863076442001,-0.011364847848325678,0.008151166301684061,0.02241778050213036,-0.007122750509248671
394,0.033045313829659924,-0.005050824663814137,0.00899124535848498,0.03298923756114397,-8.678122822282018e-05
395,0.03389141094392469,0.0034547696908550445,0.01283158399548884,0.03961962404297173,0.010475199404971517
396,0.028882718120486622,0.010598143018643416,0.01597128459729157,0.03623571283024669,0.019104553160618983
397,0.01931674861739444,0.016421892332758876,0.014205667804908931,0.02474914221994223,0.024370295564352575
398,0.00908907033160235,0.02404861063351336,0.008256149941103977,0.010957518121849674,0.029570409385952408
399,0.0007684953537895409,0.03185096302586825,0.0008335201629137086,-0.0019319442208132296,0.03582798205837612
400,-0.003972053538967019,0.03697711542497079,-0.006039851596547767,-0.010274221389243464,0.04058778095847431
401,-0.005703696106709282,0.036409880221561004,-0.011340132897392967,-0.010851611544658264,0.03817405416159285
402,-0.005547837629682705,0.02716877695782437,-0.016054030063780488,-0.002610408654904708,0.026774145899285565
403,-0.002551420052728531,0.013033538702272356,-0.019029655183571338,0.013344346437923784,0.013222974433658038
404,0.002892385494284807,0.0011058099073222218,-0.012644569289369299,0.031236774477908742,0.0055698029310415655
405,0.008206975114435315,-0.0070022212094375804,-0.002494868362404264,0.04397474166056691,0.006910953386057144
406,0.01072732599950146,-0.012221787777795137,0.004520558919035421,0.048560186043168564,0.014065084077976788
407,0.009204416964474292,-0.012503082070849051,0.008218641487307722,0.04621139065110726,0.019787001072307856
408,0.004197370198382024,-0.009054668848278232,0.006988965462816173,0.040034801836970065,0.018637083122423938
409,-0.001884542247001148,-0.0071006219144303575,0.00554622804085035,0.033463272101815426,0.011799342104652173
410,-0.0054480831583563205,-0.006946865408016608,0.006935093542282345,0.029123888492514603,0.004650776337714205
411,-0.00556997915816711,-0.005476011728262823,0.008696814801578748,0.027466909308131598,-0.00017522612404372812
412,-0.005732591896355275,-0.003331960131130212,0.004961564053702841,0.026321988891532092,-0.004685992972381881
413,-0.006436186477819681,-0.0017423977977088132,-0.001091314060071711,0.02489326835084315,-0.009614492977991898
414,-0.004715286919363613,-0.00042866983423659393,-0.0035332734983637834,0.025061642051321692,-0.013024495858766416
415,-0.0030821910491808237,-0.0019561034347791917,-0.003403652046101515,0.02602670051719128,-0.015370953419672515
416,-0.004153615972364306,-0.00660861332589129,-0.000640954425236476,0.024889060358963058,-0.015725678497022826
417,-0.005467578046633871,-0.010357770820439703,0.004589908962024679,0.019876119218359786,-0.009949895595523683
418,-0.006900023745657946,-0.012044201458156996,0.010604629316396197,0.00994422642787011,0.0014622748825468424
419,-0.010432620674251027,-0.012231276860566055,0.015281801424343206,-0.00398950423520208,0.010233394976713285
420,-0.014218657436960597,-0.010938970818010981,0.012214000448623726,-0.01786500848222242,0.007183695206668085
421,-0.014359282775315452,-0.010369975508675697,0.006722469198830425,-0.0262717864442843,-0.006751823611121731
422,-0.010539094930021097,-0.012566070150426996,0.0021522642160360602,-0.026186611925873463,-0.020447431694452553
423,-0.006915744690517494,-0.01723057892664861,-0.0032648692854081135,-0.018995084120639296,-0.02554439131290783
424,-0.0058386121306805445,-0.02271495824378376,-0.0037620944868798005,-0.008633957938084837,-0.0231473681965594
425,-0.006253603776382663,-0.02724178625460667,-5.6906274141910934e-05,-0.0006110820604659878,-0.018676067770855943
426,-0.008588672461183269,-0.02993570062809241,0.002521619919145967,0.001048004515236402,-0.01487435165745287
427,-0.01366192961853002,-0.029982234520633637,0.002489342975395438,-0.001707020204918702,-0.010239308017687203
428,-0.020917611827301404,-0.026361001972989514,0.003648870338384247,-0.005178987467886277,-0.004849451810170884
429,-0.028559543062974563,-0.018149510236637873,0.004680987914190243,-0.008073598830575486,-0.001678547367774655
430,-0.03369894397304198,-0.006957815799103707,0.003927147440782938,-0.009538037070405576,-0.0009395166686546722
431,-0.03392882337708648,0.002884766393239048,0.0029608407202062967,-0.008412110426394385,-0.0006193459705858387
432,-0.02874304006255892,0.008028464089953639,0.002211153754059637,-0.003766149595060593,-0.001581682406116457
433,-0.020430065120849966,0.0076852316103377056,0.004368611175303113,0.004986626569746158,-0.005218431700545074
434,-0.01162033556601514,0.004420620132493275,0.009038606863342562,0.01726892715418685,-0.007690453782762464
435,-0.004782759000063027,0.00015186968770067912,0.01096581368210588,0.027674415758319162,-0.006467616542356442
436,-0.0027553512980888735,-0.0051351862919928335,0.00823864617676384,0.02885926452626343,-0.005810543274526955
437,-0.004711928714984181,-0.008447815153838596,0.0026643465070652463,0.022122995131080795,-0.008655493961575203
438,-0.007685122742771064,-0.008345973877127823,-0.0008421629248731607,0.015253055609073125,-0.013515758791880252
439,-0.009901045083919525,-0.007595090624361735,0.0013599014163725863,0.012728692681499223,-0.01819440261215117
440,-0.010930239558261409,-0.007999280115214603,0.0068532158786052755,0.01342734267056661,-0.02211195040483018
441,-0.012191828550258412,-0.009437944906786198,0.011094500078465118,0.013901530955113593,-0.025911138062152915
442,-0.01463209836029639,-0.010874438721420535,0.011487414023783449,0.012748145751100204,-0.029316913437205463
443,-0.017422150755627665,-0.011111997698769867,0.008007928642227794,0.010702576196178547,-0.03139769421237365
444,-0.019456525790907023,-0.010140522246962309,0.0010010885604895283,0.009095969053001111,-0.032051625549488864
445,-0.019368550936286425,-0.007856894191576933,-0.006112756904505135,0.009594447211209972,-0.03029376704791217
446,-0.015195759717922136,-0.0017382964296155786,-0.008962856101977336,0.013132519958203744,-0.022475214923573426
447,-0.007156862339888466,0.008764316129957478,-0.0063664703216970925,0.018617700820947044,-0.007772832867401862
448,-0.0003387052598094099,0.017617540261754196,-0.0011399937587518439,0.022139587456203678,0.006824870758182806
449,-0.00026892248942660563,0.01787126907751913,0.0015310987804189728,0.020046252943938143,0.01160348851261771
450,-0.006239559001741058,0.010678622871849135,0.00072640906854485,0.013510388121665754,0.003952062994365167
451,-0.013766716294012122,0.0033887562518184655,-0.0011614642647709873,0.0061362393568071,-0.009910963230177261
452,-0.019230132593950282,1.575215078919121e-05,-0.0032932304250657437,-0.000499705037098732,-0.021716264549939208
453,-0.020504768257407633,-0.0007457037596540247,-0.005783842253565108,-0.005994890350497081,-0.026643519123867133
454,-0.017360107616203393,-0.001601238514542062,-0.007512611911291412,-0.008404404357916954,-0.024075369918954172
455,-0.010960584976846592,-0.003531376207487728,-0.007971486460158855,-0.006098006083877934,-0.016745607514189735
456,-0.0025684241036982142,-0.0032400467360349313,-0.0069211947258314,0.00018752208712909986,-0.008604035202036541
457,0.005647245025777068,0.0009667938235771919,-0.0033625016595468494,0.00821988208604376,-0.002461026562565076
458,0.009983572600126004,0.004034757497387825,0.0007150539160566176,0.014613745980488277,0.001214905956459317
459,0.0083740750442612,0.002053314775609069,0.001776519378055251,0.015627979797315103,0.002611384670357107
460,0.0019422112257241966,-0.0032771585689303894,-0.0016003446931421967,0.008718130022724875,-0.0009689956238316247
461,-0.0044569414771449545,-0.006939775378549245,-0.006811429526121844,-0.0028874121010092606,-0.009142476074580356
462,-0.006899878445785835,-0.006293184004239163,-0.010252302198059835,-0.013417335985523375,-0.017626339481501437
463,-0.006525311148683705,-0.004427434022819408,-0.011868013427891625,-0.020763857093317555,-0.024380970451512232
464,-0.003208759489647464,-0.0030080813541686698,-0.0109471133916225,-0.022119855312898933,-0.02539924371011787
465,0.0029199546811254666,-0.0013458980588118442,-0.007084538830403943,-0.016032919936591974,-0.01853230870426727
466,0.007639628291220832,-0.0007620743785172821,-0.003696227089181341,-0.007109631349240599,-0.011270692681282342
467,0.009387209231088517,-0.0019773199278934864,-0.002561927558920067,-0.0009258025994827225,-0.01160869748281426
468,0.01088972915241968,-0.00328595712634306,-0.0026596677579166957,0.0006954489871936624,-0.01729859502098267
469,0.014246467651025373,-0.0021725090615145647,-0.0029215290323658695,0.00020102355804990467,-0.019313742356031543
470,0.018058537394751262,0.0006165482599027469,-0.002511030742748895,0.0006075451316295798,-0.014540940041311482
471,0.020569141794606498,0.0023968046656562504,-0.0006751538190048954,0.00326074756263074,-0.007807001181687355
472,0.02315014497528083,0.003961209437790711,0.00238339322424644,0.007946135220665158,-0.0030090356675327064
473,0.026755189354053875,0.007585795940078136,0.00415882805433453,0.011867361240590598,-0.0012817843648513078
474,0.030028689856227326,0.013635596459810023,0.0030829478322275746,0.013298535657886272,-0.002188414613146635
475,0.030960855597228713,0.020101011493743916,0.0006975513402056355,0.01304753107858714,-0.0037816245653071938
476,0.027382646852566226,0.022681807010694728,-0.002147556908457953,0.01023233235710055,-0.005340396546276197
477,0.019296217948110848,0.018646830918126887,-0.005922687635834609,0.0033917430737594946,-0.007523244809560667
478,0.011736023096798965,0.012090646335460004,-0.008184348997760814,-0.004242976304463407,-0.009177331052559993
479,0.010045626999779352,0.009173448782015948,-0.005440715388602618,-0.0077452983013534425,-0.008688249319901385
480,0.013585383126994087,0.010383561857742054,0.0009611838410043973,-0.006850882079282397,-0.006969315641842514
481,0.01770094230329439,0.01268728737238756,0.006377619547521494,-0.004466555567483818,-0.005938525647559938
482,0.01893726679888503,0.014827874680470903,0.008441835151549537,-0.0028316596910941726,-0.00655714100361519
483,0.017937889658031298,0.018190561958710705,0.00875342678723457,-0.002226704545996179,-0.008096545705947452
484,0.018529595040125742,0.023324868699945538,0.010892878124074688,-0.0006112992385989888,-0.006736797720522468
485,0.022607427001737596,0.027457681316011097,0.01573876428921183,0.0030443424199851766,-0.0007779257221600335
486,0.026766291321888933,0.027853166031586357,0.019085311373177215,0.004940877493943505,0.00623128873778629
487,0.027325010521013566,0.024493127360328985,0.018087076001349057,0.0016504155472160473,0.010032961637350127
488,0.024913350173860434,0.018614988124136426,0.01568770454951822,-0.004761657374804966,0.00953376351218845
489,0.020626198706045616,0.011406133876092234,0.014247872515469972,-0.011504328436514763,0.005818874273438583
490,0.015692212135223177,0.00514353042475858,0.013950549207853645,-0.016676238065348365,0.0014085492526120804
491,0.013848227494337867,0.003583392458296008,0.016312264527438888,-0.017136327533662527,0.0010077876854550063
492,0.016664117570666593,0.006548025678347405,0.02106300697719964,-0.012141898442218397,0.004782147486253768
493,0.020345942349468894,0.008305338558032728,0.024950100001129773,-0.005798604367893237,0.006997792177804252
494,0.019581322182643753,0.005078066690909206,0.024736134938315286,-0.003471231566938347,0.0031261687645585796
495,0.013903956565353318,6.259633760854694e-05,0.0200387523653474,-0.005962287244782731,-0.005111596342516703
496,0.007751387556174766,-0.0023229918290407314,0.01401135694048071,-0.009537024659784137,-0.011212697730143734
497,0.0042067823921882845,-0.003138265470912527,0.009834808499777484,-0.011817986843199487,-0.011700682035966647
498,0.002207513048931488,-0.0064165353726692385,0.00834908923750925,-0.013793559379105662,-0.01021706633800362
499,-0.00042439751782625336,-0.012679920149360747,0.009064617575285323,-0.016447436241892658,-0.010615647939461454
500,-0.003835694485805073,-0.018427475884269993,0.010852065753158878,-0.019579691378622602,-0.013113624667832401
501,-0.0061092646079165605,-0.02042908078683112,0.012724713631773828,-0.02282842467265122,-0.012485524859540307
502,-0.005993082602604254,-0.018207712577601325,0.0142925410893091,-0.02447625949181528,-0.007984434776440527
503,-0.0038455800517036044,-0.012428749993641453,0.015569701292248135,-0.021958742369085335,-0.0013084353895238957
504,0.0002972700163644805,-0.0034949665856325862,0.017008147026969796,-0.01511614611050575,0.009896842403943487
505,0.005050205938789004,0.006409590091938888,0.01801468203763676,-0.007564246705892361,0.020148283456511613
506,0.007490545834813797,0.01369191788636601,0.017774017350278257,-0.003765206409775804,0.020395286582564006
507,0.006984884264562496,0.017387224308192978,0.017971746138212157,-0.004164808222084625,0.010746734565157757
508,0.0054551667815767885,0.019848853283862888,0.02036385070879567,-0.004992331198150307,-0.00018819268574921688
509,0.0057869875920714626,0.02403380187920167,0.023814496943259367,-0.0027482720477116462,-0.006722807680713748
510,0.009094516342777128,0.029946423703652827,0.026176477019215886,0.001821717649754432,-0.006852663379622456
511,0.01290097134466376,0.03425480017405095,0.026876586953729787,0.005476109694685411,-0.0006401058694072878
512,0.014930494779290737,0.03720052984051064,0.02689581923373412,0.007184279402352941,0.007080116096766659
513,0.015065600432971189,0.03464878239791072,0.026135107599466738,0.00713774830663199,0.01057783474897295
514,0.013842695652418439,0.02942404499322902,0.02335526791326863,0.00502233194612539,0.008589342820538607
515,0.012501726426381438,0.024069105190416582,0.01981630130639599,0.0021600122848742316,0.0047623534902517025
516,0.012726526514980286,0.020951257965366312,0.018416222545062873,0.001636319822981864,0.003806857676616488
517,0.014879635208420911,0.020765639615044695,0.018710579731118337,0.003893774315400351,0.0033613761354143548
518,0.01839703095019667,0.022012960616579896,0.018638273263011134,0.005970290148457233,0.0033119080086253037
519,0.021937149468836122,0.023005398162545522,0.01792228021613338,0.005388926563333347,0.005010306613238397
520,0.022147891852100685,0.02279822405046233,0.01609859765713369,0.0015454241816778287,0.003900678681766205
521,0.01781559583697078,0.021354601671197657,0.013852046062462537,-0.003501344854583775,0.00022363871862850462
522,0.012258968823336198,0.020108958403075507,0.013382009005874041,-0.00638524529830304,0.0009256649888088122
523,0.009405831458750428,0.0192065420955975,0.015193712101098013,-0.005660271241554946,0.0095851306342076
524,0.011364348039431055,0.01960033221821631,0.019129508152963347,-0.0015299569772999036,0.018987503104292428
525,0.01665529430791995,0.02273742841921449,0.023165505944824635,0.0038551436690982986,0.020501602344819535
526,0.02105905063189796,0.02535884519430532,0.022677069650918952,0.008023638872492685,0.012546692697312168
527,0.021536147340748373,0.02205751255657748,0.01580445689809766,0.010299945658444767,0.001277254854668156
528,0.01785945363876197,0.012619466857200147,0.005471862777061287,0.009369404890334738,-0.006292782190659499
529,0.012828670508039604,0.0014790560140506303,-0.004233563026802592,0.005123813017082451,-0.011400145142877703
530,0.011466118764911668,-0.007582458759601843,-0.010585139406488362,0.000967796095947249,-0.018220176748149672
531,0.016267015350599493,-0.011170564773390675,-0.01165171286162334,-0.0005351038023608148,-0.025663658446460878
532,0.021595910291519752,-0.008401892553837876,-0.008518664748259405,-0.0013959098740884445,-0.030969520757464
533,0.019351243918654105,-0.002845391537522835,-0.005566622714701175,-0.004408960875913466,-0.031239275825261887
534,0.010458446721783041,0.002924492721524907,-0.005474960723911968,-0.009351751338915108,-0.024184752006410286
535,0.002321396661740789,0.008807001106796513,-0.008090120471726433,-0.014907367510527856,-0.012533779270649852
536,-0.0020591241046111234,0.014755806025606184,-0.011904652218527826,-0.019131508372638828,-0.0017017912935237706
537,-0.003732509423283111,0.02031336161529716,-0.014462076195989586,-0.01949633964237852,0.005560093022717025
538,-0.0026294308783008638,0.02461577642775297,-0.014036764083229462,-0.015365755227316358,0.009293550170493539
539,-0.0009618039589920197,0.024824025018278878,-0.013562425148441293,-0.01047660636286675,0.00729515779249394
540,-0.0018582804630304778,0.01875337330150419,-0.017825125271354655,-0.009801404615035716,-0.0015890882153178042
541,-0.004593150000940022,0.00975576878785564,-0.025912767518005295,-0.013849703401087855,-0.012093426692536303
542,-0.008684580746882529,0.002012859309640552,-0.03373382656992927,-0.020185191729670583,-0.01789233662320049
543,-0.01403595648591792,-0.0021213881743679993,-0.0384923411224657,-0.026014474797370193,-0.016988872208294942
544,-0.018790706844501293,-0.0016861423607517358,-0.03891558220747748,-0.02861007138856017,-0.012008656839043882
545,-0.021351023941389886,0.0016225890912832026,-0.03627624118634881,-0.026918838695072608,-0.007864667227311887
546,-0.021147934839311353,0.007000193757319949,-0.03331273258810654,-0.022453209835527645,-0.007865846046353101
547,-0.020708590859053033,0.014082106133968425,-0.03200336854634995,-0.019355853718671566,-0.011924271477186853
548,-0.02370326551295002,0.019509967260526145,-0.032600955406310216,-0.020828518630623807,-0.01646088482307948
549,-0.02759496931471885,0.021200156918644127,-0.03311390921498779,-0.02385200320581387,-0.01718666856444932
550,-0.0277943107516894,0.019752631433958417,-0.03212247646650279,-0.024276651998047252,-0.013876340411667855
551,-0.024972408777603476,0.015225782351063383,-0.02972156596096181,-0.022147115931971474,-0.009993584867923556
552,-0.020046668833530897,0.010365928517454806,-0.024125077779381558,-0.017201996731101885,-0.006294776711831109
553,-0.014101121238947195,0.008572975168050985,-0.015741782514593485,-0.011446501663809172,-0.003437157913784697
554,-0.009576477283575614,0.00971839928214317,-0.008723956113059634,-0.008727758586145386,-0.0024439101095795755
555,-0.007407279022063055,0.011531371866616473,-0.005933653419904383,-0.008665006742941178,-0.0015875550171439256
556,-0.008628098231803608,0.010268462646714629,-0.008484401196445078,-0.010093297959999224,-0.002686480913735237
557,-0.0127326168157344,0.005076730174381466,-0.0155831482551768,-0.013169700341154465,-0.008941912202153707
558,-0.01637886024832613,-0.0009570140216732222,-0.02501813529767201,-0.018090800958543308,-0.02010964705332709
559,-0.015466514439628199,-0.005692660001729228,-0.034111378883935964,-0.022614134243340835,-0.030005547298518353
560,-0.01093195658861437,-0.009875430010453925,-0.040561741995847576,-0.02303549326848922,-0.03140079968063435
561,-0.008714615810475418,-0.012573925238015139,-0.042745588712520315,-0.020148259874700855,-0.02417361955672327
562,-0.011089869189080967,-0.008762567536968895,-0.03947755631139913,-0.01847285724256055,-0.012254033609643711
563,-0.015431608371904272,0.002058196948250533,-0.031157037571481656,-0.020089140647260924,-0.00034507853270176206
564,-0.01643702018780521,0.013802848481187657,-0.018440964147554813,-0.020954998529736597,0.0065738077960236
565,-0.011259900703838555,0.02208102717501327,-0.004028268294649367,-0.016839735975658267,0.014307956532899619
566,-0.002533732026353412,0.02561144622010588,0.006498010545788559,-0.009448590732428241,0.02123388104441519
567,0.005532066866471612,0.025168757067643842,0.010761302623433054,-0.0021299647821798147,0.021290061186348918
568,0.00823622661125898,0.022021064597288517,0.009791848287660589,0.0021071954230242273,0.01937869675420216
569,0.005159220037256445,0.017924153954664217,0.005976519920973346,0.0016515038793124552,0.018946635950771923
570,0.0009577634444771297,0.015920665995119185,0.002268508762471319,-0.0015326082844820518,0.016056099279575218
571,-0.0004164667641179927,0.016931043528255273,-0.00039475761626150393,-0.004688280930933357,0.004439154173550318
572,0.00344585197625244,0.019677999800336778,-0.0024844903221774867,-0.007058261368662933,-0.00022154880297615905
573,0.01018845174346105,0.024375243744541794,-0.005348650303794724,-0.009195328622700174,-0.0026450790172299456
574,0.013586741730507416,0.03148102900352649,-0.009418793674918206,-0.009150519647722717,-0.009499808173874242
575,0.010975108806402427,0.03561704033569057,-0.012009852326419235,-0.0052529574788197945,-0.013623917038195864
576,0.005623033282203459,0.03295330434779301,-0.009687240227985873,-2.5167190149578874e-05,-0.02148490774909305
577,0.0030935243971511365,0.02173499213825926,-0.002161727314615819,0.005595079395618341,-0.019082420193748832
578,0.004904593825440429,0.011108944955277554,0.0065454647976845755,0.013101111479875575,-0.004181367683323952
579,0.008430640666139475,0.004866610192448312,0.01249290299418779,0.021360713567886533,0.015242119067025777
580,0.01163838570183075,0.0013842924213276118,0.013741553344031477,0.02639019220115217,0.021825682961233942
581,0.013053499784068258,-0.004175599345348273,0.009372008309577923,0.024118763946015895,0.02019198288340175
582,0.011918508064131616,-0.011565880313544498,0.0018212577421519713,0.014616370590654433,0.014025043002125943
583,0.010582896610741143,-0.01337969098740588,-0.004157657571602748,0.004492385478487052,0.0014797601975856565
584,0.009377999172665604,-0.005248510559147986,-0.006249293280633996,0.00047681346960920203,-0.005399521194401732
585,0.004091738836720728,0.006736999392470317,-0.006487579936867534,0.0007033643811925851,-0.008132959854088394
586,-0.004166107096599866,0.014426975512019484,-0.007326533470410148,-0.0007123797879832464,-0.010184954250952838
587,-0.01030281998403,0.014467988572691732,-0.009765792486850838,-0.00626198915936545,-0.009317462116852764
588,-0.01422483803352879,0.006463570099928227,-0.01407027543370072,-0.014195945114083014,-0.0042714634772758105
589,-0.016825007470680286,-0.004251702708819752,-0.01695855267083876,-0.018660041563169683,-0.0025027847251982167
590,-0.018286172413705844,-0.011002764744745649,-0.015343294042456261,-0.01639337983600777,-0.007879398864669344
591,-0.019185346259573254,-0.01232072144986095,-0.011065755682740283,-0.010226064695042347,-0.014889259498683666
592,-0.01649357505349735,-0.008542753542564849,-0.005697061965754227,-0.0030431118072787315,-0.01700630686570542
593,-0.006838522516179878,-0.0013292388339181196,0.0023191067069189882,0.003978306191631314,-0.01016713525515023
594,0.006368909220131148,0.004174972818876482,0.011932855231696916,0.008931142533859364,-0.002270878364047289
595,0.017601829820123795,0.006096630573655509,0.01944428697524797,0.011980910698132506,-0.0008093557019899593
596,0.025869843066845533,0.00889203173355677,0.023949632090476278,0.0157992562806216,-0.0022803780156005616
597,0.030131202383684656,0.012746587248947382,0.02596736522913307,0.019313382393600937,-0.001815946151534813
598,0.02826169355524708,0.013618278103610687,0.025909479933392522,0.018981181727857507,0.001723259507177992
599,0.0218337432963526,0.012265446351400299,0.024471570303986175,0.015083201343993644,0.008005723109584046
600,0.01498725116812337,0.011499302253290817,0.021971940288626233,0.01152248887976064,0.016187330578455
601,0.010478113158631673,0.010525390389372875,0.01908433475789237,0.010814771401102341,0.023039711933832696
602,0.008788756588356102,0.008891025538884647,0.01729604963092974,0.012125426253754701,0.024464181889319852
603,0.009246813472962393,0.011537195177369418,0.018027091642849997,0.013783744679800623,0.020216576395486043
604,0.00902061078095345,0.019744634426240193,0.01921514605670159,0.013882161527548557,0.010986179532272154
605,0.005124702935896585,0.02481441588701286,0.01654542724072441,0.011292736566976434,-0.0021403224029466128
606,0.0002577755256152581,0.021930598622021163,0.01142604556819157,0.008544141939305649,-0.010581374829868958
607,-0.0007548973841117302,0.01612229637133085,0.009150030676867644,0.00851261251506055,-0.007628781248330501
608,0.0028108607988810287,0.01253011705958076,0.011521606872598586,0.010794274966892172,0.0010480339789035048
609,0.008345763096054126,0.012742766335119749,0.016805024406478755,0.013023151520735222,0.007067961089192129
610,0.011066529721297498,0.014760919706644993,0.020889752982531443,0.011635111525448124,0.006984733591239042
611,0.009469865642106747,0.014885602931104552,0.02238735363133853,0.007102854796777118,0.002599696512245098
612,0.008479443507948497,0.012302972909902055,0.02552685489156992,0.005738311315426476,-0.001130575233996047
613,0.012130210461904725,0.008185649148391932,0.03178169627377657,0.01048243896796306,-0.0018943004264901297
614,0.019062970367282783,0.004180514641489124,0.037165425482289224,0.01809897575454863,-0.00012160945029764598
615,0.024793177162009815,0.003019989855002419,0.03830102332812234,0.024499789595245035,0.004581397252503864
616,0.026141981115088506,0.005137639320646692,0.03457839815704328,0.027196265740519702,0.011549659525836404
617,0.024757237594849334,0.007883048081251665,0.027693664299530626,0.026647360111125954,0.018249593478358427
618,0.024062769871580007,0.01034950647388352,0.02083365553770648,0.025213402742420087,0.02306386705460874
619,0.02355850918747063,0.012932474232051867,0.015200490029588721,0.022503097513473406,0.024690636905208764
620,0.02019606472059626,0.013561931892427114,0.008396409002502176,0.014852467191957274,0.021125476142380983
621,0.014932395608194841,0.01095137468638457,-0.00044447776632121913,0.0017587194228796579,0.013821075630745175
622,0.011048039208148048,0.007344643935002649,-0.007842160741174704,-0.010164174372271595,0.009048662678598537
623,0.007919457656504918,0.005288658123474667,-0.010919280063615564,-0.013783461713047855,0.01098987957857291
624,0.004537323041120077,0.006234377454123477,-0.009618331024056794,-0.008442042293372415,0.016744677494387402
625,0.0020348368300480736,0.00885010462579608,-0.006011479758405985,0.00038468527372770284,0.018453670340946682
626,0.0005498021092690814,0.009207453656048614,-0.0034932942347452103,0.00568412340808473,0.011940547915226885
627,0.001469359565388245,0.00684565973832973,-0.002720607165053256,0.0065579713117787505,0.003008831934670514
628,0.007369317875560697,0.0034009830104289778,-0.002231421762859495,0.007602249354125619,-0.0019937804419278304
629,0.01517665042348275,-0.0017228707435559259,-0.0030493901071906885,0.00964850489757037,-0.005589471066387784
630,0.018958959847834723,-0.006012487526765532,-0.005519493818298459,0.010036026523395839,-0.01014532451267277
631,0.016503519991039054,-0.005974975084743982,-0.0064847154555336,0.007762696264085613,-0.011967086595165818
632,0.007948171646353594,-0.004550200134810479,-0.0050127596522840144,0.0029459776724256896,-0.010057889034309106
633,-0.0015422768512153252,-0.0042293679796405505,-0.0036255134642863202,-0.002661815395352559,-0.007443561525631888
634,-0.0046570673692241694,-0.002562102147263732,-0.004422491587028418,-0.007863506014494813,-0.007237474416806282
635,-0.001118855002911576,0.0010108090551856118,-0.006789621700467863,-0.012347215318063128,-0.01034665022659523
636,0.005269238276879275,0.0035363472316908154,-0.006796331376981633,-0.012308804598513584,-0.010213676574446391
637,0.010809677618984671,0.0027021735193832616,-0.00282105959799018,-0.0062793287584200445,-8.784606135603619e-05
638,0.013123553226783099,-0.001288189377498156,0.002171550123723627,0.001491155853957851,0.014165493110846625
639,0.012988128461625847,-0.007105455546590101,0.0056588193492202645,0.007270218213717259,0.021702569686285623
640,0.01105709292740643,-0.01356126292578899,0.006215142382293982,0.009215457018292591,0.02152119696411137
641,0.007578878139216352,-0.019116078983467552,0.0037442930472925307,0.007083431418883769,0.01979227937292905
642,0.005232885582738858,-0.021836710869899332,0.0010918858643078461,0.0035651214827668895,0.019226287499648654
643,0.005869755026899873,-0.021098839915420848,0.0009221271250589887,0.0014915665225213026,0.018159632042598562
644,0.007714499166574369,-0.01819205626999868,0.0029723602308285484,0.0015776863358140255,0.014744738326119895
645,0.007938833339603626,-0.014649610094391703,0.004946041063309989,0.003333401300469838,0.007867463066881129
646,0.005428686706727351,-0.011095211624312911,0.004835454160664542,0.0044116607072033,-0.0015551919011643725
647,0.0024696008845075963,-0.008637348653446923,0.002379835115805272,0.0025027207483827333,-0.008067721301038673
648,0.002216054100371663,-0.00853866794840259,-0.0026328966007403217,-0.0016206234440988173,-0.006335411260011497
649,0.004341017358438914,-0.005414672701552721,-0.009423380749937996,-0.00472475149405754,0.0020764246719021354
650,0.006031888916861747,0.004695868697284593,-0.014322662635815052,-0.004106287817886207,0.009580927184036055
651,0.004955704761257532,0.011897488932624718,-0.014423370612650727,9.404048005770726e-05,0.010501463710233524
652,0.0027015070769701144,0.008668645119923548,-0.009930385901377702,0.007724057542479953,0.008701444269270235
653,0.002512655738397116,-0.0006982527341098934,-0.004560312915375239,0.01726674964406273,0.008660311024442329
654,0.004422564031515334,-0.009896471819229133,-0.0022324482398234343,0.023645399121885093,0.00748662485059689
655,0.006798922288673392,-0.014277463703322894,-0.0018831430050784644,0.023761497559141902,0.0036141086181748117
656,0.007304099615744627,-0.014152662230341458,-0.0010154392247213437,0.017870271977806322,-0.0009077962479837582
657,0.005786055778860721,-0.012351304270133475,0.001410201793997355,0.009417897804544599,-0.003711942306086261
658,0.005252494375038476,-0.008856341840082244,0.006192841898244999,0.0039593367336875655,-0.0032094781541151026
659,0.00626938409373314,-0.004456459666253447,0.012188716503958405,0.0034476739218991534,0.0009755387172245586
660,0.007852513353980982,-0.0017537699319821708,0.017283788003247414,0.006906460712510704,0.009042106741853117
661,0.00982856020557554,-0.002313682075046044,0.02057954119519659,0.012400964980249824,0.01825058451393291
662,0.010815554718393577,-0.005514034883479949,0.021828542699532848,0.016508603947068445,0.022725121882009206
663,0.009444960234094748,-0.008599329269294962,0.022017047710378865,0.018094261057818226,0.019464050769639366
664,0.005878439981588782,-0.009499127374976794,0.022880490097186644,0.018204371439934617,0.010992020389914276
665,0.002352603485528184,-0.008449470272280114,0.024051354986944887,0.016414408122639973,0.002617091612655102
666,0.0018620433390928253,-0.006629451512861714,0.023205064861440045,0.012465489845330186,-0.0020969939002322573
667,0.003482897502208519,-0.006256994339400268,0.018925170178909725,0.007857485216920163,-0.003837564327903032
668,0.0030528309656155297,-0.009878482595385839,0.01183282130772904,0.0030127712157710022,-0.0046643519966365335
669,0.0007312777204136538,-0.014421681213167047,0.0047972732764461805,-0.001145682730357323,-0.004713085738986061
670,-0.0008652691312144644,-0.013974171337440885,6.394446836126357e-05,-0.00253337705416397,-0.0044655114355377406
671,-0.0032263276040905087,-0.009505869057428932,-0.00270854360649267,-0.001986195257404965,-0.004252306969804727
672,-0.00635144195923965,-0.005207649911607624,-0.0023444791795797716,-0.0012427927355643654,-0.0025350491202458716
673,-0.00820837834343512,-0.0028441016937315725,0.0016871200595866566,-0.001324629142554784,-0.0010816941764539196
674,-0.010451627003151836,-0.003868062088055202,0.004661130294576214,-0.0011321597936365575,-0.002505978990615438
675,-0.013597303842430446,-0.008285138076709893,0.0026566024233056285,0.002507413566893573,-0.0035947499098138444
676,-0.014036461046602852,-0.013427192290702366,-0.0018370802326004847,0.008499118001478994,-0.002981561598961137
677,-0.012417867260502171,-0.018234676429909686,-0.004455589193760553,0.011900372768282931,-0.00520863485900747
678,-0.012550355934839165,-0.023668459774810822,-0.004278597023885546,0.00954504239308454,-0.01082447435436104
679,-0.013409663058101241,-0.02848775931707531,-0.002125047232041354,0.002827831797504832,-0.013392285411460501
680,-0.012471239809630993,-0.0315523766121385,-0.0011394832963735424,-0.005938588001708477,-0.010015608527922189
681,-0.013111897414645734,-0.034995847898914245,-0.008336691853276438,-0.017954734468089307,-0.008609484397556955
682,-0.01908202558651893,-0.039394020114364596,-0.023941780778711834,-0.03180278652783348,-0.016233613964795893
683,-0.028056259054368402,-0.04292081442774127,-0.037056010675190876,-0.04223214598252775,-0.02717533357056714
684,-0.036344991221747065,-0.04493674995387234,-0.039297334588031224,-0.04659598756397834,-0.03181932439600352
685,-0.04112275441404535,-0.04354818197593668,-0.033058593594885534,-0.04472892412247729,-0.02961757384898314
686,-0.03995727034410721,-0.035922651492075595,-0.024722612053087758,-0.03720601082861803,-0.026695695867387913
687,-0.03306937573830956,-0.023550505719594935,-0.01779779142671373,-0.026607291236143155,-0.026931102794716503
688,-0.024532176577269804,-0.011642338906007991,-0.013086459875951258,-0.016978479551152118,-0.029208461079145896
689,-0.017864409918375887,-0.004222561020445228,-0.009697860641106306,-0.01065766521988552,-0.029669293498411353
690,-0.013294605840252846,-0.002567873404750328,-0.007092006483260936,-0.008363594854461767,-0.026686694567905365
691,-0.011191559610644518,-0.0063962310257223475,-0.006628009047919705,-0.010695826143189015,-0.022114733298531156
692,-0.013338871371229449,-0.01354909663064907,-0.009105873413795674,-0.016329549025668667,-0.017918574215517673
693,-0.019297995928990702,-0.020872280513680216,-0.012978885873484598,-0.021765479011547156,-0.015073404477084653
694,-0.027465522898467792,-0.026637088634763738,-0.016289090366009847,-0.024893644964805676,-0.013412672994532436
695,-0.035360597211732014,-0.03045219295897715,-0.01888681829459774,-0.02619632445279243,-0.01213963425373662
696,-0.040879208384766955,-0.03313894226253414,-0.022260843224025214,-0.027073089894183,-0.011466530059364759
697,-0.04348403200713015,-0.034873487215372305,-0.025920056700397754,-0.02704895865872584,-0.011724816981745911
698,-0.04188716790591508,-0.03332918299787055,-0.026166489869869403,-0.02429594860621834,-0.012498891072255373
699,-0.03598891047385752,-0.028029775414071156,-0.021895355775262516,-0.01954387666196498,-0.013709467470743192
700,-0.028139693986311415,-0.022346957426672188,-0.016325174748687495,-0.015090433696453878,-0.014407404046066271
701,-0.021616007010817572,-0.018998476900879187,-0.012428193628214904,-0.012329988987434766,-0.012062964431884579
702,-0.01969255124519513,-0.017711375619145805,-0.01135314813205111,-0.012491039370100245,-0.006411716457108122
703,-0.02310926044632495,-0.015614066769477302,-0.012709949538246942,-0.014609587980683849,-0.0005062505109059135
704,-0.028101920242713536,-0.01040508456605343,-0.015282366241480563,-0.015480311284452184,0.0027093059159542477
705,-0.029126054251687853,-0.0037277446344891256,-0.01741895012409242,-0.013333606860644097,0.0023056524601613587
706,-0.026594382154603254,0.0002647286159297145,-0.01747673538946301,-0.008577131058647809,-0.0023382302823909394
707,-0.02582703713927259,-0.0015314554198855154,-0.015719385722786788,-0.004974192134224093,-0.011807527995644464
708,-0.02996648532206573,-0.0082279286885764,-0.013318082603870834,-0.00737867316096604,-0.022010731224668092
709,-0.0359675562135453,-0.017338461636191304,-0.01128251227274743,-0.01590156642006011,-0.025918987381467504
710,-0.03750790026807937,-0.027434266078718957,-0.010157234076177366,-0.024428421478560402,-0.021342377880344033
711,-0.030943830274261102,-0.03474369270766257,-0.008191268387627222,-0.025283756953387547,-0.011250164576577116
712,-0.01871597429333104,-0.03424102051908107,-0.003049128024164646,-0.01633145450262574,0.000983462969888884
713,-0.006594680526651404,-0.027016728531248778,0.003931313714612379,-0.0032117583924739877,0.012579679399712631
714,0.0014618369723229715,-0.018537785212947147,0.009453070330616955,0.007249840585351916,0.02168787196049899
715,0.005114366074448546,-0.01147780203582136,0.012243372114035303,0.013068612120264512,0.02774075846576169
716,0.005406127276418199,-0.0064159035199923995,0.012121647875969144,0.015171747631555568,0.029399847324836755
717,0.0037498807745993414,-0.0029972874075237677,0.009747932816760979,0.015211896549102741,0.026662845678162503
718,0.00038033377475977457,0.0001225385118685024,0.006382046208595402,0.013558311105978228,0.02219903418019993
719,-0.005836983196592062,0.002153316605283525,0.002304190317501543,0.008965628949005476,0.01780447889512255
720,-0.013417519217079253,0.0012508624134186283,-0.0020593460255552767,0.002421199702800825,0.013191453050061142
721,-0.01898993345488728,-0.0018371581686831033,-0.005836094796696262,-0.0030902020180311246,0.007841363605357084
722,-0.020730701994787954,-0.0054101738486193336,-0.008788167643414727,-0.004835050755188219,0.004152242513440932
723,-0.01907506713809485,-0.009111393000894636,-0.01133624395474368,-0.0023619927676375232,0.005151397758660072
724,-0.016261693305081475,-0.012276692722176828,-0.013902913934937635,0.0012712300789161262,0.008864629625630406
725,-0.013858386958994622,-0.013344276673842564,-0.01635612954067542,0.00427797410751942,0.010152020468638421
726,-0.011906054696050146,-0.011704636779639252,-0.017303116677724592,0.008860255854519043,0.006938648516386067
727,-0.010598427326051945,-0.007572999283615865,-0.014518805931528656,0.015418874343889014,0.0021493676851107764
728,-0.009522681795068192,-0.0005489240245109928,-0.008209445770834404,0.01871547255511868,0.0006335883586879413
729,-0.007846022348313787,0.008714540598372107,-0.0012355835182730512,0.014978100002013071,0.004963286841670837
730,-0.007078255230943441,0.015500923649078187,0.003581943527098491,0.008143848310086502,0.01168946277351396
731,-0.009305202010111407,0.014669808962339001,0.0042698372965878605,0.003532111836160918,0.015823111728999802
732,-0.01353281888365826,0.006633788689516068,0.001160529338984862,0.0017785323451322676,0.018057963864513492
733,-0.017761529586222055,-0.003496189539830884,-0.0026614791046511337,0.0014874293105928387,0.020545875853296973
734,-0.021748069933164624,-0.010709248442912456,-0.004646047707561834,0.0013822898975637751,0.021938191387511293
735,-0.02507209195632307,-0.01367103020006279,-0.004438246950686881,0.0005497829325905581,0.020030166849295636
736,-0.026927935075825422,-0.015562590383904285,-0.0026404422881606076,-0.0005641655206812543,0.01540016613971462
737,-0.027873541860146747,-0.020885539637101776,-0.0006870014530031486,-0.0005660837896921354,0.010414671850861841
738,-0.02744003050955224,-0.026842022271069448,0.0005151049567042706,0.001862754042341963,0.006086655994767462
739,-0.023709664167126762,-0.02454155758359363,0.0019398784002838021,0.006204761293939065,0.003399461335392278
740,-0.01784187560145368,-0.014355891117444218,0.003596327074394494,0.008645606615488091,0.004000204928085925
741,-0.011899817360869912,-0.005000372063883471,0.004897367447236765,0.007443207611969124,0.0072052427509753875
742,-0.005963790781763955,-0.0005529301781330051,0.006242567864372168,0.005112421755705518,0.00912698634494469
743,-0.0023236588178572083,-0.0012517932104363697,0.006314832044828621,0.0015142165867060358,0.006106841182976322
744,-0.0033647056099991228,-0.006295229450726632,0.003534825993954194,-0.005052074235295975,-0.0003660001075176403
745,-0.0066095619446744774,-0.012614476351415686,-0.000658671983594794,-0.011680751456864797,-0.005910056635947743
746,-0.008573919826871832,-0.01775787551609629,-0.0036783827200507035,-0.01410382149314646,-0.009990677378936485
747,-0.008540770297520529,-0.020869823308128945,-0.004066187293552515,-0.012110838390104859,-0.012956579726685577
748,-0.006069744187559503,-0.020231090128752207,-0.0011657364035902048,-0.007834758985821021,-0.011374426292172538
749,-0.0013843569742189167,-0.015671524234538728,0.00393946752108782,-0.00392672388490495,-0.0035139032248399232
750,0.002617709091488363,-0.011023893004299786,0.007617679539714685,-0.0030705161541424186,0.006525663507692047
751,0.004742161485412905,-0.008583747620429466,0.008078856691820784,-0.004113450598731675,0.014510623029214523
752,0.007953071867572489,-0.007579390927532557,0.007758397690750205,-0.003179393640494578,0.019683306388173363
753,0.013494497213724525,-0.00983388235936654,0.007894133534097346,-0.000631069178611782,0.0201236868219857
754,0.017604140008642903,-0.016304212515836095,0.0067370016615395855,0.0006321066469597126,0.014631042112241695
755,0.01681053689473399,-0.02183359195691747,0.004249446346590435,0.0019023896156841436,0.008558336269343422
756,0.01237738774161994,-0.02138412869382468,0.0030201683920943172,0.005302940514505505,0.007707532834117209
757,0.008388710391982378,-0.015422927871920095,0.004992467162812584,0.009458723728050391,0.011564235803076793
758,0.0076713819088855524,-0.008469945204968162,0.009751040119262828,0.012947689634770302,0.01612776409483823
759,0.00988631956074231,-0.004618759618322635,0.015112111182325179,0.01564632141225995,0.017850210479499667
760,0.013527419093651719,-0.003354067650905819,0.018680649581622803,0.017283020302471995,0.016843649009935624
761,0.01948425910184648,-0.000369255394454331,0.021396169736415355,0.02031821090048732,0.018879830231838833
762,0.027989878253880048,0.005890454945766588,0.025976923722547327,0.027870270303292723,0.027221434822512644
763,0.03375839397412057,0.011123168722255505,0.030575170080053664,0.03601101950821569,0.03438759902259063
764,0.032480010107255416,0.01220521286807509,0.03324576919564718,0.03920398275575901,0.03237464159490623
765,0.026300901719325292,0.010953082180768748,0.0359519899459825,0.036869848470597585,0.024187180272343258
766,0.01980844832411119,0.010405692273120012,0.0376533722057939,0.0292729180381293,0.018309007940750004
767,0.014482375335142291,0.011024305936617716,0.033907158045167675,0.01717776629257666,0.016331627082215323
768,0.008938160577124267,0.012458846010878193,0.02457140231154074,0.0044583598764030875,0.013399625583228053
769,0.0032375609396433883,0.016643811858035245,0.014057207385537823,-0.005282050912857396,0.008041189197482052
770,-0.0014840475020637025,0.022581187253044033,0.005505915636900056,-0.011232436764736639,0.003446423510278543
771,-0.003649618418683372,0.024718189150738493,0.0005863586437238246,-0.012937054379596817,0.004204965192983732
772,-0.002064500405892234,0.02002457605949667,0.0012220675566404966,-0.010592360015715608,0.01103009806560069
773,0.001548509255388285,0.011254483357571716,0.006533793246831516,-0.006365638848732795,0.01830911466102291
774,0.004992967958302192,0.0037909599199350517,0.011693963713197848,-0.0021692902299684028,0.02119385194576058
775,0.008289678691819674,0.0006345343847766706,0.013653665996890892,0.0020616431767989294,0.020327518239144013
776,0.010163674933963125,3.755849275875069e-05,0.012665690613772916,0.004903715367799922,0.018604624894075317
777,0.00918822633739237,-0.00033543201217880835,0.009559315466495246,0.004052539605217644,0.01809607895603739
778,0.007856092199086773,-2.7131918984398926e-05,0.0060610021229541,0.0011312762595550492,0.018369975972316786
779,0.008934710122995577,0.0012369801783259015,0.0035664507334677957,0.00018842812935097227,0.016009606108293932
780,0.012434234168743846,0.0028200938438900213,0.0025041504879639654,0.003221521380146235,0.010791403030195601
781,0.01589449070508098,0.004581248180422676,0.0025253950391221163,0.007135249559766663,0.008940405517339673
782,0.016131734668752496,0.006112703439795789,0.002007178840192884,0.007308618577721729,0.014548724082085619
783,0.012524090647850183,0.006197758549672691,0.00015514960209547598,0.0037170405919735336,0.022445339129841733
784,0.00744502184155017,0.0044689933113128315,-0.0013400261191246197,-0.00010592488009684326,0.024449468227668438
785,0.002985661564889875,0.002836074384057961,-0.0008924921817500452,-0.001518968055719944,0.018473637667857697
786,-0.0006824190069170975,0.0033206957282392274,0.00032132964886672096,-0.001114724708807564,0.008408100862327423
787,-0.003120457515677612,0.006370341786013044,0.0003045267859286671,-0.0020261548169082286,9.855516202418036e-05
788,-0.0026356272466348915,0.010172353505944297,-0.0010967830760293187,-0.005580966275999389,-0.0019153485108314872
789,0.0013660562490338006,0.010954242622363185,-0.0016598879382372304,-0.00859373769775002,0.002916428975469491
790,0.006847400321234385,0.007441401036802517,0.0015424145079625444,-0.007190365684788396,0.012276857103277234
791,0.011505254861921383,0.002135376443857296,0.008614263135762584,-0.0010892503916672353,0.02231161283570009
792,0.014405712184810925,-0.0033270747629264566,0.015593667230541139,0.0062976385781383796,0.028032497433445918
793,0.015464711220830471,-0.00840921198103061,0.018407104594667715,0.010438824793860126,0.02799061989299953
794,0.01608104140811349,-0.010608126979926661,0.017531641104892293,0.009929245692767878,0.026216880415056303
795,0.018176323974723654,-0.008574424696822635,0.0156355422647666,0.007621289720423863,0.02574006005554308
796,0.02016285830377521,-0.005181191189919396,0.012411943942601474,0.005726009035716707,0.023909644258407296
797,0.01945356700700118,-0.002285932214929508,0.006712373862481307,0.004207986864504301,0.019761844959055717
798,0.017727541026059383,0.00036306665261228387,-0.0008463799942674857,0.003355989094223556,0.017091929458277418
799,0.017669095595232467,0.001554503272726607,-0.009394049054243682,0.004195589191897895,0.017330171772964368
800,0.01929852786815737,0.0009964388994583363,-0.01722434507612438,0.007133526340002313,0.01914653135737246
801,0.01920390990554302,-0.001307124492034821,-0.022284290528682762,0.010088422874307496,0.019331823965609386
802,0.013010435535055329,-0.006286164278833612,-0.02440773873409766,0.009474146260251443,0.014152088201098792
803,0.002064851867807122,-0.013616443925781516,-0.024873358853924582,0.004005072824277112,0.003463988689353648
804,-0.008627655303837495,-0.022341352642852585,-0.024864198541456203,-0.003991761561320301,-0.009262428443263662
805,-0.01646656715984865,-0.028821815966205262,-0.024657179975147898,-0.009512334486847053,-0.018770654244814052
806,-0.019305812461230903,-0.026841863149157312,-0.02296427853711383,-0.007214253990797828,-0.020862060822300084
807,-0.016013516222986378,-0.015885066315718916,-0.018545785846961507,0.0025409617363993287,-0.014102604433269685
808,-0.008766577079938956,-0.0019654124430378388,-0.01260451843939755,0.013444672437417,-0.0004527273630144451
809,-0.0003986185118248473,0.010397581028369695,-0.007130352765327947,0.020993257477286108,0.014388873692498678
810,0.005727550720545713,0.01810169867064752,-0.004042546011522691,0.02361982481681123,0.023024367236740916
811,0.0061654979436850275,0.01867651701479592,-0.004839946235752022,0.020567869217372338,0.021602734260558077
812,0.0007312712132492634,0.01424877770359249,-0.007998299666304,0.014213374795438565,0.013132208374518728
813,-0.007181135127729722,0.008931705914991551,-0.01055257706245632,0.009060793880351345,0.003474511352342619
814,-0.012766338446400799,0.005772560578867597,-0.011111815755727464,0.00738028970353565,-0.0026419849300654773
815,-0.014214022558879701,0.005522286477349143,-0.010535878230186172,0.0074839435358562655,-0.003289667631306213
816,-0.014052302672694467,0.00447171104184123,-0.010887477663013121,0.00654303714777174,-0.0003223814971637594
817,-0.014953843276814944,-0.001575383250328647,-0.013514551208679641,0.003005357718667215,0.002375174204793379
818,-0.01594244066423164,-0.008974769155198787,-0.017455861821151022,-0.0023085536458360505,0.003074877491985692
819,-0.013000515332848852,-0.00813360862312757,-0.019687765201446942,-0.005444402864303755,0.0032014370709999027
820,-0.006028873011427603,0.0022168650671996063,-0.02002905365735509,-0.005809367532160597,0.0022915531196641445
821,0.0003182289133075087,0.013696346767542533,-0.02056709747757143,-0.003798525206038092,-0.00039415852642371926
822,0.002757578556424722,0.020319221948453606,-0.020486463987464745,-0.0005016326502931461,-0.0022541402199646433
823,0.00014106424799427387,0.021340963927875,-0.019045398413368546,0.0018485205424267628,-0.0018459689001972459
824,-0.005106086341936596,0.01959473145165971,-0.01743557447409115,0.003851945520354844,-0.0006839341773654815
825,-0.007598689452353444,0.019529783561226314,-0.01585260058884036,0.005213393874394172,-0.0004140891353996216
826,-0.006414824966637196,0.02166902249175304,-0.014915193423627878,0.004454032815739981,0.0003605971059651967
827,-0.0048319803858496305,0.021759495238247738,-0.01576346408066496,0.002652969799450456,0.004016312072667164
828,-0.003454137682087279,0.016800231772704878,-0.017603609057764265,0.003150724608201273,0.007849546884407086
829,-0.0009657820507524177,0.009306566224230834,-0.01909266397499773,0.00585793022022811,0.00727088280656802
830,0.0017142997273449467,0.004487333547570587,-0.019333085296643123,0.00923449308510634,0.003354723339269205
831,0.002019051485334828,0.0035234977402307625,-0.01885551915758366,0.01284530682046137,-4.645513289560204e-05
832,0.0010126379155840613,0.0043999178984455885,-0.017664303586585075,0.015328058453228814,-0.0012576026187007341
833,0.001976266588049482,0.005452402003241405,-0.01423878336259864,0.014178136655487155,-0.0007820196445688697
834,0.004659661059890292,0.006393342671472795,-0.009633528422752296,0.005518326537419144,0.0019780726155224026
835,0.007644863276260058,0.009222165068186988,-0.005722754480339146,-0.008626583481086605,0.009192418007455344
836,0.01002961449205395,0.013820210246178253,-0.002683659384240835,-0.018286194950173824,0.017912499522625545
837,0.011620836141109163,0.018045389186476184,0.0001598107429659169,-0.020045360290798137,0.02437771828425996
838,0.012856819699049702,0.02095803646695085,0.0030562714346271443,-0.013508161934448096,0.02951351522440265
839,0.013690019574668078,0.021859256376029985,0.005309190939451372,-0.0026001105101741777,0.031378345246440204
840,0.014613652779202447,0.02127517068853086,0.006551977790065918,0.003734258702446077,0.025837563623497234
841,0.016055062410899233,0.022223450313859014,0.007586799682937929,0.006443971760169118,0.01566090156683879
842,0.01654527764172493,0.026429981251355962,0.00872839980380838,0.009927374370972655,0.008103970521117136
843,0.014126502899246092,0.03099807881110568,0.008033019379565586,0.013322792806879518,0.005971781555296313
844,0.010355841951249058,0.032959082452362023,0.004769705520458246,0.012917505599289357,0.008058417172158331
845,0.008479589011135588,0.033511147549287426,0.0009600503964215755,0.011095876529034652,0.012037334117937417
846,0.0086491382947955,0.03434442905270305,-0.0024871795152735707,0.009347355134445994,0.01468166774736329
847,0.009032293997312894,0.03298172680531301,-0.006382114510155306,0.0051140221362728396,0.013697796635545018
848,0.009362017222859642,0.02660469023102365,-0.010132653168727265,-0.0004961844644299716,0.009901210145566434
849,0.009920103462663673,0.018218745372479844,-0.011733583744681786,-0.005819471584502985,0.005535140571887225
850,0.008772797402746765,0.013046954279476225,-0.008578454833009034,-0.008246574302514109,5.659951519719931e-05
851,0.005440664873910394,0.012443242703174488,0.0017932085869246618,-0.0020815669981640015,-0.004915042750432067
852,0.0031091912920423147,0.015055536312093578,0.016103903207518908,0.009707515716506116,-0.0019713685346127293
853,0.0039365382473091565,0.01794446350806834,0.02571035023450587,0.021245402027347572,0.009881646045247857
854,0.0076635436315518396,0.017632691474207575,0.026355701200263006,0.026199085138273504,0.021447862859327503
855,0.012870208971903168,0.015531349801032579,0.022051665203199518,0.022738775864285226,0.028399508661325516
856,0.015703995220292623,0.015539120006648952,0.01797223000865743,0.01473700919748086,0.03244815106976169
857,0.013006792315763968,0.01735315270758849,0.01557937115795359,0.002572530326807199,0.031116769243174948
858,0.007750994105812883,0.01861401154355502,0.015496352550593576,-0.009423765743772261,0.02347386600414565
859,0.005155208934037833,0.018281892601040458,0.01709102758618001,-0.015536284087917943,0.014692692321075475
860,0.0065678321603085356,0.019311854098836533,0.01829319191387879,-0.014555395702665183,0.008533762370500478
861,0.010345700582487127,0.02646761301457195,0.018465366649736716,-0.011163210579651663,0.0038005555468293905
862,0.014736720208079597,0.038087729655116385,0.01733847828932321,-0.009166867335315028,-0.0013697858967667285
863,0.017894769279424582,0.047612231622891694,0.014884762054827928,-0.009441987724404459,-0.005803588130462708
864,0.016853095813110182,0.04907653411430589,0.012088130515903246,-0.013713763260636948,-0.008920053408159717
865,0.012160800868277716,0.04099932051529873,0.010200502276833518,-0.02000550694828953,-0.010604347099972643
866,0.009649861083181905,0.02866589948714822,0.010331498510617538,-0.023690367222164197,-0.009010316806350617
867,0.01203030751909355,0.01718933397224555,0.011688228399346712,-0.0234062314090721,-0.006569060742045887
868,0.01629682197954658,0.007740832981612445,0.012387272973001205,-0.01926350805350349,-0.007561615703994055
869,0.019137290418296808,0.0010604372345113873,0.012237853224297837,-0.01497878455833288,-0.011099816972551186
870,0.018573560486515053,-0.002331235338969749,0.011476918039979755,-0.012518366988879447,-0.014787706884811598
871,0.013716047348968667,-0.0034187381521518225,0.009565134109234248,-0.010887101733298085,-0.01891525045879826
872,0.006486091852561669,-0.0030380371507689277,0.006464747116662001,-0.011031642000507292,-0.023970906954738684
873,0.0018439464313269778,-0.0005334449381519553,0.003349124288851952,-0.012456805875279453,-0.0283504636117757
874,0.003857951230346053,0.005002276652571971,0.0024776335423993393,-0.013123022494359628,-0.030336052714596107
875,0.011869008743440771,0.013438787303310419,0.005218672908321693,-0.0107827017742646,-0.028960827316988742
876,0.020725068487098115,0.021733473612339942,0.008894182018822763,-0.0069758802751152624,-0.02434680687703979
877,0.026238986488192097,0.025833064507386344,0.010001060357823563,-0.0033966066985225843,-0.017408284068402516
878,0.02850744229162024,0.025629051518227867,0.010006463084513612,0.00022587807520594514,-0.008672776443750025
879,0.027677047817293843,0.023212470367649767,0.011851172786341591,0.00411249745582726,-0.0007829621221700833
880,0.022502717758020076,0.019284745821049477,0.014312309530451463,0.007226380007757757,0.0009154377474812011
881,0.014006545403912012,0.01479265081996361,0.014329768143468315,0.006948079352864677,-0.0049734787034608555
882,0.006185406634812375,0.01123801035572602,0.011783891851065131,0.004525757782411805,-0.011558581516245071
883,0.0012790309920007001,0.006826386464905744,0.006936397153616141,0.0017619063317415094,-0.014759102765701372
884,-0.0002964491174319893,-0.0006378813310582823,-0.0012332420932316239,-0.005775609950791861,-0.020594076280284878
885,0.002344342322390685,-0.008136314057608028,-0.010166618656934199,-0.014519408301472232,-0.03186086844262659
886,0.007386737941404699,-0.010938761863524557,-0.014724032112878127,-0.01939614569479747,-0.040750857108463455
887,0.012040700420100553,-0.0064818149244657884,-0.011514555335060083,-0.019617553302048653,-0.03823602850602177
888,0.015529845483479842,0.0037797906106961893,-0.0015355926546601487,-0.014286013298495234,-0.02413136077122608
889,0.01772154742026735,0.013285562012111894,0.009439943742018692,-0.00876996161248573,-0.008191676991928005
890,0.0183420930615957,0.015902042740394758,0.016946688289289132,-0.007191764610982967,-0.0012520592264228547
891,0.01645946434002316,0.011585400851319974,0.02076908287020686,-0.007142440349566769,-0.006392898798021422
892,0.011898885274428696,0.006163996841691834,0.021138112474584816,-0.004255358755024466,-0.01764785315147656
893,0.007568008477341511,0.005678935668510046,0.01862584177270043,0.0003899619773257642,-0.02524591858640198
894,0.008132779346221973,0.008741253724140998,0.015833942066344368,0.0060166551320556955,-0.023834288202227417
895,0.016715346194906548,0.007964110418929492,0.014580579305857811,0.012751290156287854,-0.01636518349147875
896,0.03153577857292889,-0.0003768095038469722,0.012638358060080413,0.01579514813000688,-0.01026501581693937
897,0.04338203609883668,-0.01281566468122689,0.0069402989043622415,0.010880560510727815,-0.011554439707419484
898,0.04204315703913799,-0.0238243930316284,-0.0002582399140737124,-0.0007343237390835665,-0.021434478132660105
899,0.028439907718031985,-0.031093747075460546,-0.0033193625706504264,-0.012618435184477647,-0.03347064939220683
900,0.009817210760836245,-0.034275641981871836,-0.00020982692672510207,-0.016672857235907543,-0.03829435223347418
901,-0.006296965755037518,-0.030657290497257152,0.007335793351026622,-0.01579028965921247,-0.033438818733691034
902,-0.01612826772347742,-0.019971422573767248,0.016711361817938895,-0.013129629915941668,-0.02394665791387537
903,-0.021069804617449214,-0.010179098899494584,0.023573663471961742,-0.008709290992484324,-0.016412554720279523
904,-0.023341506717287578,-0.00884496536350943,0.023905336883924457,-0.006465908720029443,-0.013660560566637083
905,-0.023785911003729142,-0.01433603237038502,0.018431748815191176,-0.00530999682921261,-0.013898831939375194
906,-0.022766844836847,-0.020560516975258115,0.010730506256511079,-0.0020966177804634875,-0.016179639481878196
907,-0.021068375135802765,-0.023427944923915527,0.0030457193251188152,0.0019513138252681872,-0.021577485568854398
908,-0.01845700418406135,-0.022288756024583415,-0.0037780616286555496,0.002356236048338311,-0.029375393300308507
909,-0.014005990451870795,-0.019304276531293976,-0.008455090670167352,7.68635604272886e-05,-0.036309671636229564
910,-0.008808269739979575,-0.017389806855576378,-0.00989630703198659,-0.0020190839251218442,-0.03879977322614358
911,-0.005575900328451131,-0.017778006270508226,-0.008678203799446293,-0.0027848129453453634,-0.03632125453994461
912,-0.00441072897093669,-0.018430839140111288,-0.005975189039972763,-0.0007972748823387586,-0.03122999663714233
913,-0.005228046664424737,-0.018255810979594084,-0.004108674493172328,0.0002530202930682901,-0.028195703054101694
914,-0.009527649855997604,-0.018503038695337322,-0.004991397361194396,-0.0037425312258993087,-0.03038833687826613
915,-0.01444188674800163,-0.01798978628085841,-0.0066601028631789495,-0.009938701547648442,-0.033518774777978266
916,-0.015962432231413,-0.016002474339107425,-0.00814338292309838,-0.014971040219801189,-0.032374898669265656
917,-0.013401614092449566,-0.013328167445611761,-0.010218545487367385,-0.016093778220897536,-0.02668503779046108
918,-0.007940423759620093,-0.010586242350992894,-0.011703048560121145,-0.01310485955146867,-0.01967665492239715
919,-0.00310302124486635,-0.009353657315482346,-0.01172794742493306,-0.010384774597459028,-0.01632980851498683
920,-0.001251597074707888,-0.00972701130810865,-0.010198167990383707,-0.01006332640771127,-0.017427039499777267
921,-0.0018903027332017794,-0.011329227688539402,-0.00809552957853469,-0.010896070453645471,-0.019627300712578333
922,-0.0031104543348610555,-0.014164179309660978,-0.006996865694903734,-0.010287456838838346,-0.021190939473721967
923,-0.0024388342486278973,-0.01709111115400192,-0.00775460058632126,-0.007122276779850021,-0.0222128912035974
924,0.0002662134619702935,-0.01921393723163269,-0.011624097980212404,-0.003623777456053412,-0.022532032176975712
925,0.0022792031167325867,-0.02116324387878023,-0.019047979410265446,-0.0034559915490225013,-0.023059161800695695
926,-0.0005331035297318768,-0.02399504036333428,-0.027638234571106216,-0.0074434623509089404,-0.024511720209128313
927,-0.009133912485876826,-0.026532837509119025,-0.03392992639851912,-0.013701598015456324,-0.02384030842371462
928,-0.01963797371624968,-0.02685434888610978,-0.03650224253329847,-0.021286174933403703,-0.01972890205058445
929,-0.027813345667363074,-0.025980971753782583,-0.03644595824424577,-0.029925386297266904,-0.017573739008060595
930,-0.03081709642885021,-0.024408243527458382,-0.03484672761790498,-0.03662299302345391,-0.02087275941337258
931,-0.02858565116314214,-0.021300525283268854,-0.03159749546251333,-0.03646192425395536,-0.02577757062522611
932,-0.02289733455370646,-0.017726571445459523,-0.02637539600761524,-0.028302013083539457,-0.027578595081843675
933,-0.013806086052607169,-0.013970146791584221,-0.019193498191748447,-0.015046328706329527,-0.025373310268694573
934,-0.0018494442214279925,-0.009793541146074107,-0.011618011197676904,-0.000487921292001044,-0.021514544853880192
935,0.00795566729400213,-0.007856378879570518,-0.006802706126907097,0.010670362720403299,-0.01988045642353485
936,0.009101278384699324,-0.011162149463575853,-0.006342347212944777,0.013470138822025392,-0.0227612553783598
937,0.0016438420749937963,-0.017382856395763303,-0.007725649369103249,0.006639845216191756,-0.026282880902907136
938,-0.00810821251419917,-0.020918209943801058,-0.007803422865688951,-0.006207963983212857,-0.0242791668765201
939,-0.01534245360544255,-0.019877858772311126,-0.007025273801097296,-0.018383976842133304,-0.017788944445021996
940,-0.020216017378321936,-0.01618814773851314,-0.00880177059927328,-0.02480313470226483,-0.014670505895822488
941,-0.024677168796436125,-0.01169071978967743,-0.015645570614064828,-0.026935524437722094,-0.01975485399994583
942,-0.027541917504176824,-0.0072931381314197755,-0.02356482120211687,-0.027296669255607104,-0.0280195256927931
943,-0.026508123842283647,-0.0037711999016822885,-0.02465260155090178,-0.023941562130598542,-0.030726326807693747
944,-0.02366828758665972,-0.0021538420098117803,-0.018002122896877568,-0.016674853075022887,-0.024829569011670348
945,-0.02277287375692789,-0.002711702233830574,-0.009938334006443958,-0.009462944106489008,-0.012816824344240755
946,-0.022563963508783442,-0.0043186547525759416,-0.004205198254168629,-0.004130942105793249,7.14149400045709e-05
947,-0.01915565089176894,-0.006254454021029794,-0.000600665758852259,-0.00010737810644726089,0.0070659049588532915
948,-0.012654858648001793,-0.008254776942019626,0.0005873347559476269,0.001629932625679245,0.0047832282639981545
949,-0.006345590090029544,-0.008855472421798759,-0.0007701754568721428,0.0002318463341633528,-0.0033223786999485687
950,-0.001625417551710597,-0.006664143809325351,-0.002458082793890921,-0.0013781094122404056,-0.009982418105146015
951,0.001418736686536167,-0.0034030296891034454,-0.002869702028869231,-0.00014477205051127535,-0.010724293401956313
952,0.0008425695826232002,-0.002212195033321666,-0.003318869346730101,0.0022940567336825635,-0.008677044969436972
953,-0.0038880983908724,-0.0030481068726093846,-0.004675414737677962,0.0035217102008374417,-0.008200706484736106
954,-0.010797359572760613,-0.003472309682232013,-0.007057768729041178,0.002338506920243393,-0.008981834108718192
955,-0.01917460478583907,-0.0025660522190723107,-0.011250546629026232,-0.0033422028441009582,-0.010740948358317081
956,-0.02662223589614683,-0.0020455658021735945,-0.016716525930665405,-0.012726329972999249,-0.012771011911180841
957,-0.026552524050648525,-0.003504894538675056,-0.02117988271144684,-0.02023493442982474,-0.0113094625234906
958,-0.016734076447548617,-0.005477261769866586,-0.02228743081734416,-0.021820422822736368,-0.004714026265551389
959,-0.005375257183682676,-0.005977887161098063,-0.01868406566667121,-0.017995217791032428,0.002730839492067012
960,3.579571540589768e-05,-0.004820026081037047,-0.010357452365247195,-0.009866766209726695,0.00527791331242568
961,0.0017120332255352482,-0.0032800556838732432,-0.0033886632204298515,-0.0021986993341224816,0.0038063790143224407
962,0.0035022206610545903,-0.00031639418918381147,0.0009992547159123353,0.004448569020654275,0.00228480684475933
963,0.004356522940317707,0.003710457392659449,0.00410634551255782,0.01030108658744286,0.0034606566606197576
964,0.0011065223269673603,0.005482356022083561,0.005320010373946637,0.012467069071475694,0.004412836558104184
965,-0.00750680997917664,0.001979614050548468,0.0014785216477811848,0.00593981793738437,0.0013290678319013113
966,-0.016270634587121826,-0.0030540865999744535,-0.0045375357369009375,-0.0048529311493258585,-0.0018889634753785523
967,-0.018267968609605854,-0.003430087340127091,-0.007015422805592834,-0.010123418996897069,-0.0002624804491919502
968,-0.014121532438030682,-0.0008759438118719285,-0.007019978281955767,-0.009463204167403158,0.0021979186537548364
969,-0.008781968121865885,-0.0007355713299500613,-0.007918755539799552,-0.007588992716449288,0.0010499344118164635
970,-0.004383737398020082,-0.002761597584171024,-0.008930800817651791,-0.004640793787044894,-0.0015666603407326818
971,-0.0003053814440825159,-0.003299359333141514,-0.007620345821127259,0.0004602751160193436,-0.0019345693651351232
972,0.0038960588319744004,-0.0007563910115859759,-0.003158753108626,0.006489393496700528,0.0008620975826028859
973,0.007070163974038481,0.003212341093435784,0.0024036184129179764,0.01082770727754276,0.005329277615825494
974,0.007845826876449498,0.0057356107981789495,0.005878581361755521,0.011448104763492627,0.009599672794821542
975,0.00704397359126805,0.0060931916788118075,0.006487447850505096,0.009548387127633338,0.012750039017646141
976,0.007212563569968512,0.0065213433114216365,0.0067616789682882475,0.009187260768098516,0.01633047204332448
977,0.00900576276395175,0.008473658582116106,0.00889731939612703,0.012586676590072943,0.021041839969631687
978,0.010603306021541584,0.01046673609792719,0.011578785623542004,0.01736710830408068,0.024455180682976675
979,0.010483456031346957,0.010814111546786647,0.012918746031690497,0.019916966316702683,0.02595943289067581
980,0.008682210164546431,0.009774503540310326,0.013217910695079826,0.01882473036320807,0.02673296905551071
981,0.006488158946690743,0.008716415143885345,0.01330577000572372,0.015425128574141418,0.025970155723936402
982,0.005522311868365872,0.009197193857485398,0.013214940712078953,0.012582694699890996,0.023621156112803233
983,0.006307366410123746,0.011268231754432345,0.012244679615413843,0.011355752486682549,0.021520555092154912
984,0.006928901379055524,0.01219109134414871,0.009203618997209909,0.009630477370905756,0.019038723654014343
985,0.005287622331271887,0.010379389225199648,0.004567652586146784,0.00584921337131086,0.015039812789997192
986,0.0021029529145793467,0.007839517085335491,0.0010828798077952707,0.0017339717917578465,0.011991615096756104
987,-0.0014079020132636468,0.0058075688531375215,-0.0005103972769436717,-0.0006349483432325531,0.01147904441766755
988,-0.0049426312064987845,0.0032537170328043974,-0.002209907226693043,-0.0013762168571494753,0.011132574178646465
989,-0.0072711379389715294,0.0005385090192123911,-0.004040372850046964,-0.0009738523290473932,0.009435519550995478
990,-0.007048155048718393,-0.00016050007627839847,-0.004053526819211283,0.0012310205182452598,0.008016324063190092
991,-0.004945052936853115,0.0019480190525487003,-0.002375904114645873,0.0049509234612201535,0.008256915407217269
992,-0.0025986487615388843,0.005624843785747873,-0.0003248035372720759,0.0082022887390027,0.00980338615404503
993,-0.0007300341513071667,0.009366067119541183,0.001900367997481345,0.009622950002213226,0.012005463341102
994,0.0009444766053981437,0.011907679270812233,0.0040661246607275004,0.009518996469663468,0.014208131951119241
995,0.003171450639379148,0.012285016631745277,0.0055672644307901125,0.008959962483711618,0.015344972013074618
996,0.005191417895532755,0.010221480921602206,0.005860319466403756,0.007885376085111999,0.014235511370225471
997,0.004945091424306006,0.006394345513680986,0.004675637821720414,0.005523922121259207,0.010846430468184034
998,0.002603591452117224,0.0026335791525211373,0.0027895512773142327,0.0028761493201152175,0.006809896066893366
999,0.0009312739577950012,0.0012485797531009827,0.0018580459525101704,0.0022860386577843285,0.0046452326143606466
