,AF3,AF4,Fp1,AF7,AF8
0,0.0016975598807900448,0.0026899669823798556,0.003337335805994431,-0.007500567227398013,-0.0024012368844836002
1,-0.001988765888976828,0.0022288854473465547,-0.0012411899070959818,-0.015040839316016357,-0.0010044728629403064
2,-0.0057814543859453765,0.0006547877871545039,-0.005478625512098592,-0.02197182957166571,0.00017519541626277176
3,-0.009251063466604514,-0.0012334869511691866,-0.009000285236472389,-0.02659009189821169,-6.880356339630732e-05
4,-0.010809143300576312,-0.0033584919351340157,-0.011852973043199565,-0.028976109889680475,-0.002512109925722669
5,-0.010749441367261584,-0.006266496889472113,-0.014081640217878189,-0.030968860547525557,-0.004843450360337092
6,-0.010603199991741046,-0.008855710552486589,-0.015868515159271363,-0.03399597424223713,-0.0049926252778872875
7,-0.010132197942331046,-0.008875001236327947,-0.016249170951617375,-0.03651156945246387,-0.004388684956390269
8,-0.008349861814870825,-0.006158625996916346,-0.014253809722863607,-0.03672597413181752,-0.005335035047312026
9,-0.007196854439603769,-0.004376923765700575,-0.012229983170930343,-0.036182660045939063,-0.00991869951426445
10,-0.007960924686974255,-0.0057784732178255685,-0.012812345507330746,-0.03560456644091339,-0.01764368468299868
11,-0.0075776336655567775,-0.008159542046897403,-0.014390800554804606,-0.032623341890725445,-0.02430069170433245
12,-0.005504895543046224,-0.010267827994135155,-0.015554111832970932,-0.028194629466809742,-0.027622156585730962
13,-0.004003330787205805,-0.011432133792527072,-0.01708440994422512,-0.025236003746863134,-0.0288567441343747
14,-0.0029451956728391744,-0.010881876594423644,-0.018227480354311217,-0.022886432574849982,-0.030291374256016558
15,-0.001619091716587927,-0.009786164905706256,-0.017503800067109013,-0.020308919286714012,-0.031402212901494135
16,0.0005885821024695416,-0.00834595199628228,-0.014522144913642432,-0.01795319730712132,-0.02873469164052206
17,0.0032031082670832558,-0.0068070453589358215,-0.01043029705709089,-0.01641676734369487,-0.02299729112814059
18,0.005392641533603796,-0.005323266871401319,-0.0068272942175377745,-0.015583934369779824,-0.016747377731240305
19,0.0075566797580667675,-0.003197998504589815,-0.004297924565154284,-0.013680243264537387,-0.011514014680543016
20,0.009036391106249512,-0.001879622999943111,-0.0030884369280094535,-0.010979615771310054,-0.009008301436447883
21,0.008539021679623768,-0.0025779452416786856,-0.0035183931845847198,-0.01000402605715421,-0.007500467404948687
22,0.0056349372110172215,-0.003951675782477091,-0.005474442740152285,-0.012193333329427273,-0.0035712082051822316
23,0.001413155413187615,-0.004764889923393451,-0.008275387650464696,-0.0159991066689693,0.0012716455564202066
24,-0.00016778634309801125,-0.003751736985532722,-0.009943205503874715,-0.016935676407910376,0.004064290457823991
25,0.0016996529298652283,-0.002912963547746691,-0.010111674550641114,-0.014490610962818,0.0025353298346394736
26,0.003324810677690979,-0.006288853927815256,-0.010988294573794563,-0.013198036299191354,-0.00510402432343304
27,0.004016901456578128,-0.01056138219623591,-0.012788510562031086,-0.014787322131422188,-0.014065853279979609
28,0.004385906876452797,-0.01038353930934977,-0.014551124272335384,-0.01716284784421387,-0.01823824116263276
29,0.0048259339882155226,-0.0060393866625135795,-0.014723548976067135,-0.016383305107104538,-0.01621841705888215
30,0.005010620536055211,-0.0020842636630571698,-0.013043884324075519,-0.012504677871466828,-0.011358976553978729
31,0.002453308437738833,-0.0036655217628338067,-0.01251679262455037,-0.01085877690171287,-0.009876000501974598
32,-0.0027141533552294895,-0.010505348837925038,-0.013741272181750652,-0.013106224966258179,-0.012964703487633532
33,-0.008059586018789582,-0.017945379586662504,-0.014778146856130171,-0.0168895652551366,-0.016634109166826973
34,-0.013068355464705876,-0.02338719893517012,-0.014949600465819496,-0.020405906209385795,-0.01881984388949505
35,-0.016860798441231506,-0.026618945338375593,-0.014206865567838853,-0.02283566145584907,-0.020129882073968285
36,-0.017345790535424673,-0.027493344437529266,-0.012831114310805667,-0.024059651261561687,-0.020297438404706047
37,-0.014962159994076202,-0.026232004740842103,-0.01115126303692726,-0.024102886889527112,-0.017904655598867253
38,-0.011383960286907429,-0.023166170014228965,-0.008688284275035135,-0.022480960964937558,-0.013555840208752439
39,-0.007306131476533584,-0.01812538703537071,-0.005447294342673315,-0.018982768219459815,-0.009278342808162744
40,-0.00333550211393852,-0.011975369689414506,-0.0027029127591282906,-0.014238962438721033,-0.0064609059714002045
41,0.0007387851173434839,-0.006817444724370765,-0.0007886489331364343,-0.007610994637344948,-0.005721960358686391
42,0.004115712321892779,-0.004168139285923926,0.0006355347125482097,0.000179621752178247,-0.005370711017800198
43,0.004705833180253381,-0.0036858547629383754,0.001255182653401323,0.00549431834896167,-0.002922784779176212
44,0.0030845769738541804,-0.003543570337687183,0.0018170546137267782,0.007136618568018492,0.0013402082991214245
45,-0.0001962567529903343,-0.004408281318894683,0.002426371828215613,0.004686746592611262,0.003663884917621163
46,-0.005851333501005068,-0.008700372692479382,0.001010213055245839,-0.0025351916960584067,0.0007687842539706171
47,-0.010216466790905756,-0.01366206129146285,-0.0017322594865950766,-0.008730985583118417,-0.004462909339936066
48,-0.009876171560696399,-0.014977774075434155,-0.00308619155783192,-0.007959279980438204,-0.007156616243808198
49,-0.00863234412040995,-0.014525646239275712,-0.004439326557576993,-0.004965746832653884,-0.00863286605293345
50,-0.010291469396518815,-0.015324596939863419,-0.008119376900559333,-0.0065106838079206225,-0.011656943361414549
51,-0.012827786732659215,-0.01684132452703623,-0.012445746523881404,-0.011187438284120842,-0.015322344959660431
52,-0.013520735295210822,-0.01818643704960997,-0.015012337605515347,-0.014099323053849524,-0.0182493084954754
53,-0.012072533109216957,-0.01954637840830384,-0.015439103528648862,-0.012988851353425469,-0.019657670001763543
54,-0.008341229878812827,-0.020835176878190496,-0.01368015520611611,-0.009035846781521872,-0.019325366024042213
55,-0.0038519105784727563,-0.021303737592858134,-0.010879184589347042,-0.006719909306444506,-0.017244958128440145
56,-0.0008141187051230445,-0.019963863467434062,-0.008351367043070814,-0.00740065229692919,-0.012508575283093439
57,0.0002252560054267285,-0.01746577915662514,-0.005692652651841153,-0.0069477249881485705,-0.006340296434638776
58,-0.0017929792624557508,-0.0164957694718639,-0.003779862171246988,-0.004439633549353103,-0.0039269965783077145
59,-0.00684833156549658,-0.017869680717554428,-0.0039044210593443124,-0.0025049702244702766,-0.006663989225125471
60,-0.012826552082290957,-0.020179070266164868,-0.004955501239841684,-0.0019426359302668846,-0.009961297938929635
61,-0.016914427991617978,-0.022144198630318596,-0.0050450481429263816,-0.0013249701795497691,-0.011471826089414595
62,-0.017093706886739175,-0.023622475790534836,-0.004220029528757363,0.0005028436243125598,-0.013212773702920995
63,-0.01319573088316893,-0.02384786385387306,-0.00344511644792347,0.0031326617283847966,-0.01552010411721362
64,-0.006394859537192739,-0.020315294169989947,-0.002415403256069656,0.0051677676402418415,-0.014723459919994507
65,0.0006339061361856006,-0.013423544126988348,-0.0008621337368642903,0.00520667286712837,-0.010071559569090255
66,0.004866241160456158,-0.00751449908054036,0.00020745476677906769,0.0031585578986401317,-0.005282089518941608
67,0.005214189670742276,-0.006150489151937345,-0.0008851553106846674,-0.0010070171737331904,-0.0024838429585266183
68,0.0034245078421401734,-0.008567877124662327,-0.0037510105182538738,-0.005754350317885586,0.00022232274293510065
69,0.0023627880764014986,-0.01090135368001946,-0.005109535525253537,-0.006467885452882785,0.005698052683770511
70,0.0031232345492876964,-0.0107302211408777,-0.0034290918549327895,-0.0019649661143423193,0.012517389145723123
71,0.0041697261691496824,-0.009827855151799016,-0.000924933958312345,0.0030831617105909863,0.014813458436812347
72,0.0025414753493684774,-0.011580967914749588,-0.0008434148436948152,0.0030313979178941794,0.009247494970243747
73,-0.0019731234469891365,-0.015810248610999087,-0.0035316835061236567,-0.0026140968551406217,-0.00019645307553762335
74,-0.005688966110783177,-0.018944537485885,-0.006159990611781637,-0.008572619184746267,-0.006895060582593405
75,-0.006899132398972914,-0.01868426997248914,-0.0076534196466760355,-0.011710327997239903,-0.00786328551621655
76,-0.007364796115827913,-0.016053032242749753,-0.00889329217463336,-0.013026058991374993,-0.004166502097168266
77,-0.00851992950895655,-0.012513389303860986,-0.009811924061583646,-0.013805193373168738,0.0018472711472815823
78,-0.009483813398159294,-0.008114599415243149,-0.009461265811129878,-0.013655710887584467,0.00713233602460398
79,-0.008086090848458486,-0.0032215082770950874,-0.00656385530375206,-0.01019851761189975,0.00939262674599792
80,-0.0033982951778770147,0.0009781811004858788,-0.0018592202958373904,-0.002976549528090966,0.010044698495633263
81,0.0030578679661989482,0.0025793032633194654,0.0015620074537721568,0.005439363876172505,0.011851120470401091
82,0.00868753179012555,0.0005273295063700312,0.0023958840378250977,0.013124326883129077,0.014776597645166173
83,0.011801303210098113,-0.004162086110934712,0.0016386359637915256,0.018602795838478316,0.014968410972857275
84,0.011415950973071649,-0.010115747046071369,-0.000623165828909331,0.019799215165673595,0.008926863808976398
85,0.008132442609721695,-0.015431101090496968,-0.004789018255034457,0.017294898975422263,-0.0009552355118857053
86,0.005671770330902592,-0.01575878065830311,-0.008801230508024834,0.015564583438193934,-0.006272533529690283
87,0.006941557630658407,-0.00838664267279316,-0.009597909031596978,0.017682698000418134,-0.000738685775743637
88,0.008406972418694697,0.0013126812916939596,-0.00809829431545506,0.02076809344595726,0.011011022184630829
89,0.0049745243934474995,0.005529083657225497,-0.008405112213312232,0.020600471925286953,0.018139485895107752
90,-0.00105554048138127,0.004794398428196479,-0.010901736282092,0.018475220990434815,0.017457054634454076
91,-0.0048670353262558995,0.004664737745591491,-0.012567799032008704,0.017405115057139226,0.015176433021806907
92,-0.006783802865773444,0.005834973774153981,-0.013098255050026533,0.016543250354129558,0.014501539831183113
93,-0.009894303861013433,0.005173203156975266,-0.014808882491596544,0.01355706067150116,0.01268349753295625
94,-0.014667248404534206,0.002408566740697097,-0.018307888771403075,0.008828530018031416,0.009490886942617419
95,-0.01862252368298837,0.00019197687173357227,-0.021989241279899537,0.004952213478608895,0.007535567768245835
96,-0.02020468982839653,-2.6083414527139917e-06,-0.024122959434210348,0.004204386744015655,0.006624369806287164
97,-0.018188542796363817,0.003075672467834761,-0.022189654895728925,0.008634418168561595,0.00664532453410458
98,-0.013203563692741874,0.008795226470158844,-0.016231068839927334,0.01664600467043661,0.00808356802369981
99,-0.00853291065550233,0.013594296043148544,-0.010447577950015972,0.023970693463326774,0.009616412734693582
100,-0.0058150359509206995,0.015688222321529114,-0.0076816532260346425,0.027359839754931514,0.010877442135624448
101,-0.004692838599492438,0.015880212779503085,-0.007453711850413305,0.02768373203691158,0.012680748325577645
102,-0.003996768612176005,0.015996193806853187,-0.007652330756052773,0.02598457330616561,0.01587119283750619
103,-0.00264232998325967,0.016793218531402816,-0.006919824744179121,0.022486364691759957,0.020004833959750702
104,6.54951633495232e-05,0.017642919589328867,-0.0049138400939988044,0.019178793731303892,0.023023362324835154
105,0.003724884202529972,0.017467100882648207,-0.002248615581883018,0.01663884639740474,0.022374270149292406
106,0.0076491721576932145,0.016729981852820073,0.0001378309521750937,0.014926048314059996,0.018689919701928213
107,0.011415219438011676,0.01664690391200602,0.0023584454360014856,0.01424303473892185,0.01566951656130376
108,0.0136154436041994,0.01611498739787336,0.004297578055267513,0.01440665350430025,0.014457159939482524
109,0.01309208365558111,0.013756863084383123,0.005302720429245372,0.013521874008252065,0.013531505055057319
110,0.00962551004361293,0.01009858771779461,0.004846915835413324,0.010262510779146923,0.011522317408615779
111,0.005284785362529012,0.007063209427168843,0.00397990168397413,0.006844678920789411,0.008435053702209355
112,0.002549966465605492,0.005224455543951899,0.003976872237414036,0.0047953628705255155,0.00545997959435078
113,0.0006847821414465947,0.0038877280965818085,0.003204317404114497,0.0016432823699651866,0.003909553809078382
114,-0.0024584747382188584,0.002737573165379559,0.00023340184754309647,-0.005402581045070621,0.0035736110714669573
115,-0.007627423016979371,0.0006509701584943306,-0.003745871647798112,-0.015268480596689067,0.001961345392803974
116,-0.012427263689421144,-0.001997456979725034,-0.006649097227274282,-0.01861370213363249,-0.001842211670464296
117,-0.013711242282983692,-0.002783169323621182,-0.006547728483273151,-0.015320362562412454,-0.003873098578051692
118,-0.010863554472983396,-0.0007117882426292374,-0.002968178277133404,-0.00739378345671538,0.0008471742426643567
119,-0.005954439697179031,0.0033020018253039174,0.0018022621203951465,0.003796136272638515,0.011407412155194552
120,-0.0020546551671629582,0.007194222546629334,0.004701461754839664,0.010321360184008718,0.020647920288562067
121,-0.0006906086448511907,0.008125126305900746,0.004963711761668652,0.012491713869065928,0.022686009544525144
122,-0.0012735904182587818,0.0054668941591486985,0.003092294958648381,0.013786202920648418,0.017844578901679477
123,-0.00264214232221804,0.0015234948658474903,-0.0008902581526312477,0.013471055091754428,0.010143919854312133
124,-0.004456483723394082,-0.0014278337968625665,-0.006331242796106448,0.009094833291088511,0.00443749594879964
125,-0.0063308340175623245,-0.0025945730858855645,-0.011788943001654548,0.004488130349199267,0.0028743503052640236
126,-0.0077707704767955845,-0.0033592063131529194,-0.016091505034537688,0.003159154802987402,0.0028335988535436634
127,-0.008231542896595983,-0.005157682318828246,-0.017829001048159997,0.005440375072369083,0.0015916525999106566
128,-0.007001597971466885,-0.006703809703385762,-0.015742230181990672,0.013226669114096156,-0.00041201012556620043
129,-0.005899632195193433,-0.006752481826152608,-0.01098431436215424,0.022149450901751924,-0.000937946481692176
130,-0.006071891339576508,-0.005968781607981865,-0.006409903599348479,0.027716419634775336,0.0009283143996762723
131,-0.005265311041872043,-0.003877861449572386,-0.0038552949759178266,0.03012419268144443,0.004161707478724662
132,-0.0036971002648875846,-0.00039810903845749945,-0.0044512843878917515,0.02627395595533272,0.007204403869433822
133,-0.0021639553053579073,0.0020178427511149282,-0.008067418425180722,0.02100808562512079,0.007354266718068942
134,-1.2373588676743756e-05,0.001036495899090354,-0.012512750102013935,0.01831072010551768,0.002971908287586114
135,0.0026305686052432247,-0.0021338960123663034,-0.014364363908597763,0.017575583331717524,-0.0015711671269103113
136,0.006060960522658389,-0.0035032735157010343,-0.011026999410372138,0.022108160548988228,0.000518148469730179
137,0.008575438081159768,-0.0024004317973356747,-0.0041926771256724825,0.028012154421372757,0.009821768645943574
138,0.008068296234001503,-0.002019792148708368,0.0013053104330694831,0.028938242631569362,0.019629731002094464
139,0.006073674376032178,-0.004052366439314987,0.0034327444571024606,0.02534425855623304,0.023107054011513126
140,0.00477566093422284,-0.006577491936728934,0.004385200397604338,0.023592237359919752,0.020783070007315795
141,0.004096953853215146,-0.006962601000384431,0.005709852729879568,0.023942909313693642,0.017359425527220567
142,0.0027472841775181595,-0.00481617069136351,0.006497480394567667,0.023616933927484762,0.014829951538054373
143,7.861905976597375e-05,-0.0019820254067351955,0.00594560109876257,0.021881383728057237,0.013498073975985707
144,-0.0033915009021104644,-0.001206095063143575,0.004761759452885778,0.01783151727893252,0.013526317278947908
145,-0.006391970041223932,-0.0031855395427820266,0.0031643894473708557,0.012915960855198376,0.012907265652993797
146,-0.006605846595794186,-0.005622433688188716,0.0006065177180460692,0.009332228847559793,0.00860939961944346
147,-0.002192176113510333,-0.0072806037808848395,-0.0015730528356920198,0.009425375908617162,0.0008129060322009659
148,0.004627631239765945,-0.008289112506726095,-0.0016212277642710501,0.014383084779525178,-0.005617398949765102
149,0.008680606110919777,-0.008461413095755677,-0.00031889419448151505,0.020292952970604156,-0.006912456601781726
150,0.010457391961591123,-0.0063481141703325755,0.002157587934155023,0.026632669494194103,-0.0024487035935498057
151,0.015115660296522167,1.3442486458340082e-05,0.007376987103415413,0.035827956508169674,0.007552320380592224
152,0.01982414304942819,0.006854473845102422,0.012928286542399522,0.04228859995347033,0.01732944383938561
153,0.016999467008035132,0.008223091146199318,0.013757417571955024,0.03843710626862973,0.01928774947345168
154,0.006799989575785881,0.0051936503501374,0.009510372095212544,0.024910990069803185,0.014771847096339
155,-0.0036214660571242943,0.003204524342151559,0.005311926017840074,0.01015982837087515,0.0117909984636167
156,-0.009701824986848953,0.0035845155495470844,0.00463087643657914,0.0007879093059271933,0.013955901599764325
157,-0.013078596006965594,0.0025771054673569944,0.004576517072516067,-0.003855180797996651,0.017289594569786442
158,-0.014619696998276557,-7.457563584756951e-05,0.0027886900649460302,-0.005689801822722415,0.018287942930982525
159,-0.013397531867103084,5.8977649159924255e-05,0.0016244502712533312,-0.004279842975939478,0.017201596736014662
160,-0.010933553249805713,0.0044015040788326016,0.0031099102529136982,0.00014013240191164422,0.01476839731557794
161,-0.00966676214387227,0.010044880269043903,0.0065179751048086276,0.005346975597179105,0.012710015284657065
162,-0.011227722239711455,0.012753562547409376,0.008995855847376716,0.0077359881131579275,0.01165471889198442
163,-0.013606208668602064,0.011459943417678288,0.009370299331911589,0.006181085451751598,0.011011083650864416
164,-0.012489036117703183,0.008846942607799963,0.010114061187820246,0.0036292679232048843,0.011853751447519222
165,-0.007628480314213218,0.007297723027517062,0.013546831492458519,0.0032890671850394114,0.015018635127800956
166,-0.002010258069887382,0.0082896693897839,0.019964610980657035,0.006490870722793093,0.019778614581990983
167,0.0011725249803032699,0.010580739010463781,0.027278217720960743,0.009568026672298514,0.022386772915260148
168,0.00032674017713950197,0.011010499339266979,0.03166882458602396,0.006868620159490359,0.01939614395943614
169,-0.002529016714491113,0.009381175137394076,0.031140307139121522,0.00028519984447977656,0.012980096904379528
170,-0.004634691831707728,0.007598974651252239,0.027007294079250264,-0.004332728519444831,0.008011318245555224
171,-0.004932950497877068,0.007047135499821448,0.02198638250807684,-0.005436043623945622,0.008000934062665032
172,-0.003333888038566678,0.007984976675750665,0.018081923926005675,-0.004288812388166795,0.011556980839530065
173,-0.0017625929971181288,0.0079476074306099,0.01510078265428804,-0.003862750213889148,0.012845674166950049
174,-0.000886773385466837,0.005242687776893088,0.01368877152764546,-0.0055675442185129384,0.010562453767708101
175,0.0012169962136135335,0.002039678436526262,0.014664780466913475,-0.007574384950626536,0.007486021892030038
176,0.0035645492709906117,-0.0002715408340487376,0.014556079385358729,-0.010338183737941358,0.003979784985631493
177,0.00570563195749655,-0.0007088746997100198,0.011823948363075914,-0.013266361016836812,0.0013862623052572347
178,0.008287724356931862,0.000992458737064626,0.008868386740809187,-0.014693458068505548,0.00033087253566207244
179,0.008773443366268762,0.0028610796999869468,0.006186161883796699,-0.017379915576900353,-0.0021153719841880453
180,0.006867577499976627,0.005397905175111902,0.0039237503420071805,-0.018985902270606387,-0.003686920255387477
181,0.005296976413741038,0.008986672731931261,0.003146026904146767,-0.018960021776443167,-0.004579019189555921
182,0.004352813421123255,0.010288243451679934,0.002678339037449092,-0.018417077550173456,-0.005964535268157927
183,0.0040662765652087745,0.009485492016893929,0.001428216183323718,-0.016358499080057386,-0.005043622082930263
184,0.006569511391887682,0.01080840023187472,0.0014790344071284314,-0.012415617642675682,-0.00036392039968496747
185,0.011482512947971969,0.015338567424647695,0.0035983122884626893,-0.0057214988883472285,0.0062956721377421376
186,0.015087893420457896,0.020169636649583315,0.004831646557375558,0.0005165913638816579,0.008897062156534572
187,0.01444818612986224,0.020862699646468443,0.0022102822335395927,0.0029538973642675927,0.004159617076037189
188,0.0104621267762577,0.016341629574983984,-0.004758199143066803,0.001482616113706856,-0.004841312619629103
189,0.008415616423633726,0.008879371945845968,-0.013017043462964365,0.0018050429944457041,-0.010736069789632926
190,0.01133694075211157,0.0007214641954626258,-0.019105668312631628,0.006019754596167463,-0.010109977180275757
191,0.013010086823186502,-0.007440016214058856,-0.025319380658385952,0.007797807073901206,-0.00549216917007099
192,0.0070626660624238365,-0.017273445134700565,-0.03209331430965051,0.006272628665961972,0.002224958990632068
193,-0.001425721883914581,-0.02674905984949159,-0.04102881711189311,-0.0011473816451874053,0.008679016334531426
194,-0.004152283034822054,-0.0293189158091421,-0.04379172976833845,-0.0049353862115648645,0.012923084228769208
195,-0.000536250571210554,-0.02327525055718931,-0.03943258337331078,-0.0009668522361963948,0.015600624915151639
196,0.0036844622582577155,-0.01568791627304423,-0.030522872093011633,0.0012798337055867034,0.012958315026929004
197,0.003902490773723729,-0.013304596396742205,-0.022515851387953246,0.0012181486787185888,0.007539588572618092
198,0.0010324176396315711,-0.015246593551105116,-0.016603421492242386,0.0013484120363598002,0.002237306127549936
199,-0.0021706889569314772,-0.017870717086756555,-0.011100394816806244,0.0005128946242744051,-0.0033296681485051583
200,-0.005088578554007639,-0.019824762788080902,-0.0072515223955308605,0.0019842153717546424,-0.006709226516334999
201,-0.007971871623963343,-0.021547066688385862,-0.0056810220842566286,0.003075963317209083,-0.010522984432933685
202,-0.008955378872531798,-0.022128536589952282,-0.005576158427746786,0.0018801204796208958,-0.014929538165195922
203,-0.00685913537277454,-0.02101370343398592,-0.006601188722437782,-0.0011653069337624188,-0.01745708865641316
204,-0.004268240081584215,-0.020762780051059727,-0.00929019685033439,-0.0038827364958324475,-0.01713346372924561
205,-0.0036270565998726234,-0.02228416316030986,-0.011339203314709634,-0.0068337853858921405,-0.016524824345583514
206,-0.004005579702834354,-0.022711125933388508,-0.009825183341921492,-0.007700966870120427,-0.014152833911431448
207,-0.004288847984123685,-0.020778279888446216,-0.005072774870588672,-0.004698564812591133,-0.007667420079750234
208,-0.005469720569036739,-0.017995287203973753,0.0004489712784333537,-0.0033298973688403004,-0.0015358058418061084
209,-0.00653346743110154,-0.01433521904125999,0.0045918296984672965,-0.0039462530123735495,0.002673860353750415
210,-0.004275114450639724,-0.009037411483740732,0.007781544030725923,-0.003036656574356833,0.006336588785212789
211,0.0013612349048597457,-0.0036049901083532953,0.011407090617697919,0.0003923316162306293,0.008912336940552877
212,0.0060590973672677555,-0.0004486664115338009,0.010636494463080749,0.00421490404066199,0.009345823737201933
213,0.005401492454007816,-0.0010791594362063847,0.00561504862204906,0.00417746700846142,0.006938394782055267
214,-2.0484407178612993e-05,-0.004183904294169929,-0.0018562043102353242,-0.000719103833272068,0.0026734267092993753
215,-0.005269158533285632,-0.005784326938277895,-0.009912215766064764,-0.006639675941514518,-3.134449233473167e-05
216,-0.005974785351338047,-0.003639491198499096,-0.013319263554555724,-0.008596533490104722,0.001711455114091359
217,-0.0002513488626655668,0.0017607501160928224,-0.01205807860872817,-0.004379814742484839,0.007783295651172024
218,0.010247400339306042,0.00807629591444617,-0.008018319290760667,0.003772507859943978,0.01459946006989368
219,0.017285896061632798,0.00991725264822273,-0.0058076239587948365,0.007903871702540165,0.015820796981964844
220,0.013974110355047026,0.005265983909848951,-0.009839430033570799,0.0011615572620725947,0.009321126175796531
221,0.005706789836928642,0.0012422007790656615,-0.01865883461686516,-0.010630348053135893,0.0005553424342925472
222,0.0017651185763346978,0.0038367080684063837,-0.025330771083771672,-0.016571236249636637,-0.005009334662296688
223,0.003762719523217838,0.010706144831015703,-0.02667228781579801,-0.014274409051151207,-0.005757257189092268
224,0.006371700549197065,0.016964007209655085,-0.026785519253271203,-0.01004246458077397,-0.00355771465346338
225,0.005207550808022208,0.01970522543754595,-0.0283169534598479,-0.010727326620733542,-0.0008039211582111993
226,0.003422020738864762,0.019226401272245064,-0.029300862726393002,-0.016079440306082063,0.003615293609450006
227,0.004445316860582433,0.015100722839846087,-0.027945733274305145,-0.022936839506405893,0.008172869516132737
228,0.0064711051799187964,0.005891192718386384,-0.022005180385668184,-0.023817598305350785,0.009241885324196796
229,0.00816564569959395,-0.004772498317125175,-0.01566064721678201,-0.020413062081019735,0.0057351595719348815
230,0.007819466983406794,-0.012999361087181398,-0.012713175173058894,-0.017339482029455962,0.00022809393179717201
231,0.00497345071508604,-0.018951600465137476,-0.012997865788809796,-0.014484972465080856,-0.005146275185568953
232,0.004133210156001417,-0.02153936566832507,-0.015268005124341358,-0.010743520528476642,-0.00950827301463031
233,0.00804441868467946,-0.018996957207411673,-0.014502009974603363,-0.001650896033556437,-0.011125017985637885
234,0.01519378634461643,-0.012955292821012446,-0.009556979247132634,0.010077822300462341,-0.0116921684987831
235,0.02413761480633256,-0.006154617417416047,-0.004509030740548045,0.016235863294606374,-0.014438324051197824
236,0.03242500500080304,0.0003933625380603758,-0.0037504261493816952,0.013076437913356536,-0.018295136654690184
237,0.03425837993454034,0.004569930888723227,-0.005582957622007908,0.00700655865718046,-0.018902646543740985
238,0.025371003552333623,0.003188470116582052,-0.007887200095168419,0.0010127947171921134,-0.016550996019840312
239,0.009545919316175945,-0.0014236136885616834,-0.009461730245092255,-0.005561098977109385,-0.013430955890833629
240,-0.00403484762722075,-0.003031692350086985,-0.007018724361001185,-0.00830428038614161,-0.008709604263574129
241,-0.011070459527087545,-0.0003085120644775232,-0.0017403161853138426,-0.006123716790888032,-0.003580204684441466
242,-0.014422253827473754,0.0032757182927497627,0.002786463581502215,-0.0016432917660557354,-0.00044584198598249513
243,-0.01749482059063918,0.004112783454033918,0.0050146909010278734,0.001989541982958978,0.0007550676507922916
244,-0.020256105835848897,0.0009562844607965244,0.0037220330955583234,0.0008332505218830926,0.0019723843425737296
245,-0.02113430467898244,-0.004618512259581598,0.001091469386701639,-0.0017965109626262498,-3.6454624831106316e-05
246,-0.019634047958459473,-0.009958590006984165,-0.0005288157527854563,-0.0023337902160478503,-0.0048821439293030245
247,-0.015100641486515227,-0.012275797281339774,-0.00029129782849576487,0.0005147006857185451,-0.006666270549736171
248,-0.007474279475113958,-0.010603111456881835,0.0020155986226552134,0.006486926052513924,-0.004540063278319442
249,0.0012625635353031,-0.0063266435323186656,0.004450741741428062,0.010578197098776974,0.0002512657949227704
250,0.009293338314638864,-0.0011889481898675353,0.006652150801851393,0.012194819401599558,0.006196273225777272
251,0.015574230220602982,0.0032296649032081525,0.009890012593301377,0.014407504036497492,0.010773262168889661
252,0.018796391110816983,0.005525348664255141,0.014089121612166517,0.018502884352564277,0.011313905291486145
253,0.017832895715096834,0.004863665009112468,0.01563331198737827,0.021035584638654212,0.009224833645947832
254,0.01390045099477286,0.002321988495574798,0.013362197096728071,0.021172147937463102,0.008523719639991583
255,0.010613690386557451,0.00012251870130708959,0.010585756493261678,0.022307019047675514,0.01134566447763818
256,0.010051972258979996,-0.0010386873790916293,0.009230573668664125,0.02416455442013804,0.016298095170249185
257,0.011335946489776039,-0.001427270408286249,0.00907310533640783,0.024480462585613316,0.01940697024205755
258,0.011312938963373004,-0.0023666698461757506,0.007802687411377582,0.020923297625979453,0.018577931446002796
259,0.00703171267368826,-0.006093686704166344,0.0038295329470841924,0.014405051080911448,0.013835087548742837
260,0.0005544135324734742,-0.010703653903756613,-0.0005971231280856128,0.007901937947317438,0.007495372082099262
261,-0.0017569940566239351,-0.010379638953862527,-0.0011841415086028895,0.006430496450105558,0.007309964124119451
262,0.0030833401403173983,-0.0035481572750805765,0.0036973351237236706,0.011624106572456945,0.014968760946057676
263,0.010726775888854106,0.004731887839625977,0.010421722257807646,0.019422395101587882,0.024524162881784415
264,0.016320660661047585,0.009923187753587864,0.01441966231143578,0.026338836296315164,0.03301965076411086
265,0.019837663725731428,0.012399586938787836,0.015287946252913177,0.029718370625415946,0.03829278602355663
266,0.02119550138662064,0.01256518154903132,0.014395251731577489,0.02666043558904723,0.036906965470965385
267,0.01901225439700855,0.0095044323070401,0.012001473209935963,0.016806084008500408,0.027786986567669907
268,0.014315544515569047,0.0036385033565337803,0.008460416917875517,0.004938491824962757,0.015058726534072378
269,0.01047638080177008,-0.0029008851828763002,0.005267637624010196,-0.004477602165763664,0.004513417315160376
270,0.011644927915220761,-0.005184671059911549,0.0055590630361862375,-0.007267262158903544,0.002728135228127834
271,0.01709921465642241,-0.0021348043575093417,0.00947814425516978,-0.002476160917935734,0.009174640836041947
272,0.021296962999927012,0.0003139818655652335,0.012771008921359153,0.003400732519369454,0.014945082777370295
273,0.022448792373848604,-0.0005930140265293707,0.013205923672047216,0.005041193832353052,0.016849661268179602
274,0.021837490844941486,-0.0027013033300025678,0.011571081635419337,0.0021009689287124645,0.01652231443249354
275,0.02062648441468264,-0.003054532805651487,0.010443440284455952,-0.0029526638638183653,0.016670049025281783
276,0.020039137104571707,0.00047557869516102466,0.012677573135724785,-0.0028416402063046143,0.021351997282834316
277,0.019913330870342572,0.006562393103260674,0.017722258231711686,0.00024325935508571963,0.028525791100487117
278,0.01883000860696129,0.012431115326318364,0.022237212986835602,0.0024123861416461027,0.03383456630055411
279,0.013863897280237916,0.01413950714346694,0.02248919531808108,0.0012084395243136575,0.034044344732565006
280,0.005471293224332155,0.009741209196037487,0.018656447129639358,-0.005365633102630486,0.02799502780184516
281,-0.0003576310150039377,0.003441210346677653,0.015939115805173133,-0.009129274851717668,0.02065746318708496
282,-0.0005673888348244929,-0.0008634237402185771,0.017562562979482294,-0.005430812464680671,0.016805134385135617
283,0.0030145522728765393,-0.001934413901341958,0.022033680781740665,0.002529364480372086,0.018208045359410497
284,0.005898342228579275,-0.0009512374675674524,0.025285824581027502,0.00788564719512013,0.021742842796785067
285,0.004924911134783456,-0.0004028191270161675,0.02531844971016962,0.010110482371549576,0.02349615344700191
286,0.0029791033018912844,0.0016040215507439148,0.024990533433223838,0.013552060530593962,0.025611140027095556
287,0.0035297709483427283,0.007585346786502921,0.02620132690860292,0.019141400254112876,0.030704403757815253
288,0.0056336260303841545,0.014537436704886006,0.027275555300819862,0.025327966441715723,0.03594684153472342
289,0.007721069302525898,0.018609483237230377,0.027184933509208708,0.029107519064497052,0.038199703390873585
290,0.009978294137626376,0.01958260030287803,0.026632657777160746,0.031011646301304978,0.03872856319911895
291,0.011067221505173233,0.017960924301484167,0.025494487021024796,0.03249630747302932,0.03821931297615896
292,0.00769592277782412,0.012255855598692042,0.022219811143748935,0.02728422145582511,0.03051927720822484
293,0.0007615411577444368,0.003282540251230529,0.01696988773511359,0.018941384718361896,0.018543823487922523
294,-0.004692945700809368,-0.004352618900013784,0.012466215468671542,0.014290891210754242,0.009518328054631051
295,-0.006780097177168215,-0.008441257554215332,0.01045737658052104,0.013481184049092973,0.005580154365790389
296,-0.0068735560634605565,-0.009389675814941737,0.010775861351063055,0.017547854296405832,0.008008119290787184
297,-0.004620676682164177,-0.006609543536926299,0.013458134537940888,0.02448612812983096,0.013337870219896611
298,-0.00024590846043200045,-0.0010283847511245315,0.017592080847920983,0.029632626331765253,0.016896859375401137
299,0.0012674565130450727,0.002701815645417673,0.019219840654999962,0.027030861460442413,0.014851820917782112
300,-0.001138300791751497,0.0037536486488211653,0.01766427027876253,0.019410172207481743,0.011012050105695977
301,-0.0023896369077388907,0.006161318264227312,0.017498117396477938,0.01375266278000792,0.010906238624571797
302,-0.002305419913812608,0.009029915499152691,0.019519529508323162,0.011755411213958691,0.013008497691533677
303,-0.0032304057100456924,0.008639486421421922,0.021417094622983766,0.01115708237664874,0.012235994783605625
304,-0.0038846825692580556,0.005603634513611918,0.023379979434412806,0.01024362566957121,0.006883345086680847
305,-0.0026293225448402913,0.003500123749344119,0.02604506898621734,0.010737488650135412,0.0013004788594256481
306,0.0011204013081580325,0.00521410767510467,0.02874560711842991,0.012576964147157357,-0.002233377592241699
307,0.005615886160191798,0.009258942372607992,0.02969666935717351,0.013009896388877128,-0.0062968704558817225
308,0.008288275539223558,0.012637699283109174,0.028405381033228476,0.012737090526731037,-0.0051796659760427665
309,0.00838619943968269,0.014355594163867053,0.026330733248075267,0.01247839494554327,-0.0013377463994389091
310,0.006580236794567823,0.013580770871109543,0.0243932449347994,0.0127592060859579,0.0006747123751356935
311,0.005879206446282025,0.011710924546163876,0.023847584169818737,0.015990943942367074,0.0032567046055755893
312,0.007056041049112062,0.010165118561020259,0.024699956819683448,0.020860310659404756,0.0044516655819919855
313,0.007041603012123818,0.0072320371197049284,0.024561600021971237,0.023274944367504085,0.003996308040906697
314,0.004520567854497501,0.002129586076172971,0.022362319191893156,0.0214723609606014,0.003226101545065267
315,0.0010209869264735166,-0.002833496136465566,0.019224252998204572,0.017310999070395544,0.004350467212332692
316,-0.003065112681191637,-0.005829450686346965,0.015752384046524022,0.012346338792990161,0.005160624856752578
317,-0.008102167970388352,-0.007906953952451692,0.012303750707125097,0.008387404484804824,0.00507973354136536
318,-0.012468470210800943,-0.010314082065337965,0.010225255840763375,0.006841299747702672,0.004673561731847777
319,-0.014835734974276467,-0.012103189701587165,0.009259138078008492,0.005534646312602403,0.005106396461651836
320,-0.013544559601997668,-0.010051339746176167,0.009176361671316436,0.0036130204973329827,0.012831084927012657
321,-0.007829230201603053,-0.0031196154786180628,0.011357725623069574,0.003064559241071712,0.027768005103781686
322,-0.0017592566647638345,0.0046219367822366115,0.0147014274009134,0.004040042413411683,0.04266488449792344
323,0.0002943052776068025,0.008537647744166205,0.01608624131826087,0.0046894157607996955,0.04917049193461188
324,0.0002710151141645801,0.00913608235534595,0.01557515396531541,0.0059170485103526155,0.04291355399199631
325,0.0022860691461259763,0.010093655488241064,0.015535527939560898,0.010116516902316892,0.03429741039875811
326,0.003985007105210663,0.010479183443624971,0.014759974424507662,0.014918230150051665,0.02826996283426207
327,0.001578591746585333,0.0072432051167756,0.010863787974900582,0.01626434065261156,0.021637814974035836
328,-0.002957602612990487,0.0015910566303329178,0.005385941818184008,0.015047298827502307,0.01776308736562774
329,-0.004784608730960973,-0.001852905839190607,0.0027319049494494495,0.01641601466258682,0.018514257039098526
330,-0.002518446672166155,-0.00012694551235045316,0.005302832981736252,0.02234445782531784,0.022964524097506468
331,0.00029917069768810046,0.005441120729418816,0.010827205103170921,0.027910712913093612,0.02776216650106931
332,0.001439673576614109,0.013642725326040156,0.01664598266578127,0.028989492729931017,0.033009207211003755
333,0.0008819078106936163,0.02233210191846034,0.02091398596943887,0.0262679524337361,0.03759060979355661
334,-0.0021697381014222704,0.0264335948548979,0.020565653393282753,0.021121286853744,0.038941525146059926
335,-0.008181612845636229,0.024140081358831722,0.01410506776181411,0.01409879608267656,0.036539739122300775
336,-0.014599117651577185,0.018627546167370713,0.0050772991910484075,0.007618701061039181,0.030324175123317955
337,-0.018453762813598985,0.011405777349539247,-0.0018414812610580342,0.0042080731645755326,0.021579286017298055
338,-0.02054264025934387,0.000683636163366652,-0.006037894694375901,0.0028715361904477752,0.00992826346902533
339,-0.021859329550410162,-0.01279476008847292,-0.008793104329792566,0.00202308522587327,-0.003781545224128642
340,-0.0205712336549504,-0.02357196443113979,-0.010037235965285102,0.002556043978071386,-0.012873296294122809
341,-0.014681146128211706,-0.025523852451202644,-0.008161240106150757,0.007803036529503095,-0.012696988630905789
342,-0.005316471966368142,-0.018129204494977052,-0.0022919656916956794,0.019526711640214182,-0.004406497738123749
343,0.004268168813109414,-0.006813296992909115,0.0061399472322601605,0.03378117246848594,0.007245732349301096
344,0.010423526425451614,0.000795910116534012,0.012895716641145414,0.04289682893653682,0.014308241898262417
345,0.010588829236403237,0.0006362917830590001,0.014024530697728034,0.041754849231761475,0.013146087229155282
346,0.0069687435421367985,-0.0021570034591775096,0.010833494035073785,0.03206494604630168,0.010159893173195137
347,0.0035852987938369794,-0.0018424182734469983,0.0067457822378828485,0.018254850283138953,0.010761302524596563
348,0.0015915694352018157,-2.367992273049785e-05,0.003461998410439202,0.0039573855873368015,0.011849668929348278
349,0.0009884301173827626,0.00019168825431177674,0.0013868227578809685,-0.00735615430530892,0.011632849498625985
350,0.0017779103492075433,-0.0018715981222202746,-0.0001016263410008508,-0.013969118048500425,0.010674386427121428
351,0.0034252995116306143,-0.004670656418086614,-0.0010060268339533022,-0.015561000125970363,0.008639234767135755
352,0.0037880248783145162,-0.006906422553679812,-0.0015298047570929808,-0.014053356955350536,0.0055728435877088365
353,0.00019690979137505036,-0.009892305827203112,-0.003753317574646428,-0.01451226335269588,0.0006241723580166137
354,-0.00590950472879444,-0.013591923936583823,-0.007696064911138456,-0.018115036161086426,-0.0053734941371931634
355,-0.009850386275623058,-0.015321281456082485,-0.00967624980918604,-0.020157331299552578,-0.009560115904576557
356,-0.009031820930208136,-0.01372178868019717,-0.006740310886536488,-0.01713375507047052,-0.010672299372390311
357,-0.004592491740237138,-0.008362381527888908,0.0004242966661279981,-0.010053292257031894,-0.007841249222717474
358,-0.000582319729299375,-0.000836647358947845,0.007420711885538215,-0.003878533925640108,-0.0019423609334681005
359,0.0007248730758576737,0.004735218118708836,0.01067980246694678,-0.0020034035959379435,0.003221004038066739
360,0.0014236007302572036,0.007103858000909886,0.011391095277841094,-0.0019502763977828237,0.005962950746021574
361,0.0029992238990781063,0.008440094574855372,0.011339774693802328,-0.0009471862068765245,0.007872862635412762
362,0.005219139319976958,0.010518623309986968,0.010583129166585053,0.0003635303417408789,0.010452657250707802
363,0.0069779627237057384,0.012071247535398398,0.008847443816305896,-0.0010487583339290197,0.012210342411157966
364,0.005931520343595232,0.010239286705002924,0.005275423886455584,-0.007475457393306058,0.011068820328850572
365,0.0017602138115356762,0.004493330574717316,-0.0004129181861880968,-0.015410056996019406,0.007724289324802739
366,-0.004282367911654101,-0.004094288572547395,-0.007714133146192333,-0.0191713142559667,0.0025492177176584785
367,-0.008719552317992532,-0.011829563597362208,-0.014053927677761521,-0.01617365192889926,-0.003131962104694204
368,-0.0058754354540748255,-0.012238098373380378,-0.013974810838483762,-0.006016052522590667,-0.004453715239964219
369,0.002156113184101618,-0.005521025190554167,-0.007416850244182213,0.006078692232356711,-0.00035323191788811205
370,0.007884848700649627,0.0017169564541250537,-0.000569811502762341,0.013069176363949525,0.005826729206966071
371,0.010311900457529197,0.006902038703687564,0.003815574000075251,0.015507232931332259,0.011731462284151676
372,0.012103081401415831,0.011250030162828172,0.006821013726222976,0.017601186004515157,0.014074911636283206
373,0.01312614083326658,0.014387888634172903,0.00881716956376929,0.021217334674840833,0.010024052964349214
374,0.011875134742556902,0.015111126303348125,0.008635616364836875,0.02509514987321387,0.002089721741620398
375,0.008843451724477059,0.013816266328221841,0.0051747955012205185,0.025515952802938106,-0.004765626969232455
376,0.0062366741236571386,0.010031704130883069,-0.00045577695758907045,0.019267419002999643,-0.00922651792151466
377,0.005767056468040635,0.003637249163345671,-0.005116772742078107,0.00825189842053181,-0.012410703019261112
378,0.006774286247510123,-0.0014583134461623128,-0.006887446431589671,-0.001448234779170503,-0.014613458295736587
379,0.005819629485421926,-0.0025169523581759466,-0.007520984767268039,-0.007611317710512109,-0.015454571062232332
380,0.0016029936746730865,-0.0013551199781267937,-0.008913258808835053,-0.011546516511617071,-0.013511883333504076
381,-0.0017185442754099104,0.0004350741820015047,-0.008460887890198224,-0.01125526125568252,-0.006983146808446606
382,-0.0003413895009630507,0.0036580285591966614,-0.002925363338063411,-0.004518819991989656,0.0033880571797735032
383,0.003568866880841271,0.008660862791983947,0.005279729847885907,0.004758829688655774,0.013443956454111767
384,0.005163843052569709,0.012427853861635644,0.010453251605203141,0.009921622463375497,0.017705628146047626
385,0.004917259347434605,0.012760506250519065,0.010985446115290278,0.009675189767514832,0.014922727217648389
386,0.007658853478109182,0.012764151966518669,0.010001869291208323,0.007494651116549809,0.01052085212926282
387,0.012841542457525721,0.013806215434130947,0.008927247220897688,0.004829652005755504,0.008176213165995363
388,0.014654234808874074,0.012756160813541598,0.006149773330962321,0.0008822211247879337,0.0063316981107728884
389,0.010683185574554915,0.009395022692481552,0.001293685274142656,-0.004270926007045819,0.006090565878785183
390,0.004039197074722548,0.007014763851456839,-0.004062232100906828,-0.009576861238217133,0.009571045398398143
391,-0.0006009128493837997,0.007694842324319521,-0.008199412087895553,-0.013414274596589743,0.013116076690605298
392,-0.00158927227809871,0.011470543133182012,-0.010088935125342681,-0.014667959071273409,0.012902988974718423
393,-0.0021158911928594554,0.015482520590396632,-0.010811109700641025,-0.014325178297289732,0.009993658797715453
394,-0.005125861320740841,0.014996947160803874,-0.012147351318120243,-0.01374994724475399,0.006418289295998464
395,-0.008550402402521008,0.009718734525299533,-0.013421807519446865,-0.01305890751166033,0.0023496704031899535
396,-0.010126100284905515,0.0034560979650931135,-0.01375380111111947,-0.013758892575743113,-0.0033114271684096266
397,-0.011102679040844214,-0.0030005504807063673,-0.014045005248681977,-0.017991865699992147,-0.011965417525971236
398,-0.011764937068998338,-0.01004699412185502,-0.014463293893045674,-0.023982183286544605,-0.022105078420999354
399,-0.011827312146524391,-0.01609450575077021,-0.014970636865732852,-0.028875576097554437,-0.029800833639225196
400,-0.012343871292216695,-0.020028031901400754,-0.01626712752557368,-0.032329521063583284,-0.03291744913485828
401,-0.011736605552835695,-0.019819477982692332,-0.016844929136605243,-0.03289022952818145,-0.029581813213102656
402,-0.008525385131959223,-0.014539475401323668,-0.015258508684958216,-0.02955737115245186,-0.019988996846543438
403,-0.00473085654629263,-0.006565509201728108,-0.012764915888269274,-0.02385175159110158,-0.009158245322478208
404,-0.0021680046239672336,0.0017195600415388583,-0.009913644539686083,-0.01660433484061777,-0.002140434181877063
405,-0.00176582741693349,0.007842385797101427,-0.006855563614013699,-0.009253151018369342,-0.0005787156716366404
406,-0.00226557541524154,0.011568765655699366,-0.003078125029714294,-0.0022452607944885806,-0.0006141942975776655
407,-0.001327371847173622,0.014465049632200267,0.0021789831285052006,0.005111726065383907,0.0020395935600603125
408,-0.0009758955881644799,0.014223225359653492,0.005421864728453418,0.009563370528117591,0.0036462572123365997
409,-0.0040080501979716816,0.008749247124358839,0.0034602754421145976,0.008554200204437057,0.0002986577856575599
410,-0.007301206330696412,0.002806728130419395,0.0005007277457863339,0.006849341259755967,-0.0027110431587308607
411,-0.007360808586297442,0.0021996463791788706,0.001037703147542158,0.008377744780679638,-0.00042588133916224974
412,-0.006543155372792681,0.0050786596128133965,0.002519397040159413,0.009505214017007881,0.0028847889385782864
413,-0.007428771196169653,0.006117588804145897,0.0015688100765408174,0.0071589682255355615,0.0017909190038923445
414,-0.008684008675816899,0.00452029984654703,-0.0008926698594947413,0.0035556777408589607,-0.0031797585241922104
415,-0.008384472220363535,0.003671020332760739,-0.002433626253328835,0.0014537053567088864,-0.007284536166223393
416,-0.007549372296840397,0.005948456761427832,-0.0029333432843619838,-6.685875115107506e-05,-0.005534378213794405
417,-0.008854227153326092,0.008670755045850981,-0.004008398626976987,-0.003423761794981015,0.0005844752390812139
418,-0.012955472783709685,0.007799744785192453,-0.005897390443618228,-0.008311266359270179,0.004684246998242909
419,-0.017383356010769544,0.004858324183536425,-0.007064233399311678,-0.01172366559637409,0.005281502501707353
420,-0.02008372257216515,0.0034055179594455506,-0.006944352130553926,-0.012383455011165693,0.0035816519275440237
421,-0.022176609487314567,0.003550319856317273,-0.007200597950754252,-0.01261677165322454,-0.0009400967820071545
422,-0.024411055780772916,0.004989766532599966,-0.008242185245110818,-0.013784315553128961,-0.005195345834503177
423,-0.025402092084404283,0.007576909756506843,-0.008113485336894707,-0.014324054724687792,-0.003872506644150808
424,-0.024837587872677914,0.008947307064483217,-0.006275801499254643,-0.01275209877063681,0.0028937104560799697
425,-0.02384536950810152,0.007434530108162975,-0.004162853757439072,-0.008983041414958941,0.00925017208408121
426,-0.022701790453102496,0.00496538297489066,-0.0026315032921529623,-0.0037888718649345707,0.010407286199076675
427,-0.02175447263820624,0.0037970251894256244,-0.0021189620467165597,0.00038743878530938375,0.006952955324754324
428,-0.021251032515050103,0.0034514722371974107,-0.002867592080537592,0.001247707144388472,0.002782486516604224
429,-0.020164973862221852,0.0027261058677368367,-0.0038317193848163345,-0.00013560228939101112,0.0014904090587905833
430,-0.019688579573537885,-0.0001527512562472285,-0.004796829070817851,-0.0019167950422300192,0.002212055375265748
431,-0.0215723001773746,-0.006176045149747501,-0.0072831814025908805,-0.0034726941070701385,0.0005123600001006955
432,-0.02343311205873044,-0.011618898638887777,-0.010760963346195845,-0.004417116256710676,-0.004072277754418043
433,-0.022982390396968855,-0.012270756478164151,-0.012158295278010397,-0.005131179689566409,-0.0074410269985119215
434,-0.021610003511224038,-0.009364159605217555,-0.010638178467864566,-0.006244288435116194,-0.007934325871151744
435,-0.01926960476445752,-0.004740140712704047,-0.007485872567461299,-0.006178376051732264,-0.006490606246647526
436,-0.013799446949324461,0.002408947701470841,-0.0027622708252569004,-0.002780410256389719,-0.003084811083759772
437,-0.0068874512243867645,0.010880646056092394,0.0032656689992913318,0.0028552352471696994,0.0017721386295675872
438,-0.004342430599459116,0.016134915413781023,0.0074190223098424,0.006538823603676798,0.004684020169283091
439,-0.009186219873799068,0.014885615050596258,0.005875933345058323,0.004700034432214157,0.0026296300616502665
440,-0.0182212592789021,0.009224513136696519,-0.0009373720251351421,-0.0025342432375332962,-0.0022670480436862116
441,-0.02681704489425742,0.0032418852187286384,-0.009308458116255804,-0.012506488182188415,-0.006516860163065976
442,-0.03188673059063686,-0.0013060671983101979,-0.015816849630925972,-0.021363089159234596,-0.010093801511737428
443,-0.03272494861211218,-0.004918919546885439,-0.019465097942924395,-0.02610677729759146,-0.01476998193695919
444,-0.030680374253883737,-0.007893419910991894,-0.021377909887844642,-0.025950713706184965,-0.019338193728760642
445,-0.026095116759976673,-0.0084715706170639,-0.021361234017782865,-0.02066590622565553,-0.020469108365466945
446,-0.019697096863664512,-0.007361415974583453,-0.019235441415267777,-0.013120389879108501,-0.01978004186063193
447,-0.014535795170836157,-0.00875033159777141,-0.017289827268920976,-0.009397051691184585,-0.019260494782815503
448,-0.009961019815759763,-0.010497558807141009,-0.01601196042597181,-0.009890326979297016,-0.013690960184032598
449,-0.002153642050629673,-0.006542395259409695,-0.013578658793472883,-0.009577026443640807,-0.0014320909657214759
450,0.005780471830819246,5.7090505677418434e-05,-0.010548524718974335,-0.006988494355753023,0.009057152936784205
451,0.008838320314294452,0.0031082165788347063,-0.00791184213118042,-0.002746791532129252,0.01261839400933182
452,0.008430305148716481,0.0024885653094951,-0.004852830396059036,0.0025453142726330484,0.011673428770616017
453,0.0063639664437701296,-0.0005264494776967672,-0.0015568397305145945,0.005567292368876585,0.008728524366580075
454,0.002868418150930164,-0.004473490807504931,0.0012277324604585329,0.004709595661226805,0.0062995083405308185
455,-0.00033195705366401536,-0.006780789958309031,0.0034717794050666993,0.002584654158574382,0.005693841783666093
456,-0.0016794894580703078,-0.007317791126933221,0.005187188415683784,0.0008904470402350808,0.004382541701550934
457,-0.001250562241932252,-0.007700641861615669,0.006355057689164129,-0.0008953666574857409,0.0001672713035856395
458,0.0015171477384279509,-0.0067524468233503415,0.008169066893146755,-0.0002904960313231446,-0.00439480162135093
459,0.006260874922610328,-0.003330934252431146,0.011849340079579412,0.007417232135659792,-0.005702367769750561
460,0.010211214300386219,0.0003164186010910086,0.01626024780291531,0.02058734190095876,-0.004017004487965682
461,0.013682167871784995,0.0035773934727740654,0.019944574880417686,0.03132035311459513,-0.00024983640036287726
462,0.01751455335228584,0.00686743064869311,0.020888912786225337,0.032734421228524206,0.0035806864863520797
463,0.018616908519559695,0.008582091208884621,0.016615231944701974,0.02436785666571983,0.0038957894986827216
464,0.01508952836736805,0.008041668040813814,0.008355197102263096,0.012447694969089514,0.0004830896552613105
465,0.0070458178089310075,0.004345375252578303,-0.0009569161730757825,0.0012978446520877057,-0.0060262766834940015
466,-0.0045288255104263386,-0.0037420810953742683,-0.009933983604613625,-0.010093059539018161,-0.01492521163583466
467,-0.01532364631590042,-0.013495267257133394,-0.01637955605528151,-0.02071913078966228,-0.021289715679072983
468,-0.021365398709276662,-0.020699947957208913,-0.018387781289347652,-0.027453478086698388,-0.021719564391053242
469,-0.023115616715572565,-0.023694894116007413,-0.01735496450437003,-0.029849900520640585,-0.018786496915816124
470,-0.02130967945684807,-0.021202296829686645,-0.014803961844488199,-0.02766661371393074,-0.014067978050344179
471,-0.016160255610927626,-0.014260216775611073,-0.011030589649961488,-0.021018266343633782,-0.008496416267190067
472,-0.010543016143960686,-0.008709763103688074,-0.007595614560221854,-0.013594226344978857,-0.00627525127164566
473,-0.007823953738938953,-0.008913032097378188,-0.006200204786818387,-0.00989045575759439,-0.009160737698532765
474,-0.008916165972856575,-0.014289426317198036,-0.007415375152365723,-0.01102631682239312,-0.015677366375847327
475,-0.011458788296621038,-0.020782628284876526,-0.010196985957367156,-0.013783164426598589,-0.023233467857906524
476,-0.011532967986191864,-0.022997616987784558,-0.011084514992111794,-0.013542583143401213,-0.026215552277133125
477,-0.009251066189198073,-0.020270369043317474,-0.00852255540039936,-0.00985431623934534,-0.022210227730016106
478,-0.007642967489281964,-0.016343159601933596,-0.005088612851200305,-0.005728344735530597,-0.014897948967028703
479,-0.007179172079376658,-0.013086189976864074,-0.0026976834169244912,-0.002461547983023839,-0.00757372428138221
480,-0.006717184341855934,-0.009987837545535982,-0.0007945659749131846,0.0005126140687594721,-0.0015904461438686365
481,-0.005771318257799231,-0.0067842273432813655,0.0013816215467572204,0.00324153587861896,0.0024933661844026922
482,-0.005681933784131826,-0.005868942611562989,0.003033531701619784,0.004489006796297596,0.0032587503295364913
483,-0.007156883092645577,-0.00872171006017905,0.0026986839397687393,0.003089205245166848,0.000596809768404727
484,-0.009025825648528501,-0.012049476885939738,-0.00017520795383764635,-0.001492723317301439,-0.000930931826487162
485,-0.011056300875797809,-0.013206061818462223,-0.004595760712546214,-0.006880470804974772,0.0014091640564498427
486,-0.014024182710353184,-0.014012647074252597,-0.008942534619704182,-0.009115183020853075,0.004081882380646496
487,-0.01792040773829661,-0.015999330016101796,-0.01227960834466328,-0.008435758383890634,0.0034455754112151242
488,-0.021470059776470707,-0.017484634325547473,-0.014097522960175914,-0.007836560111579073,-0.0008980867461642728
489,-0.023924787711930916,-0.016647243752667105,-0.014946725413940263,-0.009294114029183736,-0.007446369901418607
490,-0.02563181099905289,-0.0147003583003651,-0.016129313560722208,-0.012761180186699828,-0.013577992096053582
491,-0.026707695824496898,-0.014578606693324347,-0.017961153777817894,-0.016547705932511585,-0.017157360960695773
492,-0.026769193570237222,-0.014894065547972119,-0.019764856928820955,-0.0198640808999475,-0.01679738991550975
493,-0.026534402249132533,-0.012086544429584099,-0.021505718176393865,-0.024184049828075264,-0.013225823820942785
494,-0.027094876445904147,-0.008109582443708411,-0.02394061776543758,-0.029652373215651714,-0.008882655233726094
495,-0.02619506068710687,-0.005877725792647735,-0.025717343288580823,-0.032187760323886955,-0.0027543500283237496
496,-0.020560264327170823,-0.004700646209620786,-0.02339166362154994,-0.027265793439371477,0.006728324836789077
497,-0.01027514052285013,-0.003196884914149819,-0.015590278431692833,-0.015104353153853224,0.01613591432581642
498,0.0002357060668249995,-0.002511461279342582,-0.005813706573708263,-0.002389309616732253,0.019546329568344317
499,0.005719951378923204,-0.005846306275567182,0.0008472685998520097,0.004009302613666832,0.014431990943750425
500,0.005747528145746306,-0.012486839569978378,0.0028905052634915778,0.003970384394936035,0.005207505505571955
501,0.0033942130913315674,-0.017335589490378014,0.0014783261180148241,0.0009551949220947541,-0.0014547431895154698
502,0.0019668803863097705,-0.016264759974603554,-0.0011694160209086543,-0.0014499177855398912,-0.002667380089573831
503,0.002068642425965561,-0.012008129915332743,-0.003207309136621187,-0.0011849131589941396,-0.0001815259344895777
504,0.0012103442813915545,-0.011603183158844328,-0.005346387565428371,9.887470310760978e-06,0.0022667656768609406
505,-0.0006257654587971215,-0.015278410150551,-0.007949298118650437,0.00043528623485814227,0.0032069662659772245
506,0.0005495930547338785,-0.01621566328431558,-0.008332228722008563,0.0025005114143477132,0.005149957953362417
507,0.007971563362565772,-0.01022096767577684,-0.003938222507345264,0.008795276818329305,0.010738486163710502
508,0.01967909349401919,0.0003472198013837408,0.004324145311483748,0.01773395409232976,0.018529661799437217
509,0.029503289010554885,0.01072784711329469,0.012553057648603025,0.024757358587709687,0.025448287608068172
510,0.03249758287459416,0.016862299105998627,0.016530924130538173,0.025507599382186972,0.029026841132351558
511,0.027753754097565093,0.015530745211947557,0.01432331800000906,0.019168890284669567,0.02604338221164038
512,0.018305221997321798,0.007848098906555882,0.007982431928733201,0.010021777271192866,0.01640537481677078
513,0.008312778435734837,0.00021637387639580972,0.0017797176463954375,0.0022274084343221765,0.006348225960256278
514,-0.0014279269484672689,-0.0034296929531781105,-0.0035856157820736596,-0.005906247974859617,0.001053531703589007
515,-0.009602471718092396,-0.003613392315051405,-0.009601660676098862,-0.015394553590950662,0.00020823868949557575
516,-0.011268070487478602,-0.0004611604055032928,-0.013890529022877948,-0.02109561058727297,0.0024003656254907722
517,-0.006729393846024047,0.0038485750542682244,-0.013868718415077062,-0.020521885929042465,0.004905734142877234
518,-0.0010759417859035876,0.00729306261846672,-0.010015110041610813,-0.015635050183703363,0.004844115903791087
519,0.004047182986368615,0.011651571180224841,-0.0039002622950471202,-0.007524808246992552,0.0037360049035942695
520,0.00922856187253207,0.016435533334636855,0.001968082373622029,0.0015198001374430823,0.004728438026704683
521,0.014341119414698303,0.018709951411839506,0.005938408783955221,0.008170567373663434,0.009157026147569799
522,0.01737315118082733,0.017278552977395063,0.0076243797549429915,0.010728924367039335,0.015458387761914332
523,0.01666044727987365,0.013953010276151392,0.006827381569304041,0.010177390674364224,0.020122375099788186
524,0.013905024660458162,0.012007809026386622,0.004331043878073552,0.009106355623661246,0.021329477844201764
525,0.01103994281869235,0.013210584830274789,0.0013589594378542148,0.008093309418841106,0.01954725887494041
526,0.009022032206923086,0.017760883127328014,-0.0011462340226363293,0.006925187256976242,0.01654030435825166
527,0.010268479957658344,0.023016759976138175,-0.0009672861210723012,0.008101324059102381,0.0155984063955606
528,0.01427721283284934,0.02255074506463182,0.0026622662948366134,0.011248380978700583,0.01712350520951275
529,0.017210600689220982,0.01443952718357559,0.006690281264716255,0.012290656198911098,0.01772151086983729
530,0.017103852830670715,0.00483542682361175,0.008890769421204765,0.01170569703957308,0.01717683975640277
531,0.012951311399721431,-0.0020782570255573466,0.009307009068963977,0.011442868346764161,0.018583534769156463
532,0.006575191101251272,-0.005680534210219623,0.009687745327329127,0.01109338898944591,0.02490005562878286
533,0.0016088134855775599,-0.005405762599037757,0.012014510233611764,0.009906651754680824,0.03469360829136259
534,-0.0013992188058932068,-0.003141202543302939,0.015503293045506865,0.007340716481873748,0.04061339339597678
535,-0.0031910470305811472,-0.0024249371949697568,0.017460107176288573,0.0041915491637924615,0.03779759647553095
536,-0.004632271787566942,-0.004943659575526095,0.01558257698812683,0.0008965504889081678,0.028218366329603554
537,-0.006305217790578345,-0.008110597322355795,0.01011788484207369,-0.0022459178780104673,0.017001281298011928
538,-0.005912824112151091,-0.006660254516820011,0.005083856998082377,-0.001953168737158962,0.009918222839394435
539,-0.001224172782559122,0.0006271019560730563,0.004420450959459135,0.0036038775252587108,0.010003573749869567
540,0.004690905809864822,0.00762922941662623,0.006571337964654277,0.009579001214229207,0.014095287811945406
541,0.0071153170821079215,0.008212099781457267,0.007297831283623988,0.010437143914287171,0.016794349457619245
542,0.004984783591059112,0.002410952450104309,0.005579735807477823,0.006419548057433745,0.0164776720590852
543,0.001003368671752547,-0.0056578463906063825,0.0038094356744588177,0.0016972461099827958,0.015206747759972232
544,-0.0012686114529111877,-0.01149675557108127,0.00414850028916893,-0.0010705091923529446,0.014368963358044037
545,-0.001676404407967334,-0.014001313521127655,0.005533451047299031,-0.003416997880097099,0.012803439762700207
546,-0.0017104810218318443,-0.013727992833194189,0.00609156552947449,-0.006281152614171058,0.01114666334118196
547,-0.0019163027397687603,-0.011548248220271957,0.005847460160666671,-0.007159877119800261,0.01089966496522225
548,-0.0027772727595910575,-0.010524253731568031,0.0052706796179802055,-0.004260157529902643,0.009855667153774297
549,-0.004233608037943923,-0.011412704604320846,0.0038447969959419064,0.00022450475247442586,0.007978316495331842
550,-0.004130587312026757,-0.010738690373267901,0.002421003789704294,0.0039688015693297675,0.010211776642885863
551,0.00036071340203348704,-0.007274188903215992,0.003225845927416319,0.0070514268410920835,0.01685167432169572
552,0.008299180565594108,-0.0038584364776595636,0.005370578169279739,0.008121362161611143,0.021756619357558155
553,0.016134806999285746,-0.0017093506062313489,0.00715308012334886,0.00771105988607906,0.021674966733660286
554,0.021334348593539075,0.0009865906957500666,0.009464551337158397,0.009802444114213606,0.01859320886379924
555,0.024096940747646907,0.006857991897738123,0.013986174168416259,0.016053735184399363,0.016760202994450347
556,0.025588905766596514,0.015504698287775936,0.0199728499482754,0.02410174315132934,0.01750304954468142
557,0.024127666993082223,0.021348604113489742,0.02345056050786145,0.029142530813305794,0.0167455777536236
558,0.017628247528940915,0.018991833516124403,0.021079813662795186,0.027098711405267227,0.011303374757038812
559,0.008551144929815431,0.0096030686996236,0.014153799851515086,0.019227254117277447,0.004185959606739163
560,0.003360433946966636,0.0018503699561618371,0.008437691495069496,0.012433828748437417,0.0032218533626225884
561,0.005476957339719376,0.002383015647704769,0.007712526784079974,0.011005272209051262,0.010976999884968332
562,0.01283045531507854,0.008963953173733068,0.011064086824550933,0.01347379142053197,0.02134063413594974
563,0.0206474223781119,0.015120262321985429,0.015383136330222145,0.016016595257136664,0.027495784316524566
564,0.02540675863904018,0.01679509567538241,0.01805699894993643,0.016601845558157812,0.027316596493732657
565,0.028049501587255964,0.015668268739907263,0.01990693563079487,0.01767457048025676,0.024858027237614336
566,0.028865416724481407,0.014454126003760632,0.02162918853285064,0.01936450521396447,0.024885653984954164
567,0.02772423564643878,0.014782062168376575,0.022806991202439723,0.019489411219230816,0.029195470180164565
568,0.025803961635605065,0.016607279944012798,0.02346269401254429,0.017667360857850683,0.03374914063427655
569,0.02179238858388028,0.015813159686658907,0.02170164657283926,0.012706216004315174,0.030915551259959036
570,0.015454353300344762,0.009747467327898666,0.016320156122301758,0.005117144392753496,0.021023239144968738
571,0.010130298889937323,0.0008003976418314992,0.009178544948076328,-0.001324383745374163,0.011364412469155673
572,0.008781180609339733,-0.005898196271742454,0.0035186188325096873,-0.0026334745866834893,0.008383485693743488
573,0.011500409668848197,-0.006150465839588357,0.0020226231708659385,0.0025547552851127894,0.013945490188245582
574,0.017137664432272208,0.00046423707769264794,0.0053440108306262845,0.011733276915477703,0.024685047751658445
575,0.022338171576213837,0.009518490172465975,0.010875296332937347,0.0186625145356923,0.03438263927325199
576,0.021561012166237205,0.01350791142637139,0.013675287594071658,0.0174294975438683,0.03803139061496545
577,0.01349716912934857,0.008921274063420867,0.01049964606996511,0.007880232371818768,0.029917463899516977
578,0.0028137673103671226,-0.0009550926426359464,0.0024308830348442148,-0.005649808343857334,0.018024017401423065
579,-0.005085849081723823,-0.010958428790430557,-0.006406988039433338,-0.017689656816584513,0.008538141144158816
580,-0.007982791729483412,-0.017577112503624294,-0.012892255963787576,-0.02421041711537885,0.002853194189375876
581,-0.005144642286300358,-0.018373574278879787,-0.01522979462589737,-0.022881214259784743,0.00044592918075548655
582,0.002268898900019996,-0.01318127699600969,-0.012624960389500528,-0.0135812286175,0.0022166398846456044
583,0.01094812723770031,-0.005627430655215447,-0.00695626699498822,0.0006422041361468526,0.006276841655599352
584,0.019791629241921682,0.00039755877903717885,-0.00028812079547706285,0.015960366956441787,0.008920685709832867
585,0.0275748314872786,0.0038034547881905575,0.006273539515060111,0.027927253018139815,0.009439566495900482
586,0.0301281551393148,0.005159725387979184,0.010533522101168095,0.031132407776975932,0.0076020375841313985
587,0.02595069362351123,0.004326766186373808,0.010115098299269796,0.022812032602992145,0.0038473807216109217
588,0.018325448288911236,0.000790355200891024,0.005189062761685598,0.007344909004582804,-0.0005690293848268786
589,0.010356785382184026,-0.004393738969397571,-0.0018686453570626628,-0.0073525791106568514,-0.0056228444579065
590,0.002581592479262355,-0.009419496446882432,-0.009266470275441223,-0.018274841545094678,-0.01322269375163717
591,-0.004400738741760902,-0.012807466730612865,-0.01536021041206654,-0.02541510892709891,-0.022175803054292075
592,-0.00871895637736825,-0.013888536581952795,-0.018081569563041373,-0.02774391629029691,-0.027793604437742328
593,-0.008818158296792767,-0.012319468535393552,-0.016675397369960102,-0.024499346074445448,-0.027989814623904433
594,-0.004042015667600754,-0.007064521548777657,-0.010607660747550079,-0.0146815276506429,-0.022834458335401493
595,0.004226418357384715,0.0023157159005866373,-0.00024393944478829323,0.0005263966325735718,-0.012736387106867614
596,0.011262129920445221,0.013015978759028267,0.009806540402407813,0.0140831370640447,-0.0025020881983195947
597,0.014309157192388362,0.021292142256017263,0.015247054003117023,0.01927188991202332,0.0031462890467457275
598,0.016932223973136293,0.02714723663141702,0.017732641923252402,0.01764310244567043,0.004437333618669073
599,0.021249550862986556,0.030147743102477004,0.020146633549524128,0.01443059495972393,0.0035125137479886754
600,0.023845888635966418,0.027484143473677565,0.022005052667999656,0.011460953118110186,0.0016007092647525164
601,0.02281214902512044,0.020530536091962658,0.02216586370563288,0.008778157788376513,0.0011744605820227954
602,0.018801995771051547,0.01330800016522239,0.019718347537077283,0.005754407762363233,0.0030310146950199425
603,0.011369062831728838,0.006710758550283484,0.01319846501048326,0.0004377147319044697,0.0019236969838986046
604,0.0020673742648796966,0.0010152435115710105,0.0037788588869204272,-0.006056925089352988,-0.004851994564492962
605,-0.003195124813073977,-0.0007195744473923764,-0.0031707640793759997,-0.008151021262054796,-0.0115146049529388
606,-0.0017836362711085925,0.0025834717254149438,-0.004089413911480849,-0.0038131580899222074,-0.011388817638580516
607,0.000825364222703057,0.005535837623564994,-0.0029261839880552593,0.0008399991603075161,-0.007069596951630145
608,0.0009680702573968841,0.003910803663389636,-0.0040391059351798115,0.0011139252114091005,-0.004015255411121568
609,0.0004090750336270661,-0.0006717670959621793,-0.006586017508842298,-0.001414344362396242,-0.0020600128178824154
610,-0.0004733878758230086,-0.005072880413102746,-0.009304100733802546,-0.004737252255083071,0.00017347429781524535
611,-0.00047353178678994,-0.005827930662101723,-0.010239130830679533,-0.00572739124483787,0.0026425915944787103
612,0.0030398310708463026,-0.0023548060516118082,-0.0069223762815837355,-0.0014542578743281518,0.000952228651117215
613,0.00847570545542048,0.0017311198725042825,-0.0014060619096074641,0.004799783698356547,-0.0017359162704805484
614,0.01169537010073068,0.0038192987366110175,0.0017427877830262424,0.0074748239248511655,-0.0021590177311848866
615,0.01201760423378494,0.0041578049244519796,0.0015886320867404046,0.005940307156525734,-0.003684267312184293
616,0.012020665694169827,0.004139596102288216,0.0007911418650234049,0.003354894326448902,-0.00550142057280381
617,0.01327044792879804,0.005148065429958432,0.0017639619826584764,0.0022486184848568382,-0.00609148379955979
618,0.015950738410248588,0.007687488141475256,0.004821219952151949,0.0038566911946713747,-0.005742631402817465
619,0.01937753221509194,0.011178740828075469,0.008744577982113089,0.008692791822473364,-0.006589342429020734
620,0.02224404250389461,0.01539342784174308,0.01302773982409611,0.015873462628332922,-0.007293655024641411
621,0.02411018240965015,0.02028335100985575,0.01763625511425248,0.023303825431561606,-0.007774301109433513
622,0.02402077849734814,0.02351416815489499,0.020438598299682385,0.02755449918472016,-0.009546897915111674
623,0.02097493498955658,0.022401680248273787,0.01920606046778345,0.026329177087755992,-0.013151676425625928
624,0.017177649677862863,0.018556237438734278,0.015399724864702731,0.022208764062686837,-0.01930865246070887
625,0.013983056606597054,0.014685173377863325,0.011348148781560064,0.017469888173860748,-0.026662260598715758
626,0.009668454291831578,0.010137003189518521,0.007232962953604703,0.010770946873774903,-0.03519005355828395
627,0.005424829566053188,0.004501043195826958,0.0034078242589980316,0.0037594259998197333,-0.0439434943692649
628,0.00417697711529064,-0.00034203353857215486,0.00029462540631081325,-3.097148605487902e-05,-0.045225293264415836
629,0.004918999070952588,-0.0031870863865108784,-0.0032303443616197498,-0.0013217943787149488,-0.042308090359697466
630,0.005105116229350108,-0.0037553565652077123,-0.006564346180099828,-0.0011557147859000457,-0.039434198402253956
631,0.00290286052833472,-0.0033737172441061867,-0.007893134714806412,0.00039527193043656275,-0.03670256550327555
632,-0.0005182695750695078,-0.003180848244233777,-0.006528454423413721,0.003372391033657867,-0.03699553581863701
633,-0.0008574754077011463,-0.0018085238537760616,-0.0017957334721117081,0.00875387722406653,-0.036398661238471165
634,0.0016812646830586223,6.976493508018217e-05,0.004613456151878393,0.014517302747641465,-0.0337482628872881
635,0.004386214027589339,0.001775428786199849,0.010412204790234532,0.018822525032748186,-0.03017016861661023
636,0.006642247035662681,0.005103586088808858,0.015148707718097149,0.02154901341451417,-0.025048795032304068
637,0.006339072370650205,0.00916891789104588,0.016850560488969473,0.018881439572899245,-0.017374662812731242
638,0.0016509461514849948,0.010045854741264345,0.013429860379104817,0.008434088031645645,-0.012536951585193041
639,-0.003797093409920582,0.006255717945806102,0.007334431094087096,-0.0038072510520060286,-0.014983204845794872
640,-0.004552316766161944,0.0007925702611546047,0.003596336896796448,-0.009584844279870153,-0.01915656144458323
641,-0.0003513661571337706,-0.0022805792541197925,0.0041124825966161425,-0.007096773901909254,-0.02049966806907369
642,0.004431886748735101,-0.0015286279084725746,0.0065222469126275315,-0.0010583535332698108,-0.019173856361730093
643,0.006195157024686193,0.0013728494408744908,0.008368783542733333,0.004266789520979794,-0.015750725122678447
644,0.003890399858389159,0.003497985821280407,0.009266276781472342,0.007652584786099304,-0.014155527587952884
645,0.00016789149829838393,0.004604288309583446,0.010295500130690005,0.01000001842304607,-0.014696254802577139
646,-0.0010670093738484713,0.006536326041073743,0.011778516002484352,0.012027574345270426,-0.013968046893535606
647,-0.0005204462442507412,0.007820571997614146,0.012214612669413634,0.01189595324017265,-0.01203292259228936
648,0.00020354977278560452,0.00683598494964853,0.011938501153396125,0.009193653456221168,-0.010531790954687252
649,0.0020223334674256944,0.005210646728330269,0.012669629605411637,0.0062412573466093775,-0.011008844805048573
650,0.005021287287565691,0.004677690788129426,0.01427497402266909,0.0049443210433930615,-0.013876645341320475
651,0.0065993799769718635,0.004965067977950659,0.014309022638702944,0.004061738990085706,-0.018482691583414024
652,0.00510231391332073,0.005342725260326393,0.011391596288433909,0.002413644736529868,-0.022127527247562496
653,0.003113928516923588,0.007056286640646402,0.008325886585562233,0.0027950008091454054,-0.022102350525913427
654,0.002666899056099168,0.01057955820692746,0.007780006276208866,0.006746861400552042,-0.01896077669209883
655,0.0016229586767765054,0.013478020825388175,0.00861078895320972,0.01068749384212673,-0.01659129507362945
656,-0.0025072031285199117,0.012894795984638406,0.008134503435783279,0.010426674328764159,-0.01794204145631283
657,-0.008146014913650482,0.007990012914835148,0.0056045715190976165,0.0070511762876091,-0.020783367650507534
658,-0.011303174873528105,0.0007803277929294272,0.002942663645688247,0.005767686931797938,-0.020923607286209435
659,-0.010992251809488656,-0.005514171419029985,0.00159209799566337,0.00858858704455521,-0.017107977484658386
660,-0.009167860204297221,-0.008939312458299565,0.0012532781217427479,0.012267218232233871,-0.01134415718183917
661,-0.006829387481311787,-0.009171233459973265,0.0019648682836880095,0.013706764811689556,-0.005212562485197195
662,-0.0050338212309888036,-0.007146174863167104,0.003210249042252694,0.012968437586466833,0.0006030778018541322
663,-0.005838136931306875,-0.0051099260114865945,0.002802081058749587,0.011001891606293515,0.00418868633124354
664,-0.007333922450507168,-0.003037619545036238,0.0009006479155676719,0.00918155208962298,0.005693023016462634
665,-0.005391609405859747,0.0008758211512971127,-0.00013904097398672084,0.008638118879678131,0.006546590706494646
666,-0.0010439303708670235,0.004420787240721673,-0.00019848899694724722,0.00842834179844185,0.004436154959622283
667,0.0009771261775111547,0.0037462757302807724,-0.00012136294041369694,0.007237145481862552,-0.0018497914457046992
668,-0.0017630396083223182,-0.0009760408581929453,-0.00023928735473251745,0.004838636546692205,-0.009603560863952221
669,-0.006767374960393645,-0.005195853046794071,-0.000499803386367275,0.0028320157134006938,-0.016005413845081216
670,-0.009464951258192487,-0.004704933758360031,0.000299996079063371,0.0034026207588335124,-0.01846972463005716
671,-0.00854055106033052,-0.0006521896583636588,0.002361103577773706,0.006008472066191004,-0.016757973986755076
672,-0.0057562055267210395,0.0034621391478662153,0.004218898881920228,0.008659768165158014,-0.013398267538568502
673,-0.003350889214705074,0.005847348103581112,0.004494576304777113,0.01044261309769609,-0.010168821682442201
674,-0.002716296055736336,0.00627066821008328,0.0026205786289084667,0.011604921612314521,-0.0071987372139648495
675,-0.0032111002631609914,0.005618478401213642,-0.0004491965554467733,0.013126030787909868,-0.004702058871516393
676,-0.0020925335329565887,0.005891918897250764,-0.0022716904032254958,0.01611844344104917,-0.0022441854466851434
677,0.002275533965117444,0.009356754579887038,-0.0015516945710807464,0.01993886857369702,0.00236982901575797
678,0.005075318877453288,0.012801194364997355,-0.0013599309025324536,0.020611806575614348,0.006294205733978949
679,0.0018276031622204822,0.01130561583204823,-0.00470112559841821,0.017646179941545152,0.00433584795832265
680,-0.003662193299270258,0.006870637440779165,-0.00936384596264258,0.016143432675724167,-0.0015106618642949437
681,-0.006934880935982486,0.002793597480319467,-0.012649474304489922,0.017091658016691394,-0.006777900787886017
682,-0.007351631761807588,-0.0004052906882037518,-0.014885162861069307,0.01725100198816792,-0.00861373265725915
683,-0.00531505018361993,-0.0022061335535350246,-0.016244456620599076,0.01577280669849382,-0.005233559586132372
684,-0.0018862427287273298,-0.001315025365437233,-0.015770932804041165,0.013794344856266651,0.0016493654716914054
685,0.0008542633739223089,0.0021873564590500503,-0.014144915763191756,0.011251462321906623,0.007302323037256367
686,0.0012555208655140146,0.005140766292043884,-0.012838514086882913,0.007112517257576461,0.008637177751501406
687,0.0008918175042103149,0.005534634837504861,-0.01110552038273763,0.0026527920210967274,0.007603192914439269
688,0.0023348288329100315,0.004359997318201864,-0.00778295049082228,0.0007160407439416662,0.006479675197063892
689,0.004388875029265619,0.002442983682914029,-0.004386202442746504,0.0010514279801164613,0.004027662215642569
690,0.0047692993901110575,0.0009129050571162842,-0.0032984091485059454,0.0012640945000624466,0.00039459002621115255
691,0.004332436278784061,0.0012806514289452186,-0.00422427516175222,0.0008472131373899754,-0.0022679379138555926
692,0.004839490255909481,0.0030234738401065473,-0.005341087919229243,0.0003720471145739942,-0.003425673086246609
693,0.004904762269748333,0.0028358480639639324,-0.0065581224791736135,-0.0010540916655197594,-0.0044141969456802784
694,0.0016070863726409515,-0.0019923110805647798,-0.009052712553604184,-0.005130093258073506,-0.005723570445236827
695,-0.0035695178273660623,-0.00923278045632434,-0.012157867875913355,-0.010941441799353864,-0.005920476705522432
696,-0.006725224389639842,-0.015177934922979692,-0.014097268652225397,-0.016099197870562857,-0.004987028280521749
697,-0.006327801900968862,-0.017739568372413916,-0.014043111150746626,-0.018774230984722702,-0.003095089842141622
698,-0.0029017003388056048,-0.016052567545217843,-0.011945930388880812,-0.017422974425997148,-6.025260573330978e-05
699,0.0003396394548160142,-0.012318200572311904,-0.009764728709926415,-0.013773465216959727,0.0018737107041718766
700,0.0013901022867549,-0.008915563199901725,-0.009397885291672197,-0.010122851830313346,0.0019035372407051284
701,0.0028539969225192165,-0.0058988118868102245,-0.00989489184365304,-0.005907425348519015,0.002094090722299573
702,0.0052530323045549675,-0.004137226830378258,-0.011190351704699227,-0.0031047812046064616,0.0023030163803906163
703,0.005643477219700419,-0.004130869072623826,-0.014176202979004907,-0.005042819660453565,0.0014311992549402967
704,0.0027923207828217185,-0.0055124314227872374,-0.01737798845657539,-0.010881263741219158,-0.00014682137753245278
705,-0.0009665681452982491,-0.007901986759442817,-0.018465324857961686,-0.016840731226164776,-0.0011121393906490073
706,-9.210935971832362e-06,-0.007026877462126645,-0.015234893790173813,-0.018115359225058345,0.0020537783864287467
707,0.007319759644794676,2.9694506253315538e-05,-0.007514009444550493,-0.0130252250876348,0.009500563850131245
708,0.014793531102528538,0.00864242579056854,0.0007835452583508984,-0.005566668036018158,0.016004949705065708
709,0.017109216916407665,0.012698010942425815,0.005637992282029003,-0.0004125491168099503,0.018453417123105324
710,0.014698936245242693,0.009969006737402338,0.006003139080799522,0.0002545477654078755,0.017074077878569193
711,0.010556618635135044,0.0027661231129021643,0.0029368052709823345,-0.0026080992304028526,0.012976897407223485
712,0.009467443552674428,-0.003002784987664053,-0.0002703924557354738,-0.003908355578117727,0.009009041012577594
713,0.013379873130545871,-0.0026778685951901345,-0.0007116376739192568,-0.00028545945443694414,0.008771101993791473
714,0.015516800806959283,0.000896220845755485,0.0003414436081633599,0.004449259183141802,0.012340370590091796
715,0.010518239032687414,0.0024587848897301137,0.0013610959324627824,0.005012951104990008,0.016793663568884
716,0.0028517497832694057,0.002451999514470979,0.0034300313037514893,0.0005756801133402093,0.02003930497156583
717,-0.0019436975517588622,0.0032556010007973968,0.0064688942916728415,-0.006318293205794076,0.021923176906145658
718,-0.002191433586077472,0.006314718310619148,0.009725112316532829,-0.012350777733249402,0.024513754542271008
719,0.0013174800047311033,0.011788948178478382,0.012749366411685845,-0.01571145161450564,0.02791735619822466
720,0.006432418175008687,0.017833795506184184,0.014618800207378112,-0.01609084847117552,0.028905280729389984
721,0.011161390796788346,0.022843553769282054,0.01494480874293341,-0.014824170837834943,0.02615621298320786
722,0.012626422830102124,0.024646097720438857,0.013104391866433265,-0.015426292142187494,0.019738389816876253
723,0.008294847515728426,0.020465579728081388,0.008138688500360893,-0.020548701172630895,0.010605568315571868
724,-8.945763838226874e-05,0.011278929536422424,0.0007515827769966378,-0.028706014989166247,0.0038625742854575553
725,-0.007979420261052519,0.0017088506554002682,-0.006401117685394584,-0.035053847479411905,0.0038720654556416026
726,-0.010907576327379851,-0.0035271682626930073,-0.009805707170278573,-0.03521374558667457,0.008630096562965041
727,-0.00749202639418063,-0.003619248277759616,-0.007955722541072826,-0.029726563384965005,0.012773921528418547
728,-0.0026258769782258606,-0.002569037407008031,-0.0038285673405837016,-0.024115875835253587,0.0126657630124399
729,-0.0013302220838946612,-0.002807229431353687,-0.00112786309987628,-0.02218600086415158,0.009227968806351001
730,-0.0038569753711537626,-0.0043775052965525345,-0.001646614885858769,-0.02376624109552915,0.004155876122379426
731,-0.007302831129426607,-0.006495406917103584,-0.004619809750515217,-0.026019084733683594,-0.0011328187625276244
732,-0.008738506681811205,-0.006011955979657396,-0.007177310519890009,-0.02578926559445851,-0.0031207447377646943
733,-0.009073132114349965,-0.001960316155027643,-0.008904137203135496,-0.024369864125211006,-0.0006820817965125289
734,-0.009781030941671844,0.0022412335484456865,-0.010466357114443764,-0.024021185673443843,0.0036094632258581844
735,-0.0102658590600047,0.0024975659021072797,-0.011477588886762115,-0.024321566695732853,0.006022798006305363
736,-0.011443570913369663,-0.003715058100762386,-0.013835582246514593,-0.025473132178508107,0.003017863262174225
737,-0.014401332333546372,-0.014284117364477333,-0.01834297563836507,-0.027000456744450622,-0.0035349813017104144
738,-0.017195220255702463,-0.022471056032380473,-0.02136630850684818,-0.026502124881171985,-0.0063786294351524395
739,-0.017824879130480583,-0.024508693142919372,-0.02050748520626312,-0.023569009906229437,-0.003058478182576922
740,-0.01684927285703391,-0.022751131365821093,-0.01747905370771024,-0.01813334728411295,0.0017901825906713447
741,-0.014456718120698793,-0.01895144341904549,-0.014286322747807471,-0.011921597204714383,0.005947951385644837
742,-0.01214842131160071,-0.01455113178332625,-0.012712421007578493,-0.007581511539438974,0.00926200030514922
743,-0.01383674672602387,-0.013789296033898571,-0.014438012579109356,-0.006951063547013491,0.009198194964103875
744,-0.018507749754465067,-0.016077053008299418,-0.017763364209500875,-0.008646600510851282,0.008501891699569051
745,-0.021566698653752103,-0.016854736350400662,-0.019880913481666027,-0.008853434567796527,0.012414691227310936
746,-0.02302006607003514,-0.01743648090276262,-0.02122704537664148,-0.007955056131682951,0.01623412039499195
747,-0.024927668429300325,-0.020445560244527105,-0.02360084442503455,-0.007573369946297208,0.013632605882222657
748,-0.02597903069476704,-0.02339336457615965,-0.02700837289334137,-0.007280868206669098,0.007262110007756712
749,-0.025080498199386844,-0.024897672982675558,-0.030886446345643838,-0.006969227682841587,0.0013530615637667926
750,-0.02261417522095564,-0.025257670619586496,-0.03434824669316295,-0.007886058597239329,-0.0019521298491319838
751,-0.019259272004512374,-0.02417559097063607,-0.03645345696723972,-0.009221990733239736,-0.002615269526678892
752,-0.018247787597687384,-0.02293189236595061,-0.03811252727806707,-0.009275272867560325,-0.003426449535843716
753,-0.021891878986707712,-0.022417637879487768,-0.04029416384694197,-0.008431834667512808,-0.00578025049306953
754,-0.027261152513929344,-0.02193700821520088,-0.04199201341101947,-0.0062623999822475525,-0.008602500393953404
755,-0.03032822373456548,-0.02121763226690905,-0.04159031367229317,-0.001165719584622601,-0.009707837342138585
756,-0.03020975460114123,-0.02002289615900885,-0.03876640464475053,0.0013940940557476465,-0.006805452413639905
757,-0.028103843278825844,-0.01813838132923766,-0.03545294133997875,0.0021532170043341357,-0.0013880787187905053
758,-0.025568752833696407,-0.017562640700093758,-0.03524041681180872,0.001497224240144773,0.000682741475815961
759,-0.02246448345388454,-0.01942525484119143,-0.03849901931161628,-0.000810163962406782,-0.002248961816514444
760,-0.018107338635299123,-0.0219914379650566,-0.041302418276787774,0.0004411317961206127,-0.004882283388081931
761,-0.013428237776341263,-0.02389076006951109,-0.04011034806910214,0.0032875219551010203,-0.0037019084362233563
762,-0.0102909347371503,-0.024866639957680653,-0.03442853789501899,0.004486588288932177,-0.0006683646493548705
763,-0.009781653712314556,-0.024058543103097203,-0.026723628041971377,0.003910794698111244,0.002630508933124983
764,-0.011058147291112598,-0.020744825026571212,-0.019635089048615446,0.004073147118365552,0.007043318723947264
765,-0.013491328366516484,-0.017101869420679584,-0.014623705015139411,0.002435931513369144,0.01064909044554966
766,-0.016238382369976094,-0.01581366995039034,-0.012135147379155917,-0.0025029823449267386,0.009902643620043849
767,-0.016406186117959222,-0.01593251026184076,-0.010528770488561925,-0.006977259509442565,0.006839289031012474
768,-0.013759190926304206,-0.015168044977036488,-0.008672898422148417,-0.01160574030984669,0.007245527710807417
769,-0.012701408134897082,-0.014574442254627656,-0.008726417419780308,-0.01837879848780575,0.010519835197338775
770,-0.013726328173536733,-0.015405692094060296,-0.01103043349714583,-0.02631389812693999,0.011170313910083853
771,-0.013301891050387973,-0.016399471104364075,-0.012804417120366859,-0.03210215531689155,0.00782449585840746
772,-0.011035844290467976,-0.016867695492271437,-0.013305953092694923,-0.03205893456481397,0.0034832705298110766
773,-0.007953349613384007,-0.01637428531652034,-0.013231332153112894,-0.030322989506959833,0.001870607962535145
774,-0.005763123331466945,-0.015186433118592496,-0.013253691770413275,-0.027895711062596622,0.0033316993341965784
775,-0.006605554573913273,-0.014828280783777936,-0.014506735081243687,-0.02296120541874853,0.004894563944355188
776,-0.010766796614369332,-0.015868133428014138,-0.01763717629888251,-0.01996692020432528,0.004903238387753668
777,-0.016085387733458918,-0.017561750747181706,-0.021991452103664634,-0.019599603244725955,0.00441545145181141
778,-0.017653164659807763,-0.018284841116153108,-0.025009760339713305,-0.018188335806166488,0.005143966293283195
779,-0.013581293904831877,-0.01684170671315878,-0.023959218268999195,-0.013038262251427672,0.008449960427671032
780,-0.008782840846757251,-0.013873938765722304,-0.020220077285307492,-0.008832017778629162,0.014787054086022787
781,-0.007503550559340534,-0.010777664722039303,-0.017491670608670486,-0.007890961135996128,0.022205685316669912
782,-0.008416643034623117,-0.007956361026647958,-0.015670937109272184,-0.007021406904990501,0.02864441590133257
783,-0.00944533214577953,-0.0049889079534160136,-0.012882182984257067,-0.0038253187801749237,0.03311649591394301
784,-0.011486416815613526,-0.002281264932222942,-0.010783790621834797,0.000589150400955347,0.03300534207361137
785,-0.01582066749615636,-0.0015614332844822696,-0.012569174513766037,0.0014276558123427284,0.026521631186158474
786,-0.02104883976234029,-0.0032086872864884168,-0.017621707266005208,-0.0017658890658486333,0.018001473193239245
787,-0.02400629827550764,-0.005759011267859428,-0.022049859883307026,-0.0054584770517327515,0.013669357250538779
788,-0.02301479125548209,-0.00948004860506989,-0.02356508687927372,-0.009184124059892797,0.01357962609992169
789,-0.01848767511499732,-0.014251890651720807,-0.021989036429845656,-0.012275767704833074,0.01488620806190075
790,-0.012283581717912655,-0.01742525944314599,-0.01858507217997702,-0.014164734960359741,0.015753728533486364
791,-0.007405385676495938,-0.01756546519461073,-0.01574084871294215,-0.015441215849212726,0.013959915172651082
792,-0.0061544514465085845,-0.016033185744914764,-0.014257236662994766,-0.01636425571548084,0.008933946358468964
793,-0.008982147926024198,-0.01547708371939819,-0.01381227177124403,-0.018335303105778668,0.0029934841201073787
794,-0.013225980103516805,-0.016588545966414465,-0.013978863687817469,-0.021073230665267024,-0.0011751839389368699
795,-0.01275703826795666,-0.015613021071537893,-0.012496754413863232,-0.020442148058734923,-0.001297939416421683
796,-0.004633729263968429,-0.009386328722009422,-0.007414948939143804,-0.01332602159376262,0.003205105432384045
797,0.0059945752238181604,-0.0009972206274450745,-0.0004716312046227718,-0.002857809615070742,0.009181128837297447
798,0.013314087533488974,0.005481220657567805,0.005817188211897761,0.007209889852223961,0.013976753734916336
799,0.016770340863407666,0.008897624154624795,0.010919657498608976,0.015770608190960423,0.016702387075420006
800,0.018698340257967253,0.010394389828649875,0.015420280605372642,0.022200755166728058,0.01743441444009529
801,0.02086575118400297,0.013019329454065049,0.020297101839292047,0.027676030314509263,0.018480757518039827
802,0.023107193203224415,0.017841507106573663,0.025446204985089635,0.03364138427650123,0.021298462736294713
803,0.024674991115879424,0.02317822931590345,0.029263188110515554,0.03862954901319189,0.026561657999309467
804,0.023902015696613335,0.025952781128638573,0.029829409613272306,0.03812291463305941,0.03383546684707752
805,0.018787185704979618,0.02346264259579241,0.026358373152097176,0.02918251960123306,0.03853079597150807
806,0.010603748675196995,0.01735937006368804,0.020524384091158206,0.01545067606581474,0.036348111072689135
807,0.0033704088999610407,0.012178990568422256,0.015376167299154949,0.0034953044664474088,0.028355529070129327
808,1.3638601303207259e-05,0.010315619438499336,0.012889355142945093,-0.0029563180589888527,0.01980888827385974
809,0.0008965840716538688,0.010907843430178376,0.01332578970467066,-0.002780912756090704,0.015791161973408966
810,0.0033329981744436225,0.011128211334564028,0.015157606947781191,0.0018708078465315742,0.015857074230756055
811,0.003673239926612681,0.009128648718635899,0.01616301967679778,0.006323796609278187,0.015912333741014816
812,0.002199067529009993,0.006483819018025084,0.016162757460041817,0.008785232121252864,0.015138371071022765
813,0.0001576860934411777,0.004205332066557905,0.01500155346595962,0.008915613984725968,0.01408314786421044
814,-0.0030018913319462886,0.001053515638470051,0.011706947830959984,0.005786800378191304,0.012354559527001862
815,-0.00577053528347349,-0.002260652443201018,0.007818805904771537,0.0008588611657148486,0.011488970219635733
816,-0.007211611258184469,-0.005077398202578182,0.005290419841306055,-0.0038503369781022535,0.01189469597901472
817,-0.008675415938083275,-0.007426021796277862,0.004073876004218045,-0.007149711452042708,0.01218458915311107
818,-0.010729278264938018,-0.008085621283512255,0.0026805006720804097,-0.008427778387775402,0.011695673878276719
819,-0.013067318069638612,-0.007724795931237947,-0.00019372828937572217,-0.00829974620006071,0.008599762652574205
820,-0.015574433397241438,-0.007650010843106709,-0.004107861519600621,-0.008627379802532486,0.002213441788298222
821,-0.018001560202942638,-0.00709706458113331,-0.007724608263110895,-0.011121598966205046,-0.00359707659150368
822,-0.01900166454944219,-0.00531268918702831,-0.009299530670797706,-0.014266687937609268,-0.0046499183469327745
823,-0.017939761049206734,-0.0034588403551806886,-0.007979560561813598,-0.014898288019079586,-0.0017121955639286472
824,-0.01597210339033715,-0.003503851740325459,-0.005329590564748548,-0.01235883445471463,0.0013804519954843403
825,-0.014161784426771035,-0.005532660347254971,-0.003436740363901323,-0.008951023859041368,0.002599473988614549
826,-0.013322461185057836,-0.0079413556292594,-0.002770519806308696,-0.006800935797356259,0.002392697003391567
827,-0.015374557045553027,-0.01084676261323577,-0.003655894373488987,-0.006866025936729964,-7.96621994567059e-05
828,-0.02055296667742498,-0.014802592779410628,-0.006257103108541333,-0.009608493810406602,-0.005737200767359468
829,-0.025141267427432473,-0.01757733478069158,-0.008527456864434657,-0.013293194834407615,-0.011712955735319336
830,-0.027075351281835393,-0.018089670209694972,-0.009208205382295486,-0.01587075727190012,-0.015734162491185696
831,-0.027307793815318192,-0.016976964077796957,-0.009232051593367544,-0.01664693406581918,-0.017332292153562433
832,-0.02525792152844718,-0.013042054992434621,-0.008252766410863659,-0.014313989252185567,-0.014686268722717307
833,-0.021761949332362317,-0.007103939196341007,-0.006325568542354121,-0.010342991666374394,-0.008711139713526153
834,-0.019820992767291302,-0.0023818843225791248,-0.005208546963777795,-0.008833407350398764,-0.003148364407609541
835,-0.01793268475058144,0.001793161675588069,-0.003800898047231245,-0.008467454645121764,0.001788304910329685
836,-0.014022235082413894,0.006968582758788596,-0.0001944586215425796,-0.006156895221533238,0.0069100283939297
837,-0.010697865577235106,0.010840620834435257,0.0038081112915077753,-0.003369853609757886,0.010122283914822366
838,-0.00998966360398523,0.011003670425146593,0.005341634273624157,-0.0019930390527798116,0.009566559895734485
839,-0.012058004851208046,0.007402032141626833,0.0029796721512094925,-0.003347921687180135,0.004654133606392775
840,-0.01571666790770228,0.0022669471237803853,-0.002325117840200236,-0.007370887861040525,-0.0035922964395157866
841,-0.016899427945293286,-0.0004402918949676595,-0.006765868152347028,-0.009469865390466766,-0.010980647056216274
842,-0.01326014949124982,0.0010139430678665895,-0.0074063604923835374,-0.0060535495445960975,-0.013892375400157475
843,-0.0073784914004695204,0.004194812918247067,-0.005055032928559826,-8.402542530594112e-05,-0.012182113977588343
844,-0.0003579493808832558,0.008343020939880399,-0.00011395515736263227,0.006238978651221784,-0.005489437445004768
845,0.008668305157826165,0.015036061888282088,0.008157985016670706,0.014900554868160948,0.005008956172862681
846,0.01607650139888963,0.020968460085856216,0.016601918011744318,0.02480683166287731,0.012103292616090338
847,0.019337298835888167,0.02294616809947961,0.022366005986493184,0.03371589203204693,0.012411901126942819
848,0.020879595502205504,0.023357125271934225,0.027007206895006,0.04092939355456138,0.01190867399400573
849,0.019904868897605846,0.021982234245649414,0.02951243856978523,0.042552673853236654,0.012151612673340372
850,0.01435170968590589,0.016835045117365242,0.027478347419127882,0.03681947006188834,0.008494481685084357
851,0.006480122186776946,0.010437038606946203,0.022723685497953203,0.027474519662573197,0.0021888891159860995
852,-0.0003833041370950869,0.005919022677455205,0.017681785942372984,0.017824135899165205,-0.0005210418173664884
853,-0.0039426910232623225,0.0037620741879702403,0.01366205379988697,0.010886662932580816,0.0026970014491112097
854,-0.00440995400808581,0.002882840285141856,0.011072169344579092,0.00862947677628603,0.008008125765637177
855,-0.0033131652429427504,0.0022952905170309304,0.009118240385744178,0.010238928809981371,0.010359099746941066
856,-0.00012195868147059998,0.0029348282740129465,0.008458326540894167,0.014772765503862641,0.009248736237091368
857,0.004020983601677454,0.00459903116895773,0.009691838669743496,0.019277640503836277,0.0063244774947243294
858,0.004909056278874968,0.0043162421034109244,0.01031313709121984,0.01931303945229869,0.0005434386665190341
859,0.0020875507957022112,0.001853382448112378,0.008643975024246103,0.015417093126364245,-0.007892633269684255
860,-0.0004910741604201483,-9.363120260428381e-05,0.006747912390874782,0.011916268949578798,-0.015085877548092498
861,-0.0004090483854216962,-0.00033872618915502267,0.007351002024794245,0.011139881530206104,-0.018104576611366687
862,0.0015773131866757186,0.000627846725664058,0.010691198037897741,0.012407569927112396,-0.017456999495739613
863,0.004195414652205209,0.002475029642787582,0.014588275787214234,0.01439925655025092,-0.014670341020456635
864,0.007239958595826773,0.004579210980586528,0.017286708928390338,0.017441527310639547,-0.011014384212704618
865,0.010171227147742441,0.005663863908459099,0.018051910503157645,0.021340920819476045,-0.007945709892037788
866,0.011167842403715888,0.005504962078825801,0.016238627235937577,0.02296311926127014,-0.006309148861905643
867,0.009628099087713065,0.004644554901337115,0.012640953066308329,0.020011856788628043,-0.005929390884580208
868,0.007913556869679393,0.0030364769006612853,0.009348527348809029,0.013900702965540045,-0.005892136450222238
869,0.00921680526652926,0.0009162202993001297,0.00841988912171393,0.008291886558707029,-0.00542604715445215
870,0.01329416595288272,-0.0009136230138582765,0.010411100122410168,0.005173613275046964,-0.004671850047865271
871,0.01610480898456533,-0.0021396280578903797,0.013706008365478143,0.0034448614979213617,-0.003787560165854507
872,0.01446989420833735,-0.0033103997020591303,0.01585727813754911,0.0024282406932803007,-0.0026977098248159043
873,0.010919640528656035,-0.003123392391872323,0.016730085173611926,0.004170693438062383,0.0001912218044345374
874,0.012020514097315103,0.0014372757444263964,0.019623849056528635,0.011012790990858421,0.007267177568821803
875,0.01783924494052384,0.007912496619987837,0.025613735176341575,0.020240592911032123,0.015334680049101152
876,0.022330543993122717,0.01171640291873136,0.03210101202051492,0.02715402245285219,0.018948349834810876
877,0.02306299228542858,0.012900063946800872,0.0370370218634348,0.030767726730925024,0.017472704093581395
878,0.02068412091714788,0.011978798384251676,0.0391378562009534,0.03068680705626649,0.012225568573384728
879,0.016679136711230984,0.00871573574014276,0.038088067655577866,0.027162141352777627,0.004748890971612002
880,0.014167357610502774,0.005443614400983865,0.03556752947657713,0.024050654420836107,-0.0012881051156278694
881,0.013417197847380692,0.0040857389195250214,0.03207733173663557,0.022650972039887814,-0.003138432593920373
882,0.010827988359075587,0.002375038298811989,0.026606323139783818,0.01922247448008342,-0.0027784510777719516
883,0.006142566278236011,-0.0009952456655516694,0.02048413965466816,0.01320413253443626,-0.002640128696530919
884,0.00363958202840215,-0.0032067799260819484,0.016849881253553925,0.009580608880927554,-0.0017712661811210484
885,0.006818857687610215,-0.0012256519121272766,0.018625559571000695,0.012609690639240284,0.001546453857903934
886,0.012297399178584792,0.0032666026977182937,0.024360640877152867,0.017985522822577812,0.00493912026774284
887,0.014708013308559186,0.0067379884921180706,0.02914847679747624,0.01891345784663067,0.004880192912853739
888,0.01600677048706116,0.009974717549776932,0.03192326138143594,0.017942793817577837,0.0032772275605552977
889,0.018148760825917373,0.013894884194309646,0.03332024483723185,0.019214166017009864,0.0024346845504312447
890,0.018365946886276262,0.01611442207800727,0.03214218764335746,0.02021135556785793,0.0005819422331058398
891,0.014095077332629232,0.013728269475648482,0.027124716009458854,0.016561758110413112,-0.004464786910854617
892,0.006255735637539406,0.007703919847560531,0.019284946039217057,0.008182533504915953,-0.011420336205231646
893,0.00018984245811682566,0.003596917155381414,0.013196363745208354,0.0010428422928101758,-0.015623016862331805
894,-0.00017585517387778296,0.004349791014096684,0.012340683479010411,0.0008056990220140104,-0.01455010923031433
895,0.002915675633165219,0.007466893150118046,0.014460215794749204,0.005913104220142816,-0.011039140063810602
896,0.0056510091360473975,0.010324577062678687,0.015807592001618697,0.011387863324309156,-0.008749734878541835
897,0.007471143791298885,0.01316039027996774,0.016201648987560862,0.015486786577518202,-0.006485934620870435
898,0.00704431954885944,0.014377079109701834,0.014948717829243759,0.01645175718132754,-0.003583624356774798
899,0.0028167396197438426,0.011165418290006397,0.01018799435341277,0.012879206511685627,-0.0032487079401512177
900,-0.0013414103438168785,0.006190122662885051,0.0048214133861569095,0.009267430856563305,-0.005202652019465516
901,-0.0026112127804651477,0.002934170741677064,0.0024401178446913667,0.009066414156362328,-0.00741759145651783
902,-0.002976327463388083,0.0015826477679051914,0.0020851187920897752,0.010109197167156277,-0.009639241082442362
903,-0.0031029289550901667,0.002377275309756089,0.002372311313173752,0.010764864933542586,-0.010961496386522952
904,-0.0021328256127389556,0.004758880601251106,0.003088714776060686,0.01091737239518151,-0.010907648915214663
905,-0.0005010873626744755,0.006920537925794172,0.0033260114361534383,0.010458424172519735,-0.009715382773717274
906,0.0018501970582521538,0.009340495935087019,0.0028325518490291642,0.011231331037198741,-0.0061456227620207155
907,0.005008384380132453,0.013012750478355208,0.002257850686118791,0.015104774050094475,-0.00032937759537257085
908,0.006519002472916265,0.015206464520257841,0.000999561515219982,0.020523802273145115,0.0031729575159341467
909,0.00561731285982845,0.013985382060387724,-0.0011077871230778824,0.024992854229930406,0.0012299226213438195
910,0.003917240871467962,0.011192744920242751,-0.0033570616874724992,0.0260087941064735,-0.003771948978161051
911,0.002689838736827452,0.009392507631887788,-0.005421505942757489,0.023229844673520635,-0.007347789953647719
912,0.0036357231252831497,0.009746889607630985,-0.006308087944800369,0.02051534390507198,-0.007855460676118042
913,0.0069920241735328004,0.01117479666698623,-0.00576665548064975,0.01945987035868554,-0.007524248325091255
914,0.01287226343679177,0.013562763293232345,-0.0035159385638631087,0.019551597808114624,-0.007236504925270192
915,0.020644638323814295,0.01743435453548025,0.0004449771739462585,0.02091735176080777,-0.006210003607444615
916,0.026495306914275766,0.020975321466630434,0.003680823699772184,0.0224826513192175,-0.005049850677999091
917,0.02970625927250455,0.023914092659234637,0.005635450718280793,0.024656408544876218,-0.002873724737103993
918,0.03232883393261392,0.02656621859311678,0.007334562749345605,0.027162068164536833,0.0003936292426004983
919,0.032380806955207043,0.025592122817818173,0.006820781684036549,0.025339971956851615,-2.1329352805385264e-05
920,0.028890285975443106,0.01980476991887786,0.0036579856157203036,0.01908080790901386,-0.006259318815770688
921,0.02482694369406919,0.012294029069956478,0.0011980475131880422,0.014611931610956563,-0.013317898219200661
922,0.02134101661388616,0.006276383054969823,0.0008950136887704652,0.013564315362157584,-0.015276253587409432
923,0.018184911039539408,0.0037083385437908603,0.0012442482163637174,0.012666385181057217,-0.012216141638001653
924,0.015533582941217679,0.0038564327778500785,0.0008802414949613323,0.009577754624528773,-0.008963131542621858
925,0.013725218629879157,0.004990080681666572,-9.68885053563326e-05,0.0051973624953327215,-0.0074297823123142094
926,0.013813029408416735,0.0065611427934022665,-0.0004273904314580666,0.0031949337606416084,-0.006175232902456439
927,0.01593108126594134,0.008509896809361626,0.0007068183808070993,0.005122508328663276,-0.004387381173652575
928,0.01757029199048381,0.009741626561754247,0.002031807551951828,0.008024088032118187,-0.003514501619158485
929,0.016980954860955,0.00928954728375323,0.0020814355449305707,0.00922332383305018,-0.00483045442226493
930,0.014639384501862966,0.007577405207438709,0.0008779938871134931,0.008213756052520803,-0.0068277308919272315
931,0.012037435950425512,0.0054651413054716365,-0.0003410158718340591,0.0057225213199888665,-0.007439638230682716
932,0.011596571518141873,0.004193438943615887,0.00016477783381054344,0.003954866651237488,-0.006019882367980748
933,0.013501469272081009,0.004092834652297423,0.0027009531632947482,0.0038483590338832486,-0.003347527492448307
934,0.014834278603562451,0.0037921379387685383,0.005535245334449554,0.0035341579874567674,-0.0006691103015256825
935,0.01314940227482898,0.001883788097257124,0.0061698462928037635,0.0009608837308209365,0.0007293959635148153
936,0.009399921491592213,-0.0009277923644012208,0.004177121873130491,-0.0024953888645543225,2.413818206732096e-05
937,0.005614789853142348,-0.0031093170344709386,0.0011451124251044716,-0.0047605922760507804,-0.0023904502428340967
938,0.003021833723796798,-0.003767220834668682,-0.0011775912147395002,-0.006187495835459125,-0.004254874079337391
939,0.0018612995863362453,-0.004190417691840839,-0.0026198880888592476,-0.008066211798720972,-0.005357094438226103
940,0.0025960876998012295,-0.005562334355889889,-0.0035306669897148843,-0.009544744489490976,-0.006967517114191773
941,0.005513172575767538,-0.006546596560713581,-0.0031547754744754206,-0.008612303731091533,-0.007686939585872261
942,0.006691745498223584,-0.008075266652490289,-0.002923958551244327,-0.007573404015759042,-0.007612084472432359
943,0.00465672781279949,-0.010171020095249292,-0.004175138867445805,-0.007469045140794126,-0.007106341591716103
944,0.00285476975233038,-0.010377295104999495,-0.005510012909759514,-0.005858467764212211,-0.005254109399058187
945,0.002235590451029484,-0.009085774896283969,-0.006068864996508204,-0.004061386322547537,-0.0032452666212311656
946,0.003716136400497708,-0.006226729889381114,-0.004298749756152399,-0.0025140988756058484,-0.0006779799049473385
947,0.00772633072211065,-0.001386597189768655,0.0006749216359572278,0.0004529957685260663,0.004043444129235348
948,0.01157241234079303,0.004114743054662983,0.006489094908240887,0.0037228466767634323,0.010589053178417315
949,0.015511282582490502,0.011166072171329392,0.01222057186458491,0.0073537395083391206,0.019379905542064396
950,0.01948001693730393,0.019029362542878257,0.01720878884060284,0.010888487590886673,0.028461472955992582
951,0.020262831608774144,0.023550353034353287,0.018624991667962786,0.011820821166722196,0.03326953705684882
952,0.018497746407154108,0.022859893914681125,0.015737936134214797,0.011023894378147235,0.032300378301535176
953,0.015944258468315136,0.017739778275799218,0.01059796303319285,0.010611525319130476,0.02648597492822737
954,0.011896925185180917,0.010740926699037754,0.005600590083336836,0.011078590551591815,0.017793578782123155
955,0.005774935492951051,0.003169806213173903,0.0013231666935690394,0.011374634971597889,0.006492197870531565
956,-0.0023009459285539273,-0.005294750276125445,-0.0032952573866699875,0.008689960045031808,-0.007059138572055513
957,-0.008695082848905394,-0.010505710845647621,-0.006713263695757089,0.0036740747114780287,-0.015702806540716492
958,-0.010065344569366799,-0.010028945873782892,-0.00713515116520319,-0.00042078751273941884,-0.0148126736768838
959,-0.008800348027405768,-0.007824735170448198,-0.00652375294519116,-0.0034634534525310925,-0.009872735794694512
960,-0.00648591063083968,-0.005200726773796934,-0.005415900272245556,-0.005134910291758929,-0.0061234028469180505
961,-0.003889898597039331,-0.0024950974314642345,-0.0037907188434018594,-0.005438103260364602,-0.005299075566771108
962,-0.0006878701027092578,0.000305612661538145,-0.0017023554849690294,-0.004424825716455138,-0.005418355900198487
963,0.002016770167375556,0.0026099669897835334,-0.000571377539274112,-0.0029504377019558253,-0.005405381259600264
964,0.0034450959594567667,0.004043887810077339,-0.001166792791278137,-0.0023045265124106294,-0.004929158628344688
965,0.0039130908179622614,0.004674526052074772,-0.0029939757817037953,-0.003063236607767348,-0.003725816112993519
966,0.004112816151585257,0.004682244743492083,-0.004612754295171333,-0.004527611675198477,-0.0022144324209961443
967,0.0040288398365174215,0.00337842398059568,-0.005483992476844776,-0.005647325193915813,-0.0025701855082251295
968,0.004085300213380842,0.0011885781358923434,-0.005943467795021994,-0.005111170569091525,-0.0051826413332406425
969,0.0042102418122438034,-0.0003406897053822258,-0.006474330619071963,-0.0035102744726004716,-0.007291129637767302
970,0.0029247941896544697,-0.0008946166283256755,-0.007556651475267269,-0.0027054843715671275,-0.0067514449211450505
971,-0.0008348052901139497,-0.0015826928030505537,-0.009401514313994368,-0.003224827053631171,-0.004539185784765705
972,-0.006646916933254051,-0.003146854660347751,-0.011748528001310878,-0.005635295927229809,-0.003186068000514725
973,-0.01106432728976443,-0.0038604618755104948,-0.012611690841806725,-0.008675975726288929,-0.00246463295122291
974,-0.010806161061305932,-0.0026067094819389714,-0.010282042108201347,-0.009085060908287779,-0.0007727822581530367
975,-0.007308173167365494,-0.0009262004854823518,-0.0057680339091689455,-0.006034693964329472,0.0016518769509137733
976,-0.004124329817584391,-0.00030805142645900347,-0.0017288375667252479,-0.0023859396073356107,0.0037614028363493527
977,-0.0038093126838556848,-0.0015850942428057072,-0.0009469860058619979,-0.002414380787417832,0.004516467157760539
978,-0.007224097990635649,-0.004902528623162887,-0.004235782667351162,-0.007413736947501801,0.003352275353596452
979,-0.01188057928652943,-0.008347303106696636,-0.008844624671297024,-0.013202416724818573,0.0012722298303442803
980,-0.014059758155904092,-0.009788445402997845,-0.011007961835259575,-0.015205767506109325,-0.0002968497688245768
981,-0.012949742978639116,-0.009412027651474935,-0.009918809680315756,-0.013807542129093922,-0.0009939731805295544
982,-0.00965442080643062,-0.007570591115760092,-0.00693654859151441,-0.011208791090549588,3.368703898849443e-05
983,-0.005930709388636884,-0.004641659202389313,-0.003699865684957819,-0.00843599846251473,0.002581929409222748
984,-0.003396574852438678,-0.0019089553425797605,-0.0015875656826732382,-0.005724056649306125,0.0048362036958840135
985,-0.0026087065902366483,-8.437410731066391e-05,-0.001138662608475386,-0.003450010594447052,0.006251505011994291
986,-0.003370370324096637,0.0008130784860575211,-0.002104847150322706,-0.002661925230777842,0.007427337431942822
987,-0.004239297974105464,0.0013428372451623183,-0.003234499395424171,-0.0030460830720451266,0.009138795676643403
988,-0.004064711695450865,0.001571433554710813,-0.003451322870373333,-0.003248868724763193,0.011061285153596239
989,-0.0036643772205353304,0.0006702160757587931,-0.0031650387046457057,-0.0032936924698224843,0.011697473202956887
990,-0.0037587571762607557,-0.0010646375159574807,-0.00299778159763035,-0.0035847534526765564,0.010638014741724978
991,-0.004004358923305238,-0.002433533146785611,-0.002810485525678652,-0.0039057986870339977,0.009067095137704114
992,-0.0042711261237178295,-0.0028436242652740006,-0.0024151674894464263,-0.0042630233365428495,0.00760753707347284
993,-0.003938827436976283,-0.0016197137873088503,-0.0015694416640497605,-0.004030623675982443,0.006685356975093424
994,-0.0025496917818292526,0.0009147199813087144,-0.0002725828562716092,-0.002600711975525866,0.007128116687958372
995,-0.0005105625203659703,0.003525184772672549,0.0011347603633347703,-0.0004635955515422008,0.00894808505470106
996,0.0014837801796736062,0.005391916514868298,0.0022812639231366695,0.0013496419079612272,0.010522183811725209
997,0.0015180236303847805,0.004589384386649319,0.0019847686903130064,0.0011322277345654276,0.008592827086828014
998,-0.0007470087309942367,0.0010388839407091943,-2.1732052184584475e-05,-0.0011584843667728226,0.003617305977087257
999,-0.002650551153436933,-0.001917606493281323,-0.0018950055342624246,-0.003095550078386967,0.00024098320105320653
