,AF3,AF4,Fp1,AF7,AF8
0,-0.00011119866308618103,-0.007159341953308215,-0.022184236981045657,0.011745802545358563,0.0010268743528408688
1,-0.0014574291701134274,-0.005329961611625232,-0.0230961885709578,0.011200326497725923,9.227459955255477e-05
2,-0.0035851071575866656,-0.00370231263953265,-0.027015042885399004,0.010030388537254903,-2.2144326871466797e-05
3,-0.005685897142255375,-0.004404596156401097,-0.033514930709289646,0.009481156116267828,-0.0011839289999325132
4,-0.005857780719263015,-0.006710498464950341,-0.035856245751705616,0.011605590285403623,-0.0034203129882685013
5,-0.003718892878668226,-0.00901954792269151,-0.034239658506765754,0.016050598639120693,-0.0051291238153589715
6,0.00040918433053688583,-0.010258207798402181,-0.03050718045458325,0.02163884386941885,-0.004613642491615973
7,0.00550020176867271,-0.010368422017081297,-0.02508756802266112,0.027394534116106466,-0.0021947932864870108
8,0.009716680811551312,-0.010157437531484457,-0.02113352054182469,0.03230173917241143,0.00016946080083817135
9,0.011910055158211768,-0.010173301230474545,-0.01732517907049998,0.03558106220921432,0.0015837068175685893
10,0.012456262293274142,-0.009357200782615859,-0.011485832919156558,0.03717853756233505,0.00366969561238067
11,0.011882808703051816,-0.007552835081692441,-0.004345843092515549,0.03765891048049289,0.006641055836332017
12,0.00959581163873419,-0.0072727811301253045,-6.0271642640017996e-05,0.03728746482726965,0.007892576334136096
13,0.005610224864706199,-0.009485546475933344,0.001232142191993863,0.03576433537889179,0.0069417031438143645
14,0.002454207671179381,-0.012200988941374611,0.0021823270035646676,0.03365768660860207,0.005650653413098578
15,0.0011450807592815445,-0.014792020309539437,0.0034184493112331417,0.03101547580830743,0.004006060098985928
16,0.0003472376413282681,-0.017284212090159158,0.0059441813350575405,0.02733847081293886,0.0018073964672683858
17,-0.0007595475456715527,-0.019310778946994376,0.008931175835079394,0.02320654783401964,-0.000746381720521089
18,-0.0040353361594316975,-0.0226334174494835,0.01036421746574022,0.017964917382654613,-0.0054343780575351
19,-0.009843753440012017,-0.027625456941602598,0.010835331376494223,0.011742130790128385,-0.011924870455386627
20,-0.014433856407989365,-0.031231231197289835,0.006198713182228645,0.0073783500731895045,-0.016872693093609607
21,-0.015297158356224562,-0.03194874360084308,0.002087373984046816,0.005352356572542888,-0.019138668943133805
22,-0.014247168246656122,-0.031681402782742,-0.0004192205532995151,0.0029138200171886126,-0.020771392909497005
23,-0.012863308985935075,-0.031483489640932706,-0.005532271029761685,-0.0004536119122108019,-0.022506641682531286
24,-0.010257030333194814,-0.029891011219495053,-0.008213233423862543,-0.002695723241582333,-0.021449416154307593
25,-0.005277241291750636,-0.02557154067534093,-0.008735626796805599,-0.002546797653345305,-0.015419691853322724
26,0.0026993075566115903,-0.01879835935200067,-0.008037965260932154,0.0013277781493511583,-0.0065366976899032606
27,0.011715138434137577,-0.012110084618740843,-0.005403982453676901,0.00900591669131762,0.001088233627474124
28,0.017707869592488105,-0.00793479147610189,0.0004667846600580727,0.016801686423118776,0.0060267288988901085
29,0.019541406781145753,-0.005584893514470726,0.006077471424101666,0.02151713059471587,0.009618010236732696
30,0.019140460825358432,-0.0033229225545249957,0.009776226361166636,0.02363831010398009,0.012780276609062138
31,0.01751701662152158,-0.0018062161097439418,0.011362457913621877,0.024283434859401466,0.014615703696976215
32,0.01460157935030481,-0.002817724019398411,0.0071813762119157945,0.023641567610283094,0.01406823812653613
33,0.011168993099771412,-0.0056315342074616795,-8.601933738007814e-05,0.021846305107241035,0.012690537282447277
34,0.008744148646663568,-0.008044465170045085,-0.006014214770756338,0.019527510361924287,0.012834586499176598
35,0.009025574411813553,-0.008787017045026541,-0.008665986562374925,0.0180892528336421,0.015598128129651657
36,0.01293078798134836,-0.007280054275340125,-0.006273203524058226,0.018599357136178798,0.021478034625144398
37,0.017719053244540147,-0.0052511150050267375,-0.0018107939954642958,0.019354910929412935,0.027902249698236233
38,0.018986044709975027,-0.006082803788444782,0.00024364142155463772,0.018117575074352528,0.030248009815340163
39,0.01653009613285331,-0.009774137157684534,-0.00013307681784362603,0.015661294933903627,0.0284117847959904
40,0.012946635447907697,-0.013498498976128932,-0.001723170942828154,0.012841543717490824,0.0258450590647483
41,0.009911673584238872,-0.015701321930122678,-0.004189325124767623,0.00997058105642941,0.023771805667303806
42,0.009011726967365694,-0.015852089364965134,-0.006549688906785407,0.009232912610005542,0.021893868128409807
43,0.011771193747362888,-0.013215231629376809,-0.006643038512667233,0.012851206720007703,0.021249798520939417
44,0.016560076004845336,-0.008295827420385213,-0.004824857093838794,0.018758349933924282,0.022741095373539685
45,0.01951779633235819,-0.0032486639402384073,-0.003308514669086238,0.022190044932232155,0.02552179047958959
46,0.01871390984287846,-0.0009933714848513145,-0.0043049393622512245,0.021878055361320516,0.026969132727887483
47,0.01478232180568445,-0.0026645441899614034,-0.008393261055563137,0.01971166635551309,0.025391207325390838
48,0.009416078980062673,-0.0056251675112447665,-0.013522909397696231,0.017110950521961116,0.023105234443199934
49,0.005348273312656035,-0.00608624329257228,-0.017121610912682193,0.015686850269235705,0.02366434018658551
50,0.0060687547989356,-0.0015205552923663196,-0.016712924407019082,0.017917209035043673,0.02861771446606612
51,0.011942165953248653,0.007545834056211833,-0.012924785113716654,0.02390047695501635,0.03652430686611964
52,0.018828960413350443,0.01705024352814305,-0.005997545963582492,0.03022571390321591,0.041544622615092515
53,0.023139646781770214,0.023473100097830924,-0.0016765078844453514,0.03396389346096973,0.04168297053890123
54,0.024295863245526603,0.026747717557395384,-0.0016362219851518713,0.034574203815202306,0.038260012715588244
55,0.022868829758813762,0.028583344051282836,-0.002087797270807082,0.03275673099311763,0.03261025453055834
56,0.01954171965420237,0.02964533664777903,-0.00309176268328252,0.02984982982996671,0.026872050504115882
57,0.015449746983019562,0.02976733664593063,-0.0029023039811939106,0.0278456658836822,0.02142748592339339
58,0.012123410787428245,0.029449000189292383,-0.0007991116176509348,0.02779990577381068,0.01690790390352528
59,0.009913594168917645,0.02857595313011648,0.0009896517860096558,0.02856282184213621,0.013601708010194759
60,0.009143608917220469,0.02675395236409424,0.00033774180210002314,0.030708355834066097,0.011413661072708102
61,0.01093384998626997,0.025691390585133332,-0.00016158606075654137,0.035976459708385373,0.010614095242833278
62,0.015006615567208961,0.027786625226999356,-0.00027661439159573707,0.041781589332594786,0.012608651467995073
63,0.019880744194362733,0.031971621786920375,-0.002473557549632747,0.04440371365045128,0.01572415691126263
64,0.02502112913463613,0.035064045146467084,-0.001507949748893543,0.042108467883510005,0.012169254765228859
65,0.029734715570152618,0.03561528794182702,-0.002167671978828557,0.043136676645160445,0.00832480588991708
66,0.03275027621215941,0.0337614868925733,-0.0024676345003294305,0.043564653797933665,0.00233254971387244
67,0.034152422768932954,0.030385500123608553,-0.0032138578649674172,0.04234018218000422,-0.004329657755763644
68,0.03414488873021149,0.02652122020896394,-0.003841824709056759,0.0401992989872671,-0.005487104061277677
69,0.03169927717007769,0.02269205109147907,-0.0032357966577514774,0.037023722737323135,-0.0052333954032777455
70,0.02499162193020242,0.0177068593347896,-0.0032198468005819776,0.030243241370217326,-0.007748122588488912
71,0.0156568665821735,0.01167489312319327,-0.004432055908341919,0.020684650855149034,-0.010720223811003677
72,0.008557081057176442,0.00755198437376149,-0.0036012597667618735,0.012834542264127398,-0.013762461798463762
73,0.005060898162968708,0.005930166572010512,-1.921763718418014e-05,0.008926445916135773,-0.014021837078254565
74,0.004128946558897785,0.005655210324973204,0.004137758558986234,0.009240012659087967,-0.010674144655683138
75,0.005781474832705336,0.007602838029859289,0.007425265119224259,0.012865916443013204,-0.003687972796829794
76,0.008821615946704147,0.011348761266719904,0.008683110555520372,0.016978483375637104,0.003994253778418107
77,0.011261970376461478,0.014470561979663623,0.0066919182674581,0.01950060028817517,0.010835302410224035
78,0.013497248808766828,0.017059974449915406,0.003295258241372912,0.021260464460768267,0.01638571550232624
79,0.016962486547428098,0.020162695302841323,0.0009259364481707972,0.02358063099992355,0.02004447191174366
80,0.021878859411711294,0.02359365232173128,0.0002334829090139984,0.02698926112137337,0.024545806111328675
81,0.025063739937667365,0.025656597773580148,0.0007622026776241118,0.029752868925832662,0.029217274752209046
82,0.02296268880138116,0.02460503769497811,0.0012444389111105336,0.029146007729284062,0.03152025414851031
83,0.017565560403349147,0.022147763591664014,0.0024731915378659766,0.026242288285911713,0.03277555685796161
84,0.012375348542449868,0.020577362821643363,0.0008837463983478686,0.022548753858045393,0.02969412190507558
85,0.00780357999347576,0.019124496773304123,-0.002302480181434712,0.01846960872136457,0.024891077787942133
86,0.003734931358765988,0.016386746834610423,-0.006561759644558494,0.014288718656992732,0.019644699686343494
87,0.0017865413832374641,0.013685148436012916,-0.011858605475040475,0.011292920477546776,0.013453733558190014
88,0.003219700059942828,0.013476637679757002,-0.013045802185555514,0.011608627758175472,0.011606862901131151
89,0.006359208724881855,0.015431732999773634,-0.012127151983564705,0.014110460288931448,0.011852523316763968
90,0.007834361917190811,0.016493548272203812,-0.013290301683781636,0.015270229296603844,0.008802541738247334
91,0.006203115139141973,0.014578351916755434,-0.016915675494397334,0.013416155238539037,0.0019213035667559489
92,0.0032570292522533344,0.010753942870826132,-0.01915095816814905,0.010558724385119733,-0.0036919230878460162
93,0.001099635891776347,0.007004521318743902,-0.019510347100433836,0.00754034319520425,-0.00731537223460295
94,0.0014367957428802983,0.0065981546457525965,-0.01778117346491131,0.0054041012709486235,-0.007361976394875628
95,0.005462775671868274,0.012181876525761557,-0.01224722816245269,0.006933750675331765,-0.0010557303811933683
96,0.011530194198160685,0.019966926377419984,-0.006426613508907689,0.011414552575228797,0.006041935149473871
97,0.01711907071432596,0.025254627530145804,-0.0036508375929191327,0.01626832918731744,0.010540792886319188
98,0.02027969025713006,0.027853925100709616,-0.0049645526000693645,0.019364767557904977,0.01382465756822714
99,0.018922608230352352,0.028292249342444915,-0.01091688120034878,0.018981049982966312,0.01616049402358289
100,0.013364901342325673,0.02654049872013056,-0.014630724319102562,0.016296840075766792,0.018236931023189906
101,0.006163636245718591,0.022473412217510008,-0.01880780974152333,0.011982557009890036,0.01710577198200744
102,0.0005709450273750007,0.018094071724930043,-0.02358989228252215,0.007914378753968089,0.013497162848555058
103,-0.0013090415603989698,0.01653673787019454,-0.02295274950479278,0.007386319653827217,0.01206861748084787
104,-0.0013637711644093557,0.016247976259386943,-0.020608343231049073,0.00886532850306692,0.011261256949274044
105,-0.001199199748981984,0.014597768618326843,-0.016590911822838932,0.010194670639542143,0.009784202578683008
106,-0.00014364443975507912,0.012291831082494844,-0.008729570096629563,0.011079421636691102,0.009221582987275791
107,0.00202427672994953,0.010367565014343496,0.0016814774519840492,0.01257704347226565,0.0097489928555131
108,0.004985634996110653,0.009021748892843413,0.010595736844384187,0.015916792731072937,0.009899766334315207
109,0.0069938176936091894,0.007509332479939183,0.017901048327678856,0.01909190208610517,0.01064002085814046
110,0.0057719595230118674,0.00387838887797225,0.021523661426868675,0.017709033954343624,0.012481142505657804
111,0.0013047084686405837,-0.003005303813352284,0.019265514743353127,0.011261633878740006,0.013016991233442908
112,-0.003678339989812205,-0.011601817626670544,0.016418721987224275,0.004643813539578425,0.010449903663279185
113,-0.006883761423662878,-0.019274495351690846,0.016801998306470955,0.001288786694698514,0.004827759066721821
114,-0.007667904666781876,-0.02386193177043087,0.022786549133871657,0.001964529612471665,-0.000998651734409668
115,-0.005569151054942718,-0.02449423318928414,0.03506869176013125,0.006150820350550865,-0.003824379261894272
116,-0.0012255465577849318,-0.020777244331288445,0.047289147408290384,0.01142119673472153,-0.0032771962580694885
117,0.0029413697321237645,-0.015319769060197455,0.05647382530022314,0.015213478046303448,-0.001197081424172779
118,0.004674932589449349,-0.009952608287582078,0.06225724530214491,0.016494166325327964,0.00017635634067831676
119,0.0030146995508385653,-0.005728583322233035,0.06298969758929293,0.01423918375870168,-0.0011525962658580906
120,-0.0017609136654788743,-0.0047387597963865595,0.05899932255848551,0.0074693668230677345,-0.005402774396582957
121,-0.007108664462024402,-0.005615592269215749,0.05225801315136605,-0.0006052260898714512,-0.011125201763846166
122,-0.010452743781327727,-0.006129444596717629,0.04551478603613206,-0.0056561335650573506,-0.017116551263015763
123,-0.011901955700702868,-0.005355725606586541,0.03933744030814384,-0.007891576405880552,-0.02181422622808454
124,-0.01271846293139342,-0.004073051815629728,0.03433395807428513,-0.009387651128813988,-0.024116617546110955
125,-0.013138857537392877,-0.0021908282351226875,0.030622683482406175,-0.010258355255140383,-0.024608719516004143
126,-0.013423981268487501,2.7622547336223247e-05,0.028395678364450415,-0.01020731289198322,-0.025692630972867163
127,-0.014959072702600478,0.001795708460713054,0.02710305176838154,-0.010049991736044959,-0.028825553928381008
128,-0.018358177491157642,0.007153084790571059,0.025942387903174807,-0.009682321273942357,-0.029099436239962008
129,-0.022828528151859595,0.00979661046057424,0.025640951227733445,-0.008737965007947377,-0.03063886855181987
130,-0.027233853677951968,0.011388349164219502,0.02501623933203453,-0.008255682315323998,-0.0321753045872197
131,-0.030881211140075096,0.0128104959603709,0.02306082018175283,-0.008665048185341258,-0.03358453779373981
132,-0.033659894310322666,0.008967416988923097,0.018424834584330477,-0.00937211945414809,-0.03422706207853123
133,-0.036395436822859374,0.001829606455536801,0.012028981502753345,-0.01103808125496377,-0.03481049424520957
134,-0.0391423526077694,-0.00563346984155826,0.0049995289064417026,-0.01365899956360513,-0.0356143004703953
135,-0.04026316962292592,-0.01275302670811547,-0.001128926069594733,-0.015168483430005895,-0.03571216521332567
136,-0.03912475026800575,-0.015679260287704205,-0.003774066057489788,-0.01492685892302637,-0.034539570218973616
137,-0.0362308893668595,-0.01611446965492836,-0.0036063167941217875,-0.01373435665417838,-0.031988117332711424
138,-0.03281790782808448,-0.017223146317352604,-0.002112474268672533,-0.012390119194856239,-0.02947669816835222
139,-0.031367803932575156,-0.02111257229014959,-0.0012157286372860019,-0.012438969040396607,-0.03008829351294542
140,-0.033533136251654924,-0.02604991333607674,-0.002051229679399264,-0.015218646985942315,-0.03411192273234813
141,-0.038150084186587815,-0.031888935750446226,-0.0044739900100597505,-0.020188125354086744,-0.038437848195504984
142,-0.04195478776492709,-0.036923484352247654,-0.006336439378434623,-0.024095083840466748,-0.039583865819751825
143,-0.041821420095029295,-0.037944497642842266,-0.005630992423427649,-0.02322336597118759,-0.03622909991512041
144,-0.036848491493824305,-0.03582443430017077,-0.0031352046392780068,-0.01753613893561665,-0.029426690383003842
145,-0.028765688439928227,-0.030920427741044136,-6.547736835343353e-05,-0.010074573986506533,-0.021073904505541814
146,-0.020773523876402713,-0.025819042780470675,0.0017803731913859408,-0.0036565072123400074,-0.014344079363445788
147,-0.01608780854879816,-0.024661808026814676,0.00016082703893811526,-0.000307036362149059,-0.012231210861224863
148,-0.016180719800145276,-0.02270180216730219,-0.004095130092305268,-0.0008130990567910368,-0.013040119791421115
149,-0.01856769042335623,-0.0202800719250628,-0.009395105580717121,-0.0028941633963791282,-0.013814155098658413
150,-0.01833507384387669,-0.01720626523069024,-0.011668850093385997,-0.001764653659554095,-0.012452958424479937
151,-0.014235369110846389,-0.011605505786699761,-0.008318938192035184,0.004994617030558842,-0.009101146592314846
152,-0.009421310770568944,-0.006928533312071417,-0.0023429845094946515,0.014396478044127397,-0.00556182612599699
153,-0.0061925538943434074,-0.0020210336943685993,0.0036427734878876263,0.022331425835873667,-0.0012897179857498124
154,-0.00478934964246814,0.0037274933649990394,0.008565710821046025,0.027264520200689178,0.0033531841606254027
155,-0.004465125258828946,0.008458743768461095,0.012635055949634379,0.030312746682122804,0.006790892229731793
156,-0.003994233687808445,0.009550532471523075,0.016083826646481534,0.03315441043572177,0.008315031143606382
157,-0.0031709070134088675,0.009877262813097787,0.019295163621706194,0.03575903268365027,0.010323807804736284
158,-0.002398522714594868,0.011241550697159668,0.021327152707644462,0.03761109891849455,0.013381277089706194
159,-0.0025092046198085575,0.011882377147123584,0.0197636925290132,0.03760627278439848,0.014798266161106903
160,-0.00436472510659667,0.013386302661447157,0.014318840653096134,0.035032705531373574,0.01521856395533643
161,-0.006308526677974075,0.0165764991225005,0.007323600348348359,0.03242304842171168,0.01646451437940366
162,-0.0060980039631214145,0.021231142878445155,0.0012398560789164078,0.032318329372351164,0.018933641297856012
163,-0.004758998259206072,0.026048412896471525,-0.0043368685043820784,0.032935183295749376,0.022354467465594
164,-0.004442920213370288,0.027880472634249066,-0.007226607965520725,0.031222544993674984,0.025258809600806186
165,-0.004994300869315232,0.028563928617035137,-0.009267471513773703,0.02762978046093716,0.028285120186360986
166,-0.0058567544921129845,0.028973355823044163,-0.011443597740349039,0.024074509598313223,0.03128245355176042
167,-0.008234636937221668,0.026254988655592205,-0.012892866998090892,0.02014884671104318,0.032049144318257936
168,-0.012631918644995967,0.02093776812682442,-0.015380086764007407,0.015077142077610928,0.031056151845061705
169,-0.0163408882194446,0.01660266999998884,-0.015369182150052252,0.01093059641830698,0.03101248665873212
170,-0.017261483023729183,0.014726642675661669,-0.010851995884922356,0.009262253901589856,0.03198428913011811
171,-0.016754191927938766,0.012365493946892398,-0.0055303950483974705,0.009029236151077808,0.029947675322485424
172,-0.015834390941218246,0.009831534500908986,-0.003139519216251608,0.009945778722563765,0.02511838077197935
173,-0.014905126276135026,0.00923492478653168,-0.0018890586557104622,0.011151955311885734,0.021033453666447786
174,-0.01504540169041337,0.010045934682611711,-0.00048362919712593267,0.010291358278112946,0.01874421379842808
175,-0.016881322394400274,0.009534675233710528,9.03250162267015e-05,0.006210191607813291,0.01581636993266179
176,-0.020885712699366725,0.005205490434475463,0.0006063827792371905,-0.0009614264844627534,0.009347704027512154
177,-0.026926236441853615,-0.001168539573438388,0.0008963047481224961,-0.010399612867082736,0.0014298615395270504
178,-0.03243357302393799,-0.005836493896919792,0.0018411264093789572,-0.018840782096961856,-0.0029522878406715836
179,-0.03455957121562123,-0.007663488060225285,0.005225775689638038,-0.02203006070582498,-0.0017078040058921067
180,-0.03339815749887074,-0.009088275691463477,0.004599053241497049,-0.01918136213689771,0.00183152162816825
181,-0.031341583552572064,-0.012367888053980642,0.0022937543407084995,-0.014529452577225394,0.0028680977294885004
182,-0.030290858096811354,-0.017232305790430367,0.00041213817995934765,-0.012533725378052451,0.0004105236219064963
183,-0.028463385448945187,-0.020675359661519132,-0.0013823807986796685,-0.01048061271042665,-0.0019734418420892983
184,-0.024541324003065492,-0.02074138401714527,0.0008801094620213912,-0.00477666072248161,-0.0013482890092101328
185,-0.021371226042452333,-0.019181602018033428,0.002855601861335571,0.001697352532476059,0.0014806721324642756
186,-0.021029605754912358,-0.01751655590249142,0.0016567475376265863,0.006275000740000479,0.005170061517530916
187,-0.022791720972629066,-0.016082228354383013,-0.0005093495113666672,0.00972793398949115,0.008465928146134958
188,-0.025011967467415592,-0.014565604306721366,0.0005977239358655221,0.01231837211712603,0.010781287948670712
189,-0.02630417571490546,-0.01181904194436582,0.002904574782070938,0.013046176972017435,0.01321269106389139
190,-0.02542102138537638,-0.006964597293367771,0.0051874446026298395,0.012966378959403191,0.016735127126706353
191,-0.021671390105432186,6.136768468340953e-05,0.009576070307536589,0.014952950796363254,0.021666973797429524
192,-0.015993074799910273,0.008142245130525888,0.01273206142723992,0.019726788327921206,0.02426135743859026
193,-0.01049116938354744,0.014823719145732574,0.014465197068330313,0.025060055459451547,0.027779924621553483
194,-0.0067811946784980225,0.01887964602821682,0.013305203303972682,0.028363691636857622,0.030117861525997592
195,-0.004330560058428279,0.021750449263063572,0.009575604994405091,0.02956248496219931,0.03366007360421062
196,-0.0025580858385235274,0.02364252024875857,0.007965711252073139,0.029017848811024972,0.0381443373119943
197,-0.002795510179211785,0.02297004524661161,0.004799938750015424,0.02528658975027837,0.041051958777871
198,-0.005224855289206763,0.02058125409261831,-0.001995118827684051,0.01907355626281563,0.04230281941961288
199,-0.007822883183831245,0.01883498266592673,-0.008975671953264439,0.013948289141217506,0.04322655564301866
200,-0.00927449249114469,0.018419695117338347,-0.015691143906512914,0.011234521108275957,0.04379445315840378
201,-0.0099438764876626,0.018270867874009077,-0.01979803752588155,0.009048651452099685,0.0439489395964227
202,-0.00999086451851045,0.01702321839281295,-0.01990103850085193,0.006413665128515861,0.043479092992289865
203,-0.009622461980931118,0.014509993759805925,-0.01685983061213304,0.003267103020340889,0.042588039154573175
204,-0.010780693677510052,0.01099768837919202,-0.014456357005903966,-0.0017950413876472136,0.04094620598561321
205,-0.013798705013864355,0.007656300406647617,-0.012287477694968825,-0.008431371378221588,0.03900613077179903
206,-0.015722216971371526,0.007458390050742128,-0.008728887295493351,-0.01372622201702537,0.038939584631995934
207,-0.013804938986578658,0.012560242053796834,-0.004151823908135742,-0.015395867569127385,0.04188953698712546
208,-0.00871819618537995,0.020573234972573365,0.001630049187165111,-0.014261348709719833,0.04609035710044145
209,-0.003931812213191459,0.02584351285511357,0.0057657993165983875,-0.014112572071131967,0.04737926178257685
210,-0.0017612283800647888,0.02473288505636997,0.007044659852165874,-0.017495860006566624,0.04336929417424603
211,-0.0020073866693188567,0.017904980549713335,0.0073685912103882215,-0.023358866766787872,0.03530705553857138
212,-0.002795131465711458,0.009861005044251017,0.008409065797374323,-0.02810551738267384,0.025634834184311825
213,-0.003529381541962586,0.004880928705902838,0.011215737494800435,-0.03021274503097584,0.0187543246617906
214,-0.005336149482882975,0.0035979159528662275,0.014272621562592673,-0.03132156523291371,0.016211679318091164
215,-0.008485133934978385,0.004126385733472457,0.015754653049906652,-0.03289728977185232,0.016122984033483844
216,-0.013047249177463475,0.003480155968619045,0.015067473035107243,-0.03651881038639632,0.017247863586943815
217,-0.01862341234786668,-0.0002628242487887598,0.011675088146415494,-0.04211685683451468,0.017319815071728587
218,-0.02289223576042529,-0.006254189251395019,0.007121475017206007,-0.04604945232111586,0.014996554138209378
219,-0.024045171875309017,-0.012685947768062538,0.004153481542067135,-0.04576044489610975,0.01025239350438516
220,-0.022814371348204646,-0.01824813965732719,0.0041244160460027525,-0.04252144404921014,0.005209150730789208
221,-0.020601316977415598,-0.02163982729424301,0.006721694309911608,-0.03873097779359955,0.0018325608764640112
222,-0.018667869465903993,-0.022772790882314212,0.010547469516727161,-0.03641616600743147,0.0003194860340052828
223,-0.01776393210748567,-0.02292719343371118,0.013631407978455072,-0.035848924100344466,-0.00033716747453042345
224,-0.01826330094910384,-0.023011220136549035,0.01450562180491768,-0.03640222471470966,-0.0016506806319083241
225,-0.020114863488889512,-0.022769845321777882,0.01396191057397539,-0.03805447425720943,-0.002954807691347645
226,-0.021504152164328296,-0.020801756456855332,0.014488266297527388,-0.039591646823613685,-0.0030950387940040865
227,-0.020750444712456628,-0.01689417984016802,0.01694494846381359,-0.039062611531882854,-0.001959568454291136
228,-0.017630404517397582,-0.012360272692657574,0.017122129298844182,-0.03525786043026908,0.0011468531892098578
229,-0.013901083429607016,-0.008780926848502063,0.015344688860895236,-0.029624385943057205,0.004101755150494552
230,-0.012029419892517464,-0.00678900536495572,0.011864117391030781,-0.0253843777700977,0.004739123947778837
231,-0.01043019290447627,-0.0036191203727771342,0.0074398349042213135,-0.02225899738093447,0.005782322963957066
232,-0.006272787047143612,0.0026440011639870553,0.005638168498073854,-0.01809515641025198,0.009616042190578865
233,-0.00013618974779759137,0.010319876052604015,0.004911560339005726,-0.0132613014696003,0.01587041086197994
234,0.005897441629481568,0.018043298144432552,0.003968515713397333,-0.009837619857156662,0.023324566221643764
235,0.01048670373739148,0.02387965360089888,0.002548155769588111,-0.00846892176585707,0.02796336698979009
236,0.011703875439758784,0.024108593121956248,-0.0017038644799196273,-0.009378386770278541,0.024135618880730635
237,0.007985973014928927,0.01831476081387403,-0.012605322330445772,-0.013856011017813794,0.013970069432457745
238,0.0025937100675324618,0.01146894158428737,-0.026348072524659698,-0.01991296855311294,0.004864932761645559
239,-0.0010119944881660267,0.007780902809985593,-0.03645065167096512,-0.02558463623792056,0.0006399421708446223
240,-0.002548852168970549,0.007268429911650207,-0.042377599136521435,-0.03088506544558947,0.00021705400022028375
241,-0.001415637896088629,0.008345573768459964,-0.04463874654560554,-0.0333063638587541,-0.0005727324843497569
242,0.001073733136362053,0.009046819294302304,-0.04608317432520743,-0.03243351431277102,-0.004716200538733659
243,0.0017337101360805703,0.007681543971641423,-0.050218518077820705,-0.032541885612684264,-0.012377565455416326
244,-0.00024621370462954146,0.002990181969025954,-0.05405512503577851,-0.03268858542219956,-0.01872837510950903
245,-0.0035553227422077008,-0.001970014441517438,-0.05496765181465144,-0.0337352759528861,-0.022393547678538395
246,-0.006280340949721141,-0.004944590218760815,-0.050791266502742884,-0.03426717867655569,-0.023921248233257874
247,-0.006318610889088645,-0.005498544672468623,-0.04010231144783504,-0.031082440815856892,-0.022783077270416452
248,-0.00347410856631353,-0.0022915001839613133,-0.02632941837666209,-0.027239294359815317,-0.020040513332912215
249,0.0013168173522740507,0.002780958642622351,-0.012791738856666473,-0.02170380957136739,-0.015590127337740253
250,0.008128901382709563,0.006674965287446116,-0.0015653287016080498,-0.011379232413986801,-0.011161113948565702
251,0.015699348810293,0.00813827519490664,0.005232123383661311,0.0010693159313146599,-0.008563174752723203
252,0.022080018419208224,0.009082717384805549,0.007001146929489049,0.009866005372966809,-0.006542176181882324
253,0.026697857097680144,0.010722594577748866,0.006912674928771118,0.014894523056020455,-0.0015797913680863126
254,0.029074360109430642,0.011216718769471752,0.0059699933035858655,0.016944749609201223,0.004531999873065587
255,0.0292729183869724,0.008091276816596639,0.003470034435023664,0.016658012937223816,0.007061361666761974
256,0.028309829808985866,0.003701440435069076,0.0006388129804466568,0.019787633862120933,0.0073702306713620954
257,0.026410665898997127,-0.004714982812694501,-0.002825262556741745,0.01941922182451054,0.003958623923471094
258,0.02283925305973927,-0.01115704368652271,-0.007779235460490394,0.017500750265969218,0.0012564804251082309
259,0.017852002703297,-0.014125293048589704,-0.014747354110656193,0.013809453201021234,0.0003514023930557565
260,0.013781196797628412,-0.009302554347812426,-0.02048797034794475,0.003900552679499848,-0.00033828151950670356
261,0.012853733537992261,0.00010370859984483091,-0.023010828041605667,-0.005658848607243489,0.0011240607927374355
262,0.015324994393394457,0.01008075639628776,-0.021985042484711195,-0.00989003867986848,0.004623740908440586
263,0.02077260762363811,0.020079824956064526,-0.017494706511391313,-0.010273211960090818,0.007748806483748495
264,0.027746743170525754,0.02684454600818633,-0.012409819537749965,-0.006246157570655017,0.01043810222515081
265,0.03281625952622739,0.030130939893371195,-0.009370788692160847,-0.0037924319674448666,0.011197737548914111
266,0.03300787387648481,0.029854010353420037,-0.010318307959723178,-0.007344567927607204,0.008201193369073942
267,0.028881644423079656,0.0264749635953223,-0.014335690312621822,-0.014817396902463373,0.0017853750974484537
268,0.02390983596726467,0.02120465479323407,-0.01819550937605366,-0.019600329665515528,-0.005638267978876771
269,0.021102648813661612,0.018320526917367456,-0.018637883565368187,-0.021114025322477855,-0.011379185564087757
270,0.020195281866910057,0.0180605571944677,-0.016766103584444515,-0.02119199037530648,-0.014293409513999114
271,0.01984108739751608,0.017665426662926843,-0.01491288326116512,-0.01940399797713967,-0.01476119564599448
272,0.020389762159974838,0.018562198583242644,-0.011785226170694189,-0.016378268849334666,-0.013203302244492171
273,0.022187467625949548,0.020619254935730278,-0.007171348879403077,-0.011041777223377413,-0.009775017784137814
274,0.025268727986179674,0.023649245827972704,-0.002009866984360051,-0.0035525577940502574,-0.00410269033974399
275,0.02936003250488579,0.02842787258626798,0.0038171034224364596,0.00453561069492896,0.0036460683771748553
276,0.033663308607791834,0.030624966506514372,0.007357517492756507,0.01120715887637799,0.0069197289870234465
277,0.03724045193335253,0.031756189788159785,0.010356605372395316,0.01675855156942032,0.008546117252539648
278,0.03953942859119242,0.033746998073500456,0.013241413757071909,0.020546760813670743,0.01107457481245705
279,0.0404807130715836,0.03447795630647834,0.014721764333442921,0.02205386051124772,0.010940554450141261
280,0.039674917676807746,0.03414498678053261,0.017050504500697016,0.022448687050490353,0.0099832237953986
281,0.03696670352986567,0.032295330129607676,0.018860438942537444,0.020429538128877153,0.008316046297649276
282,0.03184600961735948,0.027596409913686018,0.017606516817219385,0.015050723460576582,0.004158456633050336
283,0.024448736542858576,0.020310251612651705,0.013158824973168993,0.0070018221514407805,-0.0024114385198860345
284,0.01733795124095518,0.014211203038397024,0.009196327610644697,-0.000882438814308957,-0.006758355470060586
285,0.012271248624329165,0.00973774546219099,0.0058840480781335485,-0.0073986596655312206,-0.007751925391742544
286,0.008314653868129534,0.005383559517913633,0.0013673422629208976,-0.012890058204398033,-0.006361348513865672
287,0.005106114545854827,0.0006671112959795256,-0.0042515539873725985,-0.0164586904801482,-0.00430190313500827
288,0.005151000295566491,-0.003324501161501693,-0.009569236555469577,-0.016629944918179512,-0.002821576015859068
289,0.009609880756527547,-0.004851118013472775,-0.012210750606301692,-0.013066063261725592,0.00042758377221624786
290,0.015540545079653292,-0.00525697331896376,-0.01271217361018408,-0.008597041418919883,0.0045252901920500715
291,0.020438590632936456,-0.005283782564091247,-0.011174649212284275,-0.005143696418356439,0.0074230398746667845
292,0.02234094322960151,-0.005404247652323325,-0.007109527580301579,-0.0027616644642904885,0.008395881231193534
293,0.01979403383442764,-0.008046913738009339,-0.003892336886017386,-0.003889053927677919,0.004037724021918678
294,0.01630345945225351,-0.0113794537214684,-0.0014496723565510581,-0.0071183693188736465,-0.0032473460086218132
295,0.01627961930970298,-0.011809107880192203,0.0018447956351327337,-0.008468777284040703,-0.007189475222677452
296,0.0191899292320092,-0.009747036413523202,0.0027977902818905357,-0.00790782227506336,-0.006473719071367208
297,0.02234959120384845,-0.006918508200921076,9.476856968723753e-05,-0.0067538905464735845,-0.0028919186261035425
298,0.02387884242832467,-0.005290292979532958,-0.004065876121416413,-0.006485881371430625,-0.00036289886736970173
299,0.023251310607037202,-0.0066556256151000005,-0.00746370679659785,-0.007607017774957472,-0.0015881192255272098
300,0.021997212774053,-0.008936900730204726,-0.009116453905915334,-0.008804203486279222,-0.004280592914467346
301,0.021398153108520977,-0.008097620752196718,-0.008202484450531506,-0.008595741974792692,-0.003049459252323598
302,0.020427825297245746,-0.005046246945142043,-0.0058454704642243015,-0.008535602519527282,0.0015938008678049334
303,0.017877193791142568,-0.0032040657138350252,-0.004329107851040864,-0.011249584474446218,0.005764134401476885
304,0.014009657047384036,-0.003455177870541805,-0.004427276297879224,-0.01744719105207183,0.008722358631167727
305,0.009523427520145426,-0.005488979154213828,-0.00663509329437491,-0.026894181043337597,0.009614914332420179
306,0.005674223164005142,-0.008948472636684981,-0.00957575635799998,-0.037149208776673076,0.00748892853222495
307,0.003951657983721759,-0.012894268620313124,-0.010121088973636474,-0.04511338368729735,0.0037789527117609123
308,0.0029824640872284855,-0.017138803782808583,-0.009145633867743502,-0.04527169623580147,0.0005268953400071275
309,-0.00012163309304649803,-0.02256477493993503,-0.00942708312683117,-0.04340011373211693,-0.0026639541598459686
310,-0.0034975977039482403,-0.027352717549515085,-0.010110650181696578,-0.040635182475863146,-0.005741412592708041
311,-0.0033716115046401357,-0.028167019961130507,-0.007347291487963601,-0.031787893176291215,-0.006587534880663533
312,-0.0017759272722492742,-0.0257681500491477,-0.0007999098889356354,-0.02285183047330246,-0.005368242755431922
313,-0.0034305919741894,-0.024496068521080678,0.004425696394812715,-0.017808592944220877,-0.005894612241450136
314,-0.007808307651615323,-0.02594756025537686,0.006233297305855695,-0.014697490666175542,-0.010006928896516316
315,-0.00950250570177619,-0.026645846195007393,0.007421815290480637,-0.009543639075473717,-0.013962296531473089
316,-0.006614993051416193,-0.02460313076311941,0.009408460473277857,-0.0036427127501969642,-0.014819343409244384
317,-0.0013601132193212888,-0.02057353049601774,0.010764998818437359,0.0028532533962617275,-0.012926509779561321
318,0.004061038299405326,-0.015403643991976254,0.011020389486195246,0.009074323395639784,-0.008847578538941516
319,0.007470061368351934,-0.011204907231883113,0.01010986810059979,0.012455264250797998,-0.004441593013284882
320,0.009178855795472217,-0.008373998153223311,0.008640931863661846,0.016069970052631204,-0.0012573731554759125
321,0.009701402045782322,-0.006164309012739513,0.007263224447853775,0.020034941815589635,0.0005324604551605487
322,0.006316494089462656,-0.006420776387979412,0.004318214843160084,0.02183196625652425,-0.0016667919940835231
323,-0.0008565561290259598,-0.009615863805774132,-0.00047549458597772156,0.021751265872163392,-0.007554322090478054
324,-0.0077544229787733865,-0.013474978651033425,-0.0011926976677759287,0.0176648632520529,-0.009380751306913715
325,-0.012455916862179733,-0.016097036092761703,0.0018253708109289112,0.014018816319775557,-0.007888574550220354
326,-0.014875741139174765,-0.01595498155774455,0.006515822135377186,0.012464147952762081,-0.003165678045821029
327,-0.015135541890122972,-0.013402001968411048,0.011694097639632759,0.010132025060632559,0.006697642134464636
328,-0.013683899051801169,-0.010775189397732282,0.013899822996243106,0.010032398326218899,0.015408630576882191
329,-0.01072124590456225,-0.009129932968920687,0.0146502871011891,0.012110551017071917,0.021315425413409115
330,-0.006897904539929922,-0.008376230023221354,0.01522026125381516,0.013935083679858152,0.02583646109948918
331,-0.0036116337618195935,-0.009838088147970594,0.013994659915825184,0.01378188702866631,0.027155226757254514
332,-0.0028020095941334233,-0.015093989457492936,0.00963111553021337,0.012260920934637907,0.022797339190765042
333,-0.0044957032145067,-0.02198521782577434,0.005349380521114679,0.008601886318105288,0.018153297948776067
334,-0.006015483838093606,-0.025547430126084708,0.0039043540271498003,0.005129220998381382,0.018454978422159322
335,-0.007006746049849051,-0.02529465209220313,0.003559657332430889,0.0034988940627958616,0.021560833692207428
336,-0.009055339433414217,-0.024776078670883238,0.002364946479278084,-6.34766591522752e-05,0.024720551520987396
337,-0.011896305012336678,-0.02525390621001196,-0.0003737607684513519,-0.0054431920092969655,0.02757148966985063
338,-0.01474420464741287,-0.026884763575239796,-0.0032226313779091173,-0.00981265845718228,0.03129569995296266
339,-0.017528293655905,-0.030597070335219356,-0.0049419249148121595,-0.013220246057691107,0.03501317467376562
340,-0.018616512853415656,-0.0333371693160609,-0.005670058257442987,-0.012700723253442132,0.032123192971635454
341,-0.016128072938320876,-0.034119290236222545,-0.0031362008190684546,-0.008242766057890096,0.026952048865063746
342,-0.011583933977129245,-0.034002685590984204,0.0021202982096256936,-0.0025974029380883895,0.02313869583043717
343,-0.006851313702503566,-0.033654431542061033,0.008114729865071228,0.004009824302396299,0.01851818048510655
344,-0.0032607317078060098,-0.03412904724908642,0.013685005587368227,0.009429914507531273,0.015434227447711864
345,-0.003418367980415248,-0.03362999983247235,0.015090440408932404,0.010350142336894297,0.013218599273718925
346,-0.007577139024859122,-0.03168244106775523,0.011419337917368079,0.006101354374074906,0.010015608842949933
347,-0.010592874002844421,-0.02816996518035225,0.00736998591442543,0.0013650184425589385,0.006867844443571478
348,-0.009141792377490706,-0.02292750439261024,0.006650271152585899,-0.0017902585788949724,0.006967440107096601
349,-0.006561534955272923,-0.017407318076722456,0.00753671907765015,-0.004722974590556894,0.006657007068986902
350,-0.004480653991925039,-0.01261191741800419,0.0099471269673785,-0.0072776754356080895,0.003940688649974344
351,-0.0011935197365436601,-0.007474725273812871,0.015629271044618944,-0.007850135349944611,0.0014815046962277484
352,0.0026559964757231487,-0.0015673911416813483,0.022488395220289756,-0.006188512134385229,-0.001853668128445094
353,0.006096308863167656,0.004417742135062535,0.028116593181431507,-0.0037607294473409954,-0.005022227018007512
354,0.010302826261327312,0.011876680061967224,0.032351138099886025,0.00035702479392290366,-0.005210985129755644
355,0.015467426305866975,0.020932848508950923,0.03422398541809982,0.006272650835209225,-0.0036674400223235867
356,0.020371836583708305,0.024587991484862758,0.032616038586887275,0.010751183871651398,0.0011475259798213273
357,0.02336689237969601,0.0238763721429898,0.027694581091868762,0.01235157249757878,0.004212886070377052
358,0.022406052181236518,0.018222592337445657,0.019189716623496007,0.01034541892397236,0.001926072312333371
359,0.018370835804376075,0.0068495637888943035,0.008259019064313927,0.005047151881807785,-0.0019313843354120744
360,0.01472201242380643,-0.0028511455275670545,-0.0019680406855696595,-0.0005578704702013607,-0.005823077897822742
361,0.01278724804287507,-0.011068487745006659,-0.00958479587036065,-0.004383700630486818,-0.007939755600685206
362,0.012318734884324594,-0.01865358325974744,-0.013822634542745172,-0.006005297431726672,-0.007085146965392732
363,0.012142531840255722,-0.02333620489127544,-0.015500609883125628,-0.006553290898174753,-0.004088137085933537
364,0.009553417139385071,-0.02460898989595152,-0.01787358956756548,-0.007581170638075332,-0.004304768160023778
365,0.00398952959783081,-0.02726987810207936,-0.022885138434760442,-0.009944657339035596,-0.008389591159717259
366,-0.0022316891073228253,-0.032313114196652094,-0.02905749776761857,-0.012992205941538788,-0.013120834487946504
367,-0.005705713906242342,-0.03592268275905472,-0.03256941477953242,-0.014297981975954646,-0.014971531598294447
368,-0.0043426067781211965,-0.03871431341164338,-0.03058043392895121,-0.012085611775237651,-0.011718077147631694
369,3.268312230935364e-05,-0.04225432675616183,-0.024065007669188378,-0.006837794522924047,-0.007978404160478392
370,0.004481829038114083,-0.04643397782322714,-0.01648306962130205,-0.0005034363699760541,-0.005699402976456563
371,0.00711468067032004,-0.049358929029073954,-0.011459368739275767,0.003707763075257922,-0.0022829263214138628
372,0.007247529410258116,-0.04294741221372107,-0.009808784484407192,0.004504149710257846,0.0018563490821281838
373,0.005873093756897924,-0.03366857311146668,-0.009414807856218116,0.004317049983127105,0.004752419851152631
374,0.003979190565026061,-0.026627998824197006,-0.008570508392486966,0.005747162641879813,0.005599787127451448
375,0.0029191592854107386,-0.017722329799873354,-0.0062127189564824,0.009416144354926612,0.006562210448648643
376,0.0018309659442149256,-0.010633997170697294,-0.003835480807961072,0.012366121896316837,0.009031792671196517
377,-0.0019454497915380254,-0.0061370622607150715,-0.005002749555764365,0.011451424544713889,0.011259653978140717
378,-0.007147947589141725,-0.0027596114133556665,-0.009717961599123541,0.00841213893849193,0.01303024233606182
379,-0.01196402423256417,-0.001036891870451947,-0.015363654787193301,0.005234319733165692,0.014267958561606512
380,-0.01617090745066992,-0.003971429580398732,-0.020060804825879457,0.0024723911192866114,0.014192145587068583
381,-0.01880664225895253,-0.006643146624426552,-0.02305724267169816,0.0015998185252789538,0.013683147046609586
382,-0.02055559317558735,-0.006248460925150915,-0.025147528276971906,0.0017783971534997458,0.013088382305198239
383,-0.024011454606510895,-0.006519915213426384,-0.028798396016342674,0.0007035870362344841,0.010170421518817876
384,-0.029435852543136,-0.005080023575670066,-0.03463723644785648,-0.0012932971115670682,0.009016236112891932
385,-0.03398966117778664,-0.0029565751048298483,-0.03864595061624615,-0.003658122539773392,0.003436539573773401
386,-0.035409109126199594,0.00044965355027252796,-0.03715336059468435,-0.0032557910830909036,-0.0018223100171602408
387,-0.034175546822700305,0.006205427955770093,-0.03169855361891191,-0.0001298872683142457,-0.005141919635888659
388,-0.03214204002107961,0.007358552104116364,-0.025831677286010032,0.0015714235849304458,-0.00765253353551318
389,-0.02949511057197944,0.007601609583482645,-0.020138169886923914,0.0022870694053629195,-0.007393100572423557
390,-0.025636676549786165,0.009235740003607018,-0.014305255304869624,0.0036738960430957894,-0.003562769325637796
391,-0.021780225688543355,0.00824724031109612,-0.010623691682956302,0.0037233842130797888,0.0009105087071029726
392,-0.018896514291861517,0.007798249600367866,-0.010433138538453474,0.0020040175713296592,0.005466136201491644
393,-0.016153823575646344,0.005661080121924636,-0.012241760606856717,-0.00042896654421132425,0.00709858074931349
394,-0.012567946155402377,-0.0007045276144421276,-0.014608015560855742,-0.002771584192032233,0.003662452661629265
395,-0.008892087980834372,-0.009556523283033564,-0.017603707760027943,-0.005978968853998333,-0.0037470782343282417
396,-0.006366685359296029,-0.015148814802491667,-0.021149433552322294,-0.010111164630858512,-0.010335344391540255
397,-0.0033560699167058537,-0.016002047049309156,-0.02166490827289746,-0.01291377069359904,-0.01237309873694102
398,0.0024918963313732604,-0.01256147568977387,-0.01534729993971688,-0.011159744926326657,-0.010315369688941875
399,0.009919280235447301,-0.007636614358025095,-0.004064228725692928,-0.0053511175613773325,-0.00810272599095143
400,0.015129182058758767,-0.006737377927420134,0.006688058132675463,-0.000735705676278949,-0.008382652044900612
401,0.016502816330839234,-0.008433273123302087,0.01374175614003437,0.00032295373746036953,-0.008424076767889484
402,0.01654797418072625,-0.010288905705898809,0.017913457942034326,0.00013264986037314863,-0.007364526894472184
403,0.016911094320312025,-0.012949894244569266,0.020466626503338983,0.00024107525349459984,-0.00721026483069288
404,0.016773583312570402,-0.010655737194857906,0.021879126582345785,0.00275105030016192,-0.00317918729775869
405,0.015386428584552964,-0.0071759112176134855,0.022211452911132714,0.005823461384336565,0.002321516321953484
406,0.01269361458270874,-0.006299515226853075,0.021389519308014266,0.007470354683914441,0.004943060980228456
407,0.009736113741703339,-0.0051782743045168545,0.019539894289506986,0.00842352870261422,0.006372714745100722
408,0.006466973921820151,-0.0064621098075982085,0.01564198405300764,0.0074975196018081895,0.00561192983256233
409,0.0020543335216230483,-0.008329592049172134,0.009615152954926287,0.0048713862372276266,0.004855514718141836
410,-0.0028158611047644417,-0.0069696646370932935,0.003594196541428336,0.0014268591404362177,0.00620281140878554
411,-0.006395084725332482,-0.0034412849923178453,-0.0007418531662467778,-0.0022890438601097934,0.007804098136818882
412,-0.007275031571942961,-0.002223250295307515,-0.002395429991469256,-0.005676447722838955,0.007135778780965944
413,-0.005562568873821515,-0.001731185969045256,0.00024206867800315786,-0.0065056124269797806,0.007586058987570929
414,-0.0029712560644613744,-0.0012461975056021386,0.00706038551847526,-0.004709687463884664,0.009376435587560128
415,-0.0018524424099258196,-0.0026173387752448122,0.014102035606004879,-0.0030807195381371104,0.00757016754052621
416,-0.003209605090662313,-0.0033039431327268015,0.01819179707776326,-0.0031902237618782205,0.002975090633579056
417,-0.006748582878628675,-0.0034563126875978845,0.020032403385576776,-0.00623624213324347,-0.002591371017864892
418,-0.010894107578735688,-0.003915194115307147,0.022401665187867414,-0.010692288256251084,-0.008005979001915726
419,-0.012520204770014339,-0.002534065669130989,0.02816568932783208,-0.011937777059719889,-0.010640571963624796
420,-0.010177046679589132,0.0002097020481463622,0.03585049123785997,-0.007849658247379336,-0.009375657643086776
421,-0.006182988179325649,0.0038980562341131533,0.04343498514560887,-0.0014850691209318614,-0.005271748123633644
422,-0.00402378694163748,0.006437242490275129,0.04735419793044115,0.003419797809397271,-0.0017393294658606796
423,-0.0037902600560506873,0.007266128515592778,0.04617152518245222,0.006727645422871399,0.00047426013600542123
424,-0.0034257468020748635,0.008993813890824915,0.04409947120855629,0.009684522304043895,0.004165785867025611
425,-0.0022770566276895093,0.011512209472881719,0.042596341332955714,0.01216748387405267,0.010451853230484818
426,-0.0004948492168304273,0.014227494798288486,0.04082116751564567,0.014409646236727289,0.01778507110729132
427,0.0005808585007423234,0.015963577958568394,0.038031789137004175,0.016774272806229666,0.022558330748421028
428,-0.0012846725781336052,0.015860382781827772,0.03363000878513409,0.017605624767587702,0.02283340159807896
429,-0.0063042198213835695,0.011944163335840186,0.026824187228186094,0.01598796565278859,0.018022047631642682
430,-0.011975756566200327,0.004479957647706093,0.018962246208260404,0.013752758084246856,0.010809752179248809
431,-0.015948975692100548,-0.0027219409922525735,0.011565032933146042,0.012223915143404466,0.007391324825455148
432,-0.017660784262749814,-0.00733538910693562,0.0037459568647958815,0.01110667090141651,0.010397772172716322
433,-0.01820059795994292,-0.009350374819654107,-0.005010360066287285,0.010219787767025172,0.016699587545097837
434,-0.02000670920218578,-0.010710985419181593,-0.014731287415866315,0.009094409793989355,0.021773087402969987
435,-0.024266561877594774,-0.012241247713883376,-0.02426839793457136,0.007534993657371511,0.024285053491698686
436,-0.029311149828077695,-0.013018074786680774,-0.026331438952559762,0.0027654757764723806,0.022205447962887738
437,-0.032614433703352035,-0.012274374048829351,-0.02369487611066918,-0.0015751465727535537,0.019324734487068996
438,-0.03333235773277617,-0.010601058120648186,-0.020539704468617775,-0.0035723226277301515,0.017711460542415017
439,-0.031545121953105784,-0.00818107273755671,-0.01605635307417191,-0.004473726240570604,0.016502882371934213
440,-0.028101036665370265,-0.004588407987225629,-0.01273864965962861,-0.002564985910214637,0.01767101313417481
441,-0.025359297822656134,-0.001851751175161037,-0.010098021942273903,-0.0010629198109978035,0.01761045657617973
442,-0.024145643476328058,-0.0006667935000308484,-0.007391194693937726,-0.0019154671201974485,0.013908963477400442
443,-0.02329179893008566,0.0015160510254961653,-0.004387278850759788,-0.0036775305786953105,0.009914725936236863
444,-0.021877725244988957,0.005733507047767356,-0.0025099938843162048,-0.003741680153772333,0.009356026480327542
445,-0.020498915501199668,0.010301833497919266,-0.0011829483196487988,-0.0038320090038421405,0.010147104537161876
446,-0.021040806118305458,0.012907454792535706,-0.0022107543650915105,-0.007015957556752967,0.009196499482636972
447,-0.02274722095794469,0.013705481817889569,-0.0068589696151267,-0.012172354256869432,0.00647251287956699
448,-0.021382564711158937,0.01350374280532349,-0.01003807088802086,-0.01628291738996669,0.003297689245052829
449,-0.015300580633174172,0.017851395120721623,-0.010836148631786516,-0.016369429517638177,0.0023886415373996278
450,-0.006408117136459264,0.023102989893661312,-0.009346490821943283,-0.012221884882471168,0.004239135165005861
451,0.0030751897816280365,0.027941747747480847,-0.005513302341995047,-0.005565749195554049,0.007096233856870698
452,0.010298963943650255,0.03308103858462959,-0.0055413815525885415,0.0013336670712509296,0.010924902313609718
453,0.013792440039489595,0.03895441139185339,-0.0068177699226816095,0.005028817222868872,0.014765676325313786
454,0.013844715649138799,0.04332929163485617,-0.006826332352353462,0.005226872145842771,0.016981458832698762
455,0.0108690130604006,0.04423550685988059,-0.007481470165521149,0.0033810181336691846,0.01724151011310093
456,0.006407339771493495,0.042183713467335224,-0.006930383215314296,0.0005785666587802411,0.01565304688921498
457,0.0019123018001942404,0.038366830032818426,-0.0087982800806568,-0.00175152929950147,0.012597596126784679
458,-0.0006762344159131855,0.03510220159252136,-0.013982292929172186,-0.0019045802115593374,0.009777390282804006
459,-9.122753264663987e-06,0.034154010281168906,-0.018136761897174208,0.001070196640202289,0.009554529918755163
460,0.0005823001415656075,0.032613264004385197,-0.019168109552186386,0.0027775469517845658,0.009408241848268514
461,-0.0015615003882370492,0.028521488687828445,-0.020128070835242578,0.0017526872864553533,0.007034363163154933
462,-0.004708950458175887,0.024043364622508587,-0.021872755621361286,0.00036932933976828626,0.0037266287263235023
463,-0.007659562979507545,0.02034591389587694,-0.024094580700650226,-0.0009420521348239055,0.0008088461578014692
464,-0.010240705498225084,0.01781949238333689,-0.027529381225476247,-0.0015047453425128545,-0.0002955550651881111
465,-0.010897658532039493,0.017515700456888866,-0.029206339954728676,-0.00043821114127545806,0.0013145008216924716
466,-0.008110100103954116,0.018864748749798245,-0.02823445241537619,0.0030100857233886216,0.004135412940742623
467,-0.0023257490448924402,0.020368109077899196,-0.027421322412301764,0.008195562438117459,0.00593250995946866
468,0.004302998799364336,0.02197992118750779,-0.024387253766138716,0.012577961841754868,0.007528597017092419
469,0.009140597012189194,0.023365142929805516,-0.021339439715055416,0.014004108806957448,0.01020886976513235
470,0.01094186869339857,0.023300807742244717,-0.019933512369381932,0.012672846550631662,0.012777437135342379
471,0.010569632413296264,0.021008009948371535,-0.018483549350324504,0.010433845041408141,0.01321615360367582
472,0.00854003672398171,0.016628716717022343,-0.019001326519973084,0.007792727583776496,0.010823189986355584
473,0.004732697184694103,0.01268676566139649,-0.02036089021092321,0.004211873494388085,0.00758828748519557
474,0.00039439962903277533,0.011804183893398533,-0.020033986225080392,0.0002475967309155058,0.005587070845344438
475,-0.004887130094916865,0.012039909773942042,-0.019108284372993323,-0.004864453747769338,0.0031690398134446656
476,-0.010542346061464886,0.011223590494019917,-0.019754606055744087,-0.00977875994521345,-0.001217649366881252
477,-0.012576691485958755,0.01029293155213904,-0.01828593365237744,-0.009911371990714077,-0.006279812438168672
478,-0.011456987528638274,0.008630065559551913,-0.014568096789803201,-0.00688092813179941,-0.012068144867948636
479,-0.01002568592181754,0.005732927037160696,-0.011348212328432241,-0.00479560934024281,-0.018806977238518482
480,-0.009614620801979112,0.002129560026597642,-0.007681573575803208,-0.004333395546900186,-0.026144595918922476
481,-0.010276349738389074,-0.0004510659410619334,-0.003927542933721638,-0.004421023826422251,-0.03259758617269709
482,-0.009382038530194498,0.0016521774333799239,0.0006524803458315207,-0.002263577087005,-0.03417191081236174
483,-0.007931466804944996,0.006364539093997344,0.005967952558519074,0.001282320538446005,-0.03140057612212078
484,-0.00917526469636654,0.007065831164798331,0.004872111259810374,0.0023023243852007776,-0.027892691296246653
485,-0.010885647593823499,0.005649496646004114,0.002780197866571161,0.0012596202873827874,-0.02397758360355379
486,-0.008803386887428028,0.006605207404830017,0.005055833226232237,0.0020741985950035913,-0.019016162726135346
487,-0.0033027658099838006,0.01009370333644997,0.00861172925846843,0.0054073981536115505,-0.01396785526291925
488,0.001821830094557625,0.014854705713080646,0.013236607130064993,0.008253888299942246,-0.010802978833457495
489,0.005655364489599952,0.019514858292929864,0.017132113505887815,0.01060086555523072,-0.009388829192203877
490,0.008205250887659896,0.023075494996462872,0.018855344464236,0.012874123122751494,-0.008999951098100697
491,0.007240691041187938,0.023337720677146435,0.017451765315281077,0.012219998832118804,-0.010933556598014474
492,0.00411110108709425,0.02118788710245957,0.016552680471926234,0.00959220349407976,-0.015623289311023242
493,0.0029798174708735086,0.019576525614659005,0.016759504508908816,0.008647849750850072,-0.02037549589738871
494,0.003948781266686563,0.020204439895350302,0.01656072880726119,0.00888545617436961,-0.022082014116992
495,0.005218277091735919,0.022400670816490973,0.015892341646684866,0.008519276956419158,-0.020598747563821275
496,0.006960542113885294,0.023995173884144797,0.013058531400703514,0.007718456728304202,-0.017697453724351823
497,0.00937495403819123,0.023859142959019284,0.008899738141104414,0.007111449444670864,-0.015870514385563497
498,0.01189066811002245,0.021404605473944713,0.004222146063474777,0.007139084474399121,-0.01664748626019134
499,0.014888032785049637,0.017281988714939894,-0.0009832353059976943,0.008706499857595779,-0.01869103433250901
500,0.018900718230272208,0.014138123005286541,-0.0021659406802091853,0.011490277265952252,-0.01947772323413838
501,0.022285372154981897,0.012933890089923374,-0.0026547716646908447,0.012401472911566649,-0.01647303154391647
502,0.023421325502221424,0.014299316851051581,-0.004817208218590222,0.00992391181894407,-0.008824203790935733
503,0.02322542603454113,0.017465280594818274,-0.006149128535061441,0.0062936242150255645,0.00010224291532572086
504,0.02292477294756932,0.019597137417108345,-0.008113139819137907,0.00329834416618978,0.006171654828284093
505,0.02185128913532941,0.019909436692738935,-0.01085794526668311,-0.0007191996150050615,0.00820798100312185
506,0.017876775493831633,0.01777499012754252,-0.015422397887664143,-0.008688998074363791,0.006491160693633792
507,0.0120558296284049,0.014188964435261476,-0.0211800340728792,-0.018239179968581883,0.0037742337770691535
508,0.008086110895502277,0.012028547564386845,-0.02632137021947455,-0.02447390344340168,0.004016917143940236
509,0.00688258360692937,0.012524162247461086,-0.028464857627272265,-0.02735498534411714,0.0069606805059015744
510,0.008178820027560233,0.014243552663624983,-0.02786895733705193,-0.02856648571824473,0.009854259886548184
511,0.011163773560732945,0.015091469811315997,-0.026113766880703996,-0.02901422288037667,0.010948665377580824
512,0.013543918290628586,0.013957395801978988,-0.023640012554101204,-0.029333445608249725,0.009224176967417909
513,0.01472667159391882,0.011533102535512891,-0.016596507321039244,-0.028689832273568687,0.005884081645642739
514,0.016061690507121192,0.010683038930641741,-0.005660192553098783,-0.02668223966769056,0.0037944530749918787
515,0.017638964227487217,0.012717326907895078,0.00734860644121005,-0.02518420735626736,0.003472785077993888
516,0.02000588795741367,0.014692016675605197,0.015577565329587489,-0.023943933716513887,0.005295855715905961
517,0.02426080494537798,0.01723272801927812,0.022154525962663905,-0.02074068981232424,0.010155654055810608
518,0.02830185522378107,0.018352695025452337,0.02735639022753144,-0.016577009681461783,0.014714690262143126
519,0.02961119797494282,0.014813099012862973,0.026651600025873686,-0.013669445694717237,0.01508092369878691
520,0.027984976906559954,0.00933517163132344,0.022126677882658517,-0.012624172190061638,0.011988106917853882
521,0.024890173097660926,0.004197912602923564,0.015006214617737938,-0.01211586462879266,0.008952664760176202
522,0.022308859762151877,-2.632014014966573e-05,0.007371013895903244,-0.010171163030181682,0.007931276194604093
523,0.02032942209287464,-0.003880590666679633,0.0006078417449013671,-0.008091569822862214,0.007968266117474403
524,0.01913710466693796,-0.005651785451735923,-0.0031321138575646375,-0.007625651357469679,0.009439280975374043
525,0.01935324010723632,-0.005241377091375151,-0.005005818283395762,-0.007858427952641453,0.013671130344204625
526,0.019868284970401284,-0.004873759744103346,-0.006468161007084585,-0.007779276096992166,0.0187772849080167
527,0.019956011399821526,-0.005426721218772445,-0.00716698894919744,-0.006556604341935701,0.02162298572142582
528,0.019938551539348617,-0.006789395816733543,-0.009202308122783626,-0.0040792664991019315,0.02182682066662619
529,0.020210827824861718,-0.007486203161302998,-0.012995106558260756,-0.001209713737072841,0.021646790178509748
530,0.021620674157455357,-0.007045728332154669,-0.017360592924676805,0.002026547731938819,0.023507861879546055
531,0.02464467130598267,-0.006508804401930882,-0.020467223068214642,0.0061140791977617225,0.02758682763007199
532,0.027837483646186406,-0.0025415175492483543,-0.014830907415147634,0.009787913206900102,0.031555679459225834
533,0.03000196555852471,0.0016665300251172222,-0.006191451233945249,0.011439181966208167,0.034101755581014984
534,0.0319921721320626,0.004691945012761846,0.001147582327058511,0.011975296519495611,0.03514936536855171
535,0.0345206830988886,0.007957988751111589,0.008416695185704868,0.013502596559335871,0.03354789282511422
536,0.03703691792702784,0.0083751031868836,0.010326812608518154,0.016475538504246847,0.029238432876184405
537,0.038014933124239134,0.007630739280203863,0.008068990913915433,0.019063727704504433,0.02450964261232046
538,0.03597429334262512,0.007320834238006055,0.004144152252014382,0.01928797941592242,0.020702625166561062
539,0.031550889476841475,0.006432807041786153,-0.0001502350422782653,0.017175792261400244,0.016938962873603244
540,0.026597918083478698,0.003620445335597059,-0.005371774745228775,0.013529530708100496,0.013234285102943763
541,0.022050191081234106,0.0017535267053642523,-0.00923596281526812,0.009034894186958383,0.010550694273290088
542,0.018628610499930427,0.0016285826705932963,-0.010298461608165834,0.006014876903278176,0.008540510259757857
543,0.017256514376698798,0.002426002054970776,-0.008377628868731673,0.006347444187087623,0.00706750014193346
544,0.017568199044844763,0.0054414911795600445,-0.002359141488521062,0.008657078983824285,0.00641046904811016
545,0.018874533007523783,0.008673535616668717,0.004562594567168005,0.011776975393989263,0.007122984353265576
546,0.021211592631017108,0.010612475278638098,0.011342386964248543,0.0159003154313907,0.009148015740343617
547,0.02317885383467056,0.011379215789532875,0.01831769901838006,0.019143861954717314,0.010003353750677443
548,0.023574885106448274,0.012170342051099636,0.021283163961807815,0.020650589050273584,0.008426258727612405
549,0.023097100610465916,0.012043879319060735,0.02168867345170191,0.022577999855361748,0.005570580995551061
550,0.02116923219020445,0.009381368562157145,0.019750307551140992,0.024060919243893485,0.0024983552682406145
551,0.015134798432863075,0.004148773264128588,0.012534505314437689,0.02078677348541723,-0.0007938635710430609
552,0.003743262066216664,-0.004194714221744118,0.0013975951552579224,0.011517778214211703,-0.0064526412668059726
553,-0.00979738241855202,-0.01390942618665808,-0.011544763515216579,0.0005569055241968989,-0.015773946862966057
554,-0.019767763987227596,-0.020278981863616333,-0.02209274179297069,-0.006595935829572475,-0.024912056461889973
555,-0.02212799351414477,-0.01895609110346736,-0.025658525675167607,-0.007296057007393427,-0.02801017682506713
556,-0.01758877726982499,-0.01087084923725346,-0.021043597492764132,-0.0029102679648201416,-0.02445278766914649
557,-0.009967873321728124,-0.00025963565231037995,-0.01366059545248259,0.0029552021701215033,-0.01814700522321317
558,-0.0015703175893349165,0.010418902775543526,-0.007319345448031509,0.008422479203539694,-0.011558095131723376
559,0.0054710825979618965,0.019485472782901865,-0.003034154070548578,0.012084315096408354,-0.006407241208971897
560,0.009062217334701167,0.026125288439225586,-0.002129123155733571,0.012378696479818964,-0.003396412955410153
561,0.009695250699150344,0.030963346615456817,-0.002148039779297884,0.009798839602941443,-0.0008490392538116137
562,0.009545484192702975,0.035046978202198084,-0.0006564965064648498,0.006255230650133693,0.002129648362689479
563,0.010838566660631939,0.040212085377164065,0.003352768921773507,0.0042036153818231095,0.005164902571959504
564,0.012635890072763233,0.040763728769664644,0.00970313365483887,0.003886159041538916,0.007132108461786987
565,0.012171591556940378,0.03757007895998452,0.01642117230180672,0.0037263457600057353,0.0063449293210304245
566,0.008967313486925544,0.031964842869055106,0.0205121802480287,0.0032644933464958535,0.002542626083908021
567,0.003871860898320831,0.023156054139315194,0.01989835219033534,0.0017528205947292441,-0.002462172424443969
568,-0.0013481033723118133,0.016700986657084423,0.015654479510883466,-0.0015631917794403157,-0.006380638338670932
569,-0.004981397012218942,0.012235278216896413,0.01017115909668674,-0.0058304060686691535,-0.009198492585643179
570,-0.007179540744383495,0.006159996945510749,0.004946643014700869,-0.009773955108209746,-0.013379699562327905
571,-0.007131480890086884,-0.0006790492952554826,0.0018333487220425428,-0.011139441012996031,-0.017989101012569373
572,-0.0036048004000727592,-0.001378355694517834,0.0023115970634714207,-0.008479304485460781,-0.018110058579460214
573,0.002461242332745064,0.0038680624420303197,0.00608846023075527,-0.0036285222258162263,-0.012501963061363697
574,0.008876315661181577,0.00962532401554262,0.011747739288914856,0.0010483929508580832,-0.00578829848509883
575,0.012847545351519276,0.011859181074084409,0.01643836126690957,0.003665993230328743,-0.003205147090011026
576,0.013343237473281436,0.007998196828752436,0.018360031119965262,0.003933149662399139,-0.006105124067404302
577,0.011212915752914608,0.0016486931939734973,0.018123032339304217,0.003097078050257259,-0.012065160565072461
578,0.0074985282741511635,-0.0034552925899119153,0.017049200024772743,0.0015157675032035696,-0.016879875904000807
579,0.004412141536877637,-0.0057058481290559035,0.017145716041755507,0.000456456535033976,-0.017599230040030955
580,0.004442121313212933,-0.0024390061536871763,0.016298640883040356,0.0026078064692166138,-0.013910848985748344
581,0.006882518096941317,0.003282105268621497,0.015607992349371321,0.007200566503215225,-0.007883670816444685
582,0.00861536596092227,0.007724146008927705,0.014308209873689684,0.010633975690051011,-0.0030503949068623145
583,0.007495268051323809,0.010636073887956725,0.01075251373416473,0.010895802188088359,-0.0011160785172981845
584,0.0033979493932317787,0.011593641398631905,0.008285796792283525,0.007765876364905925,-0.0008144986277869729
585,-0.0016894488226958965,0.011946526123474875,0.006736143709390217,0.0033436449946919623,-0.0005492351402746836
586,-0.004514006789139308,0.01346057032223605,0.005035731103613909,0.0012201044232004353,0.000651184717101315
587,-0.0033672996034327454,0.01668792851073509,0.002997089521255476,0.0022413408413948597,0.0029414348757758418
588,-0.0010554089958909575,0.018594947647759277,0.0005369697502356634,0.0023649703137102428,0.004592233528121827
589,-0.0014831240356626238,0.017448259476388835,-0.004238116736754634,-0.0013951672895758556,0.0041653501477301545
590,-0.004179518652606954,0.01468957283549434,-0.009881198088912723,-0.0063124046686626935,0.0031836728567075233
591,-0.005704656060315038,0.013274272256824217,-0.012554373112326215,-0.008962042258332352,0.0041032823952622454
592,-0.003910694672235712,0.01575972446526776,-0.011789825776836843,-0.00841831040013843,0.007323968129286358
593,0.0003638381872353278,0.020861151196855793,-0.008332102703482055,-0.005452404324655366,0.012001725045127394
594,0.0055555489528469676,0.02695321377486466,-0.004546957864693243,-0.0013909409368862645,0.017626946912301295
595,0.010872624721311216,0.03363355775079029,-0.002961654868596217,0.0024540850524720193,0.023622383646056296
596,0.014264782158048472,0.03826971875239761,0.0013862731521842276,0.0034247879789843284,0.027274809847041167
597,0.014061571431833399,0.03802790414689667,0.002448501760209165,-7.713853298006761e-05,0.0254876286051987
598,0.011614459198342201,0.03375924965215449,-0.001105939063520402,-0.005336520071139228,0.0185740440428297
599,0.009028914709057383,0.028096815751061127,-0.0023162844408221614,-0.008816840244142346,0.009749941276329901
600,0.006201365132369963,0.02233699378575921,-0.003884714521492197,-0.011549225598588127,0.002111639426881012
601,0.002423734897546581,0.016630259946856723,-0.005302241850966576,-0.01634632521392791,-0.003934352858437132
602,-0.0004775760364531253,0.012625331605151396,-0.0032765869635124926,-0.021987098082405322,-0.008557441787436254
603,0.0004214943190963966,0.012702046614847626,0.0038802078274671322,-0.02459425362722553,-0.010370426861443712
604,0.006139986352309928,0.01705656620368733,0.013307511147917573,-0.021790336894290076,-0.008048270581625697
605,0.013806949605242527,0.02263933073750495,0.02285661940794783,-0.015721947616720692,-0.0027606992503225298
606,0.018379681935811003,0.02541828870425371,0.02708523826718499,-0.011443504853015428,0.002296223846978206
607,0.017767255610201694,0.02436820186426,0.022425302894998916,-0.011079013004470827,0.004563444752124147
608,0.013486418457144102,0.020551034922174513,0.014919835798923392,-0.012405036352133615,0.002711259226799961
609,0.007988460593125121,0.01576620124897838,0.007912854315462558,-0.012745880283067468,-0.0014346019641121267
610,0.0038386624250736816,0.012829165857225797,0.0018265013666986648,-0.011496485932434524,-0.004100933817402535
611,0.0029821516928234958,0.012745631735836267,-0.002246773658299802,-0.008828826382139823,-0.004518442402391337
612,0.0051841635382556366,0.013583510127278707,-0.002460345589978283,-0.004981015329144605,-0.002802681152095509
613,0.008251490388632944,0.013019236544114967,-0.0007354465209885496,-0.0009814869837611933,-0.0020391860712250004
614,0.010198540826291614,0.01028532273849537,0.0003898172873886276,0.0018182670971838644,-0.003941298238049279
615,0.011002101263653068,0.00696154503537606,0.0001765039846646034,0.0030109775132811612,-0.006090683164489337
616,0.011688968578450427,0.0055223083625618894,-0.0019156239712280973,0.0026820320034912715,-0.006211439120256244
617,0.011475241021676658,0.00536029281025765,-0.004673015016192214,-0.0004698382771448707,-0.0039043927025600505
618,0.009440753320472776,0.003683045327915482,-0.006875317656153642,-0.006209553492479613,-0.0013638174777841352
619,0.007520342296853477,0.00013391270181260884,-0.006838050730681548,-0.011050711875996409,9.655671231726026e-05
620,0.007394740075101247,-0.0035872658696942538,-0.004268446459127162,-0.013449714957771645,3.512623229425546e-05
621,0.008686144976721098,-0.00571201698232842,0.00028722975439013213,-0.01480706552205591,0.00030590186575792046
622,0.010314471196941519,-0.00585846377712479,0.0065468863657712,-0.01635364005203647,0.0018162996896125667
623,0.01123895631559014,-0.005591036252320331,0.014406942880392595,-0.017461488901723148,0.0026590559501449822
624,0.011475545529481228,-0.005454451352814035,0.02418816704367438,-0.016516564706609112,0.0027472813358523232
625,0.010471526076049899,-0.005374504377052554,0.03362372677477254,-0.014325831908337201,0.0019726442485495594
626,0.0075293460612742575,-0.0060963435457308925,0.040380072995209494,-0.012581465533682994,8.8176418731285e-05
627,0.004330709117005618,-0.007252288580449449,0.046104228210601526,-0.010997757911255108,-0.0009883066637417005
628,0.002112415528753632,-0.008343790971369374,0.043567247843003046,-0.009828662400677196,-0.004900025513239398
629,0.00021513186175722198,-0.009539196975060312,0.037398411799334,-0.00998006711904745,-0.008089574612488968
630,-0.002066939001995138,-0.010878716470188529,0.03068063272558936,-0.011230719225156517,-0.008396809501260153
631,-0.004911375387236715,-0.012511199728088566,0.020051959478495692,-0.013321661849130995,-0.009557284555285412
632,-0.006998065850979945,-0.01339634528080377,0.01245413545256365,-0.015686348913810422,-0.01025686956015292
633,-0.0062797766612381215,-0.011769071789125991,0.009248845815572166,-0.01666537442529931,-0.011044737782985214
634,-0.003176910915652307,-0.008149938168178258,0.009092856499814237,-0.015640304782521847,-0.012739347243249445
635,-0.000954581100281827,-0.005118018019049883,0.010760850416455366,-0.014777232911368714,-0.015652877641201973
636,-0.0018754460781342315,-0.004451491910033483,0.015154457656969234,-0.01611810791780242,-0.018378823005948383
637,-0.004439529433638583,-0.005434459124449357,0.018583636704871356,-0.01828638450510735,-0.021461824239450974
638,-0.006193172030294033,-0.006540363696361431,0.01967295019866058,-0.019273944307833583,-0.023636071993266977
639,-0.0069639586500887815,-0.00803580807884687,0.01981900957419192,-0.019246988266653397,-0.02436307802356701
640,-0.007211967239868053,-0.010974156173588665,0.016557562789773328,-0.018166717925952692,-0.02848625055755751
641,-0.004993371823256868,-0.013728023564946946,0.014490425430829736,-0.014309512288442353,-0.03439899482017657
642,0.0011303372106746014,-0.01303561573042269,0.016221202483235116,-0.007762043598919316,-0.03755301877264653
643,0.008214282600951618,-0.00972999797279228,0.01723766071182332,-0.0017824732706549777,-0.03820311660226654
644,0.012464932601870345,-0.00815587165176087,0.017119670122199893,0.0008967297036698151,-0.03394452795845566
645,0.012799473604326367,-0.010284858126962348,0.013748185915863381,-0.00021447803356552996,-0.030754291273490355
646,0.009839510273812246,-0.01512199528397589,0.006818104016430986,-0.004690428611689918,-0.030860556541808852
647,0.004733539937561814,-0.02141822710328468,-0.0009491233889260089,-0.01183812085794965,-0.030951516705494998
648,-0.0005636277086816325,-0.02773094730863185,-0.008711612707363817,-0.01981406013591505,-0.03289947000853081
649,-0.003927928186710296,-0.032408071653171965,-0.013308395722692695,-0.025671817960040463,-0.03307976752330717
650,-0.004801878037169508,-0.03510136073248287,-0.013240339887074426,-0.027066917384728696,-0.029409613700392044
651,-0.0034634337454730146,-0.03546401844712592,-0.009331105560714975,-0.024070512935500225,-0.02210506700397478
652,-0.0013066556945493131,-0.03373287664303409,-0.005816745639890662,-0.02036718412767638,-0.015057750032069992
653,-0.0014636609503391963,-0.032305180107588746,-0.005712221944277997,-0.020549078306443452,-0.010301005766100631
654,-0.004506238756363521,-0.032025375522910265,-0.008540833911339384,-0.024797060365847102,-0.00737810608201111
655,-0.008216292499087266,-0.03210145820758733,-0.01184821523928094,-0.029809230177737428,-0.005886725810394667
656,-0.010957679410251463,-0.0318897512461795,-0.01276731700928163,-0.0332045752130672,-0.002854925852559385
657,-0.011568162450560483,-0.030624274323062063,-0.011294733817429858,-0.034359719169779646,0.0025817541853429076
658,-0.009468990567639406,-0.028636221225141676,-0.00750404882952063,-0.03319034412408266,0.010134868149763226
659,-0.00589043212542516,-0.02727904238960192,-0.0012585121373750536,-0.029765542889052827,0.018901965298519098
660,-0.0033356867708339865,-0.025007813482416867,0.007401935068162868,-0.02531278312618699,0.019812033704457877
661,-0.004207593486753782,-0.023669298657852292,0.012586606170483666,-0.023085290898376368,0.015303923357486314
662,-0.008862229508184143,-0.02463745447304591,0.010366571234853291,-0.025203226150058784,0.008473441474000521
663,-0.014292072355817937,-0.02521442890507722,0.004309722976167331,-0.0290997371345917,-0.000280796323191266
664,-0.018500940017259108,-0.024961702829339377,-0.0020050171927683998,-0.03231581880894254,-0.005327651652938431
665,-0.021835553123478593,-0.023846451891665846,-0.006182797137036158,-0.0354212105099483,-0.009714251656612969
666,-0.023283397562540824,-0.020792005443220282,-0.007506825612088527,-0.03755057244092058,-0.015476803998071949
667,-0.021650178847080318,-0.014713873162312496,-0.005913805915730776,-0.03633086113615921,-0.019342328771657657
668,-0.017463623339668177,-0.007162884042428558,-0.002862796403900816,-0.031944317323936114,-0.01723074816577554
669,-0.012833371947617078,-6.139918370906327e-05,0.0005862226402707009,-0.02715112686642928,-0.013573154756602807
670,-0.009874336686164005,0.004920288207271472,0.004232347021628743,-0.023512361963760522,-0.011925468414375272
671,-0.008380489718100046,0.007332860842884821,0.0083362059196937,-0.020922982486686687,-0.011295335893321415
672,-0.006889083797558808,0.008552070636538681,0.014051704048536546,-0.019858538065805408,-0.013380471221971094
673,-0.005041148474830045,0.009929238462372118,0.020659333978166477,-0.021132700121283734,-0.01536682034212248
674,-0.004168261968766893,0.012877233437078724,0.02541123797055062,-0.025460544217993517,-0.015547015780463549
675,-0.0047044304125380704,0.01724708334352847,0.026275516523073812,-0.03209386819532144,-0.017290324562237218
676,-0.005183251347420452,0.015178871847411535,0.01777457301066253,-0.03742988378465499,-0.017071768215428728
677,-0.0052264272825565524,0.009341990633071352,0.005021453702924617,-0.03824600538455257,-0.018907890579270444
678,-0.005162113429869445,0.0031527460440479885,-0.00778939848999881,-0.03472783307037066,-0.02324502324093933
679,-0.005980418180874492,-0.0039363130226876,-0.022255587805934427,-0.030590854102922845,-0.023236195140902936
680,-0.009388245899929632,-0.008539243159808923,-0.035282543421995306,-0.029407153957278862,-0.020291713248262587
681,-0.014205791488750983,-0.012746640094531563,-0.045685088268421874,-0.02953597795475439,-0.015005639882089273
682,-0.01807878206301342,-0.017634466163171245,-0.05222064986841144,-0.028107262410311855,-0.008029158093858941
683,-0.020842710719047437,-0.02202224274797369,-0.05485998242628642,-0.026317686135034032,-0.0015068933245541943
684,-0.021725559356218078,-0.0219895134062029,-0.05129458128181763,-0.02402925654871965,0.002014823265932005
685,-0.019668120558251415,-0.019320486742774638,-0.04325547876461505,-0.018858167003236052,0.00439648311086454
686,-0.016276069432409966,-0.01720616919257766,-0.034795209509514445,-0.012463541292249426,0.006158302396719749
687,-0.012534286438394927,-0.015040774552292331,-0.027697049645157453,-0.006989207722085388,0.00860929494243983
688,-0.008419548270436674,-0.013672438340191152,-0.024976591381775985,-0.0023450865607272512,0.01655215927367731
689,-0.005306113579678222,-0.012135115510123196,-0.026729170551719732,0.0006765804123592404,0.027256632339681886
690,-0.004524849140236949,-0.01186893987237169,-0.03224999874574589,0.0015668145664276979,0.03544500701494605
691,-0.00541637684243474,-0.01514303681413537,-0.040202359903851896,0.0017822792358484585,0.040638588016156746
692,-0.005446902282804461,-0.013581515763982982,-0.04062794845898548,0.0034388674431850225,0.043650407691790884
693,-0.004220354279633315,-0.010691684280057914,-0.03571915962431617,0.005401545465523884,0.04539452378488702
694,-0.003168640024668604,-0.011227465647542454,-0.03060911290311945,0.0053997738303959,0.04442837440922455
695,-0.0012348973140320304,-0.010865525989774492,-0.02293954389454635,0.005350648662083553,0.04199373932178073
696,0.0021869334744374414,-0.010744029057125421,-0.014726690301156259,0.006892410161677941,0.04094192409703246
697,0.004855641772049649,-0.010961015509146911,-0.00713477606886729,0.008397903624967222,0.03854375784735841
698,0.005801089934260447,-0.010327142704683356,-0.0005151935311045896,0.0096017714263486,0.03372473807181186
699,0.004753524958622151,-0.008973826889477458,0.0037301092825194693,0.009829196631322073,0.02870237827608448
700,0.0007814672672452111,-0.011352623043246319,0.0015174465748024745,0.006936138988089444,0.024226459165704668
701,-0.00508112304505964,-0.01651999575053385,-0.004937712257542413,0.0019394165723146885,0.01836362256379782
702,-0.011135283181165613,-0.022591723663970362,-0.01278678121353421,-0.0026592299679713987,0.010946057538211576
703,-0.017185153500599005,-0.02950237546245972,-0.021274162999648728,-0.00683571863495014,0.004017441046967857
704,-0.022129048847169645,-0.03283223911044221,-0.025296651338018526,-0.010506539069656443,-0.0009015986519248522
705,-0.02407432097981455,-0.032377774453595985,-0.023605449871285367,-0.01163901127314153,-0.0027773779538966255
706,-0.024052850428404805,-0.031111584005470237,-0.018405821583459332,-0.01015875331304111,-0.0030930889656564826
707,-0.024063925190786033,-0.030926921105343348,-0.011702104786209488,-0.007932907275074693,-0.0037358657306316495
708,-0.025193306273090577,-0.03213720832209979,-0.010426003034200921,-0.007048332441320377,-0.0061378105139855525
709,-0.027299036708283653,-0.03281830798475822,-0.012459412995908711,-0.008052228915919354,-0.009035433466329484
710,-0.028690187424359893,-0.030501661221129503,-0.012907505562154704,-0.00864565038039071,-0.007971456470804671
711,-0.02944409787239302,-0.026765229611702357,-0.011913234361339177,-0.008509550622815372,-0.0025982626017669866
712,-0.030085594842798855,-0.023430379131983002,-0.007851867338866846,-0.009381641867472427,0.003984014731234236
713,-0.029960942368146736,-0.019552411296546706,-0.0030001727021032446,-0.010981007284995493,0.008872208345528041
714,-0.029402252152970668,-0.01512403015801737,0.0002490028020093935,-0.011704512351726327,0.01093684287931547
715,-0.028796151688581982,-0.011016701621412212,0.0024150118820786748,-0.010928436348183992,0.011551507395732985
716,-0.02782378219405605,-0.007889573006797122,0.005715695562476499,-0.009991591373194116,0.011525215053727396
717,-0.025887348083463012,-0.004954230558494891,0.008810988139115346,-0.009831908774869898,0.0115632466314143
718,-0.02388323407882549,-0.0014195827757486474,0.010044870199401163,-0.010748650148954451,0.01147075162416064
719,-0.024391844143962876,0.001166034097902865,0.008016288706859935,-0.014010298514464042,0.008846435808011945
720,-0.02737076543370004,0.0026136001495402255,0.0018538069064443056,-0.01883847388464845,0.003845826455413708
721,-0.030683645897888447,0.004301163443620145,-0.005043805223964119,-0.02280357400150088,-0.0009084427765454234
722,-0.03355870909406598,0.005993232281495994,-0.011637619112341615,-0.02523309458762585,-0.005157666331217229
723,-0.03502527965462291,0.007913541031539554,-0.018134024539840397,-0.025323540468100956,-0.008844468725628916
724,-0.032973417573151656,0.006100628343324806,-0.016049970641778735,-0.02127300476691488,-0.009693389687038454
725,-0.027322685525798803,0.0041824374973844424,-0.00941612288701797,-0.014693484696861638,-0.007401582418102204
726,-0.020319075000427952,0.003410303916787696,-0.003283775146243125,-0.00932174299320968,-0.0036952442934929676
727,-0.013439158745451605,0.0008764251060826174,0.0045625423071189355,-0.005010296388502012,0.0005278856907711389
728,-0.007753697732806173,-0.0013148372675566573,0.010772936083850913,-0.0005720258683172063,0.004553962289470698
729,-0.004567229267826167,-0.005714356235830363,0.015377368906174069,0.0026880572002981338,0.0074780090345465365
730,-0.0036688099013199266,-0.013616272042555595,0.019403922749116228,0.0044971289361573925,0.008789768563974752
731,-0.00488805661794737,-0.0230993365754868,0.021122105608168126,0.004619760265658675,0.008326191201253458
732,-0.008202639625743701,-0.03039821452896589,0.01585858592153608,0.0015867109639041096,0.0062929010100167115
733,-0.011257585007360222,-0.035835353431742996,0.006892022483013434,-0.0021772380565034375,0.003619979644543247
734,-0.011758326240066118,-0.0392045826377537,-0.0009590146958339606,-0.0022258405686706876,0.00265553903539465
735,-0.01033621100129704,-0.03857116086550365,-0.007370078156605017,0.0010487168621593655,0.005540344636384392
736,-0.009671028134817166,-0.03763587669975003,-0.011865680353480509,0.003719289758112563,0.009192760707357837
737,-0.011159569016358088,-0.03889257025488686,-0.016080259787589143,0.004012336384550276,0.009174297792794004
738,-0.013706320095607577,-0.04184315307642717,-0.018300871991426344,0.0030472886833123034,0.006490589304041578
739,-0.016035503788005934,-0.04574445218103746,-0.01546343565709312,0.0014996956601349227,0.0045575635293529405
740,-0.016868331516517725,-0.04117946053163782,-0.009722018350454368,0.0002452520317905097,0.005799392118297396
741,-0.01546623951692874,-0.03223406055804222,-0.00171087597069887,0.0010535613612716616,0.010289491142618798
742,-0.014170466735953572,-0.025770342226674653,0.005890332092273621,0.002566690297385364,0.014540467645092299
743,-0.015863261115181215,-0.02173543318969427,0.009006267961575937,0.0015164849396346462,0.014991833274671146
744,-0.01954767178200128,-0.02141130072556212,0.009352962621870574,-0.001535813868632917,0.012581369479161454
745,-0.023608647692145518,-0.019626927138289833,0.008401579468604101,-0.0043957167212349,0.009359631179537
746,-0.02837643224022243,-0.014506899601257037,0.0057167853194289835,-0.007027960632654163,0.005600981349583078
747,-0.033277459381286185,-0.008694042909420292,0.0019798857161631798,-0.009795757103640713,0.0017255670010987978
748,-0.037525041083157754,-0.0077078288911812155,-0.0021224741160690546,-0.013445455107047586,-0.0027574190139100134
749,-0.04054947817300482,-0.008963999798652688,-0.008208596657655637,-0.01881966393860501,-0.007668172526316131
750,-0.04177012100449659,-0.008721398317698753,-0.01553999659892932,-0.025537372625787487,-0.010757201506198348
751,-0.04057627176179217,-0.007472290945969318,-0.020320088563641973,-0.03065462984066318,-0.011840683278953072
752,-0.03655601042088227,-0.0036630073594008062,-0.020558764250572317,-0.03155184691584808,-0.013016475483397459
753,-0.0319973583860821,0.000516301716455618,-0.01760033609416799,-0.03167888094455503,-0.01448198969889914
754,-0.029091347302622507,0.004503181779055825,-0.013879132069680748,-0.034798174188159774,-0.014417567507509934
755,-0.026673749781381383,0.010628578979528347,-0.009775848090743664,-0.03798227002939538,-0.01229083906598645
756,-0.023812494845736065,0.01023421189670001,-0.008898477789422508,-0.037790068622368875,-0.010220924413374004
757,-0.021753536071098374,0.0064269458323735484,-0.00984878725134459,-0.03564723014974543,-0.009748409342177055
758,-0.021204153837531048,0.002864305622629383,-0.010905065019945735,-0.03353828265602825,-0.009243813674978162
759,-0.021211954016797683,-0.0022424415049629373,-0.012357553980628613,-0.031339146562683384,-0.0062841923647970945
760,-0.02093375129527332,-0.004155429377194544,-0.011936948566706925,-0.02885212665470479,-0.0013166828325718433
761,-0.0206317769975896,-0.00552219455867635,-0.01165995670511121,-0.02670860953162124,0.002625172163319696
762,-0.02064903427006365,-0.00963112612058217,-0.01346031211145705,-0.02534697061659055,0.0033491609877283695
763,-0.0202648646919882,-0.015414405092806989,-0.015947893875154485,-0.02374755498520911,0.0015052807618978245
764,-0.01724558327615393,-0.016030315675590906,-0.014809646782828128,-0.02021629404971517,0.0012512139085947612
765,-0.011026939959588533,-0.012752949572840285,-0.0106690182539777,-0.014673717640813018,0.004723351010731128
766,-0.004680450763191656,-0.011162004432468042,-0.0075261108201350475,-0.008662628113117472,0.007942476980599068
767,-0.0008450364348724448,-0.012836919495591442,-0.006424043715462958,-0.004184556219353932,0.007864227538402768
768,0.0002234275535528053,-0.019846938126836564,-0.0072180233615988226,-0.0024264410614405147,0.005227781449896295
769,0.0003825485290161742,-0.027537549304242126,-0.007384294419481272,-0.0018572153718864831,0.0022120047274132885
770,0.00149666459767159,-0.033125585388151954,-0.00619951033964647,-0.0007946553343872115,0.0009979859001580922
771,0.002372796744662943,-0.0386613373142509,-0.005782807545453885,-0.0002470432071650572,0.0002597808872963019
772,0.0018001126007186423,-0.03856456238758734,-0.004776570299707814,-0.0013505587609863342,-0.000645589091414039
773,0.0011378755948797687,-0.0335684704930806,-0.0029321883212467996,-0.0037054519497857438,0.0021040491407145648
774,0.0017249546762835037,-0.026632577961246438,-0.0006952145741286553,-0.006194164165682685,0.009533865302784921
775,0.003128514900099927,-0.01837594410718837,0.0024709236741332235,-0.00887430098462528,0.01693666872922617
776,0.006131841607247306,-0.011978652339596916,0.007240730457074585,-0.010737977162127611,0.02017956640212681
777,0.011857164628934873,-0.0057121240899973055,0.015301700187801333,-0.009341056193228234,0.019131050745244942
778,0.01707956586471502,-0.0006040778808357969,0.02468592463441869,-0.006719972091167199,0.014945865095464635
779,0.019398723740230845,0.0012547956906486034,0.03260060252158834,-0.006039757888689452,0.010043207493880161
780,0.021944707853144795,0.0006931788243916021,0.03906021368655911,-0.005399454124273998,0.007987497646448707
781,0.026962040473971202,0.002138852319214434,0.045486016446134335,-0.0025355942575832797,0.008331427294745446
782,0.03106536239334237,0.003620209789594485,0.049250502763357115,2.37239462264226e-05,0.0062737061535803875
783,0.030710506937958862,0.0010772152291481495,0.04704468864941013,-0.0007584430678079847,-0.00019114022590347858
784,0.027337803388258232,-0.0012842119838561736,0.04136949422177775,-0.003585632182621881,-0.006556416199061981
785,0.023974096267010175,-0.0011698755323254232,0.035724250123440195,-0.005444314843709022,-0.008202972279567141
786,0.02231338061218453,0.000932817365713427,0.03171049098446868,-0.004672874103554329,-0.005270636878793817
787,0.0227446745923672,0.005101432230613584,0.029441207914603678,-0.0012024781759574677,0.0002563129866784325
788,0.02267425305781525,0.0071570616339128095,0.02606496761323264,0.0027036608409659944,0.004848095064340632
789,0.01915088382147675,0.005240951407442483,0.019157891189523994,0.0039093220468415174,0.00534024805572616
790,0.013646369757686773,0.002556529857819543,0.01163768652903231,0.0017657148218479409,0.0038446780902207374
791,0.009078422051734734,0.002003487249416557,0.006413313589267199,-0.0020838251142874585,0.003965542366106644
792,0.006909672096658543,0.004097915284142908,0.003084165240534049,-0.0046595784953681425,0.005994282177867488
793,0.00736876327462572,0.006915161233221372,0.0010365659366012249,-0.004041362042159026,0.008682807080100266
794,0.0075446747397071665,0.007601605021320618,-0.001845569471353546,-0.003081926712251249,0.010083586032572495
795,0.00535911562817497,0.005527752654319479,-0.006366570147755835,-0.0040158153784189375,0.009036802843641476
796,0.0031654825486447592,0.004018762823593624,-0.01019542298967933,-0.004706151488850079,0.006263199880104863
797,0.0033295791260833873,0.004795642063168823,-0.012244955476079022,-0.003822496430969801,0.002455377152456498
798,0.005086093571939316,0.0065266737285919205,-0.013030339868969202,-0.0025280623882132894,-0.0023797335315655
799,0.005728232706277454,0.006408496169017771,-0.01392315699113764,-0.0025650621478860813,-0.008602506190999665
800,0.004052079201863641,0.003235372871807482,-0.016794887969401158,-0.0047673375991229075,-0.01504121622204177
801,0.0019348782163383202,0.0003283863830724145,-0.021482984458493323,-0.007258462902327756,-0.01910537863174249
802,0.0015623567847576443,0.0008287691666946119,-0.025801747189973315,-0.00654556330511557,-0.01968951310714761
803,0.002392866470081535,0.004271617374172841,-0.029548324796237757,-0.002825440770717418,-0.017207276989365514
804,0.003065466569295348,0.008449581255823124,-0.032152853802684234,0.0013742629013443564,-0.013123168345105811
805,0.004731428809961697,0.0117666568090651,-0.03311669944846959,0.006655510903066513,-0.00954825932789221
806,0.00853268432416787,0.014631231388743216,-0.030634909238933115,0.0138732648708835,-0.006721462216474181
807,0.013038783752400737,0.01907631210645241,-0.023799014601090046,0.021582952983127436,-0.003021657099199066
808,0.015058318431983277,0.02450555758578655,-0.017061053168383907,0.026469499992009107,0.0006980110929938083
809,0.011926235070364753,0.026907929448089042,-0.014509248260754755,0.02534193099257338,0.0009088029958296275
810,0.005434528764131771,0.02516255800813707,-0.015294008936444416,0.02020111966287385,-0.0027130507389614435
811,-0.00013174210298926505,0.022451318265641812,-0.016591460275640815,0.01557822782439594,-0.006189039111099746
812,-0.003701185817285321,0.02097530959328717,-0.018150787991248193,0.012420976574091058,-0.007052686524875156
813,-0.007144682843221287,0.019587541408318136,-0.019429227037598706,0.009069583274433975,-0.006532693977925322
814,-0.011305220152455466,0.01605861098588715,-0.01929265368772061,0.00520882027360275,-0.007521210437907507
815,-0.014598485640003985,0.011037465042063757,-0.016311611429997916,0.002348423442408175,-0.010346749668113797
816,-0.01545859851281414,0.007231273189965153,-0.00994160512178814,0.0014813300950469804,-0.012556387406894754
817,-0.014886612987128768,0.004797591943217356,-0.00297147584421212,0.0012654727008124408,-0.014240799355733335
818,-0.014388897010446869,0.00317065995836224,0.0036121062459290526,-0.0002285798797996764,-0.015054757236784582
819,-0.013509239205474073,0.002547175525606287,0.011637422652001475,-0.0020071048719309086,-0.013211563047334611
820,-0.011295510569798382,0.0025322355052051224,0.016160942161906822,-0.0019269406163389677,-0.009257651028040591
821,-0.008206253157528078,0.0027572101011009396,0.019615752036502718,-0.00013749742246104544,-0.005482021119325317
822,-0.005763317256140441,0.0027440444925089834,0.023068926779048538,0.002005343356678082,-0.004285724103363459
823,-0.005458224196391217,0.00197605237536945,0.022594726904522595,0.003195022810544164,-0.005992052149773335
824,-0.007412209242434993,0.0008611041917215857,0.01999464535214394,0.0027385052637983044,-0.00905480675986786
825,-0.009972731682499441,0.000586698423084791,0.014554096616215368,0.0014659643538839776,-0.011883784147357633
826,-0.012354221370980809,0.0012873795210329813,0.006224884993961784,0.00023163400297278352,-0.013772227238565565
827,-0.0144929768169342,0.0027284208649399288,-0.0010537810954051742,-0.00048573084025107995,-0.013976859647524277
828,-0.013852492205502508,0.0062718103824011915,0.0003877978789041133,0.0011783252056800481,-0.010920206030430368
829,-0.008439512036523676,0.012299059317436712,0.00989485714219305,0.00642935657795104,-0.004817208595688497
830,-0.0019089994571968635,0.017653479831402877,0.02033244975569795,0.012162707705624049,0.0012262499773571473
831,-4.125868905812874e-05,0.0185450341167598,0.025755206643467535,0.013575545540364352,0.003625122758399264
832,-0.0038337734707478044,0.015150818540835616,0.02340611895626282,0.009989010702368972,0.0018567025967462525
833,-0.009134225925199744,0.011453987318743157,0.01906216566355423,0.005714753680172514,-0.0005913566926477669
834,-0.012551423997928891,0.009293225350810622,0.016056691516520474,0.004499703265866451,-0.0021037971161077815
835,-0.013825225913984862,0.007825766006314907,0.013322331035334303,0.005741271826802727,-0.003576857062676697
836,-0.01373062294672104,0.007636661980755149,0.014721197686908024,0.006547375753067035,-0.004014910187185805
837,-0.01296028551596972,0.009267663836163344,0.016982215744218095,0.005686102773137162,-0.0032661323433477688
838,-0.011530321652053062,0.011954382606963538,0.01808339939313753,0.004264204652394353,-0.0020019361210969447
839,-0.009986492475458164,0.014714104181270737,0.01946905060088168,0.0022001017574239377,0.0003601616144151571
840,-0.009474948017699623,0.01587030068418124,0.017981859241052445,-0.0014810152905765591,0.002089214769063136
841,-0.009175396043610133,0.014780395424511136,0.016007748091231785,-0.0045167923607058935,0.0009491570135263113
842,-0.0072459232240862466,0.01345252258705375,0.017441169555855656,-0.0032782671614971248,-0.0018979237948345295
843,-0.0034645593799411197,0.0141989595693434,0.022446797034062597,0.002364326060287672,-0.004033764206170385
844,0.00027356948045964487,0.016740115073553167,0.025942596849655015,0.009262753535686293,-0.005161783730027747
845,0.0016001596070269145,0.0186469723626901,0.0257762805201232,0.013949278936135248,-0.0075373754251379125
846,0.0010817871142640848,0.019270207188626643,0.022408020041119702,0.015172214624277968,-0.011785525277857882
847,0.001731965723812067,0.02081592791057741,0.01732101928388049,0.014524698723332457,-0.014325632642769252
848,0.005109325194392996,0.024964873486818397,0.014686997586533598,0.014807225011729546,-0.01102057551628399
849,0.009167769797537705,0.029266133148779745,0.013570066901488804,0.01602677210930128,-0.003930112370034959
850,0.01173706654010388,0.02996952651047965,0.010345853856953134,0.015921711245761222,0.000276091513654957
851,0.013685530442251799,0.027527020531979196,0.004701565117417047,0.013942400841386975,-3.0214043079917545e-05
852,0.01564704832601881,0.022870759696088618,-0.003297556570099467,0.010534259855955422,-0.001020845356619969
853,0.01683027457018987,0.018435521770319315,-0.01225478935454536,0.0071009563061578615,-0.0006940435989732158
854,0.017439983909844633,0.01501999892244508,-0.020470031593686412,0.006666862137774254,0.0002612662322194499
855,0.01847228299366245,0.012108253994277852,-0.026024381674437356,0.010698887795750501,0.0018025260991124305
856,0.019119556389109046,0.010721006672504583,-0.02732923784554262,0.016403189196514394,0.004346790530368333
857,0.018254021990824366,0.01004616324025786,-0.02546309427320264,0.02072061560116837,0.007956211918133366
858,0.01663700743806169,0.009355607610675915,-0.021334179207046788,0.0238926617852278,0.012598868236246836
859,0.014136448243137598,0.008013961942883277,-0.016103733760683935,0.02579073064635878,0.017269043031319865
860,0.009966076914360132,0.0067060212332528185,-0.011231616949311515,0.02521760144725068,0.02077508317986084
861,0.0062386555905718614,0.006732838126985241,-0.0066287608923492145,0.023487686634369443,0.023741176336897037
862,0.0072660407837978995,0.009391039194852405,-8.171822304006369e-05,0.024709846086359153,0.027728480598799107
863,0.013958559816373709,0.014037462539792354,0.00857819900278568,0.030808227418859937,0.03241480441506612
864,0.02073008433519503,0.015750571393849985,0.015575954571341286,0.03800994772622699,0.03433380303878939
865,0.021654642955708993,0.011432321289541513,0.01774244593579585,0.041815161681310546,0.03133855337293427
866,0.017259754470103066,0.003128886297533361,0.0146676300677306,0.041943245867789594,0.02590686900759274
867,0.012278624226292398,-0.005231951709653462,0.008751389865869399,0.0406537862159913,0.021885678687059765
868,0.008935808475812254,-0.005676206634956798,0.0025409570074575883,0.03838293684774988,0.020705331357687033
869,0.005601360344702159,-0.0026304336720496006,-0.003964334814529979,0.03326483388209218,0.019979117980832555
870,0.0007478336448041609,-0.0009216017793980036,-0.011619393062146577,0.02464334183690962,0.016430518033556354
871,-0.005622607898815033,0.00029932102854990665,-0.020283639972315224,0.014087642956263498,0.00908557084531307
872,-0.012354767797120745,-0.0013621565394563036,-0.02850991785195839,0.004392654499445241,-0.0006798459308172719
873,-0.017830091441038913,-0.002744673627489065,-0.03431939322230633,-0.0020564198129031626,-0.010336919264765392
874,-0.02070797745989021,-0.0008038493365838398,-0.0358650647778399,-0.003773483526011134,-0.016405057348066115
875,-0.02132789783678761,0.0034475465742205068,-0.033223411146507356,-0.0019254497590051047,-0.01658908852454842
876,-0.02218114819242969,0.004627484817009954,-0.02924045942320124,-3.7258528845445085e-05,-0.013656530048098957
877,-0.023032924738125193,0.0036565728180848233,-0.025745616050415324,0.002046593430962855,-0.011555866328203792
878,-0.021067957058955013,0.0045682296708746805,-0.022669282455905077,0.006135688450633556,-0.009836052889883264
879,-0.015366619505557231,0.00896801232305003,-0.019529692226964036,0.011872283726468265,-0.005481928722426436
880,-0.0069879902761759575,0.018490093028303282,-0.015629357181756957,0.01837055594976798,0.0022994147925677463
881,0.0010439852332609122,0.029666945804693964,-0.011876648078245556,0.023495349556760917,0.01082440919417874
882,0.006518600788636133,0.039413665289234706,-0.00952781934997947,0.026091076400344467,0.017039461463897572
883,0.009460905378352568,0.04674282154071146,-0.009190482329916268,0.02647780117968175,0.018818616988643167
884,0.009838231491102798,0.044458577214985445,-0.008940661101546574,0.023968324879033397,0.015777430714244842
885,0.008342529817647182,0.03667848947900283,-0.010482434035805765,0.01912307992261645,0.010117031543956653
886,0.00633927315944296,0.02961826943029497,-0.013848752034135813,0.013678622370736434,0.005196005756893824
887,0.0043846176542070145,0.023689506730058853,-0.016972794752805956,0.008928383547267254,0.0028351883568522094
888,0.0026989910056544326,0.02137651080953345,-0.020221610431772945,0.006316532697989156,0.0022950345608349
889,0.0017502321876777078,0.02064902557835546,-0.021828292386619732,0.006421953787516783,0.002609223129761647
890,0.0018359081611057145,0.01932267239384902,-0.02187481351378774,0.008252826116469315,0.0029742481562279794
891,0.002856956843567671,0.017855901009573297,-0.021986575991546808,0.010552850785863413,0.003455934802126353
892,0.004643583876996158,0.020273048889956295,-0.022511093243520706,0.012892318829356342,0.006327511358594348
893,0.006860520103713872,0.02533013680348957,-0.021083408873203202,0.014991842488905815,0.011807394309035402
894,0.008170402380731231,0.028687440894468855,-0.018148832719919468,0.01587507750493062,0.015452499676728078
895,0.007676131467763965,0.02846264090610933,-0.015245507003538047,0.01571687454530097,0.0154462048019181
896,0.006608910947777702,0.02399397526622313,-0.010428992620520288,0.016413840463817924,0.01459854581598632
897,0.006811773737657908,0.01930866284893949,-0.00264251807639322,0.01911573509003757,0.014280653000900319
898,0.008924921462219699,0.018360231775019897,0.007386179900440417,0.023193048337792736,0.015096301883384788
899,0.012877863232531457,0.02247871308971177,0.018674020129685717,0.028126972325118023,0.018553669849628075
900,0.017865875293898815,0.028949370358433445,0.02174750155191803,0.03185153160448504,0.024171891991574015
901,0.02225466827619249,0.034492605914061,0.02038520947967852,0.03401224338746643,0.029271133544997642
902,0.02529705077932999,0.03702445048731067,0.017502244487521416,0.03441797348785039,0.032164870305646444
903,0.02575640805548639,0.035093832414202115,0.009135111580097534,0.030784419974240262,0.03201845704870387
904,0.023012577474603568,0.029940804693159722,0.0004428877177287506,0.023165387095265257,0.02901434042520004
905,0.02007804127161891,0.024405239123571253,-0.007480861837929327,0.014620223065021847,0.025823360499704406
906,0.019591695041913357,0.019923883465920614,-0.015416286464884785,0.007846070967127545,0.02425302697201623
907,0.020643477147108968,0.015536555084158049,-0.022744012537059138,0.0025900355800397698,0.023155593582888226
908,0.021400812408990923,0.010141015400093649,-0.025699308313561844,-0.0008695041549340972,0.020791887053158396
909,0.022470570731662892,0.004657145936292291,-0.02531354142537796,-0.0011096354963888884,0.01779881652177674
910,0.025713326136273508,0.001423713109153632,-0.022291374737974504,0.0028762656443567314,0.01669033737965957
911,0.029892321044796458,-0.0003213647394062444,-0.018367665606484795,0.008363947614009994,0.018097268967914016
912,0.03311111930472823,-0.0021774314291354755,-0.019137302105690566,0.011439400896645812,0.02134436439375272
913,0.03603963522555017,-0.003168753986773377,-0.022450161862201147,0.01255016225312244,0.026013916379857862
914,0.0379173289794342,-0.005113044858661897,-0.0268421165249843,0.011616510482155994,0.029502832955521786
915,0.037622251285652324,-0.010628859951174255,-0.033795875118891185,0.007749946036457047,0.02965034081479482
916,0.0367855313765128,-0.011045442830493546,-0.03364414765141842,0.006969744798235708,0.027154454470159933
917,0.03709210521167323,-0.008096822868994456,-0.028918885462930352,0.009000272593738395,0.0236026369234399
918,0.038399378674927334,-0.004187671395530725,-0.023071570632659834,0.012220653017983618,0.021267474940435953
919,0.039533271809653256,0.0016839651683410316,-0.014506964081816051,0.016469693822049845,0.0208933667348942
920,0.03992936005962387,0.003435937719925901,-0.008164020310069674,0.018902370304036683,0.02067030693368827
921,0.03994093900296115,0.003171264969825552,-0.002251771929030184,0.02069823590880226,0.019428017530869618
922,0.039509634010105085,0.004879707185063746,0.004677037582388036,0.022405323782532214,0.017849902646214274
923,0.037031612788159855,0.00718168400971062,0.00854681855668509,0.021919562419590533,0.015300600617199291
924,0.03267067602318527,0.005954649988375673,0.004159431119247183,0.01832007847599896,0.011068707311876598
925,0.02957299025189478,0.005021382847334309,-0.003108188977255324,0.016447817313395525,0.0068855976334829035
926,0.028765085789809453,0.006204426392694445,-0.009064802141224777,0.017776118725302787,0.003737415212191133
927,0.029707154065908542,0.008403141831414003,-0.013910811068011557,0.019951096012925003,0.0026591108113927526
928,0.032041045090331476,0.01417521141180683,-0.014591496277343064,0.0233196236791237,0.003909946407426793
929,0.03440586867036977,0.02066598963982641,-0.012581765225768735,0.027111860716701238,0.004135581144317896
930,0.036314334648202856,0.026103580171287628,-0.008397590275252848,0.030613250907584485,0.002171760225646953
931,0.037486559692529765,0.03126671381105119,-0.0008729639619939999,0.03322307810771216,0.0007222085957078208
932,0.036642867409618175,0.02831884063546546,0.00511230407344944,0.03094180966812568,0.0006248205712184971
933,0.03446779507021826,0.022105861684219234,0.009548664284415854,0.02645926690229735,0.00022527206514894347
934,0.03257148359570946,0.016909710745402828,0.014251057607290408,0.02350114179374404,-0.0024978980429908523
935,0.029674781910801393,0.008807830634109238,0.017725569704124516,0.019873598219359002,-0.008337903934588444
936,0.02519033869515432,0.0004433073828489314,0.020690779018443517,0.014673577286147755,-0.014916640318060179
937,0.02162436315273052,-0.007570800919054287,0.0233509250896535,0.009248667209479791,-0.01835879506295245
938,0.018948628247920242,-0.015245314941403089,0.024063699946760723,0.003689204804853198,-0.018009402935952473
939,0.01508953379087032,-0.022623372785492105,0.021214959524836725,-0.0031867377630166943,-0.01723675451162661
940,0.011097878970521002,-0.026437322011844323,0.017328159303504655,-0.009809275800449756,-0.017328177401971116
941,0.00816071386397579,-0.02844219144689957,0.013111891987147148,-0.015279864843515473,-0.017117278124307956
942,0.004610493370031374,-0.03169239173596046,0.007267833745728261,-0.020277957256422625,-0.017940345851581267
943,0.0007457076191974781,-0.03492014521131607,0.0012353681433325922,-0.02406615884519469,-0.019804773065518567
944,0.00013768679206155015,-0.03723063846409684,-0.0026733458970784356,-0.02476330637529862,-0.01920413089016304
945,0.004284292646984635,-0.03537752357105468,-0.0028957469149123753,-0.021524997098993096,-0.014647370684495556
946,0.012196098362603837,-0.02839862408946938,0.0006017524702537827,-0.01454343215932553,-0.0069508714381080194
947,0.02179143384183196,-0.019451192865202326,0.007099703807131647,-0.004991391768227448,0.0024325526932507456
948,0.029964705197639007,-0.010020437984392692,0.014391731743534671,0.004889182310376388,0.011186576383113211
949,0.03442362875584966,-0.003352701818800017,0.019675564321833525,0.01298489375004203,0.017632717520086535
950,0.0348939387049362,-0.0006644368276398182,0.021722817500351252,0.017529623445777284,0.021633618122310218
951,0.03330689351960716,0.0006988431465094223,0.02200331855615441,0.018016884094983983,0.02488308565810912
952,0.031074031451076047,0.0007826781841590872,0.021329267907960643,0.015064646530757711,0.02719197489003719
953,0.02709255183674396,-0.001738325081237265,0.017365582759161585,0.008965734345310594,0.025969954356457235
954,0.02078393962459289,-0.006264928740031653,0.010317822550142823,0.0004012077993975352,0.021916585791273327
955,0.014178352596675952,-0.010753247542064073,0.004100191141476782,-0.007993720532024672,0.016659145482254202
956,0.008822771041112724,-0.015384200845101625,4.070787739981576e-06,-0.014567665333189561,0.009914376812277484
957,0.004418685156981272,-0.019053809552736212,-0.0029892683097023764,-0.020347471177105073,0.0025182241524861096
958,0.00031194690093145944,-0.021965089037353776,-0.005020375417827813,-0.026380112737803413,-0.004981397762946289
959,-0.004223438572024138,-0.026157442624442362,-0.0065590301329763795,-0.032901781313223556,-0.012277249928701679
960,-0.00780526885480321,-0.027132481660377846,-0.005994016161967442,-0.03556111407203815,-0.015201511190060182
961,-0.009020482245204518,-0.025670830102875363,-0.0012448014266247776,-0.036695178999501796,-0.013932121073119669
962,-0.007128219952650854,-0.019759994614401186,0.008160487124913676,-0.03314343284386488,-0.009761171717974203
963,-0.003924731541242535,-0.012019991749591823,0.018298469492443233,-0.02718843787003068,-0.005647837922738204
964,-0.0007077441081168206,-0.004689011549883925,0.02615739107100227,-0.020351418239425375,-0.0021694594513087676
965,0.0006372609062158311,-9.571528344817867e-05,0.030373747809585495,-0.014254816233861647,1.2009194915066517e-05
966,-0.0010311471745105794,0.0010271707013265754,0.030593061840397288,-0.011077395420380507,0.0004661810613179814
967,-0.0048884177608553335,-0.00025852784577646046,0.027446526338907304,-0.011550505831462507,-0.001008510524623218
968,-0.00998649045574501,-0.0036850453879586674,0.022100862165607988,-0.014633353569134101,-0.004999946822332922
969,-0.014369236647570298,-0.008075704352016566,0.01750136848841756,-0.01761198703839567,-0.010447275466591651
970,-0.017807193647708497,-0.011845260590131142,0.015067848656914282,-0.020485449214971706,-0.015089864509845069
971,-0.02199794045263324,-0.014482696325306136,0.013814692048114112,-0.02511521519257417,-0.017322759624131136
972,-0.02583649885714654,-0.01605176037886832,0.01434241634927899,-0.02948263989383992,-0.01721574149423704
973,-0.02721265595773332,-0.016606367157205478,0.017134242945381545,-0.0309817591549075,-0.015287564544264024
974,-0.026485511613199394,-0.016904172798131178,0.020238474486973124,-0.03046433868190327,-0.012677470681454875
975,-0.025684048904394238,-0.018623381734126403,0.021466410705932058,-0.029792767067395007,-0.011638664068369498
976,-0.025506853921172495,-0.02146154273999101,0.02143158111808577,-0.02860283979205273,-0.012081197437128778
977,-0.025044670954425488,-0.02348693165865261,0.02186023709815286,-0.025816107395470512,-0.012014069684969039
978,-0.024073370624698776,-0.023923604446829057,0.022629480150368732,-0.02207442819124441,-0.010407752026795286
979,-0.023243241642311833,-0.023409888992019533,0.022564679299763083,-0.01863254624077445,-0.007891570519784298
980,-0.023474803871400808,-0.023394135321857877,0.020118643437365795,-0.01687647168227507,-0.006789892185304899
981,-0.024116222572652862,-0.02376184136095138,0.015522690784776754,-0.016627010694132204,-0.007986096478905368
982,-0.022591270811959822,-0.0220412382416522,0.012022273807354844,-0.015264113512093662,-0.008903189856477499
983,-0.019035903670667594,-0.017582030034333368,0.011131873342437083,-0.012774709111700889,-0.007342864119403125
984,-0.01695044942475784,-0.012982472694025872,0.010329511181428873,-0.012428592490290713,-0.00476477147948943
985,-0.01816075936303899,-0.010779440527653361,0.006734091812519916,-0.015310580701544363,-0.004204482118334083
986,-0.021257612163382348,-0.011225838198829814,0.00013487515105823118,-0.019593974644921897,-0.006449027890063098
987,-0.0238277141893171,-0.012784790545921059,-0.007484662182906511,-0.023165976199681883,-0.0097786848752922
988,-0.02440275526457069,-0.014263598136110379,-0.014059325364615032,-0.024614846629882173,-0.012724973552407707
989,-0.023267437389344923,-0.015452902878414122,-0.018443055743883607,-0.023914485839282063,-0.014737956468569234
990,-0.021133200978763235,-0.01600275104437846,-0.02004885618592576,-0.02191976940522932,-0.015183629166719375
991,-0.01812025997237093,-0.01566183508306427,-0.01915729497749508,-0.019380719580310037,-0.01393837764919576
992,-0.014700167141693516,-0.014656860324725306,-0.016769392268317942,-0.016936580947253657,-0.011768446422453348
993,-0.012145262356160234,-0.013723203539123057,-0.01408218906011817,-0.015134630338097,-0.009771837373883666
994,-0.010815752111229274,-0.012962919831539662,-0.011713882943993139,-0.013616870812939752,-0.008052618394235258
995,-0.009548607495105358,-0.011332231173969797,-0.008940720038095776,-0.011259839964129647,-0.005836860514461122
996,-0.007844111186389939,-0.008920652592414317,-0.005380291832296408,-0.00820823986465685,-0.0035695717300551844
997,-0.006401445451759414,-0.00687535564439462,-0.002051388137345128,-0.005753445839129845,-0.0024460268348279034
998,-0.005669965612548938,-0.005558362776013542,0.00015034295547062718,-0.00440623844085172,-0.0024335759502576693
999,-0.0050780750911138305,-0.004490120604399466,0.0017421664568195996,-0.0034559137681781076,-0.0022795574076412205
