,AF3,AF4,Fp1,AF7,AF8
0,0.014899098888563342,0.016777238976583515,-0.010400284997024018,-0.02405721341788912,-0.03897417055276579
1,0.013870519091426588,0.015359548085063422,-0.011431691091318747,-0.027021410866685375,-0.04034609170027838
2,0.013493345945638321,0.012922827461676835,-0.0139383163896797,-0.031087327448227023,-0.04232488626940968
3,0.013826456568474607,0.011172733070183629,-0.01679822423286321,-0.034282937823652194,-0.04479297672964744
4,0.013096236270210058,0.00946077960037042,-0.02020321653133904,-0.03592822266993531,-0.04627460258030545
5,0.010879281253381032,0.007176820623637708,-0.023670853260779633,-0.037264144700665316,-0.04747241690430502
6,0.009019696402220586,0.005437622108186034,-0.025468018095663326,-0.03659998284052956,-0.04697788339638351
7,0.008631566522523424,0.005020680452133898,-0.02491657682656636,-0.03233400068727415,-0.04326580559280823
8,0.008868611235541063,0.005456872157720226,-0.023166736129647987,-0.02729211348832072,-0.03840747083508597
9,0.008831110791875641,0.006212328261279252,-0.021576552560005385,-0.023205550937292263,-0.032245859008903574
10,0.008236935163911151,0.006271259567572552,-0.021237256643451437,-0.020577427140458935,-0.025820903970200027
11,0.007631974520471718,0.004437520767860911,-0.022328621836140213,-0.019006447101125278,-0.021308753315284194
12,0.007950569874352454,0.0011212708486861376,-0.02427911441569257,-0.01771197756549541,-0.018642483272176207
13,0.010274356416455799,-0.0016968157662535783,-0.026061955812192845,-0.015003888156223026,-0.014927769446821578
14,0.014575061860717905,-0.003588792549689757,-0.02686650719460559,-0.010586339005643547,-0.009629920976576263
15,0.0191547918229587,-0.006029544578581541,-0.027188565101298332,-0.005768968976696422,-0.004065521891251435
16,0.02222007300706241,-0.009474472446519132,-0.028323237667592004,-0.0013262215476687901,0.001936741348764424
17,0.02300400470813585,-0.01275057400089353,-0.03096838661060207,0.001682837117530859,0.0077218021576702725
18,0.02323569491582258,-0.013699962624814859,-0.0335051007478694,0.0046893456933050715,0.014265430014927142
19,0.023738763868396552,-0.012428060998266774,-0.03456428317677255,0.0093855924765539,0.02230917832778024
20,0.022506654195344162,-0.011947794123238195,-0.0355546491030591,0.009192506314807551,0.022195820780314814
21,0.019374971967832604,-0.013900373032171178,-0.03752799743100511,0.005952569768183821,0.014821750255018945
22,0.015983649858238656,-0.017648710347068233,-0.03968971024776008,0.0032576284175875212,0.005011905552719313
23,0.013457586058723516,-0.021372282743221796,-0.0406003256508485,0.0009015136281150363,-0.005339324085750173
24,0.011964692605830335,-0.02338828908251496,-0.039488492098980296,0.0011640591981544335,-0.012304332103871298
25,0.011030238171653016,-0.022445776279430393,-0.036280115082849854,0.001894290217289838,-0.018386157486509902
26,0.011706492525750522,-0.016900954436083828,-0.029998061819386135,0.0025121968189596227,-0.023160836727837208
27,0.014338270407623166,-0.00826250078195163,-0.021259762108422224,0.003926020472742906,-0.02390267268216959
28,0.01684910427618752,-0.0008407406988730335,-0.013401680223866333,0.006036948042215572,-0.01954366308336419
29,0.018480743798637796,0.004151937602444331,-0.008334459138260863,0.0065754334239171725,-0.013864726074995117
30,0.01925499575920968,0.0072035618530354685,-0.006615893371292122,0.00437896954164069,-0.01052723214973777
31,0.01816533776505377,0.0074213857971566965,-0.009120715394104452,-0.0008864633433372837,-0.011515566702968258
32,0.015537188606778753,0.0050661576218268495,-0.014668215748396857,-0.009346601541981369,-0.017881230696677925
33,0.013340747895103174,0.002681711799960384,-0.01960627107759502,-0.017169263256892168,-0.02503320595889092
34,0.013113222849416557,0.002716753082643155,-0.02137948188941274,-0.02143724751184985,-0.029488656666868764
35,0.01485220380822861,0.005554368857942277,-0.02042037019206761,-0.02276133584431194,-0.03163482377550051
36,0.01696553579356414,0.00956536972559074,-0.018648728224321297,-0.018085118024415977,-0.026710749244875823
37,0.01840505210587755,0.012786649197290428,-0.016997099409179147,-0.011281889541232033,-0.019856986479377236
38,0.020057879914236874,0.014604584646087758,-0.014706885158940537,-0.004205640547528173,-0.014446719257304732
39,0.022458909918079844,0.015107457992074264,-0.011451355044868479,0.004077126412010956,-0.00805994376046793
40,0.024437957177349465,0.01394353874735853,-0.008256150982749118,0.009356107465373494,-0.00385270319512349
41,0.024553703581500996,0.011078737287680876,-0.006192745764595443,0.012596342484311579,-0.0014712388577715076
42,0.022898234991378053,0.007128992022043449,-0.005569703954759709,0.015908675503171953,-0.0002496347813396764
43,0.021087856538036145,0.0026858875459269144,-0.005974594199245321,0.018964228501580166,-9.986729590036614e-05
44,0.02102205314006677,-0.0008101126273661925,-0.006001789248005582,0.019959947701467133,-0.0006594809823627473
45,0.023576024369619954,-0.0013742639569983056,-0.0037874576881602355,0.021433923052588733,0.0029770994084171764
46,0.027739201759741487,0.0008630339912490258,0.001050710925721905,0.024864078952950907,0.011413652086136634
47,0.031872901223290014,0.00387939361496351,0.007351479988667015,0.02892880000608517,0.020560464085890816
48,0.03489776120031708,0.0059382044075790615,0.01352730089541561,0.03396262662156302,0.03034211634288053
49,0.036467238742599876,0.006629690948822876,0.01792615235027215,0.038369479347647104,0.039118403232238884
50,0.0370843023717116,0.007147557624025416,0.019680192231253647,0.041299166549366426,0.045981032098717144
51,0.037416565399449354,0.009092489646609083,0.01938521328814104,0.043493842666736164,0.052430536025207315
52,0.03635467021434162,0.011493358786432114,0.01737459135049109,0.042320214043547716,0.05164945991105017
53,0.032589848142344696,0.01235830852653974,0.013887763444544777,0.03776676546601671,0.046691950400390425
54,0.028595239636435538,0.013467258080726567,0.0112709933289766,0.0333315033377511,0.04391143783469859
55,0.027531234160537495,0.017792813144333154,0.011576850306435993,0.03236200028047811,0.04361120816397675
56,0.028638081441955496,0.024165217126745703,0.013663534284905462,0.034976402289524894,0.04603175471388949
57,0.029965355795863513,0.02918551310456988,0.015654923380869493,0.03744765779050736,0.046094748537857666
58,0.031445221903505134,0.030877993523693453,0.01745712672572947,0.03878768685360319,0.041265464014799656
59,0.03358103577175522,0.028962293544801277,0.019589194072726763,0.04011385904681877,0.032712328271906434
60,0.035635248050119084,0.024879613366500453,0.021403678732333047,0.04149569416132173,0.02447036799194278
61,0.035464548761328374,0.019803027643062084,0.02070999768507314,0.040110263788134176,0.016365749224963283
62,0.032285075786260733,0.013617385521321156,0.0168623470621757,0.0353505590106724,0.00855207984987324
63,0.029013757956056596,0.008059382052205306,0.013545301005277701,0.03132980089178757,0.003320201092117337
64,0.029023088015439916,0.005436205481548881,0.01472894361493172,0.031123975443147926,-0.002047424062545994
65,0.03201660227837862,0.005076264594392656,0.019791994563854033,0.03446398086999663,-0.008081104675885386
66,0.03619131292833178,0.00639690381289132,0.026437290202883827,0.0395362073839677,-0.014977937820579223
67,0.040048795151934616,0.009184993462938176,0.033284390031484236,0.044410875782329114,-0.019537913762615256
68,0.0409222203956864,0.010430445131971269,0.03813154623479585,0.04638054104243477,-0.014926875426978287
69,0.038109647746752115,0.008664712228828864,0.039783148565348786,0.04492464619938077,-0.008366371102092394
70,0.034362057617253444,0.006237234795592557,0.03904874289349189,0.04202198293523242,-0.005230832251130161
71,0.03081710408950928,0.004198308813087398,0.03672102559028395,0.03838368112985025,-0.004135315257843217
72,0.025157443153365603,0.0009195040180334081,0.03275855581471305,0.03333107379984909,-0.00805039558558178
73,0.01644899353037144,-0.004033436550605647,0.02718862804681132,0.027246501104966497,-0.012350670709470503
74,0.0075613447451114155,-0.008684919246728704,0.02105266880952554,0.02219556286547324,-0.011866789922714359
75,0.0017023534411000653,-0.010462755354690854,0.015673816656869025,0.02013207510343542,-0.007308910341237374
76,-0.00014173385062832375,-0.008301977308564279,0.012686439512107286,0.02190784577472747,-0.0033037672975121737
77,0.00012116213225019661,-0.004735618898347802,0.012488971315893611,0.026315170200010816,-0.00024507754538206786
78,-0.000881606277257222,-0.003006919586984103,0.012712644488106167,0.03052752363818984,0.00151533528997098
79,-0.00435011601225996,-0.003307273043587232,0.010984627149688467,0.03286657180835926,0.0017327517389086082
80,-0.008360825283087481,-0.003789367333979475,0.007555837311751254,0.03410797574154134,0.003906078577131215
81,-0.010505004841094604,-0.0025115955318466194,0.004170563139650509,0.03568719630353198,0.0076805662750975305
82,-0.010760701172025275,0.0003824087132241396,0.0016309603572893308,0.037323546086189784,0.010876689086842998
83,-0.010537132477099372,0.0031679312189056806,0.0002526273114414923,0.037912332260958505,0.012921453294173766
84,-0.010335274350002307,0.004875019992262809,7.011526817795673e-05,0.03641460580745699,0.012686571890129832
85,-0.009992629973827109,0.004732119838989938,-7.564198121129535e-05,0.031992836584760403,0.00988896229497496
86,-0.00936377918920474,0.0025121991399475407,-0.0011085135148420945,0.025471687200376063,0.004240448680770972
87,-0.00820784119757693,6.759737689660383e-05,-0.002527289344025977,0.019044756293945433,-0.0026139485857968993
88,-0.006584700160538773,-0.0012202311593255144,-0.003571371710276873,0.0142535452190498,-0.008033936269389034
89,-0.005073919088177742,-0.0017450828275419464,-0.004388600042338246,0.011290601513362994,-0.01167460889750312
90,-0.0035331760176523564,-0.00050540470522853,-0.004715472803881623,0.01029040276627211,-0.01277302545278122
91,-0.002142627725884718,0.003080501604183637,-0.004275797327112497,0.010779436714303597,-0.01122291687643699
92,-0.002112609644765348,0.0063364193649770376,-0.0041674207439813165,0.011110473067183133,-0.009122044866326558
93,-0.0031338329746538047,0.006862189022638637,-0.004709165861409295,0.011022944352834976,-0.00876760222577469
94,-0.004142113206141176,0.005117026436322894,-0.005110334348563332,0.011456370339471335,-0.009694906825381325
95,-0.005525563641678342,0.003193997004266646,-0.0049503911115978076,0.01203137447654206,-0.00989137717541286
96,-0.008347068634961983,0.0027999168442579834,-0.0043411094160571385,0.011399462575514573,-0.007855068585713514
97,-0.011937136039849918,0.004384466158853795,-0.0034018714312670567,0.010170618558174378,-0.0033163315188699865
98,-0.015159797417930554,0.006973230006512183,-0.0025036158382511046,0.009707014478610608,0.0011672916398988188
99,-0.01909819868372045,0.008891973943878624,-0.002834243298639491,0.008760357676372805,0.003540285920412547
100,-0.023255102021507382,0.011053509381796599,-0.0036782814214015667,0.007405632486406407,0.005517869756549407
101,-0.025575472318496377,0.012532753536511185,-0.0035026960569854255,0.007425768126208875,0.00899681629122622
102,-0.02617108014529192,0.011237914739285286,-0.0032193966977708743,0.008186835226135517,0.011815425253021025
103,-0.025577075207539886,0.008513796719320222,-0.003178568647546445,0.009232033449674803,0.012376316947298542
104,-0.024026281167448753,0.006468743959065148,-0.00204698042876205,0.011333772145982381,0.011571498574882535
105,-0.02176660900179847,0.006440805353045176,0.0003781277370534188,0.014109102715554494,0.009757773922594595
106,-0.019005825846121958,0.007587747129978263,0.0028068926273613452,0.016343276835418682,0.006675548049204159
107,-0.01704277105696328,0.007760179341919189,0.0038084271349567086,0.01699970618564063,0.00203173036514968
108,-0.017151525594896074,0.005745139989124564,0.002703339055144518,0.016121128797973075,-0.0033084789771822324
109,-0.01874496311487001,0.0032494651463577866,0.00015482569182605465,0.015086324397277119,-0.006993191835464779
110,-0.021357941782427732,0.0009442891989926549,-0.0031203701832288283,0.01446529527502604,-0.007149578081247748
111,-0.02520624124038633,-0.002321208043198753,-0.006831534528757928,0.013648300017795116,-0.004749632272004547
112,-0.028822301531239512,-0.005264268060361679,-0.009438866717377316,0.013158880664716523,-0.0013043666288666972
113,-0.030307494330421535,-0.0063645005549954545,-0.009026977222407015,0.01459646343365447,0.0031425782449343857
114,-0.030067313038120665,-0.006159854704231611,-0.006123553433868339,0.017528905955211622,0.007689010685661906
115,-0.030268516024722067,-0.006096065289181345,-0.003335576212824943,0.01943017689045824,0.009674686578574447
116,-0.03169949047994927,-0.0071907693661800946,-0.0018252265843116096,0.019546546020860044,0.0071464410124502725
117,-0.03416262063124691,-0.007970881476925729,-0.001266538957467699,0.018685852025846182,0.002301350551696025
118,-0.037500764172135805,-0.008676647993545854,-0.002223432620120928,0.01647095956629809,-0.0029553221983041303
119,-0.0400952773529505,-0.009367892885236172,-0.004049731632932412,0.01338761469076028,-0.007277581347706357
120,-0.0402150372723082,-0.008190516501603528,-0.0049058121908746736,0.010856335486849696,-0.008462035720826717
121,-0.03915220686138928,-0.0073645463987060105,-0.005821855739122739,0.008335411208907772,-0.007821343464694368
122,-0.038648159780877704,-0.009069709982537574,-0.008488055836629052,0.005124720436075828,-0.006991539235435291
123,-0.039182464286114015,-0.012219458112693586,-0.012355987498689897,0.0007526080570155098,-0.006045024100959566
124,-0.041305088766214526,-0.014394827387834045,-0.015930993143241243,-0.005182198588749148,-0.005666959553609542
125,-0.04393695571366885,-0.014539199902184526,-0.017383387244407213,-0.010611078076198073,-0.00616929469296179
126,-0.04478917532805487,-0.011923558034315225,-0.01557691678254487,-0.012718728715252214,-0.005901939256449727
127,-0.043668712470214296,-0.007108737418935826,-0.012179473008362954,-0.011981965777205261,-0.004271180382731437
128,-0.04559147274474517,-0.0031299022890687277,-0.010096836908672881,-0.01101717604880348,-0.00367591344348401
129,-0.044673441142122926,-0.00011708500877982475,-0.008871455346031863,-0.009871035408532895,-0.003945728215819483
130,-0.04185784740136634,0.003427032366638885,-0.006108136663901211,-0.006665424680815238,-0.004610966037824149
131,-0.037963936943321466,0.0061193205036447675,-0.0025767978789530462,-0.0025824181182928538,-0.006565705985410479
132,-0.033108635831827195,0.008710462902752127,0.0006078125712284694,0.0010864280062732404,-0.006326994851792311
133,-0.02585227527647414,0.0117400774479997,0.004574514019713362,0.00616997310160987,-0.0018493315067011616
134,-0.018688854404890765,0.01322066733308952,0.00742172538556893,0.011165633700615551,0.00498861611762563
135,-0.015463355839128383,0.011258085550105646,0.005793997885891825,0.012356766007713453,0.01063135502608273
136,-0.015375513978489547,0.00655278622930613,0.0011435156389167963,0.010574593056047087,0.012534917216843354
137,-0.014679139736657631,0.0031426176522817983,-0.0022291552844373686,0.00907503603741419,0.014551179031221467
138,-0.012911502140811371,0.0023099215413383335,-0.003098528203795825,0.008108346526602724,0.019126630057019898
139,-0.012056155512729034,0.0013868869187941616,-0.003361308411179799,0.005755237643948983,0.023317107986692797
140,-0.012263467146771066,-0.0020968897796629204,-0.004332508506619476,0.002128811277287162,0.023625906625457944
141,-0.012697361699188333,-0.007532429810436765,-0.006742532834232407,-0.0015885994269139226,0.020573023916154728
142,-0.014206178668386766,-0.014460270334796334,-0.011852889760819973,-0.005864797685337965,0.014806122981581711
143,-0.016539454725657286,-0.02097589954048272,-0.019131317046211318,-0.010385864979985907,0.008315346241463302
144,-0.017087118928972706,-0.022203572786544633,-0.025499422679859673,-0.012905349967389785,0.005925450526885629
145,-0.01616802465144731,-0.01748066125580372,-0.02892952204715443,-0.01289874799367723,0.007771630036395746
146,-0.01641947693424127,-0.0103674169662279,-0.03021466444520691,-0.01180985244677021,0.01032721378814164
147,-0.018317453853515832,-0.002394178477449911,-0.030781820622047033,-0.010731171785787794,0.013242154259339842
148,-0.020937484012822753,0.0015517115859294453,-0.03116465158961605,-0.010786579253505756,0.01402876865496404
149,-0.023858792189047868,0.0035205919411813256,-0.0323813109655664,-0.013773304260858267,0.012895592132091394
150,-0.02665124788659563,0.0043248098067097795,-0.03417176798881513,-0.019023319431281775,0.0075667549202062395
151,-0.02768102700882896,0.00275996679521174,-0.03412172541174698,-0.023484649252563213,-0.0031783699350277582
152,-0.025991766400346873,0.003653912481447142,-0.03163222364930395,-0.0261770067980551,-0.013339111595666723
153,-0.022655299921985974,0.006531153920489069,-0.027875207378582657,-0.027677246851855616,-0.020728335012220322
154,-0.018625718382240444,0.009393876836632823,-0.023256340212248636,-0.02767411981590225,-0.02532885265399512
155,-0.013579981836292073,0.01296459013169738,-0.0174648304559141,-0.025244169503492304,-0.0265710657154964
156,-0.007597967713947826,0.01938896014326484,-0.010914134976640937,-0.020642240835878643,-0.024145691302115663
157,-0.0033184255862133537,0.02343919785264288,-0.0051951701040496056,-0.015979998629302813,-0.02268741314384935
158,-0.0021633589458720415,0.021981786289665354,-0.0012757158472632487,-0.013026442628284906,-0.021966934978502054
159,-0.00341521660848876,0.01735992299271393,0.0005557548474768066,-0.012589704893784477,-0.018333584546698728
160,-0.00589379169829565,0.009305061808220818,0.0010555206726019137,-0.013712904448365702,-0.015213321842195343
161,-0.007181996388121592,0.0005293379799716977,0.002776126354802774,-0.01300207929490749,-0.014970077728143048
162,-0.0074600448647088174,-0.007045421661979338,0.0056826087049860335,-0.010315257675034927,-0.01759518604655496
163,-0.008754585881019123,-0.01357561438778136,0.007274447256172839,-0.008883841880347043,-0.022290489365720763
164,-0.009906692980616073,-0.016648804915935112,0.008028197790246341,-0.008642679350448192,-0.02461137964127856
165,-0.00966577958630694,-0.018060632632658034,0.008926262752944001,-0.008765446239069783,-0.026265130801639364
166,-0.009669321053083404,-0.02050907447350056,0.008893816615600755,-0.010320688476325168,-0.029746870127580212
167,-0.009479257903419492,-0.021880631339833558,0.009202156983102946,-0.011585420659296077,-0.03038471604004271
168,-0.006208505074909601,-0.01946810129120425,0.012763750215923297,-0.009321085592898825,-0.024323427035131098
169,-9.797960784999154e-05,-0.01354548618483713,0.018952494667220057,-0.0037954778605342313,-0.01397912123525991
170,0.006410431901844047,-0.007791674128680823,0.024531091190445335,0.002346599699822578,-0.006009439823582997
171,0.01234164011488403,-0.005431414706985942,0.027434726432248695,0.007257337346905593,-0.0033844281007220462
172,0.016807138151723296,-0.007954623670704531,0.02691989072965445,0.009885897016045692,-0.00538823144571781
173,0.018082544602519512,-0.014349690768242645,0.02309565929107458,0.009415242722781658,-0.0098830570984855
174,0.01640673053485199,-0.02214667036982398,0.01835281786325849,0.0065101712536839,-0.015156012190904067
175,0.014109632430636307,-0.028276412513472772,0.01611371118681353,0.003431969151529118,-0.019368415021655084
176,0.012780200373603157,-0.02999131167311359,0.017749892168780187,0.00218801445831518,-0.020852810002840044
177,0.011865684449881864,-0.02853665643771946,0.021753243860228956,0.0027426948739633777,-0.021391438553931705
178,0.009680421887015223,-0.028501408760026,0.024917041767520333,0.003186382268074248,-0.023477324204826174
179,0.005530354572618427,-0.032587772245927064,0.025688005453443477,0.00219002459539022,-0.0270664094252859
180,-0.00026354697412493705,-0.03297238535319232,0.024884554064857074,-0.0002659493684365094,-0.02846920388095987
181,-0.007073471998619413,-0.03263021858112086,0.023259670197016087,-0.0036353369698187295,-0.029214268571122203
182,-0.012726312583860346,-0.033905445615572315,0.021856972453845557,-0.00586464769738033,-0.030217319982119323
183,-0.0154514745240964,-0.03343774898847785,0.021358111643195253,-0.005310697934163408,-0.02960536368624438
184,-0.016604835668402984,-0.0346055267811,0.020615833414011006,-0.003211857364442593,-0.02871988510831165
185,-0.018270433829192686,-0.0345721160272465,0.018144831983515797,-0.0017871165708013607,-0.026740106509130404
186,-0.021132342545523618,-0.031177511431210544,0.013692306450326304,-0.001969042355673521,-0.022406117929816966
187,-0.02413503636699017,-0.027122234414801053,0.00894995643740069,-0.002632077277937348,-0.01650142293148734
188,-0.025098283545529145,-0.02658175624890348,0.006305182129430273,-0.001729505236290711,-0.011498379974678459
189,-0.024032732632611596,-0.02771170800947869,0.006233199921989268,0.0008764261667182821,-0.008033740188668696
190,-0.023209046417096972,-0.02946644864837865,0.006799823734760456,0.0036481227709334765,-0.006039008337919925
191,-0.023392471624332504,-0.033367681214355585,0.005867523311481798,0.005813210056324167,-0.005593508480087838
192,-0.024330404910973765,-0.03420368088657244,0.002672293677752291,0.006000720197915334,-0.004829955763192766
193,-0.024959444500362277,-0.03815354562839401,-0.0013878898445407952,0.0034586789861888933,-0.0032207434918293653
194,-0.023834614406044435,-0.03988293142374783,-0.004309433313105241,-7.532393348232033e-05,0.0013645702510658249
195,-0.021766974271861448,-0.038381521494634446,-0.006142199301697528,-0.0034782793017213423,0.006962527737562897
196,-0.019945812291885776,-0.03843065330628507,-0.007521302297680281,-0.0061131838660289164,0.006927725927057777
197,-0.017353982922705777,-0.037158630775687276,-0.007523706117818074,-0.0055848175144137336,0.004581803999519372
198,-0.013455027694319452,-0.032250670795616894,-0.005585238272122328,-0.0014353905795514014,0.004614947684069461
199,-0.010020037084176384,-0.02662495853527889,-0.0034419076559441372,0.0028138499586485228,0.0067033473481048645
200,-0.007463216561834582,-0.019767489961709735,-0.002145104173669766,0.005759247600596871,0.011698977445385006
201,-0.005314210558799724,-0.013851975974390238,-0.0009920678937260818,0.008028050001377983,0.015947546489473583
202,-0.00501682925159041,-0.012068089776751239,-0.00036515304252203554,0.007663442617678767,0.015483460545931936
203,-0.007090997616037296,-0.014191851037764498,-0.0015020628087438603,0.0031728555054205704,0.0104389292975755
204,-0.008449998795638073,-0.015656688298818097,-0.003906047085333178,-0.002458555595031666,0.005426859621665741
205,-0.00522928446651599,-0.01499596926484838,-0.005630674835468248,-0.0048166331561443195,0.002966053899885439
206,0.0014012788091662212,-0.013198562876075447,-0.006303606127053149,-0.004074092496838254,0.0027625776163604137
207,0.007015469221234241,-0.010953090973057057,-0.006089283651823388,-0.0029370044861979647,0.0030737385191504265
208,0.008960256738709151,-0.010262600560897627,-0.00547196902409107,-0.0030399309863335497,0.0004764276024823689
209,0.0067821774845615085,-0.010457826838370585,-0.006362062729472129,-0.005348545481089006,-0.005068727927954955
210,0.0020590297755470654,-0.008916772926190083,-0.008736450137591672,-0.009319548753294467,-0.009755806873340607
211,-0.0028156359492393,-0.004735437446572329,-0.010221485055189286,-0.012953930406814642,-0.009654168816376303
212,-0.0054563213068563035,0.0014519519013391408,-0.009067265225397808,-0.013373129364338258,-0.006751558625693595
213,-0.005556001324675401,0.0066947786555538544,-0.0060938348067409,-0.010592397697240689,-0.005204767005790157
214,-0.004575028242727426,0.010342774561365307,-0.0025319530304543465,-0.008385065121508564,-0.005404364927849599
215,-0.002920001768198573,0.014231232938363763,0.0016419825063777693,-0.008700219889671054,-0.004924771392615941
216,-0.0007643480839555386,0.017900886275231554,0.006057484755925303,-0.010177729379893835,-0.0020298943610374343
217,0.0013585943768819751,0.02127661737161678,0.010385626055181481,-0.010563668498544895,0.0008532355494862134
218,0.003652280835724189,0.02512840711375575,0.015354601388895306,-0.008535912159575427,0.0009309233233723714
219,0.00628517873752693,0.02921318796710242,0.0207517436769338,-0.005290451553105727,-0.0019842884699710454
220,0.008023372937025656,0.030956430582124276,0.023979650265755076,-0.003698647068474722,-0.007100941229822787
221,0.007988390490806546,0.029831616566176535,0.023582089986053316,-0.0047634234612871805,-0.013721398357314542
222,0.0064659481411745694,0.027389791213030444,0.0209290837372043,-0.006985934578160942,-0.019463658752364287
223,0.0040428053465322925,0.024792725970921997,0.017954026255870007,-0.008543472322911881,-0.02293681795812305
224,0.0021189088082472617,0.02413355960003213,0.016378767992227664,-0.008341748091611978,-0.025375919123405855
225,0.0014684022338392814,0.026374741319638063,0.016324534451724004,-0.006920228565655415,-0.02715457286966037
226,0.0011233002566987853,0.030496868461061113,0.015797602837893266,-0.0058822750266388675,-0.0290691505996977
227,5.83003321310448e-05,0.03408444204264139,0.013524622827134354,-0.005845979206930278,-0.03272325924588859
228,-0.0025364384700300247,0.03431166560305478,0.009406539291976776,-0.007467835110889215,-0.03153389543329396
229,-0.006577932451288532,0.03270801790081708,0.004336744991235123,-0.011378603251515594,-0.026816048890999696
230,-0.009877820164937677,0.03184321265993198,0.0008453822167112419,-0.015447273517613063,-0.020673309853105656
231,-0.011557077126606627,0.03148624477186072,-0.000786286444118798,-0.017898050023991065,-0.012017871022017425
232,-0.012616437854341148,0.031266025215843735,-0.002423200667052859,-0.01908044305157254,-0.005996861154936021
233,-0.011701793195427428,0.031474711016190725,-0.0036501374292987744,-0.01802038411171496,-0.003066405985513226
234,-0.008580161848026232,0.031437597689281345,-0.004543336304437471,-0.015592124369327338,-0.002958700603673869
235,-0.006016074382732445,0.030378200092234228,-0.00632944277993262,-0.014487726376444156,-0.005376275328869222
236,-0.004637774898379988,0.030744501650845146,-0.00824822429831548,-0.01432537606654565,-0.00907469019716657
237,-0.004118298235884453,0.03282571097708037,-0.009941354918750029,-0.014581812997978201,-0.009259097513155243
238,-0.005296233043442461,0.0344666122263805,-0.012386140703567196,-0.016078456685850798,-0.005515740280353318
239,-0.008799325733229592,0.03482066787918895,-0.015593860282904779,-0.0189779464092488,-0.0009567922338309356
240,-0.014949496756466158,0.033055562485133416,-0.019200081805654683,-0.02333553446521121,0.004431771614463788
241,-0.022970340973598673,0.029152462721794177,-0.02331503123027291,-0.028173754790607818,0.008183686119394414
242,-0.030242075184385243,0.02406687280724706,-0.027289526583148233,-0.0309899181626148,0.009979755173801192
243,-0.03433198525519037,0.019468524127640958,-0.02983381844408007,-0.03040808116794529,0.012331953522504682
244,-0.03613568403278335,0.016655387299327976,-0.03140758905247047,-0.02898260654753191,0.008809767781022831
245,-0.03780184897850728,0.015823476934876183,-0.03305240721190074,-0.03002174785571615,0.003409982507639984
246,-0.03964185917432602,0.015572316518902929,-0.034618039347598585,-0.033309794300680304,-0.00213226363961614
247,-0.04113262484664678,0.01459616829408416,-0.03616015234904834,-0.03701510669158802,-0.01152957928025861
248,-0.04074134598733106,0.014788766074399275,-0.03710572933350251,-0.03875548526961457,-0.01843610177747822
249,-0.03754561875471281,0.017789142849812825,-0.03673843399333273,-0.03711088716180685,-0.021884071518934747
250,-0.033614071064931327,0.022111443953363133,-0.03635408218882338,-0.03408907681856347,-0.024081501140277302
251,-0.03129428792670303,0.02525187960616017,-0.037348063007430085,-0.0321280786237593,-0.025336562377379895
252,-0.02997388014506596,0.02602865928538703,-0.038280469384621506,-0.030815274611526496,-0.02274688672713689
253,-0.028749725602757605,0.0247889496440115,-0.03745468444347467,-0.029259946860610838,-0.020519599272851397
254,-0.028732478544354186,0.02180141436735016,-0.036015772490773215,-0.02798879087805812,-0.02179086517276095
255,-0.029712479464670382,0.017902242353568257,-0.035034951345071376,-0.026994193169147893,-0.023431992646377655
256,-0.02979850253469867,0.014725797459730506,-0.03357644234291019,-0.025212355317601447,-0.025401358245843317
257,-0.02853863990295081,0.013195126558634694,-0.03158269649873944,-0.022889952283847423,-0.026618975434960772
258,-0.026922659806291632,0.013403255635025162,-0.03073083501887406,-0.0215124783068638,-0.029145125789703404
259,-0.025855095760361473,0.014341657159831926,-0.031773868636915836,-0.02082321745135698,-0.035201012213041886
260,-0.026021918421890864,0.01361856781147616,-0.033940326103587944,-0.020087255093182474,-0.03987807310600857
261,-0.02712771162167956,0.010047528785206941,-0.035556876855098334,-0.019882273392630347,-0.04441822812143709
262,-0.02730480779776272,0.005534703533722346,-0.035392471631797866,-0.020393172998459243,-0.048289299837546144
263,-0.025634579372695296,0.0020976955731521773,-0.034920580890889855,-0.02211892266565173,-0.04935243052478002
264,-0.022943812689237657,0.0007049268338057857,-0.03591520909708898,-0.025470233489110556,-0.050600420443615055
265,-0.0200570923771002,0.0026084980940405305,-0.03763429585981929,-0.02903131423398756,-0.04978813218702558
266,-0.0169117077704341,0.008173848048698305,-0.03814784152886376,-0.030963696691203697,-0.04391523448865497
267,-0.012225736994973752,0.016452008020386242,-0.03566337665802842,-0.029708825425687594,-0.03249202335142229
268,-0.006913959359951811,0.023880293340506543,-0.031335885146932675,-0.025969774377349313,-0.021551757795654942
269,-0.003404905340430343,0.026871581266378744,-0.028038637256043403,-0.02188654954330535,-0.01650998213592006
270,-0.0012282688473955136,0.026620004378183796,-0.026164228646351987,-0.01774531281244316,-0.01764095526146047
271,0.0001093903144251025,0.02537128492114931,-0.025379147406049688,-0.014232566298779772,-0.022075229451478842
272,-0.00030531461858659834,0.023497402164057615,-0.02615888050042737,-0.012774395900364669,-0.02587623561416076
273,-0.0023429312212101343,0.020836147180122673,-0.029041648717701415,-0.013327072401638076,-0.02885501740913269
274,-0.003932670702424876,0.01822306652008992,-0.032335199917238655,-0.013880604384940898,-0.02976500112115516
275,-0.0032106505749192244,0.01772339505522031,-0.03255621074511657,-0.012246802134478613,-0.02655972928056965
276,-0.0013230182133620243,0.020052184406529644,-0.029148068773463924,-0.008613662625664919,-0.021581644494715373
277,0.00040319198956804975,0.024211455938821683,-0.023479737985209165,-0.003827480772787049,-0.016009674737407636
278,0.0027069274176321884,0.029503779766098012,-0.015792657993980844,0.0020164054249558016,-0.010088184482761425
279,0.004947332201835108,0.03487643366372236,-0.007250549640126111,0.007885013087301064,-0.0054835834822038266
280,0.005238732180868786,0.038264466745292575,-0.0007024662020879469,0.012659162847657592,-0.003309592911049165
281,0.004381304642481638,0.03917683696063491,0.002807457627379661,0.016861725076676947,-0.003094219954845552
282,0.0034720785238766274,0.03814633099970868,0.0039588316660746905,0.01987938441085035,-0.0037145606586143783
283,0.0014776940415356695,0.034478024907970646,0.0032187575482428487,0.02000276683565407,-0.005359137037687042
284,-0.0012195698443209424,0.02847779371588936,0.0019767440024166497,0.018787775807314902,-0.007034493092263991
285,-0.0032805840242954736,0.022218953825467434,0.0008787416636036817,0.01845506023001794,-0.0075849892013469715
286,-0.0036059231726435826,0.018802260164384618,-0.00024140878697494954,0.019332571934686855,-0.005943475550500131
287,-0.0005219512865371335,0.0208771000429212,0.0001812096818370523,0.022419601037360452,-0.0006719104444495054
288,0.0038911178822093606,0.02571850339311302,0.0015830649051994227,0.02605121620087492,0.005550573826513793
289,0.004569055790426955,0.028123481465086565,0.0005210443085778604,0.02503012484871223,0.00754309901582124
290,0.00084687858037474,0.027100057499290304,-0.003423592336710326,0.018395294835589365,0.0029476885454502687
291,-0.0024224678035748752,0.024966986991152122,-0.006919360587421665,0.011763765995032727,-0.006399437165676579
292,-0.0015500392878549103,0.02400851777885774,-0.008219127919713604,0.009905002912816388,-0.015418081062101003
293,0.0017610881039001698,0.02442253366991848,-0.009079963504347572,0.01135562970941005,-0.02056412329059354
294,0.004443683610127065,0.025140166731022522,-0.010741437734515209,0.012940783678333912,-0.022491921134475592
295,0.004920470073954143,0.024661622041332466,-0.013356757358206609,0.013046153241724971,-0.024055654344378445
296,0.0032414432637424572,0.02218815929928973,-0.01692601589000925,0.0106174958294326,-0.026770683314035378
297,0.0003171428662780949,0.018694402729487854,-0.02062316962671872,0.006270163559216978,-0.028920711605075863
298,-0.0025202556303746586,0.015865109699571726,-0.023030403110036585,0.003327782393801467,-0.028400978468984626
299,-0.0032965234282632244,0.015076233038856454,-0.022753129850798266,0.004777799428669254,-0.02489915313725319
300,-0.0025287205573427517,0.015522564053125028,-0.020289957673068022,0.009197595231294105,-0.020828586610442224
301,-0.0030185186344502376,0.01605141726298728,-0.01754197298635125,0.013207461791175004,-0.019246405943167465
302,-0.005848166651659601,0.017890153845946114,-0.015539887157209253,0.015109821487303212,-0.020228580781478673
303,-0.009843296666728792,0.021683223564797707,-0.014387063781488086,0.013940755789731682,-0.022032083585083167
304,-0.013087781440054696,0.0261811866789609,-0.013800238982607876,0.010321977370746846,-0.02258743098997822
305,-0.01418163458534486,0.03035196633798214,-0.012845253042475455,0.00808414537839141,-0.02019129135336214
306,-0.013457692245768678,0.03398679684718609,-0.010371948240897124,0.009731776657738795,-0.015194268841554002
307,-0.011983576160046243,0.037220082173337166,-0.005879980337032442,0.01406728959435867,-0.01024691975904687
308,-0.010442281895915508,0.0366881038728233,-0.0002015106122539025,0.01938782659624424,-0.00759562428002419
309,-0.01048152533937546,0.03329634086061652,0.004689370203266681,0.024662021147599612,-0.00650427915432056
310,-0.013557345142854048,0.027492985638839944,0.0068443593209579065,0.028589558054456673,-0.006945737571901436
311,-0.01877943870542669,0.01885062266271889,0.0069680389647107065,0.030947092426755026,-0.010150384234742332
312,-0.023323312378686168,0.012047214935841134,0.008310976838108079,0.03325941008829785,-0.014489429736434483
313,-0.026519011042359843,0.007656150312464344,0.010671050762876309,0.03433490278125616,-0.017862694632794125
314,-0.02960413122659523,0.004249120132756611,0.011178120195707318,0.031607833104149496,-0.01903975527516485
315,-0.03203153752237156,0.003025512742231003,0.01097965711295158,0.026567807288726316,-0.01671678994506845
316,-0.03376549850235288,0.0051014356578036,0.012306778618404401,0.02151586691648892,-0.011899055666724723
317,-0.03664743828360174,0.0072719193990323635,0.01335128488546959,0.015953459795569457,-0.007570098026635968
318,-0.04090036550637522,0.007944997179975242,0.011907508890808357,0.009395995496428219,-0.004880095736897992
319,-0.04349776236994162,0.0077870259076642445,0.008825709707185842,0.0038648014655351935,-0.0034759218634055674
320,-0.04471093574411887,0.0036252096832629344,0.005784728594267666,0.002259599808799047,-0.004184598046582657
321,-0.03953798879314702,-0.0017779676603187156,0.0034057721921528818,0.005127274424777525,-0.006523747458358863
322,-0.03200306392683614,-0.005929939448374971,0.0025788497467262627,0.01098247379778159,-0.00635475348780273
323,-0.023212691889116885,-0.006730702071007523,0.00427527534974789,0.018410154367606364,-0.0005554891352646595
324,-0.014329608637606494,-0.0016335685010797389,0.005276718300830031,0.023712969420548437,0.008687565673809029
325,-0.007094663171973029,0.0012233965702796463,0.005013061217221292,0.02713072593415444,0.016881398521097934
326,-0.0026006413928397884,-0.0012486716956862955,0.004300257199195907,0.029135304433091556,0.02112238065805828
327,-0.0016138228289062527,-0.004369414002327708,0.0029642212944275188,0.027705681905587153,0.02078697855319822
328,-0.004358498368288557,-0.008913801802481476,0.002568530720885691,0.024418742452292565,0.017709288656361868
329,-0.009032026252137976,-0.012140248945726894,0.002232270536178288,0.020490693588550764,0.014665760670179296
330,-0.012686329898224354,-0.01130372874260892,0.0005559958280221788,0.015842054359488024,0.013425509131873433
331,-0.013561407255873768,-0.006787844324301113,-0.0019337298359177583,0.01103988207548316,0.014885861827563062
332,-0.01185468958518905,-0.002609576383840934,-0.003080592580955751,0.00805912578291865,0.019000660994033254
333,-0.007604486548234475,0.0012564251442965088,-0.002211770608407139,0.007493258287646648,0.024117672011876708
334,-0.0018151959781812085,0.00452746785325188,-9.807451202262239e-05,0.008374711824034861,0.028260608535590384
335,0.0027776232088191095,0.005190000694903413,0.0010771320916532225,0.008444670776939833,0.031107058615228046
336,0.004628259863376368,0.005221343280270536,-0.0012892456212803543,0.0052340922745662865,0.034483348535844914
337,0.004207900124109604,0.004653277971239635,-0.005813861739779256,-0.00040913854671770455,0.03918966602476445
338,0.0033956035688937564,0.002777870086854136,-0.009595113384898091,-0.006394410038808902,0.04256034528485562
339,0.00396070089064571,0.0003222374769004421,-0.011936549579722755,-0.011607010511305514,0.04236861197873186
340,0.004494380480382001,-0.004866896617852881,-0.009377050254290772,-0.01226552499545439,0.03835019009725128
341,0.0075465672446760395,-0.007260473234093053,-0.002603260140316526,-0.00934756017099138,0.03570842257505063
342,0.013034749611472825,-0.004384179676039917,0.005596397684673306,-0.005284114134552837,0.03605278912816259
343,0.01676583473376444,-0.000136795797567625,0.012787847981127403,-0.0015212754840497414,0.036747714619328256
344,0.01804076742466488,0.0042296684950131405,0.01495760952309551,-0.001075952271145608,0.036835708140739824
345,0.01592838426113708,0.005003676144546164,0.012568853469723907,-0.0028927267434305727,0.03269137518167398
346,0.010720961614940615,0.001677548939504355,0.008047405543229039,-0.004797762096533607,0.023350693027954488
347,0.004790755986589048,-0.001628316855490672,0.003646872863208752,-0.005613424357753722,0.012798458028081812
348,0.0014866334070916154,-0.0005899429601139242,0.00012051348401226315,-0.005712947090282663,0.005843854094646463
349,0.00023501376663666478,0.003154889035576137,-0.0015867819896093107,-0.005239143492481277,0.0030457664819085475
350,-0.0004708253860172415,0.006933774555098002,-0.0016975490810830387,-0.004888726084656684,0.00243728492677114
351,-7.08939666634845e-05,0.009784824638905872,-0.00014899831517124895,-0.0042179252366292075,0.001881085527621134
352,-8.702777557707405e-05,0.009661429588946474,0.0031632348254606317,-0.0021379511422373407,-0.000512225267026322
353,-0.002149715879285418,0.007759847612907513,0.004777842610310066,-0.0003152230080889164,-0.0035124739662464903
354,-0.006279743123749586,0.005941786500073919,0.004040430490817661,0.0013399656909195523,-0.0060131893656528825
355,-0.01127293681451903,0.0036845942615771564,0.003403565406763626,0.0036343964928408205,-0.00888008652783214
356,-0.012465635942506156,0.0027004902979906897,0.0018424614488501603,0.005049864245188806,-0.008256315746097247
357,-0.012287643888537154,0.0010428694120759132,-0.0016006961608865337,0.00418409652093359,-0.006156572156229969
358,-0.011499534605901557,-0.001818421018140681,-0.0057739236863923685,0.0028820115378976473,-0.004953404829707939
359,-0.006889051136301689,-0.003605302761918777,-0.008431379587531897,0.003140855671279207,-0.0038646419848297935
360,-0.0002642725204118454,-0.005262488380403058,-0.007711884813786236,0.004082977473238052,-0.005203028673511463
361,0.006875290621475685,-0.006536282790099192,-0.0051867065869829225,0.0038757705873522087,-0.007217886667260361
362,0.012645641465982729,-0.007396300578929671,-0.0035252409328970728,0.001921669967285162,-0.007283324814972528
363,0.01564450562681858,-0.008749095580159977,-0.0036228725375338634,-0.00019522961074388195,-0.005690019808216846
364,0.015085953444457801,-0.010943564647897898,-0.004326438328067267,-0.0009211709863476665,-0.0048220126104926
365,0.012648891594954043,-0.012460315172480061,-0.005553827000500498,-0.001320422305229276,-0.004640683328117209
366,0.008821201698780545,-0.01319284893332909,-0.007087197493262618,-0.0029708927580277167,-0.004887592218359666
367,0.0036173425354817674,-0.01319601809407792,-0.00809465967366347,-0.005473922317273162,-0.005081771340080298
368,-0.0008589343958954748,-0.01094790884667126,-0.009395429095761217,-0.008641133548788383,-0.004001339703321518
369,-0.004153483518354353,-0.006227046944296227,-0.010291177932235761,-0.011753195090704063,-0.002534830217779889
370,-0.005154460773562901,0.0011851415270832995,-0.008697717974320831,-0.0118296590363482,-0.0001838686437893451
371,-0.0034628777051176358,0.00980300961278991,-0.005359488085932315,-0.008205440421283823,0.003945900614983676
372,-0.003045789956562679,0.012867540237528553,-0.0022155845125036307,-0.00451000917500743,0.006062896400350577
373,-0.003934634792740626,0.01165827446187556,-0.0004154703737488409,-0.001177312708500722,0.006310525041437709
374,-0.004768811680305305,0.009184768337509502,0.0010983888530131688,0.0033745183033217284,0.005160980889323325
375,-0.0071546609555647985,0.0033908979124487953,0.0017330328437642503,0.007272811183093045,0.0007424728292287167
376,-0.009298992852969448,-0.0027015213293977085,0.0013438671010611051,0.00905796011717708,-0.00359404560859057
377,-0.007899710837816331,-0.004668310063296973,0.004103613122929495,0.009869038173519178,-0.003942992745927587
378,-0.0028277110701453163,-0.0015477931582229994,0.011479137560980571,0.011078405763594808,9.100333309025821e-05
379,0.0022318351751959664,0.003894220448816181,0.02001293095829639,0.011584396318956573,0.0053789240951018745
380,0.00472958708206462,0.009327509675344885,0.025254390404920262,0.010022574405363851,0.00906963774153553
381,0.004832017498031362,0.012270548370108715,0.026970333727565472,0.007679409136603649,0.009530972722196619
382,0.004076196285979492,0.012404991837161407,0.02622726389691768,0.005995779367458242,0.007802645408633444
383,0.0038323582131367987,0.011480601382925774,0.02317737334034425,0.005247960282517742,0.0060269595834616125
384,0.0028013808668953706,0.0088666453751768,0.020496846952555697,0.005540167957353757,0.0036415901740578472
385,-0.0010451892633852188,0.005238960399526864,0.012342190216404179,0.0019324039443366949,0.0014459132579099558
386,-0.005589686772280012,0.0031171037408690544,0.003293640986225311,-0.0030138048332886544,0.0013004881993386873
387,-0.008600348499507499,0.001446895665827759,-0.004132943734758453,-0.006867105684424253,0.0012221978704514457
388,-0.008109851562013675,0.0022921459819941277,-0.00926181688843541,-0.008616194327815067,0.0012126498904960234
389,-0.004761717845904592,0.0030615141869810417,-0.01186798056474757,-0.007934887200643892,0.0003068445049069992
390,-0.00019379794318957774,0.002559254553392805,-0.012135006857247388,-0.005704823488232222,-0.000782150456811415
391,0.004483580468758993,0.002320343580220521,-0.010550793215648039,-0.0035525558278734037,-8.375613828787361e-05
392,0.007080676295925844,0.00021893142760666314,-0.008471435724800334,-0.002745849800521919,-0.0001767784952117644
393,0.007336732773919671,-0.0015430893629726408,-0.007230169240051352,-0.0033347996725891864,-0.0022643521033520768
394,0.007202015317918619,-0.0006211433729843962,-0.006276966201883459,-0.004111028187792292,-0.004787720201029918
395,0.007648597473189873,0.0023118194861897717,-0.004292547282518434,-0.004095909397431303,-0.005692744272825103
396,0.007267970675334787,0.004230556969501489,-0.0013961297123536917,-0.003669835983116908,-0.006289285983563346
397,0.005648054731932366,0.0058727072841907885,0.0017840261346855394,-0.004069754035348822,-0.007578196363385514
398,0.002244013844014605,0.007452610741211993,0.004606046079776652,-0.006753039265225828,-0.010433462596894703
399,-0.0026122416766061266,0.008490063870886164,0.007146426352707808,-0.01088001030362077,-0.013722866453509706
400,-0.005434013649489349,0.012337775866580592,0.011154781763525749,-0.012840209331416906,-0.01279758494038053
401,-0.0043774823128581745,0.019406314214930324,0.017886440366675114,-0.010729336597474574,-0.007345560248908714
402,-0.000980598075831867,0.0277593806471494,0.026330563633492173,-0.006042050986880629,-0.0007491480551871911
403,0.0023766667048143644,0.03620264604681467,0.034178972563496154,-0.00101737818254596,0.0049445572665753465
404,0.003472046290140111,0.03841417750787326,0.03526368410862193,0.0021696037412958155,0.006911677674005367
405,0.0020679642842374936,0.03759527329882613,0.032906123869905275,0.0022369363131192026,0.009023193514939576
406,0.0003061564798372974,0.036485403166602835,0.030860650943854977,0.0007662546179782874,0.012426349581984488
407,-0.00026337250487585504,0.03246337723128437,0.02677308678200625,-0.002190920104902676,0.01313822758821931
408,0.0004029173361169704,0.028823046583017785,0.021722913869667605,-0.007431614821687402,0.01166627419640662
409,0.0018179194009110536,0.02650494502597003,0.015532958982163357,-0.012267165492930813,0.0082423352062329
410,0.004139315542127168,0.025602525902549546,0.008781203276067495,-0.013849900103734474,0.0031984681941482776
411,0.008077546984381593,0.026231796489310483,0.0037771293888565227,-0.011073450794734905,-0.002579194480882004
412,0.013339328827534313,0.028923145676467213,0.003485257489185983,-0.004029621078352053,-0.007074294972173329
413,0.018039704746623683,0.03166331106262331,0.005625355777489239,0.004398957010462623,-0.009459391738485366
414,0.02063625519212067,0.03430134177026744,0.007189943437810826,0.009294467119365995,-0.008709230228002173
415,0.020395805778452156,0.03576747989729903,0.007311607488233524,0.00809378179376206,-0.006315308440609766
416,0.018135720778906624,0.03207179549200072,0.004877743245661135,0.0032503953593718223,-0.006160678232006684
417,0.016392339108177133,0.02556658550699858,0.0018809410181356214,-0.0008986202626982514,-0.007178918753151262
418,0.016732817836291117,0.019933973831848934,-0.0004142625268747282,-0.0017335043400674322,-0.007239345889631293
419,0.01956449487046886,0.01579760468060114,-0.0022844187174718704,0.001736820893739867,-0.006513902245585183
420,0.020227153889198157,0.014001861320632872,-0.0019598309193545474,0.0035846047404788557,-0.004329522580021813
421,0.019200875437475454,0.012098511623667511,-0.001247551940450935,0.0031923844314375844,-0.0029478439675785857
422,0.018176569362929714,0.009882146503532575,-0.0013808711980681568,0.0014529468081661344,-0.001233340497041359
423,0.017345169926809106,0.008716736518453807,-0.0016628849417451102,-0.0019656663285593395,0.0028511970141682484
424,0.019823146644058164,0.006841364605542732,-0.00242849732100401,-0.0029166629542732823,0.005994689339118626
425,0.023784972504419938,0.002904322535155519,-0.0030640249408562317,-0.0018459883960847037,0.00556375535386175
426,0.02697168469620547,-0.002259698244919968,-0.0033698247297962295,-0.0005487811980980906,0.0029730770880678947
427,0.029426462156850047,-0.005842649998362708,-0.003275080677727667,0.00046008590113294566,0.003329730498500287
428,0.031219926107007898,-0.009681271850751011,-0.00419127392557482,0.0019988680826936414,0.005918107946049708
429,0.029457499969596915,-0.016287585078496265,-0.0070460000339245075,0.0016864241311694268,0.006552608180557403
430,0.023746128523955128,-0.024650963253496777,-0.012282073287128801,-0.0008845064543632625,0.002759103687604816
431,0.01690991113303075,-0.032290361955665196,-0.019135517712045903,-0.0023941269998558608,-0.005107281359995309
432,0.009021745349066685,-0.03673791804697849,-0.026581661440668848,-0.0050924995951927956,-0.01193890331578742
433,0.001344440337233077,-0.0383946765328209,-0.03462945704812907,-0.009714884007205299,-0.014886798406974443
434,-0.0034199539085105787,-0.0383835274335569,-0.040700376426872506,-0.011979415231852317,-0.01587736161068367
435,-0.005000169012119117,-0.0362263344984853,-0.04269753946546468,-0.010459944228450042,-0.015500472142637832
436,-0.0028548740604539737,-0.03154867087161521,-0.03918398425145029,-0.006796339971273692,-0.015204957123464808
437,0.0005000593153926896,-0.026629072214356737,-0.03344983130448257,-0.002833307334859561,-0.014670479396460793
438,0.0036942582547038966,-0.024316215913147306,-0.027917247264159922,0.0013113900331534073,-0.01508064834473908
439,0.007417767332662104,-0.024393209440759615,-0.022534043517196234,0.007357813813713437,-0.017101843630470674
440,0.009362198938856554,-0.024073494195458445,-0.0200858808611082,0.014404733907811669,-0.01719369029826904
441,0.008277363974437858,-0.021774298754498968,-0.02067740239264892,0.018869397937344892,-0.017835491871147555
442,0.004322731884719227,-0.019008990853392367,-0.022475978372107495,0.018517305419004967,-0.024264395194278362
443,-0.0023401935711564706,-0.018003932015060457,-0.024312838022633117,0.013119760105018394,-0.03524133007097693
444,-0.010417634509045152,-0.02033224316182495,-0.024975466500200893,0.005850491976583832,-0.04425057744705299
445,-0.016481292015663552,-0.02665997050469947,-0.023470588085236867,0.0005615353319270713,-0.04910479726943813
446,-0.021098432593530114,-0.03511505613886064,-0.022088607964576644,-0.0038807851299399844,-0.04977489110917497
447,-0.02510541024765928,-0.041460415862325246,-0.02096257987012604,-0.00799778435369877,-0.046170692391884094
448,-0.025363806696359882,-0.04346744415665593,-0.016677763972513235,-0.009463250991387168,-0.04457181406088116
449,-0.022331657586172015,-0.04320262113610153,-0.0065225997814709205,-0.005703136924571043,-0.04067672238856565
450,-0.018416933096995984,-0.041401497036960846,0.00748647182753689,-0.0006074844456440612,-0.03859776321489096
451,-0.013979366794231516,-0.03733842952228159,0.021826282453824543,0.0028567967625717353,-0.03823744021285907
452,-0.009461289622085057,-0.030802247808212776,0.028635489852032913,0.00466959030009444,-0.034333298452442665
453,-0.00804073748995331,-0.02479921627068521,0.02592099720946735,0.0014788957161961996,-0.028749128425410983
454,-0.01191915295827103,-0.021999795410965924,0.01609004628474813,-0.008058153623556564,-0.023292687089140673
455,-0.01780604319203947,-0.02120989886514954,0.004669560062260679,-0.0182519156038859,-0.017083518678495654
456,-0.020669122934413954,-0.019908424039973654,-0.0009093243561333349,-0.02392582688655841,-0.012934279250890475
457,-0.01968835500370261,-0.017437195719904767,-0.0010604275658349545,-0.023894942296655137,-0.010468415276857757
458,-0.016871644303366958,-0.014833512933411898,0.0008241898186461335,-0.020668980864769457,-0.008390665316865211
459,-0.013498646957876231,-0.012728889826048596,0.003181776920756738,-0.017226555962979728,-0.005804588366237018
460,-0.011429230678552114,-0.011771365649522594,0.006073577520743743,-0.01583383064288604,-0.003405125393964759
461,-0.010915683991283566,-0.011565783597655007,0.008435553387639766,-0.01597724923808869,-0.0007712744851858194
462,-0.010329346027381746,-0.011039625041143183,0.009318382183803509,-0.016825654555185057,0.0010611614098451547
463,-0.009931729957147882,-0.010169908404922918,0.008709003857660538,-0.018795920630382434,0.0018623130464605973
464,-0.011204521442735255,-0.010476756873024065,0.006856801221980875,-0.022388304706252207,0.003857685288364411
465,-0.015521861237006017,-0.013805583402019398,0.004792411735347022,-0.028946132390215075,0.006241534108169407
466,-0.021847204932588998,-0.01989428755634362,0.0031147189322463793,-0.03597130991617827,0.008088939235223814
467,-0.026745649782165634,-0.027189647652914976,0.002009698470041004,-0.038784274899953175,0.009303489117151877
468,-0.029529674165517338,-0.03300384596025154,4.541047585245019e-05,-0.036605079306096334,0.00592935333597467
469,-0.03281171362343955,-0.03697798269893465,-0.0038182866487172736,-0.036410023725846764,0.002999578395626234
470,-0.03788230494181254,-0.03805159034148096,-0.009202115883079509,-0.040793754248290535,0.003555585506893916
471,-0.042936166240081286,-0.03643332987409648,-0.014546221314748385,-0.044445077880178374,0.0016221636036706057
472,-0.04522516516799963,-0.03436445790076339,-0.016537742230992955,-0.042297416942559195,-0.0027269274368973127
473,-0.044036809569879,-0.02994789204203362,-0.01390558892117005,-0.03289214758278852,-0.005428338038369392
474,-0.04104611232785455,-0.02269710315566257,-0.008329509199830186,-0.02040831126148532,-0.005936577992879536
475,-0.037720028872761456,-0.015082738473843787,-0.0023777259595508925,-0.008941607513991907,-0.007207798301647939
476,-0.03463676841423945,-0.009239073946124566,0.0019953290532131016,-0.0005972073292221205,-0.007838351974361132
477,-0.032958047291879795,-0.006713335747427182,0.00436544558986732,0.005302866706865994,-0.005749624773981628
478,-0.03357959426341634,-0.008042851007365712,0.006151211609556343,0.008725282361033797,0.000436342650864089
479,-0.03587873211954072,-0.01004651254145178,0.007690646364173059,0.007848207633342109,0.005888333788021977
480,-0.038150758188249506,-0.008326413427392139,0.007553334809121634,0.004114197396885989,0.0022484680827855206
481,-0.03767193712994646,-0.00338364424374721,0.007230506286386126,0.0022823260198706783,-0.008228702937730595
482,-0.03391461831628199,0.0031683791600324706,0.007829993854465625,0.004260277903473509,-0.01637355808484361
483,-0.029904115078201125,0.011353824633691648,0.006406981845070827,0.005928462595773482,-0.016156634521681663
484,-0.02755585197046506,0.016816464279805116,0.002778678686125498,0.002568346309321192,-0.008826107181807168
485,-0.026252816103921713,0.018849051916670755,-0.0012764509152202402,-0.003030241176860838,-0.0005005363588192343
486,-0.02468108031760275,0.018575946874790444,-0.003773207534276726,-0.007065103037579823,0.00505055576563131
487,-0.023197044485719364,0.015223247893202141,-0.0046005039017705945,-0.009640734664943645,0.00669728644484615
488,-0.022896014221774945,0.010300112485615553,-0.005819110336163834,-0.011113004110505465,0.004396764893620811
489,-0.02201505404605288,0.005227355524305628,-0.0062754927893392595,-0.011397305714375711,0.0009117275937519074
490,-0.018492853209454766,0.001884684656373302,-0.004319573909337112,-0.010270399514198024,0.0002619605966848577
491,-0.0146316657306842,0.0002594740889940707,-0.0019573845727627087,-0.009853356494666987,0.003503503985683573
492,-0.01400157366812958,-0.0006901645320083283,-0.0015146962107681753,-0.01159210663460692,0.007704183790343631
493,-0.015858212249801024,-0.0017074169204355652,-0.0010544235570393889,-0.013848315647208512,0.010932489795058573
494,-0.01787603399080662,-0.0030485042842567,0.00030972727225060974,-0.01396154050342138,0.010316945245103194
495,-0.01935053656800726,-0.0045585182046443936,0.0011712693217382712,-0.01191618149414796,0.0053049213397820495
496,-0.019188505024664515,-0.004926547828519573,0.0024593688190020333,-0.00982431720456859,0.0015619655885205789
497,-0.016880311606126113,-0.002352480929631404,0.004973167255168292,-0.008035167152874152,0.0006390219256555203
498,-0.014286524473569288,0.0011665018759193543,0.008135414868320227,-0.006183525994280587,-0.0014611168350393698
499,-0.014124898743565453,0.002507582983244603,0.011080371631717828,-0.005792049288524155,-0.005283360757603613
500,-0.01785652430299492,0.0011500401156418075,0.011210501895325502,-0.009600779412361992,-0.006256192762314772
501,-0.024112257598244768,-0.0007299150737694557,0.007326290708762565,-0.01735374042283345,-0.006115856733255337
502,-0.028815295326790127,-0.0018958823989810522,0.0012981881045308486,-0.02465896143563171,-0.010426541356747804
503,-0.029692047433791155,-0.002708334661430314,-0.00484585093238196,-0.028209616372453623,-0.01849993506333894
504,-0.02775248225996533,-0.0028355277817548375,-0.009663264410318307,-0.027535718822425736,-0.024577449991623177
505,-0.023433082037799563,-0.0014172704259165477,-0.011420048249432756,-0.02244986735116898,-0.024124933894734742
506,-0.018146274945043096,0.0015720616592145085,-0.009920159013256737,-0.015250717711979563,-0.017998899226280906
507,-0.01512636936842571,0.0038815041159585553,-0.007994333729421063,-0.010377254189478189,-0.010824824972626709
508,-0.01527866315781946,0.0034711339393755517,-0.007667680294156683,-0.009152676812810545,-0.006794123263099259
509,-0.016615869602103536,0.0005664532992422005,-0.008350453496290895,-0.009826625411504608,-0.006341628592873156
510,-0.01607220621276047,-0.002393201792014363,-0.007038698494081587,-0.00942092941060244,-0.0074925969411383155
511,-0.012062179282710224,-0.003006817863274938,-0.0015533308282575497,-0.005318973018925208,-0.007448987665219478
512,-0.0076034137179397925,-0.002558238302895457,0.003558685824762917,0.00030415181219520487,-0.008679796045054824
513,-0.006200623209168374,-0.00299960521856868,0.006391474919721389,0.0035461264065122194,-0.006461936865291665
514,-0.007712288071636419,-0.0034459152863338866,0.006234568013409444,0.003643911308787732,-0.0018701384543872563
515,-0.011173535412198309,-0.0033584218203160134,0.004683284280414472,0.0012683436580451352,0.00414828310324162
516,-0.015505081197668398,-0.0029139231751867376,0.0015841246700643431,-0.0015483087301440882,0.007234242392852549
517,-0.019736336609862955,-0.0008348516646531553,-0.0006742722533436131,-0.0030050899240461355,0.006304962984094145
518,-0.02353981642181649,0.0021541455163365834,-0.0010352504573032304,-0.003049838637284716,0.0018459285231217815
519,-0.027188317018325744,0.0035503177703147134,-0.0010869170776608406,-0.0021922260160304606,-0.005459894869577573
520,-0.031243115651287796,0.003887099738177739,-0.0009891965868303555,-0.0005658534571388009,-0.01201690354670278
521,-0.03576922686221186,0.004922547359191591,-0.0013664801924583223,0.0016977952962291198,-0.014904467208927576
522,-0.04074397555813038,0.006141801291770776,-0.002744436622027383,0.003320151219878494,-0.014540490317075196
523,-0.046050876359452333,0.005138045201603668,-0.005377238869483072,0.002586976130787044,-0.013960178809086699
524,-0.0505008452388529,0.0014549140594092632,-0.008623316305565789,-0.0005688346133478753,-0.015121861081596235
525,-0.05139683415719109,-0.001556564356616265,-0.011318147693654072,-0.0030317257587488475,-0.01617779285482479
526,-0.047673043790960976,-0.001535091152138328,-0.012715780642749936,-0.0020312272994679847,-0.015109429062595872
527,-0.042121667379357915,-0.0009456036728270619,-0.013697233794714105,0.0010024097562393104,-0.013889370775198443
528,-0.037614388379158446,-0.002247276705553079,-0.015223009318449002,0.003131365901598131,-0.014510826337735658
529,-0.03467148325864845,-0.004363671246998482,-0.01663758137246662,0.0024074457147959813,-0.017030191743332413
530,-0.03326804712531078,-0.006755266678769911,-0.01848584970630706,-0.0017232875168243411,-0.022201136265821982
531,-0.0327005333382953,-0.009529413886685371,-0.02113623212858514,-0.006316644327034566,-0.0288776078069523
532,-0.029407518070517065,-0.010077585774173888,-0.01819017823406191,-0.007051048739912593,-0.031114243855177966
533,-0.02495880404334392,-0.006806382588320068,-0.011745679451048862,-0.004182331929494938,-0.028873884094509663
534,-0.02246096774328753,-0.002909809126252431,-0.005864362405558395,-0.0019370703297820727,-0.02606943833368357
535,-0.021136782820817553,-0.0012504023528037479,0.00021244083875975053,-0.0020390108526828236,-0.02439891907321292
536,-0.018931315189102776,-0.0004146362920718607,0.005874064061952794,-0.0015316947969918836,-0.023828189070305945
537,-0.013198005481778147,0.001080981364074669,0.012989978166264748,0.0019373371544716914,-0.02235000816124517
538,-0.0046540880979307345,0.0020596896853208547,0.02084773159566589,0.006375906143939276,-0.018961063107077875
539,0.0026244137923513012,0.00035636986689921093,0.026087092214063686,0.007189688785548813,-0.014861116753108354
540,0.0036689316734203514,-0.005521550657496122,0.024152688534774504,0.00014168419399360625,-0.013149525648001658
541,-0.0009167593942994363,-0.01420247723487633,0.017280343674240122,-0.013987920183624818,-0.013672376134460033
542,-0.005820874226019313,-0.021960713529471078,0.010980521161142382,-0.028699988398569718,-0.013074742210993372
543,-0.006716742582649491,-0.02636762812933856,0.008318504069041796,-0.03775476394897866,-0.009078150352585555
544,-0.003060767938281664,-0.028347562149182805,0.011057872563660741,-0.040097962358820814,-0.002853172560763188
545,0.000810151887062364,-0.031009584563363703,0.01590888156531643,-0.03920047174351414,0.0013414699773787021
546,0.0018854263747433782,-0.03549038445621299,0.020343232896924277,-0.03833174453165598,0.0014782934024799674
547,0.0027341855013228136,-0.038882890040708426,0.02616986701581532,-0.03730195846141952,1.2377964637261573e-05
548,0.0028444133290555745,-0.0346983722986568,0.03232372063437723,-0.03284395615743599,-0.00019617217974589538
549,0.0035585887532957826,-0.02754669924641328,0.038036614100936755,-0.02712178189116195,0.0024107470744278306
550,0.005168694554372892,-0.02133711539871348,0.04274194958425109,-0.021787164764625378,0.008123387183196076
551,0.006105128350283503,-0.014310870803609804,0.0456037216614614,-0.015495297849677214,0.015497057785962871
552,0.006641227739644198,-0.009661431702647548,0.046903188162888645,-0.01035764346438572,0.02139621334783202
553,0.004757822206538369,-0.007650382368960202,0.046173314235742,-0.007448142365486712,0.023659216423928105
554,0.0006703313154003705,-0.007142397368520532,0.0437177813528145,-0.006904451598581703,0.02233101808377842
555,-0.003072273304538395,-0.007804045825689546,0.0403626223922158,-0.008928941159700938,0.018175305122396724
556,-0.0029712974192654265,-0.009443029863445258,0.038067977376382366,-0.012355620260132809,0.013377573925732066
557,0.0003279521526879109,-0.009074951901382848,0.0367389526748092,-0.014063744521328008,0.010274913659994299
558,0.0046496478685311695,-0.006933281264474599,0.03509614031040395,-0.013166264039142997,0.008249118107869048
559,0.00852857115319758,-0.005924975573516736,0.03229936579594003,-0.010949607749330797,0.0051215775157461
560,0.00945461438654195,-0.005581383010269724,0.02755768929189929,-0.007554922642506385,0.0005197679230788119
561,0.0076906270822118695,-0.006164801126686295,0.022038524354092023,-0.003628426245178319,-0.0037111575023665035
562,0.0048237393280006,-0.006921259863961364,0.01733154461655304,0.00034202562879552794,-0.005285648067728176
563,0.002125388387040433,-0.006209721243328444,0.014664881890840913,0.005174712914547352,-0.0039600864955603105
564,0.001781569335032209,-0.006555208773157274,0.014668000159362071,0.008353702008164111,-0.0015769548222181568
565,0.001587051781211831,-0.007978531790366944,0.016260772684982255,0.01125627151358236,-0.0003892035319640198
566,-0.0011316095039301181,-0.011385416154932396,0.01665307864429751,0.013282484411617442,-0.00238015448792958
567,-0.005625646231900547,-0.01826762780565637,0.013916639807778625,0.012303247869930539,-0.008641617149735202
568,-0.010373338601805919,-0.026217214645854595,0.00889829443830714,0.010850155366726299,-0.01870257146549685
569,-0.0127931541227871,-0.0323164964387061,0.0035861913751009966,0.008350398705303658,-0.026207505742315167
570,-0.011961171130254834,-0.03352699126359149,-0.0006943146104781936,0.003789507334235006,-0.0246809559904942
571,-0.008859639811115443,-0.029543414498932132,-0.002975462147581724,-0.0005914531754691049,-0.018175461366757347
572,-0.004951974028929532,-0.020755983790944062,-0.0027745980471943553,-0.0009678185834947294,-0.01227469227012778
573,-0.0012951483717672516,-0.010691865051111742,-0.0016348801415860706,0.0006919762390442248,-0.008843754492787055
574,0.00023921767516300847,-0.004273999359524515,-0.0013946753342204414,0.0017266762372463234,-0.009733713746673266
575,-0.0010183452987253762,-0.0039777830781889695,-0.0020516497753343675,0.002191865660270453,-0.01339140441134835
576,-0.003126569158094073,-0.009675173520753111,-0.002865963508676953,0.00125565501451703,-0.015587890148434242
577,-0.004303896827512479,-0.015121911712915149,-0.004644618713343636,-0.0015758974428647216,-0.016256161428923475
578,-0.004350126005917892,-0.014936092967613349,-0.00754987354473246,-0.005724494432898458,-0.01888655769263515
579,-0.001113865631893661,-0.012301658466580523,-0.008104520374711637,-0.007060691790728779,-0.024486742229246947
580,0.0033154818860316655,-0.012841894707447616,-0.004732736331374098,-0.0040619415433868445,-0.03120541744191851
581,0.00531236480968788,-0.015226718694356565,-0.0019250249124268318,-0.0016807181224499377,-0.03653617585897077
582,0.0026794670390968937,-0.014499820485313458,-0.003242609753493245,-0.004057694327532648,-0.039221664579578056
583,-0.003598709390277162,-0.00993681387080058,-0.006364341737102349,-0.010008686644624874,-0.038334978982354724
584,-0.010172670614239418,-0.0041405318492375425,-0.008846833194873187,-0.016582311276719004,-0.034231865556866546
585,-0.015686295321330177,0.00025952832115857817,-0.01110326708977765,-0.021662102282312485,-0.030918054486114316
586,-0.02052858767768467,0.0013061332780521192,-0.01360246300379606,-0.024738994660878852,-0.03013878484429137
587,-0.02322559470290156,-0.0012905990945316099,-0.013600569136022962,-0.024184449470782073,-0.029165866680281455
588,-0.021360581632931586,-0.00343317583238712,-0.00947670696189991,-0.019207562397802264,-0.027519384358087904
589,-0.018575171074132073,-0.0010745785660564093,-0.005557385155448989,-0.015128226668459858,-0.027810390754744698
590,-0.017959679817651734,0.0038767068081074843,-0.004598412079770262,-0.015680353403186253,-0.029225568248188314
591,-0.019102923567836168,0.007555520399046996,-0.005626438377937894,-0.020101039158782218,-0.02821304535276468
592,-0.02214526517976203,0.008025979238232844,-0.007970031210531508,-0.026837404728983265,-0.02657380362072266
593,-0.02611929218671336,0.006190629207333763,-0.010712846347450811,-0.033798416172066595,-0.02878270404672628
594,-0.03067364694781079,0.003999836708725841,-0.012762293188467456,-0.040184472530470576,-0.033574656300589104
595,-0.03603282460053848,0.0018304666504205419,-0.014253266526937522,-0.046033682743268106,-0.03661603744358924
596,-0.039164210754863996,-0.0007370115224576569,-0.016452101585024893,-0.04710581618111104,-0.034748621306268414
597,-0.040278080572419876,-0.00271925516262054,-0.018705191993860133,-0.04377740470223407,-0.030375453688236208
598,-0.038677020634437356,-0.0026885614254653846,-0.018917594838781797,-0.03762854230631538,-0.02554840758986344
599,-0.034654935382621786,-0.002018410028326378,-0.017731957477605274,-0.03144419391650132,-0.02109651129194257
600,-0.03190707921009758,-0.0022163372395750678,-0.016577364620054963,-0.02997279270141752,-0.018506438280114102
601,-0.0299398848368345,-0.002163647342305077,-0.014898698142775063,-0.030236817336750304,-0.01581329397708886
602,-0.02659009944493451,-0.0002251048356111603,-0.011530216120257324,-0.027355653237534507,-0.011611512268260085
603,-0.021061057911271507,0.004076411018928829,-0.0061284638558162475,-0.02031820863147174,-0.0067449265560368685
604,-0.015651604922950865,0.008746196890409152,-0.0002706156594923867,-0.013471685748912913,-0.003734065049905714
605,-0.01373665002885656,0.009927942129950459,0.002871937645373109,-0.009861045179760351,-0.004062032206562643
606,-0.017033625591011622,0.006237667240445534,0.0013585475980236465,-0.010020156528218551,-0.007275558360424804
607,-0.02264298356991064,0.0009860834040044603,-0.002954169915962336,-0.012029271928630863,-0.010029001903327266
608,-0.025490128673779935,-0.0018531011996015566,-0.006365458736868805,-0.011282815183019506,-0.008197949616355475
609,-0.024333708188981767,-0.0025109167140757926,-0.006991207468611137,-0.006644080942405609,-0.001988958771431753
610,-0.020322282903652063,-0.004092072812420101,-0.004806401959075389,0.0010102926703156967,0.00669668236545096
611,-0.014903921642983077,-0.0052491839420831425,-0.0017164403983157956,0.00904678414802024,0.016301023805270962
612,-0.009615717844255255,-0.0031631056413870965,-0.0011575614784254437,0.011246309628255314,0.01816445768177653
613,-0.007269394282409753,-0.000936398987974477,-0.00398114274373696,0.007496044613099467,0.014179308261965826
614,-0.007994005973209145,-0.001353888446440385,-0.008045942425155363,0.001515611096977428,0.0082381197091937
615,-0.009165095421321075,-0.003718274562686219,-0.011465832671220984,-0.004011251737899322,-7.208347421866303e-05
616,-0.009218474538973275,-0.006229265935416411,-0.01320449837519567,-0.005948335683620708,-0.005673865419895569
617,-0.007314292703065822,-0.007292423643369804,-0.013579580248534513,-0.004977001901556432,-0.00939039564202246
618,-0.004410726548748675,-0.006930419025146536,-0.013674023543018285,-0.003886449288765085,-0.013775433515518347
619,-0.0004999623853679978,-0.005242768635624875,-0.013018879035826438,-0.0023937453390114895,-0.016807074719819997
620,0.00462458983456159,-0.0025887655598813607,-0.01122396643850543,0.0016632595222229214,-0.014750396814646434
621,0.010645007487473159,-0.00014480426476381803,-0.009383827363752161,0.006734037932503333,-0.011733068959037928
622,0.0170480846990207,0.0019193273479633994,-0.007783054072061154,0.01118187782218293,-0.011187086186829096
623,0.023241852096211553,0.0042068482558218915,-0.006236687409766902,0.014550637401047251,-0.012374200358695126
624,0.029141012627085412,0.006399223300167995,-0.005165576338682861,0.01569593871445963,-0.016822666707204992
625,0.033878227472113734,0.008034975545760104,-0.004325770824816983,0.01611281828549261,-0.02260925947284795
626,0.036980394388710876,0.009427669694204685,-0.003520620394637402,0.017206678515943062,-0.027118564677671195
627,0.03897438355679181,0.011102262911757624,-0.0027530099881868785,0.01887333596044938,-0.029921680748280922
628,0.037911636652495334,0.013293425657505789,-0.0007816181183355705,0.022084206234602607,-0.02521062696110581
629,0.03803214256739093,0.016378930574515727,0.003947079755513475,0.028963550208440755,-0.0166852584670392
630,0.04020244506362159,0.01906702541387279,0.0101821830700903,0.037466382623242554,-0.009109744224174005
631,0.03972001852365924,0.018463639364553364,0.014964308377689533,0.04277624891375477,-0.003075308012256292
632,0.03777188834663451,0.014733409461591889,0.01810713499355684,0.04431649051409473,-0.0008943283840670474
633,0.03398396381688208,0.009935325733879142,0.02001224283705843,0.043005816143809286,0.00013436624709338958
634,0.027073211796947872,0.005741213945513345,0.019701296747449172,0.03919651333789824,0.0020573482382744593
635,0.018702471463507023,0.00341705000272556,0.017079415520707363,0.034611948597911384,0.004842072805312583
636,0.012730447628866834,0.001695988691566325,0.013788136726218092,0.03207590707913378,0.00494589194198947
637,0.010027597766531353,-0.0021620054389735145,0.012519711833041604,0.03399398200818871,0.003752958788074494
638,0.009225990480619358,-0.006960758566407212,0.012886964398684943,0.03824198184237889,0.0029044120917381027
639,0.00746143144196845,-0.008761787724313543,0.011236647435644459,0.03960254971061435,0.0001522987122613889
640,0.00519758181511272,-0.0079881360374883,0.007342644549480864,0.04060179105823336,-0.002961535775136802
641,0.00017325161181358766,-0.006590888052526665,0.004920158718784033,0.03908067804003597,-0.005262319414419826
642,-0.0031305808053306607,-0.004411448909673705,0.005376427922099885,0.038552496464350584,-0.006975378314004298
643,-0.006178373200751494,-0.0010097240401202871,0.007341865687640925,0.03810232835674607,-0.008184808523839569
644,-0.007994998586552107,0.0018925156004102534,0.007192638438934693,0.03476709540425866,-0.009066151552809095
645,-0.00945026402362536,0.004500703243498246,0.0051580513368912635,0.030018604558175385,-0.008143918349633322
646,-0.010626193820004761,0.006122874214925944,0.0021156674411440517,0.025132915276685368,-0.005760750462017217
647,-0.011270532748986536,0.00444775391993736,-0.00247384220275415,0.018837501344655692,-0.003848248249411876
648,-0.012377428830478786,0.0011331713798224438,-0.0061733077873775445,0.013168275188500007,-0.0015957908105946118
649,-0.011517419714269306,-0.00110109553549334,-0.006983901774879201,0.009700507521630508,0.0022531915029279995
650,-0.0077331849506799616,-0.002460309767354455,-0.005801557408040405,0.007841345508862512,0.006303960961810843
651,-0.00269861628019311,-0.004086396123036898,-0.004565846227249495,0.006350497287527985,0.00900373574686624
652,0.002649887643764109,-0.004238681957700412,-0.002235505038126173,0.006623871581728172,0.012397745157178387
653,0.008039093211935749,-0.0030504602062039394,0.0008885711871335154,0.007838777742825175,0.016818750553949928
654,0.011434519130441093,-0.002076494514179869,0.0033789050304012065,0.007917245300968429,0.021211153493097632
655,0.011623636487230471,-0.0015071526331787105,0.00500493571268613,0.006813346323051756,0.025774315921208976
656,0.009002640087759802,-0.0020566867294464874,0.0043783801589364155,0.00384231234482718,0.029506533949897485
657,0.003711408448584966,-0.0035386569796314504,0.0010100214584054263,-0.0009128409889306851,0.031542580688276485
658,-0.0028154116622769905,-0.004636711021801133,-0.0037161552310296234,-0.006086042453479481,0.032501847938294824
659,-0.008962399262546498,-0.004995969298509213,-0.008124420550218883,-0.010195052082400865,0.03263481736404145
660,-0.011589221127173699,-0.002497513186798922,-0.007436640648291627,-0.008891396942023063,0.02897452004813709
661,-0.0125793237913429,-1.3582994701322548e-06,-0.005081072831093854,-0.006983330111355701,0.023160903469458836
662,-0.012634386867159737,0.0015785885685229083,-0.0029758204400012075,-0.006848621937845337,0.018672530287485237
663,-0.008806756287206018,0.004423333452226226,0.0014377864141207571,-0.005022440994999806,0.017226134667929993
664,-0.002616794812800967,0.006757587985418536,0.005408367930242058,-0.00319354333356551,0.019819100530552625
665,0.0052052536903271045,0.009431322739549382,0.00909224642828122,-0.0003314562391614949,0.024074139062359678
666,0.013111592560454773,0.012130574919421747,0.012470754923715684,0.0038614906959981597,0.026824875854825316
667,0.016859923124176238,0.011094638136755984,0.012458794787039672,0.006021477230574927,0.025322025828947207
668,0.013344619783607174,0.004794596566864002,0.007145767996427875,0.003199997248962057,0.020313093483322626
669,0.006122606516477412,-0.002448745733949186,0.0008936330863573272,-0.001560289870763039,0.013476593662636123
670,-9.544882004929859e-06,-0.006865102085434524,-0.0029816418833155164,-0.005897098329892009,0.006919466521625917
671,-0.0019716833269118653,-0.006797354707818948,-0.003598500228467799,-0.008179314633280959,0.003273267685259362
672,0.0019176692746234484,-0.002010778657043237,9.97089291170455e-05,-0.0051993942413735015,0.0016938383433421004
673,0.007737038605702833,0.0033284062670077873,0.004642530163400925,0.0006648848514750498,-0.00019354314360616926
674,0.011892723371488742,0.006172128755328725,0.007292819139538502,0.005894832163416474,-0.003198395957632819
675,0.01335710635975355,0.006408847892192581,0.00813949275509079,0.008975591251115042,-0.006577346751297611
676,0.011902448598834334,0.0062150586606878,0.008028731307988961,0.009938777600781596,-0.004209364415854004
677,0.007755428730412415,0.005208063031983368,0.0065100246410663715,0.008459550267548242,-5.138116106754009e-05
678,0.0015102581062177323,0.003885375916771951,0.003993303768948843,0.004963391320548027,0.003068984967565374
679,-0.005209205892653151,0.0036321954733175756,0.0020008903091601133,0.000696012497512613,0.006463954477842447
680,-0.010169461145676371,0.0032815584059295443,0.0009370834568814372,-0.004039235457220659,0.005972647435622619
681,-0.011595594781590592,0.0039832033618046265,0.0014992512252636674,-0.007715310009518091,0.0038656543235173943
682,-0.009584995850732346,0.007313889843588517,0.004235752962913196,-0.009014488911041047,0.004380313453553673
683,-0.005491935207022979,0.013077652641692422,0.009063417193765987,-0.008144912374066102,0.008767254196927268
684,-0.0007098012739116165,0.018815961592822287,0.014523845502086507,-0.006232480266137614,0.012482909719508401
685,0.003496695109342053,0.023657594570123217,0.019848896859599244,-0.004073080260512904,0.014718421932822629
686,0.007225563965343568,0.028153984159983356,0.0256267198760223,-0.0019938968796906218,0.017783752831591546
687,0.010992940999006285,0.0315868749119069,0.0319672120639886,-5.46651485178806e-05,0.022195663706434516
688,0.013819471187308746,0.03282174216100659,0.037985652485442216,0.0013893027401794091,0.028660813341953032
689,0.016618425149186867,0.03240565608460279,0.043351396797851854,0.002674034966215557,0.03605395218554246
690,0.02206816438037541,0.03393152745586815,0.04884340210233275,0.005290127509703817,0.045301526314280846
691,0.02991298292911563,0.039563593731602016,0.054221308072759614,0.009423354388515853,0.05607240406224578
692,0.03275456747983181,0.04106595298570015,0.053474868330952774,0.012061678230293096,0.05738762679267537
693,0.03226793016993286,0.04106699059286518,0.04954183677674861,0.012845457365532154,0.05389380029888796
694,0.029954566210715745,0.04020552327729864,0.04401548986228737,0.011039530718296067,0.048604686167878254
695,0.024639977825614234,0.03462500315579381,0.03585590638855438,0.006962074460645497,0.038446288242404994
696,0.020372178612744176,0.028847326710367615,0.030060530529865074,0.003747776986464072,0.029835583676621216
697,0.017167600173781553,0.022473121185706314,0.02645716522378266,0.002251332564007068,0.02237943635733518
698,0.016043706403049952,0.016062773340434336,0.024753833992356155,0.00401076550790299,0.015415036089263342
699,0.018479043727526897,0.011427446247091792,0.026075951332804482,0.00997512420084361,0.010154323572529633
700,0.025223977534455357,0.010255384717210408,0.03128935313340245,0.018875238742653667,0.008933073429328694
701,0.03298470805128513,0.008813195514963929,0.03661118298444106,0.02752275957813996,0.008229422336695475
702,0.03967304374063888,0.006540254741793312,0.04031882961991469,0.03451999013440912,0.007025392124964669
703,0.04417560507032836,0.0052669837313248915,0.04294481151269398,0.03944005992287724,0.006515444628922776
704,0.04319956038234775,0.0013690402463597592,0.041912308587684674,0.041634306401146626,0.001659699863746613
705,0.039261784121439575,-0.0027293559229370937,0.040403404022218585,0.043068230546971085,-0.003453693373347942
706,0.03334525012926065,-0.008177309166218194,0.03804603659164036,0.04417147063827393,-0.009711758264538926
707,0.02613820451004877,-0.016156096469626326,0.03464128352743169,0.045484439199654385,-0.017493331626715028
708,0.020740910605268087,-0.01877127733954964,0.033444221741867425,0.04259273558276495,-0.01782495070334246
709,0.01649860498509291,-0.017831430611896803,0.03292575373084661,0.03769003917049048,-0.01464927364194203
710,0.014230236560820607,-0.01490855866435663,0.03256312189349384,0.03387738536174639,-0.011965352408697812
711,0.0161609852570634,-0.007493989417457745,0.034424301202321136,0.030539867993030885,-0.006565261578971196
712,0.019875251380223738,-0.0006812528059353397,0.03655990305175085,0.029044975906476995,-0.0011142661850606437
713,0.023169098592592387,0.004111072313159734,0.03776487535917159,0.026938164460372137,0.005622583043478675
714,0.026194677994902445,0.008294122736815089,0.03852319346016168,0.023615772124469834,0.013568962232485039
715,0.02863921306329989,0.012025140159897309,0.038497083427741205,0.02044620728046925,0.017717215453542764
716,0.02830155589502855,0.011649161274294736,0.03652408986956903,0.019099800165805488,0.01208977597133469
717,0.026473480028989638,0.008792554356531587,0.035291290228062426,0.01790415303353781,0.0024161247590418484
718,0.02524435485024277,0.005764203104340743,0.036141718741840405,0.01548974926941735,-0.004876082726139689
719,0.02355699751174777,0.00197169191060307,0.03689621454376826,0.011424840396092118,-0.009902379398028328
720,0.02063495712607844,-0.0006538977232043774,0.03704049649747892,0.004579420179180994,-0.011174998441845437
721,0.016971266560003966,-0.002797819640687074,0.03649181187925469,-0.002809246332850965,-0.009590751568030027
722,0.01423464854455062,-0.005524983651136622,0.036436403325978244,-0.008514247823956142,-0.004863970799154688
723,0.01319944958819278,-0.007586688997395188,0.03776572306021883,-0.01244351044167112,0.0028071433181759056
724,0.011789770953142199,-0.0065448053945351865,0.03706533071610716,-0.00986786492085032,0.00973370340313498
725,0.008693400699848095,-0.0008612461548625028,0.03408452951021078,-0.006544848744374861,0.011970534469617376
726,0.006346023590112897,0.007474842999086898,0.032166929986190515,-0.0037135210229982513,0.013518512708956624
727,0.004068214554430169,0.013091717240181338,0.030596622439532543,0.0003970922081187148,0.01690241581073382
728,-0.0019295070668892938,0.01184805746988561,0.027124715159894373,-0.0002562215933057392,0.016176556985278645
729,-0.01013700337355444,0.006554392645938286,0.022323066388663243,-0.002516546294181886,0.011047216454388002
730,-0.016863077378345026,0.0025544746703803135,0.018107600384575675,-0.002332777273658881,0.006739001179510893
731,-0.02047088264376968,0.0016125744913445348,0.015278358249678641,0.00016533625465732897,0.006425866379908436
732,-0.020769267933211596,0.0032711738067274176,0.014513745746843592,0.0028286979382242047,0.009073053184292988
733,-0.018806780388281975,0.00598297901508976,0.014510204688027684,0.0071449955816685635,0.013260262441531601
734,-0.016273551422360432,0.007882948786036056,0.014190162462236117,0.012385589723124738,0.01870034631403944
735,-0.01420485594028175,0.008541833367517139,0.013256377051739944,0.01603987988716261,0.025577855961656223
736,-0.011843364943746652,0.009670858684644556,0.011490175086562408,0.02070216861440286,0.035245502008701135
737,-0.007753511650226243,0.013126689549075393,0.011529201594737533,0.027316992278709998,0.047461444282241486
738,-0.0022807646450974848,0.018261117596418366,0.013881652171638517,0.03429339197462813,0.05862674537660173
739,0.0017455968729825767,0.022839924058056595,0.015027965213658089,0.039208490896661397,0.06427746817437296
740,0.0016994152338650522,0.022161214722009916,0.013137641954394295,0.03478867147100436,0.055937031302069
741,-0.0016597668377154105,0.019209956608276537,0.008089791316855676,0.025904582568552232,0.04160964292285503
742,-0.004535307919751517,0.017667928971231435,0.002758053844423098,0.01954334401204699,0.03038237523710712
743,-0.005178767299881061,0.016893707561021654,-0.0005224478048827148,0.015864837123085413,0.02254241497268368
744,-0.004703830820229094,0.018591662554310214,-0.002626032880530222,0.016074944109655428,0.02143832429248573
745,-0.003613316120872793,0.02232962754553029,-0.0033331896067214204,0.01707999318670153,0.023220770023614792
746,-0.001830927552763301,0.026515360299009864,-0.0025821375310044778,0.016927554708770057,0.02388147783749706
747,0.0006280834853308456,0.030492580847210383,-0.0012478797478901495,0.017043154218255138,0.02495361259924365
748,0.003219672500456381,0.034450403627059506,-0.000984375443432914,0.020595184764369553,0.029579084694126834
749,0.0057400060454669034,0.03619863775366111,-0.0013813500672937061,0.026428584834792202,0.03291818861174062
750,0.008357027433070098,0.03557876392313589,-0.0011573182068554098,0.032490209161340905,0.03309434231171062
751,0.01050086246504233,0.034081083075881036,-0.00017336744437140508,0.0368374385598807,0.03255802902740278
752,0.012645370656317313,0.03142804137799987,0.0019052421621188302,0.036792482234487105,0.03008071231935933
753,0.01558981494063649,0.028995221720064183,0.004192989459293287,0.03486079568212956,0.028105924740706934
754,0.018239151739812727,0.027388735887839317,0.005839366292896166,0.033518649683539944,0.028017302889360333
755,0.01991715668006009,0.026533972857579365,0.007576095367016317,0.03200144484314524,0.028980972222487734
756,0.021056777761871936,0.027660689421794334,0.010281941756596493,0.030711045518585806,0.03445406886883349
757,0.0220085985677571,0.027672306869595535,0.013264913136891808,0.027970340650626698,0.04116173699264973
758,0.02289698431654698,0.024574541797813272,0.01443072084266853,0.023299957970545324,0.044297579699911056
759,0.022972692535277693,0.019762141753957664,0.012639796545604438,0.01775026422514456,0.04286722832757639
760,0.02193426705754239,0.014928483429984814,0.00924016955077475,0.011959711446408918,0.03692492092166001
761,0.020081655027460014,0.012420274173533783,0.0057056602870643545,0.007270021746413336,0.029891233435169782
762,0.017893763172702973,0.012464133979054801,0.002368132544421772,0.002926923899355241,0.02368750698819872
763,0.01688229853380078,0.01431612451343031,0.0005535802695307339,-0.0009377316870238201,0.018912732616348127
764,0.017466043083168112,0.015672356364752844,0.0008765778572766277,-0.00431426232261447,0.014124614735432466
765,0.01881104599103897,0.015589788019719837,0.0019499589191158337,-0.006908479186670497,0.010529489789859
766,0.020630633142614343,0.014339165159337898,0.002564187755367206,-0.008772383210947884,0.009649592957032231
767,0.02240816443486775,0.011209149711269389,0.0021079696069343243,-0.010954968012385673,0.009626424910519012
768,0.02365324131736666,0.007033018585223084,0.0014452706487674046,-0.013277498818761045,0.009266467265237395
769,0.024404984898934372,0.002063590632571903,0.0014181996404466874,-0.01646234548177089,0.0069006442657047855
770,0.02469645236051784,-0.004496981096364767,0.0009332309241108854,-0.020490526643534845,0.0024105630470231433
771,0.024506538802934952,-0.01184088079313678,-0.00045778307496748834,-0.023431973550550763,-0.001953633693450869
772,0.023089814288121065,-0.018033548250796973,-0.0024706461925077514,-0.0247930181313861,-0.004169026693781904
773,0.01990599541227931,-0.02203224022025204,-0.004708418110532769,-0.026011554060353617,-0.004277721934560357
774,0.016782429643765338,-0.022865941737577826,-0.0049983199604902604,-0.026178941701702377,-0.002738181900888748
775,0.014582940740392169,-0.021128929633303754,-0.0026747525590608626,-0.02416499654782653,8.45912917101986e-05
776,0.011658873883879692,-0.020051494737221596,-0.00023540213946599928,-0.021938704556750524,0.002600170499605438
777,0.007899513019647865,-0.020886238380305552,0.0008001145925277061,-0.021197553539357282,0.003809165751278366
778,0.0042932627330730805,-0.022175244795254817,0.00015991305812045636,-0.023186553491703007,0.0036352506747232014
779,0.001996186910069772,-0.022511146586526764,-0.0018104838902154201,-0.027734050476789007,0.002704913199255448
780,0.0029248105756862724,-0.02074251681444591,-0.003080703138457395,-0.031655158185493255,0.0032077521377319443
781,0.006046105150804455,-0.016960880740289862,-0.0025821910456147036,-0.0337460337499888,0.006237359496968311
782,0.007595184174943237,-0.012831980612112121,-0.0018993331781786455,-0.03608303836963255,0.010082554225503443
783,0.008174814410424199,-0.00798770822310862,-0.0006486507790556789,-0.03808094224770351,0.014020350792909846
784,0.010355502809379096,-0.0020527083893987865,0.0033512328736076823,-0.03821051967552367,0.018433864982651316
785,0.012093219154800584,0.002301893271283724,0.00893927859886968,-0.037824498762334346,0.021789323077593094
786,0.010965018070311222,0.004234695861959811,0.013574385730865703,-0.0372093790126947,0.02262091798122903
787,0.007685578022521953,0.005026541946021747,0.016462742601937367,-0.035589210820366035,0.0216366885433445
788,0.0059361603176995735,0.004440660320054788,0.01779697046937697,-0.031266970707690744,0.018923811850693622
789,0.005119129885863559,0.0015333445209363599,0.01817067366725468,-0.026697183983578752,0.012894751556279317
790,0.0038128241938420954,-0.0018797751061674335,0.018091293650016663,-0.02441520257748562,0.004500684267157826
791,0.00225043690576579,-0.0038010457530274866,0.017049171996850562,-0.024119927523732716,-0.003079436690450227
792,-0.0005176983670401565,-0.004680996625368063,0.014043268046704943,-0.025810692076232565,-0.007928066852074197
793,-0.003294020439744008,-0.004435507394383637,0.00913786459329888,-0.02727667005528056,-0.010044408308026644
794,-0.004376494334058997,-0.0025273611501983335,0.00401932463901247,-0.025821789987371033,-0.011156881374231452
795,-0.0030635790736057416,0.0003872688674246164,-0.0002167561764664336,-0.02058928560215403,-0.012833310891266625
796,-0.0011128077207732618,0.002461314592474969,-0.004645834472863717,-0.014654179286916513,-0.014930831058885317
797,-0.00026516767767899665,0.0019111900542657175,-0.010499366754299464,-0.010450914437891564,-0.017536031514908682
798,-0.0015661591241105414,-0.002960505613644185,-0.017946468106546695,-0.007962315037308801,-0.02190883785366839
799,-0.0038758178932494945,-0.011225214301420802,-0.02566086581444751,-0.005967600313854532,-0.02745669300002328
800,-0.0035359499261123323,-0.01908319542071216,-0.031578593594410925,-0.0025388352338609936,-0.03184928869007926
801,0.0003676544759360013,-0.023885879772216553,-0.0348800658133898,0.0019919684200923574,-0.033034085348445597
802,0.007954521061405437,-0.023605961755948618,-0.035021475922269424,0.00795730108903586,-0.02873040275453149
803,0.01840468877896845,-0.018477982691497478,-0.0329356922003266,0.015821613828969548,-0.020182784118626382
804,0.023131023904524265,-0.012858674211887498,-0.03037885139493188,0.018266572246230742,-0.013559470049814946
805,0.020434130631327346,-0.010428495255883971,-0.030693767682982202,0.01614519626243504,-0.012891524292280064
806,0.013524714600677555,-0.01064673997666948,-0.032981899078556885,0.013937178237635456,-0.017010462550501853
807,0.004160341029012054,-0.010692692274073871,-0.034282832563284064,0.011648435284755823,-0.0231048467315463
808,-0.004170474363926211,-0.008877950775151399,-0.03461582777820751,0.010099708528821921,-0.028443626578524832
809,-0.011502350714419752,-0.007418243293388719,-0.03394428437682073,0.006694759043601343,-0.031859125573942014
810,-0.018770040472334062,-0.009243844725588745,-0.033463147819088976,8.121424345967194e-05,-0.03438036263171756
811,-0.025413537015161983,-0.013212843068883274,-0.033900506771364206,-0.008007812710258551,-0.035971310835921734
812,-0.028036635644578655,-0.015859173546106387,-0.03412820896380825,-0.011782259213452216,-0.035494765839608686
813,-0.02640808430011137,-0.016225311329128838,-0.03071354997788474,-0.00913020257928607,-0.033435525611798085
814,-0.02283222531325873,-0.014667460922054445,-0.02328815475863652,-0.0037151723704243987,-0.03108375836461492
815,-0.019161240056203316,-0.01126488126857318,-0.014854734300545899,0.00032219633429405345,-0.027433091146789115
816,-0.01647567176129968,-0.007518146170630034,-0.0064037409331090655,0.0008374113561665027,-0.020980781863820113
817,-0.012349571081882007,-0.0051051507098656985,0.0017972001763561336,0.0003968969588759208,-0.014661385705032965
818,-0.005541972040266643,-0.0022175519118299894,0.009805487013711525,0.0012675205073448752,-0.011977672354029861
819,0.003050938315043211,0.005431707109539497,0.018499408336780498,0.003350480399410679,-0.01149392048505372
820,0.013218520196582087,0.015355410473572242,0.02341708109560901,0.0060027696758747804,-0.009960815759516874
821,0.021186533987144384,0.020822329228661313,0.02470661175410741,0.006898939889330086,-0.010943709979324243
822,0.023492321814331016,0.019403063718589544,0.02274632807656287,0.003404637729538527,-0.015008823385602468
823,0.02067844182140721,0.013954766051267596,0.016983084324424164,-0.004595090071160653,-0.01732925070763702
824,0.015166712787187191,0.00732976966112406,0.011887592139231108,-0.014123020603087538,-0.01800140623363289
825,0.01032091685763012,8.160037145821972e-05,0.008130879594328323,-0.02130543619075289,-0.018897975232958705
826,0.007603603915251861,-0.006093910172927845,0.004619442391365612,-0.024846220006915117,-0.019769009728503126
827,0.007117467386238493,-0.0091878672333104,0.002268118451737726,-0.02635137220370058,-0.019039531185364226
828,0.007948030752753053,-0.0090583019256924,0.0033300567734769505,-0.02755126515385345,-0.01714334094698405
829,0.0090418308170666,-0.007569629229649037,0.004931175521572449,-0.028746223563917598,-0.014518138935008388
830,0.008201371508072234,-0.0064433641103100354,0.004068856547783186,-0.030869915392115983,-0.011074465897316265
831,0.005962207511826649,-0.004875425294633422,0.0019808350282159827,-0.032904585498617814,-0.0059752788447475285
832,0.00747551461841167,-0.002335899145454714,0.00010060076395278461,-0.03442871394258679,0.0016533743875866982
833,0.011025273567326958,0.002395937873827224,-0.0006232283395468534,-0.03182138064689946,0.010698359681778473
834,0.012409507281322703,0.00575734360127992,-0.0012482388448762257,-0.03334519531274206,0.01767312239130757
835,0.01051274095518689,0.004770386203165529,-0.003089821866459791,-0.03797663182153356,0.019650711701407378
836,0.005485905130761711,0.0007798944006045957,-0.006282790364930123,-0.03591545403064361,0.014593338840677764
837,-0.0013330618743448612,-0.002982600874963212,-0.009064887699488017,-0.031809568223938,0.008050670245052516
838,-0.008709548369643117,-0.003930357383136669,-0.01121807503387352,-0.030720414449796875,0.003747794960220492
839,-0.014692375037655806,-0.0019936809764568107,-0.013246859843475147,-0.028755731791836072,0.00017194172593144926
840,-0.017009430309296126,-0.00036252228611942047,-0.013861714926576793,-0.025835976098557173,-0.0028808879703655504
841,-0.01611165424839609,0.0011006976839476358,-0.013277249990029773,-0.019042939441998516,-0.004826418057327767
842,-0.013878338782414623,0.00410446203474857,-0.01335227094005995,-0.008637183387907713,-0.004210124180354955
843,-0.013111578475628582,0.006132530253249938,-0.0164647297962051,-5.057899903764603e-06,-0.003016894229410412
844,-0.014605525649438076,0.004578499625555069,-0.023178921545979655,0.001114076030647974,-0.002598022079497012
845,-0.016789165718296875,0.00251730335083989,-0.03049049089254258,-0.002077964339233451,-0.001530241913338498
846,-0.017622565286139716,0.002552869091569106,-0.03466183520654996,-0.005286738809791936,0.0009891416970511306
847,-0.015467536911052767,0.003366526734441966,-0.03456798851945846,-0.006163320064250093,0.0025002777502330267
848,-0.010926570968773528,0.003179495321645731,-0.03249172332457759,-0.0011992747565478003,0.0008242760209231204
849,-0.005654054294751151,0.0018020955643647388,-0.03048726910203244,0.007429636154522659,-0.0006648099649508519
850,-0.0005248723560280732,0.0005889212381504934,-0.029431831299112074,0.015926595618075405,0.0008996978723004405
851,0.004255557931877878,-0.0007261219469041479,-0.030868935780555086,0.022040858178556756,0.003416317253867712
852,0.008720170573292633,-0.005766900860530127,-0.03139584898417917,0.017862329058013767,0.002635470473109335
853,0.012156272816119586,-0.010319502989024388,-0.03151688394405053,0.00912188044177082,-5.931039841017654e-05
854,0.014766124745552684,-0.011122814743801734,-0.03165269362681062,0.0008341517377496017,-0.0011152581346837334
855,0.017548784921497543,-0.009920777904522237,-0.030030019774688235,-0.008096564644114707,0.00032561650876962716
856,0.019685387827147943,-0.007081507619952453,-0.028543927663724603,-0.013521187612132769,0.0029622334341987354
857,0.020439699572741776,-0.0050313258809968914,-0.02701162083978406,-0.01754359192869354,0.0036081261213053053
858,0.02009799191403541,-0.0049280611771639555,-0.025420023017307947,-0.022371275197367466,0.0010747438846823402
859,0.019590375100887476,-0.00518829747080018,-0.024491947463678956,-0.02581981582759805,-0.0028663205187554573
860,0.01984796776698774,-0.0024315869960647306,-0.023884642333172335,-0.0228118355212589,-0.004845191001395645
861,0.019265025709352755,0.0012809255748048164,-0.022726304136035456,-0.018580805855577445,-0.005399342828307808
862,0.015565316041307347,0.0032816416489012544,-0.02242522281208625,-0.01933786143602342,-0.006447756755421661
863,0.009452719736294196,0.004158244430994965,-0.023993187700375455,-0.023865038999478793,-0.006903835048281048
864,0.004580512736884692,0.002444613572747491,-0.025328399604360022,-0.02951007683637573,-0.006387183337637742
865,0.0035783851657348437,-0.0031278828566599294,-0.02480650333214714,-0.030652456356898207,-0.006613614147123367
866,0.004487268920924482,-0.012515370081360484,-0.022660336854946533,-0.026989370384850726,-0.009406456113703218
867,0.005857685277229254,-0.02372450527199044,-0.019583964097211606,-0.021862808278658614,-0.014441634914171964
868,0.010369514462408372,-0.026801932030016223,-0.015131644788534295,-0.014710246722156933,-0.016143118364273117
869,0.015015500753829156,-0.022715645688118027,-0.010283659721186259,-0.010572243325255718,-0.012583409036993145
870,0.017672981343762825,-0.015606697198655324,-0.005300326607701205,-0.009114711273576714,-0.007307530230361034
871,0.021069046656121228,-0.00507372867150153,0.0001766816736059401,-0.0048297713538119885,-0.0016111603523351345
872,0.025568376106376977,0.004574124535708243,0.0041495024360594214,0.0014529111838385096,0.0022981977895401504
873,0.030223814193271793,0.013170785653049091,0.005537089730157158,0.006419637011624882,0.002716781434717419
874,0.03360282533717771,0.02271608083322667,0.004627487223443889,0.006293585035959919,0.001594559653379067
875,0.033483442261930924,0.03274672888295371,0.002424260402961045,0.0011891072621889663,0.0017046203399329514
876,0.02762251522933008,0.03716318478960533,-0.0011137222255892666,-0.005505943111289939,0.0017489968979086787
877,0.018306203167093665,0.03450519534992032,-0.004625075155404453,-0.008824525327642559,-0.0010689262455280306
878,0.010466314459763551,0.029223970926491708,-0.0066527551733986355,-0.008199712846657835,-0.0059823379762696674
879,0.006816247894734232,0.026928482492608086,-0.007593494502373656,-0.0073075176352116,-0.010246870718378029
880,0.005905388982297532,0.030372747360041644,-0.007735888121686689,-0.008644450257483048,-0.013735100798454284
881,0.0033500289762697787,0.03530335195570134,-0.007825711257298898,-0.014509346982741818,-0.01840893327484489
882,-0.0020624535823590842,0.03934362446703928,-0.005773949117888035,-0.023389070173472703,-0.023848532510776344
883,-0.0062114792563810655,0.040775031260864396,0.001565632175961006,-0.0266737431915353,-0.0318518515749524
884,-0.003958545436620547,0.0322917840149006,0.010569817303985306,-0.016792960156793324,-0.04286586728629771
885,0.0025421763054766806,0.02052929869086186,0.016726201421120388,-0.003071282942794117,-0.05378590543419809
886,0.007050761891495498,0.013154713868365388,0.01888148773754547,0.004452224745526188,-0.05803074690300083
887,0.006931974777224068,0.008466025465482975,0.01769128569132304,0.006665516687136094,-0.052835439193298785
888,0.003275216584132812,0.008083631675661262,0.014745749690436712,0.003699128409725535,-0.041861413474516544
889,-0.0001030835468911432,0.008662697294322378,0.01180085074328442,0.0009910514632980535,-0.029060344641088916
890,-0.0014327026580793485,0.006478735724529764,0.011027909424052644,0.004628961345664927,-0.0156261744984995
891,-0.0032193580971943076,0.0048219655936171954,0.011257301911541095,0.008686989541331893,-0.0013799269334981825
892,-0.007129039824538953,0.006537002818003847,0.011136452616149378,0.008025722322925134,0.00802851426979531
893,-0.011129846359336977,0.007709915045156803,0.011397904369189766,0.007781479169390528,0.01275433174865905
894,-0.013461408313667798,0.00871332860005782,0.010972227524010359,0.007966863798137545,0.01816350635309182
895,-0.012508593190391154,0.010943181319802325,0.008466567086084105,0.007624657488442033,0.023025351853686638
896,-0.009948078630524678,0.008761225556001916,0.0058171733687642614,0.012985226479478182,0.02252683736228327
897,-0.0015371108737097794,0.0042600606919047015,0.005277801586879018,0.0231396924410316,0.01625589623935762
898,0.003236206156929996,0.0002960433252380011,0.005169434241827393,0.028613697000426333,0.011730070321935597
899,0.002466935709534693,-0.0029811814729048627,0.004153081629531593,0.027055173229303127,0.014239094075491836
900,0.0008334780862208717,-0.00022262554935296465,0.00512184544027014,0.025171315305721118,0.020534714688884383
901,0.0010023013433475855,0.003139904979245434,0.009820805351855314,0.027697401333394725,0.02442255143966434
902,0.0028621293000998865,0.003748586486952492,0.015259998076382035,0.02990396448789955,0.022206141901453584
903,0.004097347643347177,0.0047098116457230865,0.01880670025378313,0.0276959416805422,0.01883255556395438
904,0.003213661259944648,0.001630057288392079,0.022794716821869117,0.028129440311382644,0.018527570310401517
905,0.0037259917437034054,-0.003429760502476204,0.028684599335224117,0.035369524523317854,0.018386973994270278
906,0.005810614397708139,-0.00449693514712628,0.03211311607391847,0.04075445081604764,0.018236436513420773
907,0.005739167488798291,-0.0015179803836367163,0.02900000151263113,0.03533421014433914,0.015613589722966684
908,0.0030806956860743623,-0.000932659022123643,0.01861989318492059,0.02056698396054023,0.006780678390408805
909,0.0008972937665350728,-0.0018758476555075455,0.003874626201128413,0.0037988952468736327,-0.0026967434602307334
910,6.565680841869541e-05,-0.0008636544905723382,-0.00848235108125288,-0.007541105035657797,-0.00457548582027052
911,-0.00014853486678685025,0.0030595008980526107,-0.01454280948013022,-0.010245964093748674,-0.0014671924713429724
912,-5.523871423258763e-05,0.009384315658414457,-0.01607341653199499,-0.008040424605721817,-0.002841344591208794
913,-0.00013277662366341475,0.013937651635730557,-0.015688941932364073,-0.006181360674678535,-0.008619084415324461
914,0.0009707274248667843,0.01659889349502395,-0.0147726676396753,-0.004991115494599896,-0.01120323072329742
915,0.0039388993029000315,0.020730793633346355,-0.01525427668319326,-0.0020850130317808906,-0.0098653117172881
916,0.0018060884212254106,0.02470642053740035,-0.01932194057947393,-0.0007977949891561579,-0.007556507386854581
917,-0.005011662547575399,0.03267017554835382,-0.026163092638641902,-0.00685426241784904,-0.003812961139703518
918,-0.014558278194322776,0.04026584396846933,-0.03215505850562027,-0.017710747064741617,0.0009824293935731206
919,-0.02576505670115465,0.0388187117949216,-0.033414585221829635,-0.02379416118183661,0.0045562002492383225
920,-0.033321163120837057,0.032287408139519344,-0.02973701905221129,-0.02310167892643747,0.005651966364497765
921,-0.03712412538871196,0.02369481102385902,-0.0248100700792075,-0.021421092896147083,0.0035217199951042867
922,-0.03760533062602832,0.013659517769907375,-0.020209825144738087,-0.01851171888297957,-0.0011263752245930679
923,-0.03609637310923415,0.0032218025632558015,-0.01539896342221981,-0.014498085092080198,-0.0061313144603427966
924,-0.03259382047986193,-0.004720856762413975,-0.010901484185244174,-0.012319136807536895,-0.01206971829141494
925,-0.027978085109462373,-0.009824168814793335,-0.007286220357519196,-0.009921178779661841,-0.016592512747124668
926,-0.023365157233223327,-0.009921625925026295,-0.00439776163004706,-0.005592494757960482,-0.014524958739186295
927,-0.018095960640682286,-0.004944959143482097,-0.0017860046329925233,-0.0014309386943599583,-0.00889533755574365
928,-0.012683900300865877,-0.0014812607733608047,0.001276346595749605,0.0021802705278013757,-0.006651126980680531
929,-0.006878705203590545,0.0011860685403683965,0.005581909395374589,0.009038623239509316,-0.008059638334768741
930,-0.001124872451204085,0.006601466545319941,0.011164676524895266,0.021336049275798085,-0.008221148262866226
931,0.004382180819948534,0.010825606676431973,0.015809724503385334,0.033070416533310776,-0.005297667076007566
932,0.011221063169590765,0.011644802310500104,0.01651983480304736,0.035101462651387194,0.000674045673223156
933,0.016387168918804162,0.0062606569254758885,0.014188232062734693,0.028087850055888628,0.008945868408882335
934,0.018409688948343567,-0.005389174541433068,0.013062414245099867,0.021271884544813054,0.013892077206167775
935,0.018513226654405326,-0.015161219328906518,0.01361781224078839,0.018514003609991697,0.012527084537598649
936,0.01659193445103025,-0.021202795229033112,0.012813118369048467,0.016661743777831202,0.0051047896003422475
937,0.013191338922688658,-0.027296865297677435,0.010938571191737244,0.01263687445038625,-0.0052599886397661205
938,0.007989897823299076,-0.030530781416250475,0.009912661824225748,0.006687248992278922,-0.007187014695399167
939,0.0032733310495160163,-0.02782529431966626,0.010559533823628018,0.00306209370728377,-4.250761932214532e-05
940,0.0006682316763722024,-0.024402791680432332,0.014746255472201202,0.00497342792867988,0.0026410694063001595
941,-0.00016950059724077065,-0.021799510236236646,0.023600311573553568,0.012570581325047233,0.0014413855670724882
942,0.0003635560848258488,-0.015492737188128285,0.03263225346451801,0.02243159167359702,0.007096666779071944
943,0.003731420548641159,-0.007089493064538769,0.03544502436314653,0.029580422564681155,0.012624441026723734
944,0.010439985581079187,-0.002227299093068246,0.030987027532667792,0.031316082213731625,0.0064058666432676966
945,0.014371693761895572,-0.0031656455793397753,0.022315413269704255,0.027246531535466068,-0.006094062941323769
946,0.01296786494709182,-0.0086468661074163,0.014274552510013928,0.022519566968699778,-0.014666767051505561
947,0.00930205937587188,-0.015157477724461762,0.008612772534562206,0.02050209420224767,-0.01639660153513345
948,0.004206657912939766,-0.01949389279325019,0.002073579818232368,0.016210710997638832,-0.01574149545319746
949,-0.0016215613173302115,-0.02117239076400793,-0.004257536073147845,0.00909862925041444,-0.020708742902490654
950,-0.006650557632996038,-0.021571781368390497,-0.006591100273078786,0.0033843583007304137,-0.030653380175886178
951,-0.012486694927311326,-0.021240649568728488,-0.007410279392444137,-0.0024186178202301374,-0.03264729011634246
952,-0.020391795241487314,-0.021119350898661654,-0.007796410379636891,-0.007397012798858809,-0.02235200597474746
953,-0.027845013873640276,-0.02405959213167229,-0.004816244407070463,-0.007288218976758783,-0.008112504152330972
954,-0.030563948149048024,-0.028562352856511517,-0.00031321938571313173,-0.0017334440531446716,0.006093313069382964
955,-0.026279157313954107,-0.028254770248402165,0.002140408774692665,0.008278479146221094,0.017381645471639565
956,-0.01882790830972793,-0.021708970085382973,0.001501032590783723,0.01777778191815015,0.021213172111742305
957,-0.013517254209365547,-0.012863741167729339,-0.002361567824606956,0.02001528088536347,0.019245844541326395
958,-0.01178907215634325,-0.004560136228421076,-0.0077521162899358365,0.015263145665892071,0.016701886560747326
959,-0.01172739948425754,0.0015958817620156886,-0.011524771568194807,0.010171269250378909,0.017558748067670403
960,-0.008434902415416688,0.0054184015391992415,-0.010969223335254744,0.011430524470259709,0.020579518453002953
961,-0.0023213973261391203,0.009772318389973274,-0.008985556410945412,0.018967267630983876,0.025617589382907494
962,0.0035135569788272408,0.014814679504817206,-0.005955688249102218,0.023834305764683185,0.029617787020311526
963,0.0057385890398271525,0.018446043612660924,-0.002985977991165848,0.02355999136656676,0.03062344737286309
964,0.0037557821972318372,0.018859892690270327,-0.002549699721909968,0.01898901422798834,0.026664308150039413
965,0.00017970324349357263,0.01578822616578775,-0.001782449483111261,0.01402552919249135,0.02264534239940095
966,0.0011707072877075214,0.01165492658032924,0.004989107471972926,0.01633361324793802,0.026071699134528274
967,0.008475412086162466,0.012605027878580893,0.013704161862527396,0.024106689910600002,0.036168174266194675
968,0.01619075769100732,0.020258833344107663,0.017295214306464034,0.028238508555951513,0.04491400481716419
969,0.017842706880875418,0.027457957125135733,0.015913707710721023,0.024548641584450113,0.0483532764072906
970,0.012964609460648847,0.030518879190540856,0.011945844898342176,0.015190725852172848,0.049141778991128864
971,0.006535584167345794,0.03159889677425118,0.00777235128813538,0.005918016283615407,0.04884576661640219
972,0.0024383662060522113,0.030435141455277447,0.0068576054319552954,0.002628900327199484,0.04562456049138912
973,0.0011011166525369558,0.025300804192203662,0.009798403821502502,0.0074771485021112,0.037761317632976174
974,0.0014650961982983007,0.01622379593491049,0.012699584698881815,0.015733813710785503,0.02685895963841397
975,0.0014841982203265514,0.007071522519665827,0.012528032972318543,0.02015999648639452,0.01716411760734965
976,0.0011322568269644747,0.0027408242910005646,0.011332850315560038,0.019943173407092795,0.011188966184561187
977,0.0018896103961696606,0.0017635357711263235,0.01178922999979022,0.01855353445146455,0.0075542766644787086
978,0.002252705316229665,0.0003457729550690279,0.01248889930686198,0.015499904958929658,0.005274862318333655
979,0.0007234390674563417,-0.0011353970653982823,0.012005146004886677,0.009799678274294654,0.0055494444972548265
980,-5.421211524745202e-05,-0.0018935513333914109,0.011963341344810545,0.005743204109624267,0.007432952999963041
981,0.002479612009646852,-0.0036666738347158508,0.012769975212144985,0.005302277805836141,0.007526575080295509
982,0.006890501261284863,-0.006137057890597037,0.013546150919545665,0.005460495120872477,0.00523180460108793
983,0.010607573383737577,-0.005466107064021703,0.014961582684021011,0.004600577111904063,0.004912594758581671
984,0.012699966197358732,-0.0010621518843033318,0.017286220243542216,0.0027991742477948556,0.00946002551321759
985,0.013686807816173542,0.002628733257516867,0.01925955547203171,0.0016069145453500172,0.014891648086706772
986,0.013947482995597059,0.003689923161561064,0.019884273536280132,0.0020700567776001755,0.017412543823713707
987,0.012801013063133089,0.004089779481522995,0.019439375097333008,0.0014100504999150578,0.017978665806566693
988,0.010033679979220595,0.004383909701561038,0.01879623972035035,-0.0005337269126859338,0.017478646128242136
989,0.007406848234272764,0.0035479857883445524,0.018517873565315503,0.0017241307326365815,0.0150830195106153
990,0.007193225410971988,0.0010835520489093458,0.017378164501828136,0.008486090776252304,0.00960695239184884
991,0.008687040300909278,-0.0018381058271324244,0.013827693865387255,0.01262867842159551,0.002733003844010237
992,0.00976505623364411,-0.003135182322005542,0.009993301340635875,0.01178313208297908,-0.0013923494172604419
993,0.010511999702381529,-0.0028088375761647164,0.009749658806795668,0.011139160549731342,-0.0015472482741755542
994,0.011203155883786774,-0.0025273889954470614,0.013183334834916951,0.013283025983505276,0.00016442174661210498
995,0.011402093209715808,-0.0030092267751447173,0.015867289364744033,0.014479040415994435,0.0012652473555865781
996,0.010642012938286965,-0.0036862352654675637,0.01418931632666027,0.01186426809167926,0.0011038718594833525
997,0.008182484573318724,-0.0033292493107252128,0.009471407686185897,0.007021627603106064,0.0011764983438474104
998,0.004372410247939898,-0.0017130921394687278,0.004983575530500005,0.002453169721259068,0.001813317278439902
999,0.0007529655418592638,-0.0006535159497600549,0.002461696909921825,-1.7222941630114487e-05,0.0015165515234657203
