,AF3,AF4,Fp1,AF7,AF8
0,-0.0038109053102434788,0.00965088514652431,0.02353951440657456,0.0038288697052911618,0.013273285888596326
1,-0.00037901066653905663,0.015635404368702754,0.02480918522990492,0.004069852279523296,0.013973728902163928
2,0.003052377581249669,0.023596227975942113,0.02621602131874934,0.0038275729604068747,0.01582738731196924
3,0.005048181039050032,0.03151984024762778,0.027110978178807907,0.003462153060572221,0.017997602891183614
4,0.0035511418693166454,0.03583696448846543,0.026461060396574768,0.0019626311890896956,0.01849773882587473
5,0.0001751330139017461,0.03689646211243198,0.026107590921155163,0.0008225622030426631,0.01869361027494824
6,-0.0020677621399873493,0.037325587772713505,0.02746150976744005,0.001364293457261903,0.019925901494025643
7,-0.0028105886967892176,0.03799538164746264,0.028504094369718822,0.0015066514259710203,0.020433858361644658
8,-0.0012902146735752477,0.04020088776549991,0.02912266307555162,0.001795652349577524,0.020238894367873943
9,0.0021817785597003313,0.04246472385860688,0.030281984903449657,0.00403733425744593,0.019600845217587554
10,0.00503006340306254,0.0410606551349061,0.03041299803047123,0.0064456024428389234,0.0171312136042326
11,0.006362462585101969,0.03647486120109282,0.028908536528413065,0.007383505273042153,0.013239319782759997
12,0.0069413492615338565,0.03189920143655476,0.02755579761764563,0.0069593574022813656,0.009549327167365571
13,0.007390717488697624,0.028835662022286226,0.028027474136945698,0.005931289521275089,0.006680129502939738
14,0.0071510446578206925,0.02674260291529762,0.029995479879776656,0.005298310435485992,0.003839178740399198
15,0.005454293098259988,0.025391001699534878,0.03223976735236605,0.0056557387112450225,0.0010757939308134025
16,0.0029801723396549735,0.025582967886919862,0.03439991457048805,0.007467354689858872,7.800082213392032e-05
17,0.0005705737350891566,0.02710546701094219,0.03620726077451894,0.010222699775273245,0.0015516113221931333
18,-0.0012054033982112084,0.028687662589545148,0.03751385566232904,0.013164171144008604,0.005008261933214649
19,-0.002350251609423375,0.028438267752780372,0.03772299661510739,0.0157007617990104,0.008203625075568715
20,-0.002587330035444086,0.027445998648706203,0.03674766766209449,0.0177323787551925,0.008987574516439155
21,-0.0008492545099491645,0.02711085033749451,0.03621306319098637,0.01998241274300582,0.007688266854656943
22,0.0029638306665133994,0.02752821867924111,0.03690036825302306,0.02294130362192072,0.0047649813919194706
23,0.008093341275460127,0.028135044674375716,0.03796757684627372,0.027263426289708723,0.0005546569707860331
24,0.01242485998684425,0.026553574875667865,0.03811313849656325,0.03142433198234945,-0.0039033436524245797
25,0.012723278894631596,0.02207195708703985,0.035817852534584166,0.031556535615203045,-0.008795077123035608
26,0.008197988538037486,0.015561887059870586,0.030459627692286197,0.02707165870905958,-0.015405232955995865
27,0.0020757259082241825,0.009724994308605137,0.024040843337129653,0.021478011401568946,-0.022300467452324602
28,-0.0027985533441680036,0.0059973064973190635,0.018863302666793764,0.01714881896669089,-0.026382169804117155
29,-0.006043050012348481,0.003988326369647362,0.015124016034485826,0.014320713839773642,-0.027335210519031344
30,-0.00784713766026613,0.0024119893878028513,0.012255711274868237,0.012946622369104361,-0.028550908923428597
31,-0.008368037888783052,0.0008904420305188832,0.010011112975345043,0.012742908364908458,-0.03316417708320815
32,-0.007373594332543541,0.0011747521981951797,0.008215534773800258,0.01319663741572098,-0.03957969912379727
33,-0.0060725278068557475,0.0020645392843212833,0.005642548564648687,0.01253871458775961,-0.04534419784942172
34,-0.004842577332193961,0.003215274634177761,0.002554150059668791,0.010915995191419581,-0.04965026294481134
35,-0.0015662325139025883,0.007350344340470791,0.0015585897693298609,0.010837663966334966,-0.05118264278107224
36,0.0036130488684447517,0.01121170960762393,0.0029969632550479017,0.012003595236959609,-0.0502055976766566
37,0.009857704480098388,0.014915073644056047,0.005602868773871786,0.013658024851119015,-0.048149374045695435
38,0.016361658055326703,0.018967050001334026,0.007371761514090868,0.015349183438385093,-0.04544611248101256
39,0.02073839815993357,0.020816101657151104,0.005858968439691934,0.01537531112025149,-0.041335458378961444
40,0.02245793311641217,0.023085340296597392,0.0016924014197012623,0.013669253165460641,-0.035234689250158775
41,0.022899391637633795,0.02715412009144609,-0.0026815324116074733,0.011631086422622627,-0.02869833615799249
42,0.023895613840544002,0.03232111848199293,-0.005361744111111241,0.011380174160996489,-0.02290903224752141
43,0.02673672456734281,0.0373749918410526,-0.00558404135197609,0.014484556163156349,-0.017617403507075732
44,0.03097027326009588,0.04189941663558459,-0.003742622531188967,0.020129352008241168,-0.013283949336110745
45,0.034745963012140384,0.04288608238574382,-0.0008853891056510887,0.025781455307188852,-0.011573436295964577
46,0.0362575614314366,0.038969302073178044,0.0014347376147588644,0.029165979020525767,-0.013707308961563084
47,0.03553171426182333,0.032315259212962785,0.0023272581881032175,0.029972561350180397,-0.018707914850395496
48,0.033164017715151525,0.023540370536849483,0.0013344622118641853,0.028341583782710005,-0.02462106553390781
49,0.02995377610974955,0.015758395526130512,-0.0014738643176164159,0.024460727738483068,-0.02832755929799728
50,0.027122007721839366,0.011542296248490864,-0.005392624779289224,0.01914023017486573,-0.02778629810451774
51,0.025191479098666657,0.010085460612549309,-0.009385571356523468,0.013760855251194725,-0.024656681946004903
52,0.023853501716488368,0.011784718895535833,-0.012032424160245733,0.010176903602509148,-0.021050669327662877
53,0.022532350714254204,0.01467371456724355,-0.013727779616909184,0.008667801399272245,-0.018061043590800463
54,0.021795244431318125,0.016858057725121563,-0.01625454404829143,0.008132072954236085,-0.015844852894099988
55,0.022202596887353643,0.01832097774027963,-0.020115399394160197,0.007885825663192764,-0.01401569724972329
56,0.02273944704990236,0.017883616276070824,-0.024368526754888365,0.007830979458925313,-0.01319513963578213
57,0.02297845178926692,0.016047853863568502,-0.027487923998856984,0.008552066152008469,-0.01390329451985798
58,0.02402053844333605,0.014558354342642228,-0.028062322373694572,0.010345845325486198,-0.015184179438559233
59,0.02609054844292353,0.013239803696390672,-0.025733697025693843,0.01211819418982789,-0.01687070243986094
60,0.028339416947034773,0.011105376204679255,-0.02114948083566529,0.013314118088698429,-0.019087817174346336
61,0.029406611584906126,0.010110270247695247,-0.015909741662293583,0.013757187693892461,-0.020723555866652116
62,0.027833505569416075,0.011285679446706014,-0.011992601945537256,0.013016497166068418,-0.020948433490390092
63,0.024131724064122347,0.014254227466871156,-0.009961169870098692,0.01173261138809024,-0.019438187180293384
64,0.01994633408693333,0.019317926939854062,-0.009696447387914479,0.009389696149715394,-0.01653138199939571
65,0.01628547107706792,0.024970582511699462,-0.011215918054854567,0.005150330092937034,-0.013740618001712774
66,0.0133477471276568,0.028878625418578826,-0.014100318914453985,0.0007499603962456697,-0.012868239212650597
67,0.011189150593153218,0.029940141633731664,-0.017344205131275617,-0.0018091558781432278,-0.01405470858005575
68,0.011103743914237366,0.028004987082964183,-0.018535711844769365,-0.0014330941424029742,-0.014907861819113511
69,0.013438884235435416,0.02595571042361297,-0.016711272061713297,0.0014479188406712193,-0.014262421252128859
70,0.015469257043344732,0.022989492949491028,-0.015785896556372504,0.003524904699346455,-0.014387632872390638
71,0.01509987805413809,0.017090224781892104,-0.01943587017572943,0.00193487934618634,-0.016076110931205617
72,0.013235642339911865,0.010776366285216119,-0.02612979944893929,-0.002651553167308815,-0.01751921653769674
73,0.011468757244592778,0.005365468852364776,-0.03197072223472191,-0.0078005436264235685,-0.017530546637090274
74,0.010900132246294087,0.0018314763870726219,-0.034214572693431165,-0.01108667576715504,-0.015532122407474947
75,0.011604225174426563,0.0011810367249606344,-0.03268148981850141,-0.01111534338485648,-0.012267524431665826
76,0.012775018642353449,0.0028984084621974083,-0.029074437623468376,-0.0080761167703335,-0.00908576200930393
77,0.014014377239182101,0.004622343409819424,-0.025530756391562322,-0.003793096060818619,-0.006085596568442561
78,0.01407439138866964,0.004143830865207428,-0.024424582588486454,-0.0015193504187724026,-0.004004118180062268
79,0.01206765152507098,0.0012568351869262557,-0.02554875056764048,-0.0019647057125191164,-0.0033866170289256793
80,0.01027545061793279,-0.0015608968533317366,-0.025501129221517312,-0.0021429336417337413,-0.002576431201901556
81,0.011816929172401302,-0.001066342315184842,-0.022518730033309186,3.04046389681181e-05,-0.00012472894649824534
82,0.017042724137853665,0.0020585012753016867,-0.018003332660379987,0.003836747769721818,0.0030380857401824976
83,0.023467422876634548,0.00394981520930259,-0.014229481448645047,0.007559871099596613,0.004690359046385849
84,0.02883156785430569,0.007237121374724437,-0.012453337152899235,0.010204910487221884,0.004316657436114395
85,0.032002889579996946,0.009036083367517498,-0.012469873096410318,0.011212738241122464,0.003207882965356876
86,0.03185494952424101,0.00816752271738323,-0.013588598546229565,0.01019051264072923,0.0012890759050128698
87,0.027571446977430487,0.006056000009321978,-0.01563607996426108,0.006808328838584687,-0.003156098414264109
88,0.020161609402419393,-0.0009449215378566477,-0.018150869449129442,0.001433354248869473,-0.010687973701173387
89,0.012586241358262824,-0.009612923043974002,-0.020068316302874062,-0.003994209426411463,-0.019336460129134623
90,0.006184117080885256,-0.015329709713760697,-0.021702636602189424,-0.00830681262542933,-0.026436472978187017
91,0.000903627067727883,-0.01686642497735521,-0.02318314156752352,-0.011031245221932183,-0.030268162118851305
92,-0.0018067038694323729,-0.016125483820867644,-0.022981874311553466,-0.0113459753251611,-0.02996646894654382
93,-0.0016562640837294545,-0.012973356941275386,-0.02111276993515775,-0.010560585329270327,-0.026063004312369954
94,-0.0007460932405174799,-0.009465824255315593,-0.01929801581321798,-0.01055545409402435,-0.02099960446877023
95,-0.0006267093892289428,-0.008588409476470042,-0.01849694173936933,-0.010942554882264612,-0.01779265710196847
96,-0.0004369249415435425,-0.007031187672159716,-0.017579930198047745,-0.010400516513918857,-0.016065502317983867
97,0.0009917960957280744,-0.002663845549427589,-0.015116788535344363,-0.008948519142502477,-0.012738515427212821
98,0.0025978152204285568,0.0034183714289464967,-0.012221419743409992,-0.008519083714266974,-0.007924302820525496
99,0.0034580653834236476,0.00970354555523772,-0.010667305197512895,-0.010343937975616245,-0.004432553959500626
100,0.004534741996662704,0.010850912674416563,-0.01033477648432958,-0.012714184748540209,-0.0034621578156333707
101,0.0066911267667979155,0.011163184781448685,-0.00993242717842927,-0.013324316052393124,-0.0040284981582789725
102,0.009028755855765201,0.012543763011763177,-0.009700242153124965,-0.013045936831534438,-0.005319860668839391
103,0.01135222977371678,0.01211039503824195,-0.009821172909727238,-0.013524248631629631,-0.006455378476358385
104,0.01478386381151952,0.013248235499648967,-0.008392351928558061,-0.01399481884060319,-0.005132812895261676
105,0.018277374417869,0.015127766572594544,-0.005302426031311914,-0.013495156083653535,-0.0003265329891132336
106,0.019353743942450884,0.015289914198371193,-0.0029070027318954506,-0.011830938766611726,0.005512573151724473
107,0.017323596279893442,0.01351786867701372,-0.002209294492277489,-0.00887923025789668,0.008867537138680683
108,0.013618006375017703,0.012976647245381402,-0.002043926241547993,-0.005930692599775531,0.009347031494362721
109,0.009131027602654758,0.012196956580076633,-0.0021852645125748547,-0.005768635304471989,0.008320017465301316
110,0.004645597456857792,0.01037979351850965,-0.002422866510844377,-0.008013654177239224,0.0069676822277086915
111,0.002224536269787886,0.010214209168731699,-0.0009881456634451182,-0.008763311924068935,0.007066283499883653
112,0.002164164819989476,0.009925431324603494,0.0021622417995281356,-0.006523611487399646,0.008770051404867418
113,0.001826311214446393,0.007811555003129772,0.004725581876307215,-0.0039504994100401526,0.010032233656450758
114,-0.000567665459201625,0.003016496650118608,0.005142332489104421,-0.003650259001630291,0.009245424862391122
115,-0.0028972304492844267,-0.0032639109126609456,0.005148878547656947,-0.004398581896819493,0.006981696190802269
116,-0.0022141918952454163,-0.006347436497941382,0.004666119587505805,-0.00363826483722335,0.0032065669550806896
117,0.0015566683763640976,-0.007052308193951737,0.006347802635122747,-0.001141516485364547,0.0007246477053369385
118,0.0071457808785350165,-0.008009710574938437,0.01011975033882259,0.0021828340224240793,-2.6235262937486056e-05
119,0.013485341102954686,-0.008115527226177222,0.012899668372947702,0.005549123794586451,-0.0005679254899514336
120,0.019394759047288327,-0.0065476280956986285,0.01546117657280605,0.008805505592158808,0.00039711985754564076
121,0.024737471517661615,-0.002529106816806371,0.017654304883745968,0.013544709605875577,0.0025917535003442582
122,0.030370941516688635,0.005028252626726004,0.019590807694166937,0.020418851241924534,0.006365566376242511
123,0.03514776742417112,0.01416286136825452,0.02092265486532636,0.026672628579935034,0.011405752534095877
124,0.035883741428353946,0.018972883733075978,0.02089295102519443,0.029376651301774998,0.014718677995464733
125,0.03285605018251136,0.018661126171343998,0.0184755700797414,0.0298030409490703,0.013841899513953848
126,0.03010890879851255,0.017199253449946997,0.015197773763646671,0.03150413573633683,0.011676785241709656
127,0.028981211681565446,0.016293825962172895,0.012082366882636517,0.03410365352016635,0.011122752037250784
128,0.027970807167747923,0.01576129894223925,0.0067486708961096015,0.034875587175867806,0.00981868433071242
129,0.02674924846821936,0.014922621189514394,0.0002211649912069173,0.034123302135186814,0.007042018356351567
130,0.02652950776298543,0.014153873527176654,-0.005676134018030597,0.033913410798213944,0.0028539595613861807
131,0.028246255710763793,0.014483521270247797,-0.009944562537937313,0.03501985916107817,-0.0017564693123533694
132,0.030313400603720803,0.014812718820743505,-0.005961013161620665,0.035341414185459594,-0.0017280576578281282
133,0.030469852365354835,0.01259771475140125,-0.0019497216020107901,0.03206777482235184,-0.0027685822238295455
134,0.029261711581595302,0.008425611465010436,-0.001463582089474337,0.026382054386116356,-0.006328022230651837
135,0.027953998421001717,0.004864332013659615,0.0005447930312490179,0.021434943477326617,-0.006512783734036431
136,0.0271823881210122,0.003883789593503827,0.0006971402453329215,0.018527999199274232,-0.004454142372068074
137,0.026866346533060553,0.005700894676438554,0.0013996476016950152,0.01716746629109594,-0.0005276945230792674
138,0.024732421324628433,0.007083121429288681,0.0032939995680221464,0.015364055896245425,0.002653624304447456
139,0.019953437095273325,0.0059704092451305715,0.0048769038154904435,0.012423525136357985,0.003234472312848223
140,0.014132306361882606,0.003465378033813783,0.003893909272523126,0.009097630066641348,0.00045142098415635305
141,0.008159194919289847,0.0005360024516001241,0.0028951741254039263,0.004922624387145992,-0.0024234398474921167
142,0.0037655804156057336,-0.0018178291091786758,0.003706918261594489,0.0005627119798834465,-0.0026320457106858695
143,0.002425638284240996,-0.0030730860006546205,0.005831877149737178,-0.002227508439615122,-0.00013584204832082323
144,0.0028146613625946036,-0.004213422145952652,0.01108631792283903,-0.0033232228226700183,0.00595171009677521
145,0.003977408203992236,-0.006215855404659716,0.017626932871590072,-0.0025624491628479626,0.012976478577645292
146,0.006079786917073938,-0.008991759404416867,0.024771027441768057,-0.0003898291252762615,0.01926593836694505
147,0.008759766300903684,-0.011335925283679407,0.03383929702512551,0.0013246858607733642,0.02653770529897149
148,0.011546782387079357,-0.010869371261286915,0.037131226513817873,0.0023850558739650788,0.029562779743012055
149,0.012596740188644573,-0.01042234573891884,0.038071070684751344,0.002978648918717346,0.029194526360363637
150,0.010206423137648073,-0.013342313399517962,0.0374362409445476,0.002294499890438623,0.02583744806949848
151,0.005050646791995802,-0.01870764805166986,0.031153246281720837,5.115460306164722e-05,0.01883088709153877
152,-0.0012773611245878668,-0.024889767499809992,0.02471606429935737,-0.0026741262528840507,0.013897685998707967
153,-0.006858321459589271,-0.02982519882016164,0.018592534370382188,-0.0035319068683772404,0.011200278795248946
154,-0.00988330648737701,-0.03208940662272509,0.01263378857848085,-0.0012465805137166159,0.010378317167093748
155,-0.009421352737378503,-0.030859673172611374,0.009335901986675051,0.002995241718929348,0.013057244840356235
156,-0.0063349161587075995,-0.027695515417508133,0.011994315528094528,0.006607567706120138,0.020220425763049294
157,-0.0028594926661398962,-0.024878959558696706,0.01550277343075838,0.008342472961853314,0.02725545719661306
158,0.00031186506242277857,-0.022489317616823917,0.01727554537199762,0.010406943416564101,0.032135043768190596
159,0.003223850569674341,-0.019763278340813224,0.019049976569477985,0.014133766494514225,0.035496655009232665
160,0.004825220944426319,-0.01641510404401708,0.017795569565134162,0.01685768270732093,0.034971003842406416
161,0.004948528836042613,-0.012778204398598303,0.01497636063987386,0.01690906535589666,0.03338432132501649
162,0.0038611942414170913,-0.010416538577348694,0.012068644482259316,0.015183489642836032,0.03306761614371969
163,0.0023977640991994544,-0.010147087645501719,0.008144384287661514,0.013358258791102754,0.03148615916798671
164,0.0018551599512450292,-0.011099966762241148,0.006382850142743357,0.012659980225935584,0.028948277863594937
165,0.001114249623779014,-0.01306572006666735,0.004398447949772977,0.011958251642917939,0.02368112729665023
166,-0.0014704812809872556,-0.016740040065967184,0.00018102438354200114,0.009728471764250811,0.014991531925414211
167,-0.005317375820512124,-0.021697353894104345,-0.00410652649612834,0.006031585333393898,0.005651775053671582
168,-0.008882743574197027,-0.026134729430265593,-0.008538750376932323,0.00172510597971625,-0.002327501283382989
169,-0.012060714654624079,-0.028458007277810865,-0.012771236470094389,-0.0026526829630514333,-0.007523459248299653
170,-0.014551495383670907,-0.028282675813147952,-0.01580476244653388,-0.0062639684469778896,-0.010069726267706261
171,-0.0142198060824695,-0.02468423673432363,-0.01595972587950965,-0.007069581516772046,-0.009048691289027612
172,-0.010939078909407245,-0.01758607124500404,-0.014434597548935942,-0.004483782831514221,-0.0053073550985873255
173,-0.007338692419189809,-0.00900177825182911,-0.011748558383240104,-0.000611891644675073,-0.0010218185181650984
174,-0.0057078958328301,-0.0015405779365194902,-0.008460171472679405,0.0024774752761883437,0.0014630839329170572
175,-0.0066318684992084775,0.003967709031765896,-0.006115639416226507,0.0044860858565369584,0.001104835939778213
176,-0.009193772188828782,0.008547873941683494,-0.0047415599884148,0.005229969919576996,-0.00016467694083582133
177,-0.01186859724659153,0.012550493743464522,-0.005193420404189054,0.0038608020249567155,-0.0016180223019721957
178,-0.013948279844623962,0.015897790958744072,-0.007471933007871247,0.00016092626121404015,-0.003974645478254638
179,-0.016526575603521554,0.01779368994880361,-0.011435149284500828,-0.0056058295511841015,-0.007822364269900494
180,-0.020457397479068593,0.012061576788468703,-0.016981949962679693,-0.01182521813838237,-0.01288831908838831
181,-0.023509624364076984,0.003590639940653696,-0.022123362397120518,-0.014892303170034244,-0.017657915677666877
182,-0.023033170281687766,-0.002503685652602475,-0.024723963924677256,-0.013345734975586549,-0.021008655784388493
183,-0.01934071723527746,-0.007486174030929915,-0.024371071682787,-0.009202810999680405,-0.023056529345298168
184,-0.014198834800494832,-0.009296054851702757,-0.021736606146215056,-0.004416998070133734,-0.023632557239035637
185,-0.009444380298727146,-0.011173085909298068,-0.018098792486101262,-0.0003507064961531946,-0.02268429129302655
186,-0.006613312733090493,-0.015876301703299327,-0.015328724629496639,0.0016908456816633435,-0.02161424427970444
187,-0.0058484618860083016,-0.02163325117168226,-0.013858634435998551,0.0022144346458630045,-0.02118228012501339
188,-0.005210046932873584,-0.02341989657822294,-0.011734610702887088,0.003561575446953673,-0.019756598890912584
189,-0.0034576808604952994,-0.02267552295040796,-0.008207303803971059,0.005770871872527903,-0.01663447874557335
190,-0.002066783491403526,-0.022829704085284033,-0.005139773609805135,0.006404488119084031,-0.01367583136890224
191,-0.002071921357954364,-0.024397309603124768,-0.003679821699267421,0.00538949997643716,-0.012149811015648668
192,-0.001996085530936064,-0.0309726011934126,-0.002569241557769864,0.005199481659863667,-0.011602358650128437
193,-0.0013407342582639674,-0.035044044153861094,-0.001265593562690051,0.0062010086779518,-0.01196185789933509
194,-0.0019961131321561076,-0.03935336948411159,-0.0011339425577598305,0.0065324427082989155,-0.013261118484548437
195,-0.004799731327409432,-0.04494584623482425,-0.002467484947013511,0.005774679921943835,-0.014743767974467166
196,-0.006810248959852218,-0.0436620133297637,-0.004681920040975441,0.0044557341738473855,-0.01634530766729947
197,-0.008234473922109803,-0.0397447244185395,-0.00659726361054518,0.0036359009000689825,-0.017240940415396425
198,-0.009032529998906897,-0.03590293333860838,-0.007208449330407319,0.004289214923659292,-0.016752669499408554
199,-0.00820957913381573,-0.029157809331043817,-0.007166527484273354,0.0057601988911109726,-0.01597731195573567
200,-0.006631258867662074,-0.023760052078915773,-0.0073049960017185075,0.00713980157356525,-0.015569315686702388
201,-0.0037763787993488436,-0.0178762319657187,-0.008089632822697779,0.007329729091218445,-0.01582261712671286
202,-0.0012160185839331377,-0.011227292378357916,-0.010631078229087576,0.00423216295881951,-0.01808548973360507
203,-0.0010220193121488726,-0.007328509947744818,-0.01577868591895224,-0.002314070640920496,-0.023746307627694016
204,-0.0038411516224322287,-0.010280238744372552,-0.02303790707942001,-0.010785826642500466,-0.032616240610871046
205,-0.00776323535641006,-0.015534889165557068,-0.030693161636380244,-0.020652205830966396,-0.04240324317634194
206,-0.010085176471552078,-0.018335283464208187,-0.036195719205479406,-0.029566519722331243,-0.04917625734468697
207,-0.009897772880037934,-0.018862539763474708,-0.03933731673809586,-0.0343372411455093,-0.05118817262329788
208,-0.007559199363999098,-0.015639353643534137,-0.04213532085987739,-0.03506826067967522,-0.04994809866468026
209,-0.004212479674142681,-0.00997729943485926,-0.04451656182742977,-0.03366890464430103,-0.04685688795982873
210,0.00012877378686006186,-0.0026681459779592702,-0.04476870087676716,-0.03144322151491041,-0.04265109528299222
211,0.006602420963186124,0.0073051384945731,-0.042692187169033564,-0.02848879084842551,-0.03737621148090844
212,0.007921156832714323,0.010793867258313649,-0.0402142079835436,-0.02478525497004023,-0.031540456658807586
213,0.006286767548295921,0.011130636381627526,-0.03931530017123647,-0.021744939394022222,-0.027577902846372855
214,0.004063411727143646,0.01102334804714904,-0.03968211179304705,-0.020374802040084006,-0.02654277432156922
215,0.00028815761560933097,0.007938316905432697,-0.039189555267619934,-0.01971795989873383,-0.026308023882305187
216,-0.00042477763472392483,0.006868512360216342,-0.036571993252511245,-0.019242322817992718,-0.024709088565652293
217,-0.0014742549434102318,0.004843173253575781,-0.03269434494727675,-0.01960932019410025,-0.02211764987439142
218,-0.005869924431853639,-0.00028290248386532386,-0.028524026879516762,-0.02002068775277831,-0.020029299856617538
219,-0.011809461403474268,-0.00593354678564041,-0.024417675297166423,-0.019031545683620123,-0.019819703928213757
220,-0.015000365903213662,-0.008068515185640637,-0.021307997581047174,-0.016996347880762663,-0.02238460744511127
221,-0.01662456260855122,-0.009703952652298767,-0.019556811241867804,-0.014691968081617966,-0.0264230263562938
222,-0.017688936306407204,-0.012149259043003038,-0.018520624780594904,-0.01271393554813238,-0.029331758322629936
223,-0.01822281232547383,-0.015091115168839467,-0.017772240471698415,-0.011743983552584535,-0.03033182142431172
224,-0.02113943807011552,-0.02243298455851314,-0.017113794742528526,-0.01152594006540828,-0.030424035662330567
225,-0.0247868326284711,-0.031339279410891215,-0.016625099403608547,-0.012151261175178122,-0.030749228400565105
226,-0.027670269914512064,-0.038175317650749656,-0.01617140972905632,-0.013580398339743059,-0.031991796762943336
227,-0.030347922092109913,-0.042668026695665044,-0.015528968603119161,-0.013934128797537857,-0.03365524670423347
228,-0.02665283666768161,-0.03877610553121974,-0.015655134935087498,-0.01188329669705407,-0.03548774984900285
229,-0.021383254876826064,-0.03291088425850866,-0.017132164127137188,-0.00808711601542647,-0.0381649631267633
230,-0.017144976370713712,-0.02825623260758868,-0.018929836138863662,-0.00398236646041436,-0.040943710557334735
231,-0.011493865223119924,-0.020840599252207555,-0.02061014189158063,-0.001075379580376455,-0.04260694783905065
232,-0.009515189241706063,-0.014790984463091959,-0.02333981530986759,-0.00106635728884038,-0.04335417953770543
233,-0.010444097066780565,-0.00923734486549987,-0.027504534480974,-0.004442127039090503,-0.04333200342773045
234,-0.011447708795149458,-0.001959295905447159,-0.031379777193043294,-0.009255060115953935,-0.04207458679111422
235,-0.010805929606494492,0.006385841880308156,-0.03226829362547896,-0.012313087332151574,-0.0385817969314432
236,-0.011209719738266977,0.010660245122923483,-0.030576935530327188,-0.012990235144110929,-0.03408457357005243
237,-0.01256386945620039,0.011354712604792837,-0.02984456610850287,-0.013547376056516252,-0.032234039483393914
238,-0.012687308939137155,0.01248107901364891,-0.02999169987988196,-0.01316446676622535,-0.03162644847482236
239,-0.011445824552603897,0.015051264090458708,-0.029301891462199355,-0.010521881903324605,-0.028314705314005862
240,-0.008875696111007173,0.01926099810545633,-0.02908223392335778,-0.008835673791573033,-0.0231937295399648
241,-0.007976547506431456,0.021857855064541996,-0.030638549720444015,-0.01071373071938278,-0.01940331345089281
242,-0.00992241738336986,0.021143661725892854,-0.03439276512143857,-0.015992999120646872,-0.01877534254960598
243,-0.012081587957532046,0.019518156715242818,-0.039048076376211056,-0.022683041864928175,-0.02011996456665622
244,-0.01339056894600408,0.01795441239036072,-0.03906822672159562,-0.02750625832339469,-0.02097881352108548
245,-0.013834516157881073,0.018552738694768867,-0.03625979386815717,-0.03049901168365146,-0.02098394193325528
246,-0.014940422631266954,0.021584797831841467,-0.03318913743285377,-0.032660999140288444,-0.020838735999592954
247,-0.0175552620324259,0.025123433218380363,-0.02907175724824784,-0.0335333744431095,-0.020431750823939002
248,-0.019975576129082764,0.028873568623792235,-0.025548874006392643,-0.03325860839193359,-0.01893083546577311
249,-0.022358164230667416,0.031106287577550174,-0.022712546738915963,-0.033052082294594665,-0.017030282065875618
250,-0.026521039862268853,0.030007588219856145,-0.021782620583009105,-0.03532809749495659,-0.016648196301937864
251,-0.032284844950305674,0.026801940388510755,-0.023413888115681767,-0.03993271779744259,-0.018062550087420578
252,-0.03641184123208484,0.025481526379544865,-0.026080974042383253,-0.043424132170613715,-0.020154478419283115
253,-0.03949907724269936,0.025253840132720938,-0.027447249101970113,-0.045258123355769966,-0.022984423791145066
254,-0.04201075338651827,0.023931226954679148,-0.027011633546070623,-0.046705883419129235,-0.02732797061105561
255,-0.04035959178836282,0.02330749666886087,-0.023457966087056595,-0.045952165487618546,-0.03161161325546987
256,-0.03732234932362956,0.024878419799537768,-0.015807679978828267,-0.04294423331132611,-0.03296667049806792
257,-0.031023555562920916,0.028116497741005338,-0.006238229529500498,-0.039919958503045756,-0.031762589412387084
258,-0.028356541410304074,0.030943212927091138,0.0018401446758220413,-0.03909956450889749,-0.03128330519030719
259,-0.028863413945363355,0.03377430188542886,0.009616088116332171,-0.03863830589813446,-0.0317934199418438
260,-0.029214762223918923,0.035762715689673576,0.014441848503554516,-0.03615169710659097,-0.03124523671789996
261,-0.02904372965428804,0.03657454575673468,0.01865826117020774,-0.0321024153864677,-0.02960778525681293
262,-0.029968670367988264,0.03516024572613127,0.023075837785277203,-0.028404288781660954,-0.02727701896039979
263,-0.03242839673051627,0.030459489320957593,0.024547187720162216,-0.02609905832827473,-0.024396485857481866
264,-0.035019667794495495,0.025337035586980777,0.024043403932817446,-0.024957243500523443,-0.02141362620536126
265,-0.03504268025260585,0.02175896778298801,0.02121262014771697,-0.02388054324213124,-0.017729107026048522
266,-0.031541198012985,0.019205804261060753,0.01665562548843137,-0.02190334834111533,-0.012970286519001848
267,-0.027606955268497844,0.015328874152264613,0.01115884683959927,-0.019876408959781832,-0.008700820560865512
268,-0.02652375467373483,0.009786734562693907,0.006588524148100834,-0.019508046213684398,-0.006192154003334613
269,-0.027955484141676784,0.0035842307062531565,0.002153563730463171,-0.02095657997270496,-0.004989718837180729
270,-0.030547612262199705,-0.0021163632783990777,-0.0031973969993020547,-0.023915223951038126,-0.005082411015578017
271,-0.0333323080555544,-0.00601481551234512,-0.00861647440189704,-0.028215016178079293,-0.00620635605038551
272,-0.033819228959522094,-0.00727946992164276,-0.012741847706616027,-0.031649567778703765,-0.005998168059861491
273,-0.031035856138892582,-0.0067855407512195254,-0.013508854188429203,-0.032378562784721246,-0.0039223142497674356
274,-0.027127306866209403,-0.0075108304048029425,-0.012273749756860599,-0.03160516463541854,-0.002072762229537949
275,-0.02330545778588531,-0.009820100447560745,-0.010263775435574595,-0.030522406258188174,-0.0007073297122382232
276,-0.019377217316150882,-0.007941751114048176,-0.007994024848191039,-0.028061871708979367,0.0005363325346784783
277,-0.01494406540048033,-0.003970681302071157,-0.00470634221520952,-0.024152486392754254,0.0018565859394140101
278,-0.00976105973428593,0.000630132523580238,2.543368432793107e-05,-0.01921446999075439,0.00451383720849561
279,-0.005836393661711205,0.0056532699056160065,0.0035696350721476575,-0.01514892306443217,0.007045950252887558
280,-0.00555297209434792,0.00545998764065737,0.0036134812708272517,-0.015502904980111318,0.006581268757223831
281,-0.00783447370398211,0.0008548734249612608,-0.00010145664816205848,-0.019970437093079284,0.003515278796637364
282,-0.01006031404948018,-0.004081259998243323,-0.005922983250059246,-0.025344704236542018,-0.00012632452543201477
283,-0.010800687474323752,-0.0072872573343848055,-0.011739837883512752,-0.028262297217804724,-0.0027229666045524396
284,-0.009081892363040817,-0.009310586068461347,-0.01504831046038804,-0.02691667139498455,-0.0027183193791901626
285,-0.005752062379418282,-0.008772439898826047,-0.01664000258907277,-0.022675286806775247,-0.00027249723639537535
286,-0.002977565775830672,-0.005733385990482742,-0.018480959375314493,-0.01909691157845939,0.003985688023052983
287,-0.0002092955177909497,-0.0008840396365646031,-0.019356918539522934,-0.01601586326667549,0.010793903555080125
288,0.0029570749429943094,0.005474679788044694,-0.01939897682760256,-0.01163045591215075,0.017595642462152644
289,0.00423738347468587,0.009402161417944598,-0.020712781536803258,-0.008379471103256332,0.020309467211124164
290,0.0028558965534093636,0.010178546064181256,-0.02399657377982637,-0.0080084314184921,0.01960997523997789
291,0.0009804086648426307,0.010785864059135558,-0.027831061232597463,-0.008784568492698246,0.01791315667665197
292,0.0006213479118081267,0.009024437867086692,-0.025568788853836746,-0.009655237436988724,0.0153240272760745
293,0.0018497368329891048,0.006400064167514849,-0.020802819489371425,-0.008890942347484637,0.011313440255224383
294,0.0035805548278923997,0.0037560232691193213,-0.016554800520680195,-0.005938909357885933,0.006549823638470872
295,0.0047942841278624465,-0.00017176874371257708,-0.011636544675525272,-0.0027879027580478615,0.002381286906204428
296,0.00520657263581499,-0.0031351528584358775,-0.009183738253547465,-5.986719708830579e-06,3.952983247390945e-05
297,0.004139926381597974,-0.006396506439873415,-0.007612125528741364,0.0015976023821883828,0.0001364332951117768
298,0.0013431150618560337,-0.011304340956768254,-0.005329288060108674,0.0011617323283123026,0.0024957975737814183
299,-0.00035396909609772547,-0.015654826563351716,-0.0017089611122119712,0.001221567080590654,0.006290550610785317
300,0.0024447256264664443,-0.015683425599827935,0.0030081760139287522,0.0055669256324323135,0.010809604023203792
301,0.009146300550380336,-0.012969097674415115,0.010782222736349286,0.012788398845699331,0.016138125568663727
302,0.016900707444321317,-0.0091644632301011,0.01976742662240879,0.019681610105411158,0.022188854352078454
303,0.024399830303803785,-0.0035277138463947182,0.026290732970125942,0.025507863563538364,0.028306689198463738
304,0.0316176398325661,0.0024521173457162314,0.031724025240879486,0.030075047532008247,0.03384818456553122
305,0.03835489015997535,0.008506962764220081,0.03601042675673102,0.0338804365638563,0.038159127088366836
306,0.042638160433040896,0.012431647286586254,0.03800856306230027,0.03609877733389088,0.03969306111260002
307,0.04220848268125174,0.010322515498184298,0.037217519214556474,0.0352593468113537,0.037140377616033594
308,0.03765596126010038,0.00683516684908547,0.03198617493716009,0.032132603692802575,0.03168843292984884
309,0.03083952705712209,0.00326823409150431,0.025217995435142655,0.02789840246180538,0.02504938750346427
310,0.02333529447683373,-0.0006606991161110189,0.018707518445955224,0.023864117102799044,0.018541018461346388
311,0.017157207671983813,-0.0032444880550139953,0.01268689602495165,0.021857868107524794,0.0147908871759273
312,0.014156052497089747,-0.005288747024545855,0.009840077958408166,0.02217938272278727,0.01579811728971282
313,0.014973668800329904,-0.004279006613123927,0.010188967060122492,0.024311493500011983,0.020896875364926217
314,0.018075436652530932,4.890054258605811e-05,0.011919373517474853,0.02782889834685262,0.02698620080408646
315,0.02048332593242663,0.0040617115461253185,0.013117882669821746,0.030923310819328354,0.031627063190794134
316,0.020770005270623254,0.004865608771857522,0.014090069788439555,0.03140782462793819,0.03504318031703017
317,0.02032803355194966,0.004906718434779761,0.015479252764364461,0.030181370964027957,0.037167835275492174
318,0.020465964461654607,0.005062666195927017,0.01823400527140267,0.02920540396386364,0.03661007114711404
319,0.019842781896502838,0.003352543145193517,0.021641342002514944,0.027524087244577975,0.032723035502948944
320,0.01807062821121678,0.004970797675587982,0.023910041056119814,0.024807671395774247,0.027460128645360026
321,0.016505869612147214,0.005356470230172559,0.025567078408180982,0.02267538677595128,0.023039488732990006
322,0.014106998027260738,0.007021819693233555,0.025445174504799304,0.020502398035816733,0.01909783460071344
323,0.008904559876174441,0.008447697777244209,0.021826512376590782,0.016454100411014493,0.014933738718053787
324,0.0012500813897287615,0.006319873982558144,0.015406675605979362,0.010745655740620275,0.01085931151930758
325,-0.0062402552194255135,0.0029640562031236434,0.008965810494989183,0.005210298375803629,0.007565724859298673
326,-0.011272676858741653,0.0008241257521238187,0.004501920373617453,0.0012784760193152514,0.005486712636499821
327,-0.013995151643323022,-0.0008791175657020525,0.0016705933890691607,-0.0011427837211864557,0.004475043298673308
328,-0.01590585811780291,-0.0019492522070005303,-0.0005146818665099031,-0.003333609074027464,0.003873665435214467
329,-0.01762526305458886,-0.003018072450597328,-0.0024013330353238257,-0.005487297522820223,0.0035860023045723556
330,-0.01804326467007187,-0.002090745984695748,-0.0033365692456073493,-0.005313456742791975,0.005714530083474228
331,-0.016880135990998336,0.0022249337312239656,-0.003613492289507688,-0.0020120823592685534,0.01113506609926002
332,-0.015155220624835649,0.009171170526285164,-0.0035759435510262345,0.0024519718114005156,0.017736269276208236
333,-0.012681497851221349,0.01730102879981428,-0.00165868026153018,0.007307840668848066,0.023902617062107515
334,-0.00924154920271952,0.0253172251071382,0.0027085705792276506,0.012523226432022508,0.0286685691148947
335,-0.006022474398009978,0.030756223876380627,0.007728382718185955,0.017096271545540585,0.03146408433868148
336,-0.004842269620131125,0.030805537509464923,0.01090352247481048,0.01970457968572183,0.03292274624377097
337,-0.006887193689335721,0.02712228873245225,0.011217243017350154,0.01946340174219618,0.03334957153421349
338,-0.011287988189357296,0.02220216228455003,0.00943688239219294,0.016810662346229497,0.03132102738540994
339,-0.014493409601896873,0.017686189606033492,0.007415226524693749,0.01437117506478759,0.027135846076890017
340,-0.014039923320527059,0.014065493849344766,0.006678729612557219,0.014098921920042506,0.02386811985442096
341,-0.011711200701644707,0.011848911196192207,0.006454320983249014,0.014561149122596486,0.022291481137861804
342,-0.009386954744562678,0.011222073559208718,0.0060238444382373765,0.014849141435407508,0.02125311421476585
343,-0.007340841916949055,0.011464108419257359,0.006133959555295994,0.015162900897044954,0.01966374943668356
344,-0.0063174243039922865,0.01166267787583816,0.006925157812968132,0.014222446317418912,0.01681120413799626
345,-0.006809684131692036,0.01069424798212387,0.0072723191488077675,0.01169701547559329,0.013482140186163765
346,-0.007110337451580747,0.009023316485599557,0.007259444652695887,0.01048362775379121,0.011275926974258383
347,-0.0052696048118880965,0.008474914205847787,0.008746038524268484,0.01259810011287615,0.011391919728651088
348,-0.0015051495160626506,0.009906881007179685,0.012644241236040906,0.016798267177255136,0.01391692509449193
349,0.0037308102020065744,0.012430120062904561,0.0184207209639495,0.022012768226702513,0.018890557790843067
350,0.0092245551386462,0.014294490086209095,0.023841411104530603,0.02667737555260688,0.025730795256945098
351,0.013586193906624036,0.015111194733069343,0.02738712819920943,0.029249034226520483,0.033350968529620884
352,0.017613144958330607,0.016701967327069762,0.030446600037983485,0.030646342614292756,0.04143009368385897
353,0.02169764001051251,0.018554017646637954,0.033735971803340044,0.03166269961571209,0.047718373083454724
354,0.024138873239794717,0.017112252544802118,0.03545068954962185,0.03128347182615789,0.04817055332134417
355,0.02374322783263174,0.011036817870276413,0.033743578207174954,0.02797795028788815,0.04171694920655913
356,0.02181675733767668,0.006267533700421891,0.029888015373564808,0.02247703124344265,0.03288503857890551
357,0.021468922195053267,0.0034502711396658427,0.026563060976393278,0.01684434852606728,0.027038436997634557
358,0.022417786519789745,0.0009286823958426746,0.02438464948310418,0.011510962969960905,0.02494448571136545
359,0.02361877966123628,-0.0010868788961751591,0.023240957457899076,0.007146046734689432,0.02472134913661919
360,0.025544063726818014,-0.0050835990359407585,0.023360678980145443,0.0049019142732775,0.02420487804718397
361,0.027290032955033267,-0.010197295521583107,0.02476888738821374,0.004672670771154235,0.02192060114115944
362,0.028001411619969118,-0.01389269780205742,0.02703213601268984,0.005580871030924266,0.01806325659556475
363,0.02745050451512278,-0.01566062357582854,0.029121184950783075,0.006758956853158959,0.01326258476224954
364,0.026235488189247896,-0.016695953340898274,0.030825218117810683,0.008451237020910567,0.009652635493407898
365,0.024580151666253342,-0.016225061801426962,0.03234403571488889,0.010882252139133177,0.01047726362250717
366,0.02287915143251956,-0.014020034933278074,0.03385308187979128,0.01388745866638575,0.01556046094431267
367,0.022542293679485213,-0.00962457266127594,0.03634434328686253,0.017747680901831802,0.02170280719463321
368,0.023796900533460154,-0.0028942686406815757,0.03959970553971612,0.021933101420088606,0.02613926960244173
369,0.02681703818080387,0.0029886952409575434,0.04197562766345542,0.025953113408306444,0.029044538844937764
370,0.03299417819070249,0.008134331469048076,0.04301009652703693,0.029786168873830322,0.03265139253053962
371,0.04201524795250661,0.015107663627261996,0.04327736659547744,0.03244949068564104,0.036072226895245266
372,0.04631255754279102,0.015758010646993705,0.04013000824975114,0.030749553779103,0.03339305963405348
373,0.045008654174664216,0.012985263496591225,0.0361303798896583,0.027086761748776698,0.026153045911615276
374,0.03961817644064132,0.009576094399027428,0.03334830226024615,0.02481707888053535,0.018054752311234448
375,0.029028614162462465,0.002040469202376384,0.029410266387952487,0.022885231473399704,0.008974725633090135
376,0.016504066989334387,-0.005273146495041874,0.023823246185798248,0.019909289396942437,0.0015247132671338164
377,0.003432916210169258,-0.013020063676669882,0.01588144895621516,0.013976029870210313,-0.0024672028586874826
378,-0.007756209842148574,-0.020733832860679074,0.00764752330129983,0.006153342413891322,-0.0016410021922409648
379,-0.01400183510002296,-0.024724985087954846,0.0019708703803225022,-0.00048271278932061505,0.003111100770634967
380,-0.013849883007685781,-0.02231234767413111,0.0005460356300409469,-0.0031058214872161116,0.007906100522215211
381,-0.011115395069849906,-0.018913221680350558,0.0011259136407437268,-0.0025086351314312517,0.008954585507693414
382,-0.008871515508671962,-0.018208324866382818,0.0008139099632893695,-0.001156474794004299,0.006067524950974023
383,-0.006309653125644735,-0.017860898210206894,6.651918440047274e-06,0.0005863809435645533,0.0017046653271629076
384,-0.009189641814055908,-0.019439296592108378,-0.0036473455177948233,-0.0028410016215872857,-0.004696024000277026
385,-0.011746044743570322,-0.021141820775150973,-0.006934346563828822,-0.004961816627919608,-0.009178022888484594
386,-0.01511565841263208,-0.021348663657268414,-0.009397685040270668,-0.008403723154343973,-0.01039696636427884
387,-0.01852592549343173,-0.02164489755485441,-0.011106701814184754,-0.01147330964800752,-0.010306485134633645
388,-0.012475565954271949,-0.017910134269001718,-0.00918573141902296,-0.009240813358514288,-0.00785389440128848
389,-0.004756912750099534,-0.014321301855604903,-0.007014824827480765,-0.004975563819461666,-0.00588059616944152
390,-5.4926202148603414e-05,-0.013174391153097641,-0.005885077721162213,-0.0021319089328692446,-0.003468804377025003
391,0.006665424644439554,-0.01137194502174022,-0.0027011968535826684,0.0007730865156907034,0.0024096668556234163
392,0.011172126938595239,-0.009627433062122027,0.0011324801111152766,0.0033517799115427263,0.00794119312554597
393,0.015575010585041456,-0.005503129015035983,0.005222857514769485,0.006566767176806688,0.011368755207863492
394,0.021090404324692665,0.0003924754436982657,0.008742815633742651,0.00997176261171412,0.012745398173897417
395,0.026335035560754384,0.005369475085523927,0.011626293793437815,0.013115035819053208,0.013164836213912881
396,0.026063559964467433,0.005294947829414352,0.011839302396196122,0.013973193766838182,0.01072717378991126
397,0.023949987035140733,0.0026268623545261413,0.010704975530536218,0.01377000171244581,0.006859611352867325
398,0.02220244953025563,-0.0009144855876371804,0.009119396750482527,0.01270063136886863,0.0027935387775908714
399,0.017773424993416307,-0.006003132581053688,0.005547465280263977,0.00914310886527524,-0.0022116380377606376
400,0.014411088697652839,-0.008010116987388412,0.0020547743178986016,0.005881303892457484,-0.005003040097088114
401,0.012001345368516592,-0.006092108695488816,3.277331843376412e-05,0.004544601852971446,-0.004897475485854812
402,0.010109720614147132,-0.002004696078905299,0.0005924851514419702,0.005393035130612424,-0.002531431274447617
403,0.00897717034907627,0.0017318113495228434,0.0025957375137797578,0.0064798579978277,0.0007462826145093693
404,0.002966513023481723,0.0006968635660179385,0.003650389523637884,0.003577955338742225,0.0024160117027203086
405,-0.006138943670499695,-0.0027240861743887575,0.0023012836536275222,-0.0026892340587185725,0.0035579741415966075
406,-0.013684511166696153,-0.004579979827452684,0.0012006034058509732,-0.007479846901694846,0.004569048261759511
407,-0.01899407613931588,-0.005822985159689754,0.0024293828422803435,-0.008777735637492947,0.0033514154288744593
408,-0.021373698300803993,-0.008395575346948092,0.0035236344920304154,-0.008811975795651227,-3.5817090741358566e-05
409,-0.02266692504560603,-0.013493615845240623,0.0032706573044106557,-0.010172593699918436,-0.004721698817413632
410,-0.0246837757948331,-0.020474450551472654,0.00150404328129577,-0.013258489509074184,-0.010699899285968022
411,-0.027031725747085327,-0.02784290555206077,-0.0008309821284936397,-0.01641299103793425,-0.016504490849552023
412,-0.026741101622605058,-0.033833792008035296,-0.0015958331898166952,-0.017343509242951412,-0.019489573915933454
413,-0.02421388262177835,-0.03901548204552187,0.000964222226496324,-0.01633694129815463,-0.02027983329045895
414,-0.020980177613443337,-0.044398636939611776,0.0056353218373777735,-0.015415039509938213,-0.021172771829440357
415,-0.01674877331845389,-0.04851277458714798,0.011148177565338774,-0.01478672551654491,-0.021991771138992706
416,-0.012429446240332893,-0.05012332505064956,0.017126421894999147,-0.013884036235680568,-0.021578362693065675
417,-0.007215472831195973,-0.048417771290766,0.021954494777560955,-0.011765570529359509,-0.01882894020339924
418,0.0005427662416128321,-0.04338333099956221,0.026367772803294606,-0.006964093646975992,-0.013156476994419963
419,0.010556326529689455,-0.03710014724283813,0.03203087602152608,0.00011785809152221046,-0.0051293709410209585
420,0.014314668362900742,-0.03088741197073883,0.03176639108880625,0.004061964034915702,-7.733681915719869e-05
421,0.014462794956738082,-0.026215335624847947,0.028504884294569217,0.005672886895130788,0.0011038677662282242
422,0.014274005603710742,-0.022922366941118974,0.026021300065576885,0.006572501584155055,-0.0004351352145264565
423,0.012960586069120272,-0.018586579128490804,0.023831172023169533,0.006751890128492129,-0.0024267029609964185
424,0.015739835756382017,-0.012260376569985444,0.025979711430403552,0.009047259988170723,-0.0002785796669752514
425,0.019496508565313073,-0.00545354813167343,0.0282996334320948,0.010822305624273259,0.0033878918299780326
426,0.01913449648116374,-0.0008028732518585393,0.026204720972061644,0.0086929455856315,0.004327488036441059
427,0.014899225942664816,0.0017634889910200654,0.021116778391709577,0.004247810057232106,0.0027175315845893782
428,0.010706569247916586,0.002460794229702256,0.01731172245185663,0.0014987145825585495,0.0008719278052013836
429,0.0054896120311808275,0.0007018212048557924,0.013626991184724085,-0.00016206649051877915,-0.0023330764325230667
430,5.99379200264835e-05,-0.0020720460662654056,0.010890465261622084,-0.0018724895338068691,-0.005752448441228449
431,-0.0025324345103215967,-0.0027930511869750534,0.011805088982357008,-0.002749627526921408,-0.00607495744035234
432,-0.003856226743963127,-0.00023602537483232097,0.01355901188646004,-0.0031961112834961165,-0.004078613759422622
433,-0.0034273265058539486,0.0027769040928914746,0.014739680827972262,-0.003919990429565218,-0.001238255356058117
434,-0.00210553445217322,0.003532006297442864,0.013811076803668545,-0.006966362110394099,0.00013433870128153527
435,-0.003538129659252632,0.0019699062168641586,0.00847841705279761,-0.013843983539177028,-0.0031144397820873334
436,-0.007322527403727918,-0.004000197369433162,0.0024207561457138087,-0.021084658316131114,-0.00858376826278843
437,-0.011664685577545558,-0.009394290280606317,-0.002485701851732473,-0.026246736560710752,-0.011652964551774269
438,-0.014960958483768303,-0.012539598044175568,-0.004797245237787664,-0.028032734978243067,-0.009810340662683433
439,-0.015386824937687666,-0.016251496004033365,-0.002873639638747794,-0.02565602799749058,-0.00551937168864527
440,-0.01405429848545674,-0.018650185176456835,1.6669334079959967e-05,-0.022775296683855414,-0.004495054636970787
441,-0.013654256322052001,-0.02157422790980398,0.0008094949488819482,-0.022762388488737982,-0.007683799289769409
442,-0.01402384821779095,-0.0258439027397481,-0.0010791665001948446,-0.02403064159400942,-0.011243764127150911
443,-0.012114374988858551,-0.028311341838030683,-0.0030480866192060824,-0.022613913758604748,-0.010581908213588639
444,-0.00842312507508012,-0.02595024796669063,-0.004124447523698733,-0.01964679491372654,-0.006039693147701526
445,-0.006354409997948037,-0.02365177272884237,-0.004536155912305517,-0.018387389152427346,-0.0021273276580737028
446,-0.007659831492964269,-0.02493811552946839,-0.005020440845670311,-0.019587751037073855,-0.0022049105214933295
447,-0.01230554273370195,-0.02891556367175087,-0.006628731641101155,-0.022882855066350797,-0.006001431457919432
448,-0.019484451059979885,-0.03866908204733384,-0.008272969618302843,-0.02746555085323692,-0.010555644683406551
449,-0.02662398190778928,-0.045002388580564774,-0.008142375117970235,-0.03122899151491584,-0.012567436606353406
450,-0.03164563568782749,-0.04592339894260669,-0.004882974510865642,-0.03117604290927388,-0.01018582164425205
451,-0.0340528273326562,-0.04234210824602033,0.0006939630940962769,-0.026943699859075586,-0.004822646451897102
452,-0.03045640345066908,-0.03198745142141358,0.006653151709092832,-0.018522788905423717,0.0029051141844857256
453,-0.025428357224228506,-0.02195282159316742,0.010782888928967295,-0.010515280961010691,0.009536122945116061
454,-0.022768076036677208,-0.01735030209630748,0.011660476160991773,-0.006405224618065249,0.013036305867527492
455,-0.021942179129887898,-0.015487213596934479,0.009710742417881781,-0.005243462453729138,0.014520643890989603
456,-0.024779233405790992,-0.016912988653535528,0.006482424723321163,-0.0058370885775283435,0.013469291293618126
457,-0.02783364426328879,-0.01943425628818623,0.0036511370545977296,-0.005797955633065432,0.011102312764121923
458,-0.02939247047028668,-0.022332570054383025,0.0008558960201831577,-0.005685403713508684,0.007745637755643509
459,-0.031227831835272387,-0.026656608922333264,-0.003198642523717639,-0.006912008183232221,0.0025974942182858986
460,-0.03517676244840491,-0.0334713408215289,-0.008349469597141208,-0.00981567012229171,-0.004237361342503126
461,-0.038745529082086526,-0.03909239314597822,-0.01352484507267754,-0.01262058484256662,-0.010155625683913578
462,-0.03959655773641786,-0.04055449427641934,-0.016880505818850373,-0.012760240176808643,-0.012812521042120197
463,-0.03837431210148428,-0.03867806203121441,-0.017554774286207282,-0.009768222518219767,-0.012327086388286886
464,-0.03521276415535123,-0.0333080541202712,-0.01687862511497641,-0.004530282035667133,-0.009273066366371936
465,-0.03166986892740129,-0.02742759182993713,-0.016304500097397954,0.0012170165370339915,-0.0055198349591934915
466,-0.02814523729673547,-0.023645487981417558,-0.015956627206989316,0.006711994115290234,-0.0020260374181502437
467,-0.02483480455177358,-0.022110554941826326,-0.016436460284562877,0.01108235956522002,0.0012721176042741567
468,-0.024599468224020513,-0.02551740106972408,-0.018878933652535443,0.00874684125839867,0.0019069301342963074
469,-0.024609398727339412,-0.029350943832303182,-0.02141398860570287,0.0046530609055249585,0.0015720358461102436
470,-0.021875079407027733,-0.029215187265251505,-0.02185576268883164,0.003029517849956732,0.0027368576124195344
471,-0.017733254455215692,-0.026978407889949697,-0.020734745962908214,0.0012301684749982042,0.004571762835633752
472,-0.011821753385397806,-0.02235958419655706,-0.018127317748555277,0.0015690013308447353,0.007681150854270585
473,-0.005317241271984735,-0.01797120388177419,-0.014879483068586982,0.0028412663070708764,0.010465031590255367
474,-0.0014376366886496138,-0.017936295788276737,-0.013931022427890375,0.0018786622065263107,0.009304624189938942
475,-0.0006491601744608276,-0.02172269626759135,-0.01582660175401664,-0.0007034321231191761,0.004644075880134535
476,-0.0006256851172863473,-0.025048419857241235,-0.018117704047978068,-0.0011775459372657413,0.0001426983964316892
477,-0.0006489324075417345,-0.028272497411289763,-0.018933837950512608,-7.30356056008477e-05,-0.0032746752107251902
478,-0.0009849262706724496,-0.032713889193972376,-0.018822935457468905,0.0015671241252324707,-0.006139323965134387
479,-0.0018478300057530297,-0.0378069349109201,-0.019317530524559354,0.003520454871620313,-0.009378935330574097
480,-0.0035019576191323174,-0.042909399537149236,-0.02051938514573882,0.003231919280137303,-0.012183968376180987
481,-0.005060654812456049,-0.044254171809725115,-0.02095522655482378,0.0014511951789079691,-0.010565979887910385
482,-0.00588604392359894,-0.04142512003538331,-0.019452731707690383,-0.00018803324576340298,-0.0044466000395120015
483,-0.006796335662646182,-0.038709389110406923,-0.01727568300448162,-0.002677209687409472,0.002775102896540073
484,-0.008226455828500125,-0.03559907100862133,-0.016549098090331338,-0.006166780770560556,0.005321688774936336
485,-0.008590625980699521,-0.03199986009581521,-0.016591575385423152,-0.008730200502108099,0.005761895800972392
486,-0.007274038890820053,-0.028242433872355997,-0.015540693189890558,-0.009714364257785038,0.004994161379046884
487,-0.005942032033348223,-0.02440113764394616,-0.013718540315882365,-0.01075457066422026,0.0007126954926126819
488,-0.004587396289604153,-0.021025339726999437,-0.011414303160916423,-0.011625098741746678,-0.0012276562506876474
489,-0.002326707155720225,-0.0160086997294807,-0.008412010656334803,-0.011208685489819131,0.001054758499105732
490,-0.0004952518632538848,-0.010023123689982342,-0.0058253794372554735,-0.010511304177599035,0.0034589638642607036
491,-0.000905051999108333,-0.005588453771323286,-0.004949751083978805,-0.010860345763082119,0.0029227505475769317
492,-0.0028311806176727155,-0.0042581884081387905,-0.00581033345369771,-0.012286181937631022,0.0017935226999093688
493,-0.003294527636125498,-0.0023330571429976675,-0.006435323899625792,-0.012580738430095266,0.0016698830219322983
494,-0.001656040778585753,0.0025702054924043316,-0.0055317294125291055,-0.011105366984647971,0.0027247456348500803
495,-0.00012885070457278167,0.008803759751985565,-0.00393591643133572,-0.010025303137044103,0.005348430554207768
496,0.00016172748843737786,0.01609458382940193,-0.0023508546141563797,-0.010178713544599814,0.008163860933685721
497,-0.0009636588761682658,0.02200757827607546,-0.0015728920220089205,-0.011473688152358462,0.01067529864939683
498,-0.004601368648674092,0.02335257015495925,-0.0031620931677841056,-0.015017642266473858,0.011488954689825213
499,-0.011928340193774058,0.019433267145555336,-0.007893058418597906,-0.022412555101390102,0.008593976213449105
500,-0.021597738658316906,0.011265852767729737,-0.014551050800440158,-0.029121675951231454,0.0051298034108378295
501,-0.03164985043968377,0.0029914371736544155,-0.021296276001616668,-0.0351178892656725,0.0013369850819875686
502,-0.0411873523339957,-0.0032924964840751318,-0.027663379902172092,-0.041183437786450415,-0.0034301492802042066
503,-0.04904294579730482,-0.008327413807260242,-0.03339575669367006,-0.04459852703677644,-0.007663869159119495
504,-0.053535648552741365,-0.011858014319608194,-0.03691725901097095,-0.04493681700595409,-0.010674374275205085
505,-0.05451711734496628,-0.01456120549617703,-0.03751585902922085,-0.04178179501171952,-0.011555204778767026
506,-0.05384518930522671,-0.01714642419821123,-0.03666821326376431,-0.03707042456495708,-0.011847502906874856
507,-0.052666421917647394,-0.019073150422163697,-0.035974343350771744,-0.032705721144927785,-0.012740884149136747
508,-0.050724739292392934,-0.018921552102054935,-0.03560387613636084,-0.03083538825374428,-0.013848934120290788
509,-0.04802967599199385,-0.01707836776978594,-0.03509419364157271,-0.03103941822137356,-0.01336385631760558
510,-0.0458800607981971,-0.01507548273763439,-0.034873691226158396,-0.032999986844783974,-0.012203241926809638
511,-0.04441216915137417,-0.013574161455792783,-0.03509240151255852,-0.03632281788548452,-0.011910468744737857
512,-0.045629078245952324,-0.012698222143661933,-0.034622403537496974,-0.03751026935242358,-0.015378032603058084
513,-0.041874169874906594,-0.011590140176794087,-0.032281554537215935,-0.035172031673096626,-0.014341508417988804
514,-0.03617493173424571,-0.008868010194637326,-0.02781106252422657,-0.029087057628272937,-0.012313609307390566
515,-0.030211823750769612,-0.004816201852159406,-0.022976876919773445,-0.02121002868021511,-0.009109084204470437
516,-0.02529332492686355,-0.0010239809116301209,-0.01955785123168708,-0.016013092263910973,-0.00444778682579189
517,-0.021394394604212722,0.0027698023578332674,-0.016440575297889212,-0.012817073436106672,0.0015435673216497396
518,-0.01731172225780999,0.007147779459607264,-0.011801381015547627,-0.009362478390971153,0.008635134284530738
519,-0.012098995862446095,0.01133206732022202,-0.006107180498415513,-0.004693340280064749,0.014409063272046484
520,-0.007663666424883147,0.013723045572341181,-0.0024717016173763694,0.0006173231017325325,0.01561991849228356
521,-0.006179138626014204,0.013015036066356107,-0.0030509273747667998,0.003003002608451947,0.014494418205245404
522,-0.007122396316970976,0.010588977319863234,-0.005902574667732838,0.002078722257553612,0.013320142405921375
523,-0.009437701825806003,0.008565565736584001,-0.008814355334941583,0.00023895080663139778,0.009796907346028465
524,-0.013220070618685064,0.007465648930921532,-0.01168822807059915,-0.00041551751162907,0.0016504427962378825
525,-0.017858491989606616,0.007514885628991594,-0.014402469222414768,-0.000618923055412853,-0.008108043153247653
526,-0.022723187250792316,0.008904107775674996,-0.016867821297381614,-0.00207989214359587,-0.015641461073857853
527,-0.027070589137063877,0.010705816538129189,-0.019400540271705298,-0.004995514747582687,-0.020470726314273685
528,-0.02963311444395932,0.011162364248333438,-0.0219864370173884,-0.008981607841430947,-0.023522675714431465
529,-0.030088064116478127,0.009674035925389164,-0.02414465309753829,-0.012138742230173045,-0.025519828030656052
530,-0.027768007909231583,0.008072019721273182,-0.024694179418314047,-0.012288279234306485,-0.025827996431413213
531,-0.022567284801677197,0.009148172556222177,-0.022870039290509257,-0.009818029293345434,-0.023704929929816265
532,-0.016364737512236535,0.013459791396464997,-0.019645336213500442,-0.0064833896953236745,-0.01909893049550659
533,-0.010717991939236813,0.01804505119891165,-0.017120183097904577,-0.0031574713916060855,-0.014127030509653969
534,-0.006757745127819861,0.02013154257515912,-0.01706711778944401,-0.0005892829369901616,-0.009062430176107352
535,-0.005414037771337812,0.020110174758090585,-0.019770474381751887,0.00041789416457442595,-0.00288135248290072
536,-0.006670167283814316,0.018882754004287128,-0.024021671858183026,-0.0001637410019898412,0.0017812669141859254
537,-0.007878849014095921,0.017673767023098738,-0.027303952197122762,-0.00031484248031223136,0.0037468489994403305
538,-0.0060688961970161845,0.01786670289294521,-0.02813551689713817,0.0012327066942299364,0.0051965295997771915
539,-0.0028319949771370614,0.01826939940578003,-0.028003469117420337,0.002495066669711319,0.006308534951225023
540,-0.0005046872411160213,0.016829732960841077,-0.028484059240306153,0.0022338918158024126,0.0056437190429605415
541,0.0014898819581796081,0.013993986391415199,-0.028833685764544762,0.001716115253812257,0.004557374289467892
542,0.005283883686645644,0.012203953397284504,-0.027682379444798497,0.0026630483306575056,0.005984683629071887
543,0.011122727488195443,0.012105498262758755,-0.025289285889715848,0.005377202411580965,0.009656302824276031
544,0.017861097332440654,0.013157953741222866,-0.022006112388229467,0.009349325937233602,0.013638330992902195
545,0.02550092019879223,0.016212822875490186,-0.017021436886094775,0.014510818670339591,0.017947419936850565
546,0.03248202197035129,0.0215382091201978,-0.010707070845208522,0.019750972975917488,0.02318007931393698
547,0.036876789334814204,0.0277666751487171,-0.004450005401759043,0.023710639400581105,0.028965946161044875
548,0.03876545024237193,0.032599311540220395,0.0006359598246088227,0.02606209676389968,0.030297594676241435
549,0.038619526441144164,0.03434432637300022,0.0034246924099522106,0.02623932048554887,0.027611961713484654
550,0.03726489254880204,0.03340713153814758,0.003637124590650328,0.024764379644445455,0.02347242836814686
551,0.0358714143394313,0.03083181335326848,0.0017858386400188527,0.02340962121498683,0.01799471723474926
552,0.03508212700036295,0.02793713071883758,-0.001256312433892358,0.022711355440327784,0.013098204055907593
553,0.03518015808586727,0.02611107280557292,-0.004622827469236061,0.022236377999337646,0.00884841799691395
554,0.03575613242675428,0.02480199625779108,-0.008810889952527984,0.021245250491525456,0.005331342049260375
555,0.03676297818829573,0.02350810157299099,-0.013109591508206026,0.02024830948910951,0.0041491780569216955
556,0.03863415215958755,0.022688203246791456,-0.015106564694887695,0.021646833698772395,0.007037228858721839
557,0.04016696333853181,0.020999393485960402,-0.015288024084465767,0.025859051248283603,0.010747200512709928
558,0.041115208518965746,0.018317269160829763,-0.014951478656122282,0.031382776715528665,0.012389610297986277
559,0.04287771034823332,0.017810922223883224,-0.013317573831390976,0.03698293511735186,0.012905994500622766
560,0.044668731931020965,0.020846496709407823,-0.010430791092169179,0.04084087696673795,0.011952673806006783
561,0.04428225319073115,0.025182609681306003,-0.008008987859227734,0.04157893368574785,0.008761318164566005
562,0.04069032727938121,0.02796876661102776,-0.007495188942876031,0.03932067992598957,0.00316500614902883
563,0.0342353803695051,0.02758650042318028,-0.008791016711270135,0.034991830688117696,-0.004548916019325081
564,0.027097777388022087,0.02510162748693717,-0.010080001501658054,0.030561692285333127,-0.006679332912468642
565,0.02214388402338342,0.022938986765617397,-0.01018166473624849,0.027872717107921094,-0.006422121485237671
566,0.02018447658186621,0.021959614298858943,-0.010062933456317983,0.02651091907054146,-0.007063415795558403
567,0.020353346964457147,0.022377816539345015,-0.010017745387742931,0.02585987202110608,-0.005381218989498308
568,0.022248685210663522,0.02433075233584071,-0.008285650295449984,0.027435285839091682,-0.003064839614804069
569,0.025681600050221767,0.027171730460037232,-0.003935733687823831,0.031494243478821224,0.0017744200313215331
570,0.02849689485762677,0.02910010946366549,0.0003346266000352259,0.03431018836730092,0.00841987832440915
571,0.027984036252468685,0.028186613050379537,0.0008715078759977403,0.03259368914679064,0.012410447070314991
572,0.02424509964995769,0.025589734541388496,-0.002584683766141605,0.02736180929916812,0.010808554331876845
573,0.019523740168713864,0.024583071026984312,-0.007637616273947476,0.021753552209775495,0.009530777270971135
574,0.01527362199521326,0.026496202351793355,-0.012333372805743122,0.01815508444479794,0.012063920035439041
575,0.010586906532739014,0.02952026246025766,-0.016933237288599235,0.01637680592031604,0.015588427737685049
576,0.004577104537203417,0.03060055077909908,-0.022571861149657913,0.014706064785028682,0.019731536693883212
577,-0.0007231779544394147,0.029516000763756645,-0.028028750722194195,0.013438661841154578,0.02304748572885824
578,-0.0033253923394907735,0.0286193148212445,-0.03092413898113769,0.01336987327877397,0.027106103341439015
579,-0.004189392732131033,0.028364786832738208,-0.03153797434178033,0.013194432739332235,0.03184999156475504
580,-0.004132824305607917,0.028728777694466676,-0.03113413281093674,0.012422886000236923,0.030656962483395462
581,-0.0030982217872665453,0.031122808346581363,-0.03009424405511863,0.011816185202330664,0.02995282836142485
582,-0.001774644159085343,0.03503469647752095,-0.029349667844185592,0.011229803748171136,0.034006514644254617
583,-0.0003687069772570734,0.03784312274738448,-0.028960314427555953,0.010656050174479162,0.0377527309365917
584,0.0005734965836299362,0.03768514691677443,-0.028244245519657773,0.009615264446473544,0.04052275985784445
585,0.00012804759120108993,0.03475650924831121,-0.027212696168370284,0.007158876419958625,0.03960422301848259
586,-0.0014189243896632522,0.03008486633309845,-0.025435226531480958,0.004088501666263207,0.03445569324823607
587,-0.0030718299756585794,0.024495669129178867,-0.022274423545975496,0.002093387755361444,0.028741847777734798
588,-0.003738826497888606,0.01958763767569947,-0.017956521884373276,0.0019977676147952842,0.027514720250456343
589,-0.0038739119965434297,0.01625374447498014,-0.014411152605942374,0.002734780469931039,0.028078164927680865
590,-0.004994704087818679,0.013743840182895713,-0.013421297636302768,0.002415661823528475,0.028363921508908374
591,-0.00659179012159836,0.012016196542815362,-0.013428560434087664,0.0015415062108326012,0.030627301864252287
592,-0.008355267186228466,0.010495600770113835,-0.01260842828828258,0.000804653018508146,0.032307420817218
593,-0.012812831230678154,0.006728795837296137,-0.012752581505811201,-0.0020112821731943626,0.03049381210446679
594,-0.020800320457355415,0.00036526142508041734,-0.01537941001035592,-0.007138289075723899,0.025274703024216614
595,-0.028639306171766937,-0.005435239854044577,-0.017826395693654396,-0.010831537277417223,0.020307219898915617
596,-0.03023962850975374,-0.005954610703250098,-0.016512679049370618,-0.011310142085244135,0.02078457111449251
597,-0.02771449135701816,-0.003014393835211276,-0.012084713719528522,-0.010642700885198995,0.024884278045414713
598,-0.0252524249606374,0.00040441740227180486,-0.008585263599581944,-0.01061260624644937,0.028371033656602214
599,-0.022493266941256217,0.0044746279282484236,-0.0074978455125228344,-0.01021551999824481,0.03051376519127608
600,-0.020082051121576235,0.008083911300584463,-0.007706946672149241,-0.009186593336306906,0.03181911771650136
601,-0.01791796438808336,0.011379396032950195,-0.008703017828428007,-0.00938139561548233,0.033266848581543676
602,-0.015113221591281594,0.014548103961617601,-0.010391825917841404,-0.011188243493204426,0.033817854047994554
603,-0.012515582164001266,0.01583351255516152,-0.01333951729276328,-0.014192959775227712,0.03001307834592239
604,-0.012282910600637196,0.013574561971695492,-0.017799991352841184,-0.018667762168732064,0.02065416185551721
605,-0.013477828864053572,0.00922024144287712,-0.023430574193283035,-0.024937400947496545,0.009254218385138553
606,-0.014649822134505979,0.004503562834610737,-0.029692407565803377,-0.0320249188383931,-0.0008781134297353803
607,-0.01514050228479497,0.0008831926332020624,-0.03522710676153288,-0.03800556209837443,-0.007808052012148705
608,-0.013402888921130587,-0.00045816642799430154,-0.038788868288891484,-0.042325424595982694,-0.010500966557908104
609,-0.008424154280533622,-0.0006125600615546681,-0.03896666100450644,-0.044279576386356816,-0.009832582890255804
610,-0.0003162102935760943,-0.00040568343903351744,-0.03524997019860934,-0.04299782844584858,-0.007498315589873099
611,0.008426471113942367,-0.0005566785810428894,-0.030653007563553956,-0.040381775757836726,-0.0059868646051564325
612,0.008883962326391421,-0.005371153917846063,-0.028394859137963045,-0.03863868866282725,-0.006035924448594522
613,0.006025581941749618,-0.0111016425497938,-0.028491330832269703,-0.03812433694501993,-0.004838115865543115
614,0.004094587402143904,-0.013944116156432686,-0.02943215048777014,-0.03843016365181766,-0.000337782642369523
615,0.0016198700831844069,-0.014187973411526177,-0.029578853257015557,-0.037669215861399,0.005307473477415004
616,0.0027296297229926405,-0.010455906138056836,-0.028502805294382493,-0.03446380498629408,0.008605348131829685
617,0.004400771559750896,-0.005056347489827802,-0.0268772709184384,-0.030013149059617487,0.009482391398818511
618,0.0032535425048143994,7.333665584227574e-05,-0.02509048144405369,-0.025203143509668423,0.010465289156504243
619,-0.0003866369093570692,0.0044857413417207885,-0.023908450006323436,-0.019862374120905156,0.012059046109089467
620,-0.003791270924971073,0.008504377510757976,-0.024736919071323214,-0.01545317081898096,0.011567360268310647
621,-0.008665995044298398,0.010257901767710317,-0.02785686737112767,-0.013778339615618494,0.007959392280533188
622,-0.014257123729956023,0.00988322308667472,-0.03145129830052665,-0.014313549280649353,0.00485199203322431
623,-0.017910104844958027,0.00883725608319063,-0.03381194542571429,-0.015599822503325518,0.004825249140867983
624,-0.021429257917671286,0.006367422479150968,-0.03419532556647768,-0.01594574286846308,0.006393948651631628
625,-0.024904578139009405,0.003177150702076046,-0.03285706361904104,-0.015113463502903051,0.007346084062073834
626,-0.030105923754140698,-0.0008086513252670467,-0.031581924995099694,-0.015025269847223814,0.006600483053246764
627,-0.036962203002656305,-0.004226854441536495,-0.030246935433612947,-0.014056976947498547,0.005732444117531542
628,-0.03669985991548984,-0.005853271700489739,-0.027930036704825224,-0.009540694961006851,0.006536339447983845
629,-0.034699170849159494,-0.0055637413766640815,-0.02570703828959296,-0.0037917801403415767,0.008672068730892218
630,-0.03424108896477372,-0.0037926772048941337,-0.023753596707496386,0.00045166505611362034,0.011939266918863439
631,-0.03146902000002733,-0.0020646633504118046,-0.022072483450620704,0.0029229870528742156,0.015180377603611045
632,-0.029438734365631814,-0.00040787287781108043,-0.02113110508608848,0.00402909593183183,0.01705375599473814
633,-0.02719549679826183,0.0009871946706912825,-0.021163352187024448,0.0035146217633942444,0.017429370352948413
634,-0.02377967255641928,0.0011354613305420511,-0.022137813290924513,0.0015242394312127846,0.01617805656855622
635,-0.01954332248461087,-6.539149778225369e-05,-0.022644959904807836,-0.0003310384976816899,0.014333063679161399
636,-0.01727881614263265,-0.00195451390861079,-0.021952849234024064,-0.0011924451811664123,0.01361584024982387
637,-0.015251019670116094,-0.004476608861607832,-0.02098375187260428,-0.0011484264829314395,0.014566218974087318
638,-0.012630978818147762,-0.006745035151650554,-0.020657964102762084,-0.00043130432444490646,0.016761229053067723
639,-0.010510202476624958,-0.007335607468251322,-0.020975769703204694,0.0006228907643790332,0.020261684163245686
640,-0.0058932407826832334,-0.007141383810949323,-0.021158883631526352,0.0020731440059026667,0.02219542045917882
641,-0.0002124712546772131,-0.00700054796648307,-0.020433217469974372,0.004080401860266489,0.02626547068737873
642,0.005547827883343778,-0.00645321480162326,-0.017739644159031513,0.007164743251836053,0.02909440482295251
643,0.011976432366743813,-0.004661166648451132,-0.012411831328648195,0.011442058159113604,0.031772744112682036
644,0.016111902557738672,-0.0006770376817135402,-0.005337261544964351,0.01573503706372663,0.03262729875812788
645,0.01919108369879767,0.0030403712602297354,0.002883620824430683,0.019937541924182327,0.03287812504756608
646,0.02322317386733267,0.0062802396510286415,0.011665060158495175,0.02485558191682969,0.034323646389976356
647,0.02667205682218599,0.009659643101643528,0.018548921432795108,0.02919427722401066,0.03523830585939135
648,0.02931520127991879,0.011119333695658965,0.02235800689863491,0.030871211993459154,0.03555734634002838
649,0.031232393863203714,0.01181206554801103,0.024766391674949904,0.030027407674711307,0.035818624571332176
650,0.03258203235124527,0.012715163101791783,0.026984542165338903,0.02838803154108482,0.03591069460673638
651,0.03318826448147873,0.012248614636248286,0.027989717487217698,0.026539567111602626,0.034178188370971516
652,0.03366227641086602,0.008742370390285484,0.027073771878017475,0.024553599112605805,0.029245365378475073
653,0.034481427967640546,0.005529604577588175,0.0261107277266455,0.024332574764350672,0.022854085338826133
654,0.03553410902377918,0.005013550161407079,0.02623963739603685,0.026527411046170478,0.017106219844790282
655,0.03584578810984864,0.004854730061939954,0.026233254389788994,0.028877486715530334,0.011029215796155721
656,0.03420281272828971,0.0032840139595721016,0.025142385038467076,0.02960382111630335,0.003337243468489865
657,0.031222839231828885,-0.00014654827007663546,0.023204938497626507,0.02825287664839652,-0.005110419571219463
658,0.027855184703027044,-0.004431177758528733,0.02175558101030538,0.02554427262834515,-0.012809298640835118
659,0.024196970784279036,-0.008224986518344045,0.02218462809883149,0.023043894793688173,-0.017859698354449498
660,0.020155890601601785,-0.00842888684078943,0.024792689164273123,0.02183829079997556,-0.01414715839217781
661,0.01599411593190666,-0.006465089454746218,0.028341560460799865,0.021763625470190385,-0.006517707849169785
662,0.012331538174321888,-0.004460512880837789,0.030948434468637466,0.02215564133945804,-0.0019770933874208993
663,0.010142181816878305,-0.0029597658960296563,0.031637324050187036,0.022898143475248454,-0.0016481779370558476
664,0.009113877579503446,-0.004190319666263916,0.029611313023385825,0.023164172665908728,-0.006441141423842096
665,0.008339779771980636,-0.005775663149046867,0.02545278881955279,0.022498879327074634,-0.011304692050483164
666,0.007895213106385942,-0.004648989267545897,0.02175440887414845,0.021916961430573853,-0.011707018379469762
667,0.007618358850646222,-0.0019288874579792793,0.01994354350451871,0.021591432007986862,-0.008283279833859663
668,0.007897831200720002,-0.0003461700018122468,0.019924782620492278,0.020964108470341473,-0.0038280475508954644
669,0.009355131448923325,0.0004130379704821592,0.02113524667351206,0.019968983044448826,0.0025667477499258387
670,0.010654773743056303,-7.900528314228676e-05,0.02221194617586588,0.0184096247877622,0.009603522696775139
671,0.010385872184279787,-0.0019440021838256294,0.02243609444777259,0.015785557082539734,0.01411714587224193
672,0.008044174977659116,-0.002748052562571122,0.02178381487521754,0.011540382462517245,0.016745856870955506
673,0.003362519984290157,-0.003269345122332763,0.020206181996959907,0.006182579276641653,0.017944497018908566
674,-0.001436246554645178,-0.0039207498318564165,0.019684429008116015,0.0026730829221260043,0.019187978504350625
675,-0.0035516910253004593,-0.0036657841499116266,0.022377791401979208,0.0029086451014015435,0.021686971862216218
676,-0.003365725573954792,-0.003023471417155137,0.024336314569032135,0.004946426429852384,0.019716631122541683
677,-0.0021137256441237633,-0.00153181547861059,0.02473645224576615,0.006922010673812455,0.01668111337660966
678,-0.00041563590127612147,0.0022694409562887497,0.023951889351202967,0.008142763487464576,0.01524946012614087
679,0.001909365756958877,0.0086421243863035,0.021440531857172856,0.008490174781245724,0.012702281384607854
680,0.006331114995401382,0.017029986743449004,0.02032264417831289,0.009606304547210077,0.012242926217329614
681,0.01214112381657939,0.02562500924143783,0.020279441582826324,0.011713192870838017,0.0131390506918876
682,0.016397059710921244,0.031812438527807886,0.018925271138785667,0.013188485109219166,0.012196984661705127
683,0.018387946540589065,0.03521463510914917,0.0168937048621952,0.014685541964033152,0.010331945021384046
684,0.018801835271945573,0.0369308926273389,0.01620421804455086,0.016993285471793407,0.01147042448894796
685,0.017458461161948602,0.0376769920326984,0.015155999526863093,0.01845906542263355,0.013566392755075027
686,0.014552743917518254,0.038016363031152633,0.012173339765867448,0.017815118918077,0.01430278764350203
687,0.01113635137805691,0.03816282750623636,0.007319766292270769,0.015765566583908677,0.013957615905303688
688,0.008837911358866473,0.038877951453037435,0.0006184409564304874,0.01432880970690129,0.011735402121712906
689,0.009355894464471257,0.04149349187539607,-0.005569453233537198,0.015598531435592795,0.010026797360664856
690,0.012745943950580959,0.045826046784919694,-0.009694590470810277,0.019797594008467194,0.009902399638979419
691,0.016948523121247356,0.04962822968025532,-0.013245342439939953,0.024246183113942207,0.008408533308813812
692,0.019964469879098803,0.046531182918214516,-0.011139426893873804,0.02601107055946528,0.005445876637255701
693,0.022055774459559425,0.03999952363679202,-0.00798814323789138,0.02550967396645512,0.002815027890689085
694,0.024508429095526706,0.03493505749007285,-0.006391789292358,0.02490817839663453,0.0033986621842155215
695,0.027393054218393064,0.030595640515817344,-0.00341496895536739,0.024833626397536807,0.007164363978136965
696,0.030813996477997065,0.029135341394330005,-0.000706755760827044,0.02580495451570755,0.011385712618061547
697,0.034121443091516726,0.02932743469889938,0.005590409349373149,0.02788277200922404,0.01543676112981864
698,0.03523583940495442,0.02815139532017676,0.015492673197204892,0.029435030616426397,0.018207521536478435
699,0.03354439244340507,0.02473723873922912,0.023909724588633288,0.029345003888704223,0.018831719049648605
700,0.030676557612566192,0.02145794531087287,0.0253836103592106,0.028018517217350918,0.01710316060908816
701,0.02871381040401552,0.018910029971462513,0.02367824293674007,0.026481716056759887,0.013665639114275695
702,0.028383766759035756,0.018295877749592165,0.022867568550813577,0.025326773880414363,0.008393467988312054
703,0.028447342086096804,0.02077047722344187,0.022965885498730628,0.02400812067558531,0.002785204072612754
704,0.026600299923722412,0.022650424889622073,0.027995842216775233,0.021102944409136806,-0.0005191794787895741
705,0.023054284568471552,0.022758409058409867,0.029791049670902434,0.017365674303509514,-0.002902074824609549
706,0.02025985459426299,0.022147376160001998,0.03179645749189045,0.015000273468363403,-0.006691768341083522
707,0.018678351012310378,0.020689534056043936,0.03544693283123161,0.01383761163328516,-0.012628382696332742
708,0.017844015259380817,0.020231095780489573,0.03368300315661732,0.013104858836671644,-0.01917048635423838
709,0.017914577494613577,0.020392461479143677,0.030598240046588576,0.012661973077865752,-0.024381414302992423
710,0.01859032637227415,0.020150330158533056,0.028585234538995682,0.012141724508893281,-0.028247241980726163
711,0.0194011948191477,0.020197319762229566,0.024731765628443137,0.011397297452358165,-0.030802845434505736
712,0.020082846256867865,0.0204216252603902,0.02286250458911436,0.009896341207460597,-0.031316373448960225
713,0.021321165957807947,0.0223307072018431,0.022037779438529196,0.008235582753845904,-0.028575609572732964
714,0.023131457789967523,0.02619887905016513,0.020330517432113258,0.007652374145109937,-0.023507755121270995
715,0.023212483378058254,0.029298082596063296,0.016876162216950853,0.006947826246623396,-0.019854106173679872
716,0.020549142161418472,0.029788523387899293,0.014335742841116302,0.005000988538523018,-0.01902550091077832
717,0.017202204236492876,0.029912123286908357,0.012855710305487447,0.0036693582865351525,-0.018917611855788087
718,0.014987334435565687,0.03135041564094035,0.012474696700752984,0.00446999893314193,-0.017895084075547286
719,0.012833062436828047,0.03297474697999248,0.01243944904880912,0.004362356887411887,-0.016791330176453116
720,0.009093043683632751,0.03314198956217846,0.008510550624173626,0.0003958592028681071,-0.017006151457252955
721,0.004585656459076003,0.03055514581071506,0.0022303056379053437,-0.004621315893244947,-0.018057330904156475
722,0.0013970018585210287,0.02589101157195278,-0.002960813159090652,-0.00648041140918542,-0.018509287173412516
723,0.0012440419728523612,0.02103261158098571,-0.005618823525496722,-0.004097218470524607,-0.017860889812710657
724,0.004156020355650391,0.017222113734691333,-0.004169444673466619,0.0004940536526522018,-0.01603029708592279
725,0.007796237541005744,0.014025451008848304,-0.001429542050810599,0.003907654802316012,-0.01313038801453606
726,0.010076642321189062,0.010141371825498482,-0.00023510593488104724,0.004235039111683839,-0.0102426206477893
727,0.011225025142651125,0.005638981704369354,-0.0007344185270267728,0.002047165543726337,-0.008667876174743856
728,0.013452884268665779,0.002932217768545037,-0.0014334281073840605,0.00013580256488319843,-0.007990161051596322
729,0.018300969253053148,0.003967319057631879,0.00015262886012159708,0.0005073958334767706,-0.006744607422526029
730,0.02344949461015477,0.006801429923086554,0.0030122455000103215,0.001666927386195185,-0.005902590218249456
731,0.025958751692043345,0.009423012090052037,0.0051387935964298265,0.001906210766224867,-0.007214788802648574
732,0.02605272400198654,0.01283940239075904,0.006032356597783339,0.001206705985975356,-0.010210026043919348
733,0.025192368922248617,0.018087735945450573,0.007333791856249183,0.0003728493738723402,-0.01353086310842743
734,0.024583002863834955,0.024961158491206822,0.01000610890385952,0.0010749167728842499,-0.01539034239374796
735,0.024790658306374128,0.031743085366909396,0.012599407627060794,0.0038180176299675034,-0.01530957094794098
736,0.025415062456646605,0.03611256329972394,0.013856325921289351,0.006778735273128268,-0.014735973363375659
737,0.0257048242457161,0.03782108664916001,0.013389600664633228,0.008226953044184592,-0.014440509666839262
738,0.025853220687796732,0.03921844960858773,0.011846253156358743,0.0086197822421742,-0.013965881585736304
739,0.026643743898233905,0.04246384840073049,0.010205610771540804,0.009141090010235178,-0.012554394318461174
740,0.027062558823981238,0.04355368139343142,0.008337016392437085,0.00953344744591297,-0.011176261608306277
741,0.026341477597114693,0.042342306440214764,0.0065775314010193715,0.010031423027114603,-0.011230898755245291
742,0.025814625135674923,0.04069937578524622,0.005941177956581216,0.0114780258825431,-0.011373470735547035
743,0.02546569202304137,0.037346865712264685,0.0055200006196367175,0.012408252394483283,-0.0101530720008738
744,0.024782001555028927,0.03293966344070602,0.00460385105900147,0.011591768199927775,-0.0075973271256996044
745,0.024942816050147237,0.027518988380600094,0.004000950769522481,0.01030540606229677,-0.004389656709750328
746,0.026665075518645637,0.02109349174717332,0.0037845674048965646,0.009898223009319224,-0.00189505637696481
747,0.02881291164676861,0.014310326603444275,0.0034848168197786425,0.009800699618882058,-0.0009045249233502443
748,0.030020364235979893,0.008202075834391413,0.0032092999422621516,0.008571038100125343,-0.0017689624161798926
749,0.031025180821600076,0.0025239509548771193,0.003527391204318319,0.006913349661840348,-0.0033636437891025285
750,0.034000658217934625,-0.0007789377113569997,0.005485023358291808,0.008071678476829798,-0.002277632916006924
751,0.04012535597764668,0.0005640581688656684,0.010686832865255153,0.014280200505741608,0.0034525116698721453
752,0.04828956489810286,0.0047567201760691695,0.019119484382120588,0.023925749980101347,0.012692828064692742
753,0.0545028961167195,0.007781189275259568,0.026530769159489893,0.032227657883125704,0.021686832385033158
754,0.05536390992581174,0.0056536647981411045,0.028726109020232184,0.035706669806167574,0.026814746307337156
755,0.05164394976445529,-0.0015849195984269852,0.026496869459757353,0.03498195957287767,0.02776053958695585
756,0.045868263273815206,-0.0031306100646338484,0.022859732521560528,0.032168411875585924,0.026566848134180723
757,0.04011092800732174,-0.0022327441273435446,0.019979275932195655,0.02891638477476805,0.026158227972149298
758,0.03489448310792829,-0.002993631404660526,0.0182514590279725,0.02562527391872134,0.026435044945683432
759,0.02916138008969279,-0.0034491586015384253,0.016705872623217797,0.021577055363302556,0.023535284244758196
760,0.02341525240074803,-0.0064663190856782534,0.0151614969918978,0.016991298668743323,0.01630238266742248
761,0.019931150793897654,-0.007306797171289929,0.014563297685394607,0.0127630303387754,0.007346457665638043
762,0.020070901241154463,-0.002742270604466363,0.015769266361576047,0.0097702135403177,-0.0009537002694410012
763,0.023631907901150447,0.0055005929924117816,0.018627550900767145,0.009074062561125595,-0.006327611060568467
764,0.028703679626684863,0.011868792471406991,0.020964090078948488,0.009807416031246723,-0.007231633608408252
765,0.03367470136753848,0.017303578513909994,0.02142784501837119,0.010459610046553068,-0.00468362841194359
766,0.03849689305185409,0.02280790596809621,0.021523529922951225,0.010898968084656258,-0.0014222526695882641
767,0.04244467693316691,0.026038797265357783,0.02203619300952386,0.010849410603200662,-0.00026050861631210504
768,0.041323119230239264,0.029990829888316712,0.022329690335011424,0.010202693982205148,-0.0006405615171491853
769,0.04218347168420177,0.03482885620656767,0.022327237322035256,0.009137150437785688,0.0011510913013554316
770,0.04293337815223948,0.040894038723158804,0.022221907143742652,0.007566050770861682,0.005915051785375009
771,0.04324287728803888,0.04648651721702711,0.021319727858962387,0.005263608597085644,0.010112946510914158
772,0.04280053310910219,0.04517813001006843,0.01923692087215208,0.0029873805223837964,0.01108141750235716
773,0.042244294367770566,0.04055111710196898,0.01635370183496786,0.0021991487783418876,0.00916356571423619
774,0.03974206927036204,0.03499872759363668,0.011232894757936616,0.0013546252282541267,0.00411542053642366
775,0.033148480614987055,0.026407470997452605,0.0030609303484852384,-0.0021795216847491764,-0.004673396349203977
776,0.02468187935452281,0.018245445370669227,-0.005349886650825983,-0.007351241747754832,-0.015070979533475115
777,0.0175461309106933,0.011552979712657544,-0.011284007896109354,-0.011698387346546605,-0.02308490863179308
778,0.01266706951512064,0.006244399536660572,-0.014424123918479846,-0.01429275822311549,-0.025728255660543924
779,0.011025183151890192,0.0034948864952225635,-0.014615015774118018,-0.013932903535871684,-0.022612090749070078
780,0.012476186051588468,0.004426789912892924,-0.012435618065602885,-0.009555516831756199,-0.017075567566861457
781,0.014047925594069189,0.003990656875689144,-0.010697446176441867,-0.003514261466826086,-0.01491908619216733
782,0.014279665516332671,0.0004612303285653232,-0.01044008055603541,0.0008775612713057418,-0.017668811778818887
783,0.0148166915280653,-0.0016267395125408265,-0.009803107831535346,0.003308612538318093,-0.021304480457325976
784,0.01646377723901572,-0.0010935332892817852,-0.007878715444071805,0.004779262329451019,-0.02306702461717746
785,0.0178010154644948,0.0011602345895413205,-0.0059636909299152175,0.0058272262714747424,-0.024121619016976206
786,0.017438538480993936,0.00283903736824693,-0.005958955244204501,0.00675449169298259,-0.026099739658042506
787,0.015068740093643663,0.0024262606893928887,-0.0088192086897404,0.006637671916681808,-0.02915036010963415
788,0.009304320264316625,-0.0028310254297049453,-0.015165465491874646,0.0034380774237160287,-0.033801754731014294
789,0.0006610485428609491,-0.00972829381586586,-0.024382035971826796,-0.0029388857515032134,-0.03997223291994652
790,-0.006618031962105678,-0.013513033605736432,-0.03216689112263037,-0.008673015089684766,-0.04407818134122127
791,-0.008000658015059137,-0.013085076218585871,-0.03445830111512278,-0.010624445981901364,-0.04332459251045684
792,-0.003441738735789348,-0.008776667315856709,-0.0320048537901925,-0.009819159980608765,-0.03966383392505125
793,0.0015336584292644812,-0.004281063545154254,-0.028063642478972348,-0.008046848521269762,-0.035262997939372216
794,0.002174942626316808,-0.0012890477202475597,-0.025459387722883885,-0.006431872925213453,-0.030994674894408096
795,-0.0017003433663774106,0.00012384772597840351,-0.024826066717224038,-0.005721657735841007,-0.028541481354316955
796,-0.0069719096725385935,0.001049557903921288,-0.024753373091294592,-0.005734487200090896,-0.028728217825694045
797,-0.011309775462776174,0.002053709280364639,-0.023672369442535205,-0.005629026283888517,-0.02985052470393086
798,-0.01285429181384238,0.004885391889747734,-0.02046986592982669,-0.0042163584257200746,-0.029288230983830252
799,-0.012841425307692935,0.008283899326041452,-0.016576967018385933,-0.0023584801552286464,-0.027332225762056767
800,-0.0161620694361091,0.006629994257506495,-0.015662897312653586,-0.0031192498436012728,-0.026475170402994123
801,-0.02315409850320769,0.000697733298856458,-0.018806738474047017,-0.00723925148843865,-0.02667383078743175
802,-0.03081711848046464,-0.005554741576939154,-0.023779345980204897,-0.013161271961500949,-0.02667102636534882
803,-0.037246629156084704,-0.010256285778959616,-0.02743935525398082,-0.01897791256641096,-0.02674197375661257
804,-0.040148056101476697,-0.011568236982452433,-0.02780128028975979,-0.02269357006619027,-0.026857360993970025
805,-0.038908159653378606,-0.009082441789696324,-0.024889782315351123,-0.023089948266711104,-0.02496995984289319
806,-0.03331760036257971,-0.003189448596197573,-0.019394161983194817,-0.019863282797331218,-0.019221815587887756
807,-0.025206516882658826,0.003257753560373779,-0.013494237594840466,-0.015054968056656933,-0.011617297573029541
808,-0.018424830907603097,0.006549840051997048,-0.009499220875174177,-0.011022454904012711,-0.005060148572795773
809,-0.01359630868363159,0.007280713735287124,-0.0070865839489760805,-0.007940385518939146,0.0009372300800136588
810,-0.010359446368967129,0.007627977171862127,-0.005521672974110649,-0.006074521762259882,0.007275073636668801
811,-0.009067608813770497,0.007883802710935996,-0.004981605524750937,-0.005846963820306198,0.011953111138380056
812,-0.009703421356975453,0.0076889840169569595,-0.004976127476084552,-0.00617540832620766,0.013270884092794144
813,-0.010989691781452406,0.007186461424401466,-0.005010625262093463,-0.006230840892424346,0.01092540327264234
814,-0.013767509755312605,0.004669855423620482,-0.006694133536601291,-0.008274523473796765,0.0041403116653701034
815,-0.01930606896324984,-0.00021753083824422353,-0.011336657032792219,-0.013905222589344677,-0.00537403337106895
816,-0.025518013617542426,-0.004070681179190049,-0.017138867432960163,-0.02034119450250789,-0.013808809850849549
817,-0.0300225519040176,-0.005075806512381705,-0.02168313792739743,-0.024387563496361075,-0.01924594336293142
818,-0.03260953507623041,-0.0054956021944788415,-0.025081707806040382,-0.026138086950505405,-0.022432822154507353
819,-0.034939002207491826,-0.008393478816147236,-0.02869206079401818,-0.027798559639825873,-0.025416989400157946
820,-0.037069806154075,-0.012626830829391521,-0.03162365700032008,-0.029976692804706058,-0.028668818369936747
821,-0.037355494950550225,-0.014495621026261455,-0.03196343048285841,-0.03116488738195017,-0.03054601683775839
822,-0.03600028739132537,-0.012401723349979864,-0.030830730476870363,-0.03108607367052505,-0.0304895983195446
823,-0.03411778452540198,-0.007803104127883388,-0.030517678821076265,-0.03046175239229602,-0.028806578427127683
824,-0.031249113178834043,-0.0024954382558690824,-0.030454218619837513,-0.028735775250862912,-0.025202776722356015
825,-0.02596405062318929,0.003044163546567054,-0.02796525341065667,-0.024492374643493,-0.020168818410774222
826,-0.01864712101509735,0.007324275677211603,-0.022090265529637262,-0.017596603694251995,-0.015314311495384791
827,-0.012103543166912133,0.008368676910478934,-0.01504494120199804,-0.010417401199357868,-0.011226311482034772
828,-0.008415992023073658,0.005971525056740894,-0.009475419241872481,-0.005703434810556046,-0.007312319007290047
829,-0.007415396231010692,0.001179955241666995,-0.006116480429732717,-0.0038772960177058126,-0.004119541257616017
830,-0.0076336913926299925,-0.004530478019166894,-0.00384147384424643,-0.0030193696279816797,-0.0020395787177499153
831,-0.00882382401519111,-0.01009819982531855,-0.0023564989514473066,-0.0025635489708123052,-0.0008177150188796359
832,-0.010039440943804726,-0.013891753208026285,-0.0009026560170235643,-0.001984532989790661,0.0010922698260006857
833,-0.009690361545726105,-0.015005974947302285,0.001510499272679477,2.6353271582609357e-05,0.00434698666840326
834,-0.010152472246707742,-0.01685182069735315,0.0024724662276154443,0.0015074281662224292,0.005355907596743652
835,-0.013052967142964443,-0.021198752026478626,0.0008389154919209372,0.0012266466625150399,0.00227153216604004
836,-0.016983370835662013,-0.021861313708264257,-0.0018085857461280434,0.00042890679463654976,-0.0024343918088506485
837,-0.021641699876061012,-0.02122458295085058,-0.004472205465458769,-0.00030677658253093634,-0.005917213540074712
838,-0.027551926040680692,-0.020878588939204353,-0.006830215376293018,-0.0009915850563192218,-0.007546563564086064
839,-0.03451261642575492,-0.01878275792938497,-0.009235949692634133,-0.002302918641276313,-0.00862674834033511
840,-0.04098823589994095,-0.018248188228502216,-0.011924366718578126,-0.00466772103185282,-0.0102085743219137
841,-0.04442530875294384,-0.016935139003169845,-0.014112361430007396,-0.006567081346937942,-0.011657186164645396
842,-0.044055394157558936,-0.012065901913163528,-0.015213914182834836,-0.00638875392584331,-0.011537039227095914
843,-0.042382918672326714,-0.006249514120818178,-0.01648128969679772,-0.005700008380481264,-0.010676714512844429
844,-0.04169863233391263,-0.004892391578581516,-0.01899270228250365,-0.00749684744893843,-0.011097126561845494
845,-0.04174671264908573,-0.006576407462835738,-0.021123711712450238,-0.0120772570484033,-0.013548581284462185
846,-0.04145063197148617,-0.008424830679530669,-0.02076471343807684,-0.01682578389873914,-0.01783919754141436
847,-0.040901993120534365,-0.010257669853717389,-0.018590417259475047,-0.019345781942806627,-0.02263388674120663
848,-0.04165182471710799,-0.011227910897789241,-0.017501601389287406,-0.020434429164419673,-0.02695463153865816
849,-0.04371892719076905,-0.011426512714681718,-0.017984533220055093,-0.021563023172427878,-0.030328756101270327
850,-0.044477977919827064,-0.008323959317874406,-0.017630432943715427,-0.021523962872617864,-0.030995649577830228
851,-0.042259048264742506,-0.00018370535236106162,-0.016287743740424483,-0.019441338082644297,-0.027779160319527454
852,-0.03808627849277819,0.0016249624181522314,-0.015885519481739285,-0.016478617491498735,-0.02177354304691242
853,-0.034079541961390784,0.0001850461177702428,-0.01647566885787963,-0.013464532313635051,-0.014969758039489984
854,-0.030097876588852095,0.0007312344502506167,-0.014951831760294652,-0.009041711304202026,-0.006988618773818056
855,-0.024307960414401256,0.0026806818222626506,-0.008086872948513952,-0.0015147972615216344,0.003910045573960354
856,-0.017178639788319624,0.010285097315664432,0.0035124168333374177,0.008132410572476515,0.016234351209509116
857,-0.010951833827270177,0.017822829560318755,0.016250283760574673,0.01743943925704492,0.02641597551741763
858,-0.006877139652866011,0.02000480736496202,0.026752368793088625,0.024966888776432633,0.03212550292394421
859,-0.0030489157916698656,0.020066062858656062,0.035084302157343726,0.031724101598346176,0.03458014678926058
860,0.002481040354275284,0.02560881548111155,0.042839116964557084,0.03884968530654606,0.03705397902539089
861,0.007887510030909518,0.03286413867284502,0.04864886207476056,0.04486358656944253,0.040198479256578795
862,0.010504680134819398,0.03678650871700226,0.04998668474516222,0.04763399623649891,0.04232817117482545
863,0.009532167091970077,0.036953551784048806,0.046428785628614695,0.04646181714589765,0.04292578015066676
864,0.006063835717760626,0.031082706343798484,0.040116197386304196,0.04292869818686665,0.04307796424151138
865,0.0010400499951238665,0.021740864760549292,0.033316375442999306,0.03938205595691547,0.042338154839611154
866,-0.005674421010351158,0.010759475827551275,0.02642576206514936,0.03617195941232458,0.03887295896395379
867,-0.012702895657160236,-0.0012534752831978207,0.02015117271238041,0.03305200937995643,0.033345674990710054
868,-0.017516599915492065,-0.004511829447132376,0.01571033284727606,0.031056116017578583,0.02805757087725432
869,-0.020112326089530116,-0.0030290155960788325,0.012350057417155794,0.029726162294085628,0.02316659810690723
870,-0.021771402631516522,-0.002264104844501516,0.009180065990937692,0.027521838411467596,0.017897111041330432
871,-0.02170500502096647,0.00014388395076726077,0.007012574657108681,0.025026460671473117,0.013745976794457193
872,-0.018347531838352523,0.0019759542815933,0.006526181237114871,0.02351872103435163,0.013337356280852032
873,-0.012230260159249808,0.0047830204852013095,0.007374630568924509,0.023072231685067432,0.01682651991917177
874,-0.006623369520460882,0.008719645998611148,0.008019522904880344,0.022397525707863148,0.020744246762139974
875,-0.0033910274572456784,0.01297035338366457,0.007540521883982697,0.020936447903372898,0.022085357620511677
876,-0.000828053807834177,0.016493793911164543,0.007130052767642,0.019872949927542394,0.021513704323151916
877,0.0017427115822988082,0.021416066863247495,0.007182873768508232,0.0190276352285072,0.019908013510138885
878,0.003015318016948245,0.025826248028462232,0.0065311780352874495,0.016659335199215364,0.016637247669675902
879,0.0035295936540906004,0.02698069622758939,0.00550831058774599,0.013300129779372496,0.012494869170298043
880,0.004829432941339482,0.028583363781904295,0.005205945440527573,0.011375691960368528,0.009672713881768226
881,0.005768170127854218,0.029859358301619884,0.0040299336596279255,0.010643975303744162,0.008055798830863267
882,0.0047676279122324606,0.02974673970000871,0.0002850466852304019,0.0092971809036544,0.006827492993398139
883,0.0024180674056297224,0.03019699210111903,-0.005039822474491654,0.006705757807101388,0.0070400300118769535
884,-0.001000550169002135,0.027997051772351806,-0.011215221577734203,0.0019891674664291015,0.007891335737671602
885,-0.004724725520075412,0.022533677858449012,-0.017809694962965864,-0.004229204629042082,0.0077983346705390085
886,-0.006251529055538516,0.01608261536577579,-0.022903643745864094,-0.008985257467163391,0.007800838987054908
887,-0.004849299544304565,0.009349403028822,-0.024994115168317534,-0.010997013045564306,0.008650716610581746
888,-0.0021904396067827714,0.002621696627848418,-0.024087350139841833,-0.011390947381782092,0.009591797184359808
889,0.0007127324278593728,-0.004772569770748335,-0.020519615227375793,-0.011388387782284369,0.01038470799156263
890,0.004271312213696849,-0.012119936939101867,-0.015094002756229173,-0.011494692217879462,0.010938166155112004
891,0.008298762814578281,-0.01843919259769393,-0.0099213089147896,-0.01207747024211953,0.01087076995904402
892,0.01224734096614898,-0.02118758585620404,-0.006691743053147441,-0.013369891033801625,0.010793747627899744
893,0.01641602014157112,-0.019600728122968925,-0.005299481577626389,-0.014946322695130347,0.011782283698492518
894,0.01994836309769817,-0.016325534057759765,-0.005244617615261145,-0.01654097968065823,0.014206537838567755
895,0.021047861131394827,-0.015347120940718977,-0.006110732044772546,-0.018353087387344688,0.016701954132371282
896,0.019092348098926827,-0.01980216845674984,-0.007802850130250427,-0.020639938877601915,0.015276571642237924
897,0.014781043226767064,-0.027636020718886545,-0.010474762960649343,-0.023853724776615893,0.007563775779613608
898,0.010651402791846691,-0.0338446147708546,-0.012934575252939238,-0.027705654652343155,-0.0024044229610966556
899,0.009261766251674242,-0.035770110409398106,-0.013911792057177151,-0.03157662182678003,-0.009162918766462188
900,0.008891975908295607,-0.03554358221058642,-0.01444988644125522,-0.0360945285258616,-0.013016907831920208
901,0.005537224002694202,-0.03573924491065533,-0.0161153140164093,-0.04139907172008843,-0.016589200824334162
902,-0.001116134480390562,-0.03591413036462975,-0.018789613461614868,-0.04559489826908467,-0.019797492190487685
903,-0.008077142482622262,-0.0351690637350508,-0.021619688953727245,-0.04730875220048024,-0.022287734668011226
904,-0.012371451943803237,-0.03273685147340345,-0.023195869721068813,-0.0467647685632816,-0.02446821839175335
905,-0.013421485566019064,-0.028527658646525036,-0.02309011965111017,-0.045495491468130436,-0.026704379184894985
906,-0.013804860385149262,-0.024261840048726172,-0.02362363909885592,-0.0459125790684631,-0.02909465900436284
907,-0.01568147719756284,-0.021560170912584217,-0.026273449855486047,-0.04772568198116429,-0.030709853802747072
908,-0.018753315953190304,-0.02141679239773104,-0.029483161239772016,-0.04827190794512073,-0.030972014817911234
909,-0.022358974623013166,-0.02448781155064842,-0.031456326864846,-0.047055319002445306,-0.030421836009527296
910,-0.025726167497955903,-0.029517701444812507,-0.031830984969628724,-0.045001877148617725,-0.030055932352350222
911,-0.028239569821157794,-0.03371127930148055,-0.031395791288611974,-0.042857681247390596,-0.031045554328440875
912,-0.030880679726326396,-0.03588405585652178,-0.03115654697526383,-0.04215465539293671,-0.033865827383718544
913,-0.032939524965472186,-0.036102897766851424,-0.029436797702675214,-0.0418409716653487,-0.03636824201083687
914,-0.03271669757602879,-0.03480868696561818,-0.024753929127843816,-0.03935808741979424,-0.036099412253469694
915,-0.03162173757571957,-0.032696072347186626,-0.019468787221463977,-0.03568312313037964,-0.032796565707643166
916,-0.029837852284969515,-0.02943410414810502,-0.01535670483698523,-0.031244610005279276,-0.027059425363048204
917,-0.027820439413432874,-0.025042601099846632,-0.011939592376954434,-0.02723840711343708,-0.020635071363068365
918,-0.024892227231906653,-0.019637224834216427,-0.008446861678763991,-0.023404504446228835,-0.014879511582288368
919,-0.020148349496197322,-0.012821491763367264,-0.004940278342102292,-0.01828150293817357,-0.009780578946173436
920,-0.016709572078557475,-0.0062465764847152855,-0.0032835355748586175,-0.014556686864061997,-0.006089756730811508
921,-0.016481287643864483,-0.003387804120571333,-0.0049337083796026845,-0.015179940508693205,-0.005458583779250809
922,-0.016870826567053198,-0.0052789924378673515,-0.00778321413069364,-0.018751267828382035,-0.007856037384214361
923,-0.015582695574700213,-0.010077064809601926,-0.008985956552256666,-0.021653334380792446,-0.011564765143728293
924,-0.014740071542119407,-0.015429394878388715,-0.008981503498369205,-0.023268016674390095,-0.015366705315414852
925,-0.01597879838721551,-0.01869585479165289,-0.00956880452280336,-0.02429132190450625,-0.018152933425006432
926,-0.019121239129608784,-0.0189635383210273,-0.01167252450169242,-0.02564658852346472,-0.019682060577359863
927,-0.023032801865655407,-0.017906020468761448,-0.015333449138860632,-0.027671168328811932,-0.02126312758369874
928,-0.02485672439126441,-0.01606674428033678,-0.01886552813022519,-0.028551889193996,-0.022793382625552264
929,-0.023607869032276612,-0.012774527048196076,-0.020664149691612274,-0.027366196808316322,-0.023043418686248464
930,-0.021284334443217624,-0.009336987633313653,-0.021705292524163693,-0.024880624773557257,-0.022395727568328916
931,-0.01962331730017727,-0.007336214956428387,-0.02311881396240778,-0.021686595225174347,-0.02139569047671918
932,-0.021186046839548143,-0.008250515378683392,-0.024288779155239904,-0.02069840284759336,-0.019801155867509232
933,-0.02337345035520741,-0.009112696496612576,-0.02419183120077649,-0.02035909023647446,-0.017813077908934747
934,-0.02387605839581349,-0.007893958980195709,-0.02267251260555158,-0.01949930152418139,-0.015652615925514146
935,-0.02242112290485031,-0.00536728134386326,-0.019540999964713847,-0.018257688232827477,-0.012321989210180094
936,-0.018318127566965322,-0.0019901197089999545,-0.015260110813482242,-0.015238068235253494,-0.008049441844589583
937,-0.014021754100269982,-0.000332748866934471,-0.011654760940583816,-0.012246591190574219,-0.005186649286292226
938,-0.010962529284256657,-0.0008887557277145975,-0.00900005955197557,-0.010244197382255647,-0.004470789078359258
939,-0.009686711851624657,-0.0026151208279529933,-0.007131702815297851,-0.009426656699599377,-0.005202633926788432
940,-0.009614881334910732,-0.0037034783440084455,-0.00609993831770218,-0.009470821055469026,-0.005926946157945783
941,-0.009099724087306069,-0.0033577806361718508,-0.004297522862321561,-0.009158334003748311,-0.004671012699738858
942,-0.006983742857307388,-0.0027625616256660647,-0.0010145712489192805,-0.007344655987015677,-0.002198288003672013
943,-0.003711483898323978,-0.0037115797912521758,0.0023490987650792035,-0.004642884937863308,-0.0009679092753639638
944,-5.242444588778479e-05,-0.0063031488188027215,0.005186787064059809,-0.0021111133529670882,-0.0003648417480649614
945,0.0044031861385150466,-0.008037677765551117,0.008390867432309226,0.000933704285070461,0.00204179812868565
946,0.008609018120271669,-0.008965932494732686,0.01225129274926916,0.003919050061261306,0.005782111560820199
947,0.01106764825479619,-0.010417810406164872,0.016377322458936958,0.005540533107983391,0.00886250346169729
948,0.012024270991746088,-0.00835370067087383,0.0198311265070697,0.006688186445612166,0.010167788066858637
949,0.010952304481021894,-0.00513774268405905,0.021326761254621775,0.00723564997053109,0.008665436205886118
950,0.009460816948847223,-0.002578187719751948,0.021899534516121102,0.008418417761752324,0.00523663140013954
951,0.01044544600937691,0.0017910179615665985,0.02331729079449637,0.01217435509885752,0.002569309748414746
952,0.01328520561441361,0.006099833156191889,0.02481204926766626,0.016970669607517322,0.0022406646750598993
953,0.016613214949492545,0.010108807220655398,0.025238597184477855,0.02063635444465834,0.005571800133120379
954,0.021626176682092175,0.015268918929604334,0.02576022487639285,0.02363215757896434,0.013846715754192098
955,0.029031135748244556,0.02195095754793115,0.027928180293319664,0.02694313096814008,0.024345711175168948
956,0.03550534923788918,0.02583505923846812,0.030277580694793093,0.028371378822633585,0.030474716314506087
957,0.03842118144865935,0.025324681752291685,0.030771070847486922,0.02649998514965403,0.029610193727659995
958,0.03844679933622795,0.022144941869622056,0.029390947079636586,0.02292984423543367,0.024656330687028487
959,0.03689125346721215,0.017624918189453567,0.02661490074824274,0.019912811342128543,0.01851612910964702
960,0.035663804872603094,0.014550792392649918,0.02198905386122781,0.01871064096875809,0.012852654688830513
961,0.035928891197159446,0.011734883646334637,0.020398691021647198,0.022198415899812186,0.012126610835907324
962,0.0361975553594642,0.008365852946313604,0.01970576599060333,0.025805044587902955,0.014428644377096369
963,0.035204990894725376,0.0044525062337051405,0.019394398662122597,0.02648119908155622,0.016865113191601364
964,0.032363674029765956,0.00026305213822206834,0.018350336628451057,0.023879601350829806,0.0166101722019108
965,0.02789442040431646,-0.004603654436712808,0.015284256798446772,0.019670182663317836,0.013742782468938713
966,0.02284163897371849,-0.009176989357346265,0.010170583035326322,0.015853980575183932,0.010444682248808502
967,0.01749989501872762,-0.012718917877389152,0.00396564147349656,0.012629738070034377,0.0074072844969358285
968,0.011209289126900024,-0.01665673607971195,-0.0021306968071018056,0.008559365019072958,0.0038197487756351004
969,0.004208549220128929,-0.020806607179218277,-0.006742275216049094,0.003521664863264771,-0.0006509474140559845
970,-0.0024510749469737313,-0.02440220843344397,-0.009239465388777113,-0.0008324348771728286,-0.005285896901500573
971,-0.007594361624147825,-0.02690926293867174,-0.00999629176446945,-0.00258018621564023,-0.007827433589250763
972,-0.009789684673302917,-0.028286884832113533,-0.00897934635217305,-0.0006108872641796303,-0.0062301600818653186
973,-0.009093304804580028,-0.027943203889896885,-0.006364028814471483,0.003420679590070585,-0.0014338793485437627
974,-0.00717729054748168,-0.023719235645365287,-0.003433749118684397,0.006516887121262232,0.003677179207019044
975,-0.004685976675261273,-0.014432634259774741,-0.0008059433421218299,0.008590619280427762,0.00726582931925692
976,-0.001260968577868712,-0.003185925526960558,0.0017510699554862876,0.011461146262178179,0.009290494664874496
977,0.0024040296507516455,0.004284857341095435,0.0034675365176394593,0.014775650656423759,0.009414136230361733
978,0.006332062120070864,0.0075433519365451715,0.004145197959130629,0.01739298888228773,0.008295895938517182
979,0.011293835659093908,0.010351878903924978,0.005185592579179163,0.01922087527040522,0.008100824065291756
980,0.015552197650717687,0.009651486876191396,0.0071188859469950745,0.019838913786513417,0.009127679475302448
981,0.01647345140446072,0.007277636713187327,0.008856742562896647,0.01887802386041796,0.010406480792024844
982,0.012929382959413378,0.0040382639486501466,0.008365417395616193,0.016063837319656285,0.010284816093045629
983,0.0063257030981839785,-0.0018995746920954834,0.0049547193700755655,0.011253356351069957,0.007929958178734483
984,0.0006684236178545683,-0.0064099268442369675,0.001468967052583419,0.006185914191975614,0.00568882825753754
985,-0.001420054929427339,-0.008203786527916965,0.0008127343154238783,0.003049032876837308,0.005694632208382263
986,-0.0011244590825688315,-0.008548522453887718,0.002190556269329082,0.0016994828077723158,0.006981742955464316
987,-0.0006921798417607145,-0.008664070820584445,0.003157550031795036,0.0007560079725496102,0.007686019388706978
988,-0.0006242132877024135,-0.007977689107241823,0.002874063178791663,-4.3547867890311865e-05,0.007442148989077188
989,-0.0008586454909371589,-0.0078471837889029,0.0015985959666631412,-0.0005485326284908605,0.0060117695709990555
990,-0.0017103022211060832,-0.00911887264380258,-0.0004703663468145587,-0.0011237345111916824,0.003043535577172726
991,-0.0025943138356964886,-0.010487661117577663,-0.002657031736079898,-0.0016043980901611489,-0.00019756861849585717
992,-0.0025933050424851844,-0.011922909789594517,-0.004294780202814628,-0.0018201903398649784,-0.0020683095946938328
993,-0.0015940562154715713,-0.013012144203797598,-0.005320065928520517,-0.002164798608911061,-0.0022972383355928765
994,-0.0002588356303444412,-0.013686814244057832,-0.005809473380884279,-0.00254974124255201,-0.001667977622927225
995,0.0010273127556824455,-0.013815737602759073,-0.005396527655715693,-0.0020873211959238492,-0.0007568152971934775
996,0.0022603067958741536,-0.01205950153393747,-0.003900592383146744,-0.0005575738343438772,2.1107431435617985e-05
997,0.002936061512418405,-0.009437859354259058,-0.0020267850174744122,0.0010862834823747634,0.00031834447210477587
998,0.002930431267271797,-0.006643790374788482,-0.00039190173363576786,0.002355196648369496,0.0005632849618797212
999,0.0026448457406895963,-0.0036860086661234066,0.0007682481094761017,0.0032423500026433788,0.0009192155253129358
