,AF3,AF4,Fp1,AF7,AF8
0,-0.007405979400720543,-0.004132112458243118,-0.011237790822153971,-0.0037674163832215842,-0.02706003581132957
1,-0.009457731945397757,-0.006265643876716894,-0.011943639476581986,-0.003927035496073481,-0.02813775685682873
2,-0.011371346419152781,-0.007475301723574817,-0.012224738551098659,-0.004754310797378454,-0.02952057658113812
3,-0.011959899386696195,-0.0061732885168773585,-0.010102916578830175,-0.0044103081944352265,-0.02899319144516471
4,-0.012500489732482087,-0.00438951885320888,-0.006304542631904082,-0.004081508828323498,-0.027487326244751788
5,-0.012870170588552743,-0.0032436575727078434,-0.0013216001063073763,-0.003970994381315276,-0.02576513423976999
6,-0.012851448448799483,-0.003062570711931736,0.0039741116233221584,-0.0038800487114250518,-0.024725941287375576
7,-0.013272030148037012,-0.003995701552021117,0.008192202684761797,-0.004485778756506641,-0.025185343582698836
8,-0.013915309396468243,-0.004257318468816886,0.011534034267321091,-0.005529325185502239,-0.025813516528494382
9,-0.014293686754483491,-0.002158328308965341,0.014494393480868594,-0.006583180930303668,-0.02512581988566392
10,-0.015157531995953943,0.0007947682316516368,0.016542245121931615,-0.008687186879269424,-0.02353587231680516
11,-0.016767080146757273,0.0023479599745811104,0.01799228398743114,-0.012448563510187954,-0.021373965173181374
12,-0.018321100010199886,0.00242138894858433,0.020312193088645555,-0.016224997404804754,-0.018105697760639684
13,-0.020421891982368864,0.0007931911928233326,0.022814909961906885,-0.01861404891213198,-0.01466159508320184
14,-0.02292874947271253,-0.002694114710678334,0.02398962818427018,-0.01906434807137559,-0.01204530959011083
15,-0.023745870047641997,-0.006639714981871019,0.024443860283437528,-0.017612862634781488,-0.009262154883799755
16,-0.022702902092106046,-0.009960172667159428,0.02460077992051566,-0.01571665463396169,-0.006022865544046836
17,-0.02154215728549308,-0.012299202122430467,0.024405963308064844,-0.014037583884352493,-0.003993774754706475
18,-0.021961367992244372,-0.013677259826494943,0.02433327346571325,-0.012566817198891557,-0.004005830542285979
19,-0.025529754143700737,-0.015286849157186116,0.023937342791052772,-0.012992944848500197,-0.0048412892197279645
20,-0.03206650239349478,-0.018014045805058443,0.019678402871973207,-0.016077454466270874,-0.00481475839629884
21,-0.03866480129445679,-0.020527332581606873,0.014668539539925057,-0.019539912150621546,-0.002979565190417641
22,-0.04147558154037226,-0.01990313526600761,0.012146863232785627,-0.020358732021883957,0.0007216787074521397
23,-0.03965897888372201,-0.015317808809337136,0.011026964144449026,-0.018216195120365885,0.0045872329210859845
24,-0.03559752924057713,-0.009176599599104152,0.011630884651231844,-0.01502262564384399,0.007248862711312868
25,-0.030900768769243088,-0.004314110290161572,0.012576484317396996,-0.011972913587376654,0.009591083387181211
26,-0.0269763967766135,-0.003488397001422108,0.01211469619085081,-0.010728611055491699,0.01054857835898915
27,-0.02568462994485758,-0.008056132221015467,0.009133876330056828,-0.012862134200452483,0.00667461866438859
28,-0.026042223801055288,-0.015730536978748003,0.0046132117374949235,-0.01633323616017244,-0.001914065692819911
29,-0.024241223501163565,-0.021609488326593058,-0.00039732107031553693,-0.01628235628931259,-0.009743492344946654
30,-0.01891319471836573,-0.02309552793231687,-0.0035880508901248013,-0.010459413999850783,-0.012334424641118946
31,-0.013004413359113943,-0.022561332435096573,-0.004060885447135783,-0.0019265697373719594,-0.010769625986824925
32,-0.009891041804122437,-0.023439099269337814,-0.0049642242384154945,0.004368499830441928,-0.008334232870123345
33,-0.010293402735818195,-0.026620869431229537,-0.00790402794575746,0.005473810644727172,-0.006350047710417982
34,-0.011711738172495151,-0.030206511591538306,-0.011798200476285395,0.0029340509503544324,-0.004135268475154778
35,-0.010511281108585176,-0.030791731904602798,-0.014355196695880663,0.0014967367519545997,-0.0007752681751058533
36,-0.006310440268118624,-0.02732507753480218,-0.009993730842443283,0.002703583737003956,0.0038003631695785827
37,-0.002009079715883318,-0.02238743976523756,-0.003991149178316339,0.004074650073385392,0.008593782360002952
38,8.314088961904078e-05,-0.018917538728197143,-0.000131581065160151,0.0038785985755982787,0.012039887049729213
39,8.790534326259422e-05,-0.017689788253437064,0.0036488270317500335,0.0028244925896500767,0.013914581550948341
40,0.00011565964075335699,-0.0171899400918193,0.005633588430567664,0.0031005556113580827,0.01598609220823132
41,0.0007334081316340529,-0.016579368188089284,0.0066989204847523656,0.004882443650366051,0.018574965647169775
42,0.0004975472133475224,-0.01643276370611215,0.0071574448903728915,0.006310899075545094,0.02073103391227274
43,-0.0006510988072230635,-0.016739190822706213,0.0076573238586863214,0.007462960363806345,0.022940859350357445
44,-0.002515034847223234,-0.018076262841360404,0.006788699134203216,0.008839477474327612,0.02492358726375967
45,-0.004691260048880573,-0.020614258476043458,0.005855714168977689,0.009909277712324978,0.026057630062682843
46,-0.005876109984843652,-0.022834733749224127,0.005843691801783843,0.009840622753026405,0.026842024604520003
47,-0.0063350170254824435,-0.024219021161456297,0.004925540250016051,0.0072841583268587334,0.02697486924564853
48,-0.006958305711970153,-0.02510351892915392,0.0035037623727188424,0.002434221648828201,0.02607514632963502
49,-0.007731758993349511,-0.025350285753431036,0.0005998507684687285,-0.0028767504130023064,0.024506458373481664
50,-0.00796202623088294,-0.024429604431131992,-0.0026217106869482554,-0.0068673499161576255,0.023168332643970307
51,-0.0070652755377893835,-0.022392198805882682,-0.0036613205318459267,-0.00840519261928943,0.022473636416816767
52,-0.005223554541258454,-0.020067171482388638,-0.0030442177799400367,-0.0068797272591440495,0.02168204803200053
53,-0.00348617136567021,-0.018575926087911497,-0.002232340533014731,-0.0028547015208938735,0.0197729156893151
54,-0.0030814807793151963,-0.018693991518833226,-0.001985696233897212,0.0014039047208949755,0.016309148538878052
55,-0.0042317948464290584,-0.019633962151912394,-0.002718975783299041,0.0035697172812228727,0.012507534023349367
56,-0.007021373705901849,-0.021189853173556754,-0.005105783695570136,0.002727569090180179,0.009232886744507254
57,-0.010242684541239494,-0.0236170102615387,-0.0077688026728522175,0.0010146470305085684,0.007012765916741965
58,-0.011056427864513368,-0.02531808032598553,-0.007833592880011208,0.0017077434953757529,0.007845025331127395
59,-0.008749694190391137,-0.024867352886513323,-0.00447178147814074,0.005355565004459132,0.01278027550176631
60,-0.00585359024316592,-0.022755876040368293,0.0009555691863814365,0.009991081200365222,0.02032025912617027
61,-0.0057267996043102835,-0.02085640978323935,0.005256663166010451,0.012714197666927933,0.02716383464257047
62,-0.008712240760430316,-0.019501861507365985,0.006394600061658771,0.012146325491257094,0.03176509924435649
63,-0.01168326527965982,-0.016627809859157416,0.00608844589644922,0.009736656168295466,0.03596337986716225
64,-0.012622987676919712,-0.012391116859945064,0.007170270049761475,0.007275385039006072,0.03753015907561419
65,-0.012182763406347375,-0.009696996881291718,0.007249228968831089,0.004967736204776383,0.04090058738854069
66,-0.010984333629281062,-0.009478161143476872,0.006819924379589333,0.0029891818187453255,0.04276501582372468
67,-0.009651760267504646,-0.011083851646804737,0.006426968714459076,0.0019442711893663906,0.043236995037209236
68,-0.009618422604279447,-0.01457790197904013,0.0038160869379809384,0.0010204979790642455,0.04127533393123659
69,-0.010944766444114448,-0.01874267275964954,0.0006271123570333728,-0.0009388310923520175,0.037449410129582195
70,-0.012389391035816058,-0.021661646067187377,-0.0011471076773063797,-0.00394865059219962,0.03509334545777023
71,-0.013658004033984336,-0.023210707741392268,-0.002261056122990921,-0.007577183345108483,0.03595072689805209
72,-0.015451582054302433,-0.024670122079991037,-0.0027229739428593354,-0.011165332093374756,0.036917677238042006
73,-0.017665184900330016,-0.02679657676560361,-0.0037553117537092984,-0.013988264430790742,0.03400277606159529
74,-0.01947884380159083,-0.029233380007564716,-0.005805274671493383,-0.016333234282389426,0.027120398517242614
75,-0.02039424730742139,-0.031571274210384005,-0.008755819199694283,-0.018647710227356354,0.019361254493060993
76,-0.01892442910023583,-0.03274479925011018,-0.010705721364107662,-0.019414853386397115,0.014696440832895783
77,-0.014747442604216164,-0.0321799799126149,-0.011237556856260156,-0.01794447255144779,0.01533684441441875
78,-0.010950785528344793,-0.03173323518897904,-0.0113851014338738,-0.01613722178826367,0.020041960679778006
79,-0.009656974941979571,-0.033330974740938955,-0.010946472270455594,-0.014792768601548472,0.02633192574111052
80,-0.009607005477489118,-0.03671346996710752,-0.009540338467806048,-0.0128748726246207,0.03286100273337346
81,-0.009293215097019681,-0.04059430032020815,-0.00655118039318376,-0.01030401712984416,0.038851265732216866
82,-0.009351269781342627,-0.04431206693495905,-0.002993687378435033,-0.00871793938475286,0.042910547171612225
83,-0.010413633567371124,-0.04696235156307322,0.0002007772556170407,-0.008573401833326525,0.0449098548653294
84,-0.011155010245362595,-0.04457940432593808,0.005385334287391353,-0.008413172313609394,0.045888402846582736
85,-0.011040506778571029,-0.03983042464119678,0.010974055226855888,-0.00873221601286127,0.04651719237749199
86,-0.011137123536205716,-0.03641518820383262,0.015359301466003257,-0.010834492352356158,0.045824271758053564
87,-0.011855868884770806,-0.03311386223512767,0.019223952253144796,-0.013442976207810826,0.043865100685144535
88,-0.012892317527486132,-0.030007220993602264,0.02155545229450359,-0.01521185352441229,0.04214950477762264
89,-0.014038662324832946,-0.0266955445636098,0.022878431583597515,-0.016750518103911503,0.03982125374528218
90,-0.015227602873676298,-0.02252626974769748,0.024164321645304545,-0.018725373916429398,0.03606981150091259
91,-0.01661082154418834,-0.01670418128924316,0.025566578875461585,-0.020735356574961936,0.03209905248641042
92,-0.018878874160618463,-0.010220470283235973,0.026222993425107446,-0.022624593623452097,0.029380138778221487
93,-0.022173316994191793,-0.004128198653379403,0.02700284089652684,-0.02428685951071397,0.02761752284088312
94,-0.02545465294278604,0.00014221606133579947,0.028825891018678305,-0.025520410342632752,0.02679255330703703
95,-0.027836715501172442,0.0012398334144015071,0.03092324077842846,-0.027001419584961463,0.026454531934466216
96,-0.029284055447841007,0.0004575903104208111,0.03285799522127129,-0.029025235302532853,0.02510432458498597
97,-0.029905074930061733,-0.0004987204797816252,0.03431562777546508,-0.030745584030585516,0.02402765225979249
98,-0.030145026724561815,-9.067618168892619e-05,0.0355082549207495,-0.031828601299072834,0.024875830542640854
99,-0.030898274350263107,0.0025008158876292045,0.036709127081885944,-0.032986811020749233,0.02661220258295068
100,-0.031107155743759503,0.0006414619423628344,0.03511244208295925,-0.033616772231621836,0.026568913912051326
101,-0.028669785285342052,-0.0005357341345032611,0.034553368193991726,-0.03207222715654887,0.02506946223732799
102,-0.023531837646915122,0.0009066475767856238,0.03594313458778901,-0.02868542247072378,0.023030100253081442
103,-0.017460773666144524,-0.0003694804779824104,0.03567450718658958,-0.025474086348762144,0.02044200419064066
104,-0.012596128961567355,-0.001375534806516866,0.03464847959308776,-0.023961032353233127,0.01771730670023686
105,-0.009389062623706102,-0.0014749770839082774,0.032455407881322805,-0.02397177158508878,0.01581538093073389
106,-0.007349986310265242,-0.0003849159600108928,0.02902324327610793,-0.024301086213039877,0.016218948703010057
107,-0.006981197242244776,0.0013702989467206737,0.025173700934779122,-0.024395420516636172,0.017674364883629244
108,-0.00796439036644241,0.004738242080876768,0.02331854082030573,-0.024594865152396332,0.017964687494055227
109,-0.009244092754115824,0.00620839199153596,0.022304005944010562,-0.02558195028129728,0.0163564419402734
110,-0.010546395540979667,0.003850000611310923,0.020620187850386943,-0.02733494202463011,0.013195040137458617
111,-0.010795418706206247,0.000232885809009889,0.01969468747224547,-0.027954111875796613,0.009450800613272959
112,-0.009478829273056526,-0.005560100560806754,0.01886209636983679,-0.026639300818508658,0.005544394429324096
113,-0.008386559091624547,-0.013051801554206597,0.01708830279136837,-0.025526640183035017,0.001211334328651885
114,-0.008645240933858284,-0.02179689453381333,0.01398308320304215,-0.025810598487862796,-0.0033812124158917856
115,-0.009587710482422117,-0.031891761770171015,0.009843231623467391,-0.026950176328862725,-0.0078014285239999944
116,-0.010496883640541728,-0.03535677494805755,0.007221317001847338,-0.028684586885131362,-0.007635142396605947
117,-0.011030976071107933,-0.03564781495223427,0.004815945994110228,-0.03087685438082757,-0.005763334780165974
118,-0.011236460690944071,-0.03532880240307377,0.0016886169839462702,-0.032342616508379746,-0.004577148164950643
119,-0.012118490643861796,-0.032544395544968865,-0.0011417430329130494,-0.03289759458286786,-0.004063183617751052
120,-0.013985777970070187,-0.03173656973436189,-0.004087056089372517,-0.03327216991667304,-0.006816858814269563
121,-0.015963752184192367,-0.030686819603112654,-0.006512630435901669,-0.033845245614360864,-0.009548556570638802
122,-0.017997506845380085,-0.027729256500429553,-0.008509010916115,-0.03481817042699722,-0.010181290836397702
123,-0.020241304108808193,-0.02497139064075382,-0.010656462386582816,-0.0353785601370418,-0.010021740080487469
124,-0.02291645909507959,-0.027461865523939314,-0.014375941420248204,-0.036244439876158156,-0.011534229301131694
125,-0.026481540723897194,-0.03322598006211606,-0.01842685716670132,-0.03905782498953233,-0.01283537893314864
126,-0.03029267280856578,-0.03907776331474739,-0.020757102016451853,-0.04289864988364636,-0.012307947570004373
127,-0.0326961443105088,-0.04426302984937731,-0.02096413920203074,-0.04534807183382473,-0.010499678555625471
128,-0.03244336912722827,-0.04163387536793099,-0.01834121834332538,-0.047727575333375696,-0.008749554185047546
129,-0.030567649862304286,-0.038814583820734806,-0.014738393366422192,-0.04494941024498638,-0.0036485356854315497
130,-0.028072112959435843,-0.03541853813534635,-0.012125659959247897,-0.04117871529501451,-3.748097006299416e-05
131,-0.02403073697031617,-0.030892829980328836,-0.010072154006762441,-0.03675769109196522,0.0025822827423208875
132,-0.018991409785851187,-0.028007496588843047,-0.008206764382319829,-0.032257902075144146,0.002121266832039938
133,-0.014785653616778178,-0.026930195818176843,-0.007184680627657286,-0.02905790515302417,0.0002614985403809702
134,-0.010777554991226021,-0.026042187253085047,-0.006180735509030939,-0.02604780505312436,0.0009774141723429195
135,-0.005756097327791437,-0.02554903993734069,-0.0036203461137325147,-0.021194868516491217,0.005547658053021849
136,-0.0014412690096425474,-0.026270910400670616,-0.00036881117162381973,-0.015631036364477477,0.011690515868873869
137,2.4225327136937195e-05,-0.029637874785759105,0.0018871652809407163,-0.011835831455142826,0.014463846038458489
138,-0.0008274349062403189,-0.03379802268142777,0.0032450973450757993,-0.010986082191839022,0.01371842850151178
139,-0.0016060409029325887,-0.03473037060165415,0.004994684062481983,-0.011907465959074062,0.013049759305003876
140,-0.0008590693488385966,-0.030683439029319935,0.007163302918008274,-0.01333613887299466,0.01379975969296223
141,0.0012355104360671026,-0.025116079432885793,0.008658790178929858,-0.014680796909161664,0.012826500660978858
142,0.004317364866798992,-0.020263706400456803,0.009183920566837341,-0.014983121756593028,0.009463100794014382
143,0.007502820268982184,-0.015913246451969003,0.008726378343293408,-0.014387498586302562,0.0054899412422799955
144,0.009541479667580004,-0.013006729989880927,0.007260913894934986,-0.013737639953566048,0.0009834334367502153
145,0.010664110195258083,-0.011207822052510183,0.005719361825143273,-0.012551414152969953,-0.0027387101745891965
146,0.011228339878069114,-0.010742515064229753,0.004574703861614318,-0.010060691832446584,-0.004735382279058838
147,0.009777807463650642,-0.013161036968740176,0.0024364410491080975,-0.007396187387456167,-0.006291999548061064
148,0.005219793900381181,-0.017132570011596095,-0.001933531752860134,-0.007053630231344955,-0.005162630276324751
149,-0.0021528616191992325,-0.021356346467143968,-0.008404707990595573,-0.010207900768538312,-0.0031875682253262616
150,-0.011231509422589074,-0.025781444584852535,-0.0156625764058072,-0.016078776944924995,-0.0024080521866981248
151,-0.019757347350303787,-0.029222411581484344,-0.02140522229575408,-0.02150519584983938,-0.001402115683574101
152,-0.02661611890719704,-0.030852793305895212,-0.024422286529024246,-0.023635974931299278,-0.00043746548360705013
153,-0.03226658183678083,-0.029844299913916766,-0.02528919760292084,-0.023299975566469396,0.002790038256617846
154,-0.03676138176235753,-0.026005039299626945,-0.02544701492386292,-0.022571451026122707,0.009815433759275186
155,-0.03977837652657511,-0.020201598377118917,-0.025858407859094327,-0.021932776687086868,0.018352995288768284
156,-0.04124563175691078,-0.014657223306983823,-0.02614321771833484,-0.02039475599287825,0.024450808565496838
157,-0.04161475671037655,-0.010659259983105827,-0.02578152535022318,-0.017823926474940428,0.02816513923375222
158,-0.040705365326609594,-0.006923895764931789,-0.024491524562434197,-0.013813511558498076,0.03125900970500968
159,-0.03871302150785918,-0.0022582435744022814,-0.0230139285557871,-0.008817097629842912,0.03398962675703255
160,-0.037398470994718325,0.0027285482218694732,-0.022904866596652942,-0.0053662126522395475,0.036376597384110816
161,-0.037102907117184364,0.006863293814993287,-0.024069980253515175,-0.004023175959880212,0.03791872598032195
162,-0.036689483740110634,0.010171561187392323,-0.025726911745747382,-0.0038911564465780074,0.03927033304649844
163,-0.037201327753319594,0.012916032883941777,-0.028646016227870344,-0.005248993710868091,0.04042046711627
164,-0.03774253653029814,0.014681762886730685,-0.030500404701117825,-0.008013548290620566,0.03552570160328143
165,-0.03741649225687325,0.016456482539075203,-0.03053781482661273,-0.010494527722085622,0.028910201191374295
166,-0.03437184970304665,0.017341349835791362,-0.028718091787452868,-0.01170917071683856,0.025174521846481012
167,-0.027958736409637162,0.01626163752482608,-0.025217096423842178,-0.011803928218446112,0.022882512258259796
168,-0.0222653116789329,0.014376061486941795,-0.023291165457469853,-0.01172492702746804,0.022250549832299328
169,-0.01964250193641577,0.01135528660996027,-0.023502717550522995,-0.012588133556039969,0.019378741400825954
170,-0.018640066095804146,0.008401635938921669,-0.02349009327435053,-0.013557694344915541,0.0140313979138876
171,-0.016916567654772906,0.007999735303347475,-0.021664131894639997,-0.013546248263997872,0.009405806492765921
172,-0.014864904709423485,0.010603819316975172,-0.019162783632141325,-0.01252793956303896,0.008757103713842338
173,-0.01268785917786967,0.013975307357778183,-0.01562913410335693,-0.010777394626293192,0.011523518188279933
174,-0.010675119867342844,0.01685446546674747,-0.01082541135738202,-0.009297075352427268,0.01576180910010984
175,-0.009903142082011391,0.018835288982418635,-0.006367787967409281,-0.010053447096460482,0.01776163656757734
176,-0.00954039183614111,0.01849576197221669,-0.0027264671841128146,-0.013133123727782648,0.012897146006760016
177,-0.007786850634385631,0.016938160844140817,-0.00020931646378738857,-0.015837545560168108,0.004208907662427277
178,-0.003672394633739812,0.01580274239663001,0.001536237044068498,-0.016900432307713698,-0.004263273303722312
179,0.002845496678052353,0.015270699672210035,0.004742240716973215,-0.016797920986787392,-0.011390566698407295
180,0.006122213970850978,0.015219295447561676,0.00713008732789231,-0.015985786332474182,-0.013726929601195623
181,0.007997740032961918,0.015014912908092839,0.009956995927462128,-0.015267472939343888,-0.01233655098792271
182,0.010573231379546886,0.014861895739369128,0.013700059871035066,-0.014421892032545772,-0.00941526518246619
183,0.012501218798613595,0.016042149922364378,0.016260762062856746,-0.01251037793975074,-0.005701463647757759
184,0.015376246071002827,0.018571333766351113,0.018162272009456814,-0.010080156792067824,-0.0038191851957683734
185,0.016279760668112226,0.02049119532763863,0.016980751913457704,-0.008800722802540784,-0.004932339793294441
186,0.013400641045603828,0.019976429331063122,0.011737310869948761,-0.009766646299449013,-0.008716955663457666
187,0.009047492024020356,0.017932828866389465,0.005011872884979746,-0.012049134293974154,-0.012639591499363053
188,0.007851977976350705,0.016868112436311856,0.0010664427593229818,-0.013303960605818845,-0.014926726909812034
189,0.008464919859523025,0.017217270762033776,-0.0007194068923374238,-0.012432634440280617,-0.01575148803869852
190,0.007543192012487467,0.016768535110951496,-0.0022584144706978533,-0.011564190567538941,-0.017396945773714784
191,0.004324454588618922,0.014133303821562224,-0.003563230261132577,-0.013013576408696052,-0.020282412346147277
192,0.002174595912301199,0.011312362426348383,-0.004724178995956307,-0.01501411872772928,-0.02091272929070224
193,-0.0009694421404030477,0.010548461941674357,-0.005217432768318594,-0.015555584056904983,-0.018511134854230282
194,-0.0029277449604587697,0.011452877431783639,-0.005084532156295003,-0.015976125490291676,-0.01456858071894104
195,-0.004937184712192836,0.013342974759301473,-0.0046514886007940764,-0.01659631742705707,-0.0096110202289492
196,-0.00590874708931331,0.011851233550296592,-0.005258829621134323,-0.018340037650335043,-0.0066147882382690745
197,-0.00508977619290701,0.008941031771158146,-0.005075568935446909,-0.01788463313516647,-0.00638376739584166
198,-0.002760005037372079,0.006579115817399684,-0.003646602500149777,-0.014377395100522205,-0.008156694816196339
199,0.00044172441395735613,0.003431830582283932,-0.002867855501281527,-0.010984477686919392,-0.011086107010338655
200,0.004792463845482601,0.0025232920890167917,-0.0009385535416515698,-0.007336559710740903,-0.011635088093954405
201,0.010302676031085789,0.003620350293149719,0.0024096717350267616,-0.0038210403598123548,-0.008976889343022198
202,0.01636919770449168,0.00466520152568816,0.006414559461230846,-0.0005251748488226582,-0.0053368768454127415
203,0.023190617657334902,0.0049164710077250024,0.011169923064765061,0.003039507185487156,-0.002086320372150867
204,0.03021771350580319,0.005444174631508301,0.01612049658486839,0.007023651143226772,0.000766651068079925
205,0.03658284509308427,0.0057134957798480445,0.018926997455565687,0.009123140840319803,0.0025076742981722374
206,0.04248621843425784,0.006429255891591302,0.019681905001337343,0.00900639680061624,0.003837454564525667
207,0.047300085328209215,0.007834022582175632,0.019895648929651802,0.008318403729332145,0.0054204883856890426
208,0.04886271216425947,0.006738948795487438,0.018522890647825398,0.006043440443510734,0.0058588690122491965
209,0.04681936197112916,0.0025824927192154377,0.015119250033238846,0.002037302569495056,0.00569405764145052
210,0.04394089675399996,-0.00289431608975399,0.010540158362587438,-0.0020278177338678444,0.006775664656153946
211,0.0432231073366765,-0.007766450510495502,0.005794644410329886,-0.004616294069572887,0.008657743189949343
212,0.04569302909402456,-0.004717644836651265,0.007929292694414126,-0.0012802912006111798,0.011720733038460726
213,0.047521314866047874,-0.0007112682299843721,0.012031471294404072,0.00148286994550812,0.01123460116808529
214,0.045109215470742516,-0.0007660115149306692,0.01341480465552689,-0.000555038331131624,0.005866320250296349
215,0.03948476866716584,-0.0007789278895704572,0.014567827911883128,-0.0028695691681693792,2.1127036422978335e-05
216,0.032122773686328064,-0.003063674917663665,0.013193155484183977,-0.005058896905529843,-0.0059554468916363954
217,0.024261454614425814,-0.0052898756679727035,0.012383271879675332,-0.005366486265666245,-0.011094155948004947
218,0.017198306629676464,-0.004504276522823772,0.015884290586849533,-0.0031671122647596948,-0.013878935281399192
219,0.011315213954859342,-0.0019376030892362165,0.02214899404375074,-0.00021222830910629795,-0.014944582951469464
220,0.006547295388732399,-0.0017237664042990119,0.026496498294927014,0.0007665367747288711,-0.016226884975087588
221,0.0038280681423961973,-0.001727118026056324,0.03139405905845771,0.0009180882499160474,-0.016370555411847967
222,0.0019833098490734126,-0.001471546129854284,0.03797551709131513,-0.0004784019109022069,-0.015640108243257907
223,-0.0008587790474910398,-0.0030513799812007256,0.043694986104830316,-0.004721099211651667,-0.01655770559135701
224,-0.0032376136175038257,-0.002538018221666748,0.04980526528480662,-0.0077737535955635945,-0.017071997311718847
225,-0.004341816921506918,0.0007896703281743827,0.054033656737081076,-0.008378176456235231,-0.013596253368127323
226,-0.0054312813355824555,0.004710923155872706,0.05430270198548345,-0.007119759752685241,-0.0064417597430606035
227,-0.007040612998588486,0.008342861927340559,0.05221285070753948,-0.0035480087225126097,0.0005259983930380152
228,-0.00602027446208064,0.009589083404602235,0.0465867785842057,0.002697281841682383,0.0072571862651745755
229,-0.00739744033264694,0.0062800571296240115,0.04030087173885402,0.005341009567250981,0.009003344384504681
230,-0.011906317372848543,0.0006872505768137423,0.035422246873352964,0.00348290900783988,0.006499821973891853
231,-0.012712507047138357,-0.0022380874139567596,0.03002441802133908,0.0038122258666968985,0.005943162280638699
232,-0.010135182747175031,-0.0017470962356605398,0.024413578526479428,0.007292123579969869,0.006150369005529302
233,-0.005854492100957536,-0.0007742379956486529,0.019270777515217247,0.012102945550827995,0.007737533180207569
234,-0.0011684180817710704,-0.0013389251278457743,0.01595717677960317,0.016247543966974507,0.012222582907406944
235,0.002543578017149529,-0.0035258942175880326,0.015403425627613442,0.01852643865384096,0.01842103945453499
236,0.0032852506093097133,-0.005997214422469207,0.017746398959838195,0.01891070698433555,0.02248876198085682
237,0.0029697037892220373,-0.008048948670436812,0.019659176543233594,0.0196490013699756,0.02401749032121496
238,0.0038649243686425224,-0.008486292520731546,0.01927684801011943,0.022268497496753383,0.024877180969169955
239,0.005538620541443923,-0.0061534365273314484,0.017723924082261512,0.026085614165433802,0.0263631619013009
240,0.007102434862841085,-0.002811327280114537,0.014531587770572637,0.029533192108083157,0.028749309339094416
241,0.006783795927821439,-0.0009169355074812896,0.01034512432902665,0.03054929796538177,0.028513948136282215
242,0.005822661112442848,-0.0003899024081586892,0.0062034923245935175,0.02970783350993341,0.024224474750605383
243,0.005682171293088417,0.0008780194691746067,0.0018739635045499296,0.02896135883475606,0.017596890148018775
244,0.004042389447635654,0.0026417287409194524,-0.0024956012535904083,0.02084329311423253,0.004838591324747689
245,0.0005336090365963276,0.0047508051753441275,-0.006268064737501522,0.010907874641987506,-0.008770615131442215
246,-0.0028125143015709066,0.00624331081803558,-0.008859875297410558,0.0038613982626760773,-0.017821920650671723
247,-0.003818436731216632,0.007065520043486719,-0.009228521153622856,-0.0019530457880994356,-0.023351214234941596
248,-0.0026781369953600333,0.008380113724215182,-0.008247558658419136,-0.0025454571892295132,-0.02661083822172213
249,-0.002408057035763781,0.009997833910607884,-0.008594929453141428,-0.0024897221053029202,-0.0319421838161749
250,-0.004447995529694389,0.013355212807224747,-0.01108270611574562,-0.0060520095541278995,-0.03794645694392014
251,-0.007576638631555048,0.017762877971476076,-0.014305307442899368,-0.012228342853755108,-0.041008752208283525
252,-0.009101821803100216,0.020497490311020716,-0.016343307589858143,-0.015357374282094417,-0.03902527326768651
253,-0.008529047730095581,0.020008593143727757,-0.01622572762548132,-0.01629569262757346,-0.034880451207759434
254,-0.006202580594394926,0.0169549823456458,-0.013781458207700376,-0.015570535450268137,-0.029153676830181007
255,-0.0028604843187055046,0.01263559620058245,-0.009994002638228501,-0.012004126336225438,-0.019932180510995833
256,-0.0003477090105209125,0.007980066900503872,-0.006497431392492437,-0.010551471987362757,-0.011058342128155884
257,0.0011031628544232817,0.004682958010131735,-0.003313030081549873,-0.011122201218264944,-0.0011910303927828018
258,0.00218511228999484,0.00448647396216698,-0.00024194239521026304,-0.013310028946956395,0.009559767527925924
259,0.0034496158832088,0.00789301121424957,0.002449043489793491,-0.016298609591200424,0.02069340837253523
260,0.0041034256026242985,0.011437103893998627,0.004724217492982757,-0.013481670632948523,0.02462015619118731
261,0.004155206475999227,0.014411656897476558,0.00543363168672888,-0.007537288270930652,0.02335763478941508
262,0.004092650223059587,0.01705583702686294,0.004935959853450764,-0.002628810314768462,0.01952084400536974
263,0.004879772417416985,0.020257652847503336,0.0056271105956987085,0.002935814717867401,0.013614718049390585
264,0.005891830590516146,0.025244745751314177,0.007067275684210972,0.006566969096572668,0.01091495224900872
265,0.004056487579329603,0.02834217889388494,0.007176282587040967,0.0067204344612881795,0.008349691631356982
266,0.0003849984875110799,0.028581263867809983,0.006348343384203508,0.006169174179979809,0.00413340883079743
267,-0.0025179112309894054,0.028049917116197285,0.0059394490753048,0.007052612547242501,0.0009533032056561277
268,-0.0038086265297311546,0.02845307345105556,0.006329864726278062,0.007550999626510676,0.002872970248001865
269,-0.004663338198095467,0.02807164457334836,0.007203682708444368,0.008022110214044692,0.006927615348021141
270,-0.00542689404040068,0.02556277997983936,0.007956250252324678,0.009187040119931468,0.009209798867888952
271,-0.004818473344962698,0.022072195440093492,0.008737496604786728,0.011207041333890966,0.009539701066991542
272,-0.0025895512779284383,0.018227445216634632,0.009780222214423073,0.014813969893217295,0.007027264411718562
273,-0.00012354402388604452,0.014155543310092823,0.009721576059671456,0.017566023326742636,0.003221655882723361
274,0.0003776113532837961,0.008812813855190043,0.006715555858767549,0.018137837198136882,-0.002063047908391011
275,-0.00102559557174659,0.0026513978661974772,0.001433902635434506,0.018731200961278355,-0.009997867533362941
276,2.8440649894038818e-05,0.0006166713211842198,-0.0031895994776664814,0.021329477361067106,-0.01389819049357365
277,0.002592716526856738,0.0028659282395461167,-0.005716106440403436,0.024705792763456073,-0.015661804391322604
278,0.005389224409488384,0.0068344902761111655,-0.006284844154009966,0.02688899726105258,-0.017037606805224214
279,0.009925436895898483,0.011503681139474252,-0.004645629913428814,0.027899713451166437,-0.015074189900442842
280,0.014619510486665498,0.014440996626547214,-0.001974604971715268,0.027925409101967318,-0.012676756453874114
281,0.019340952544707662,0.015298480819675117,-0.0005626736071535696,0.027102718844871747,-0.010079007906148804
282,0.024710900085921073,0.014963696700396406,-0.0012428325402771593,0.025750869991161433,-0.00716879102246435
283,0.02943058132640682,0.012207199039479257,-0.003539804665301955,0.023404850017845046,-0.005863947263086872
284,0.031150452466480093,0.005381958282897319,-0.006304794985426324,0.02042234085006756,-0.008846934837346982
285,0.03081378629262988,-0.002777079795574342,-0.00823588386129703,0.018628844208410406,-0.014126334035625215
286,0.030302745493748437,-0.008327196136567122,-0.008777539327900055,0.018800097534341337,-0.02001846198305213
287,0.030476009747814895,-0.010090006120469968,-0.008460724919113599,0.019698514662145044,-0.02638827277506425
288,0.03272384845825199,-0.008991955041322115,-0.00810988221692772,0.01995570966210137,-0.030876655401425826
289,0.03621732916469215,-0.007753158544884096,-0.008052930885848056,0.019574993743014375,-0.03426795920651827
290,0.03938868473856979,-0.007577221211421022,-0.0076049620602776005,0.02034905877667654,-0.03821461105077145
291,0.04211682933715129,-0.007064903106523878,-0.006399899237396927,0.023315409527553448,-0.04257664035001113
292,0.040520522799468064,-0.004562355132677562,-0.0052095405985653175,0.026278155078681094,-0.04096404168212111
293,0.03909218913660736,0.0009594549365050927,-0.004125535383710723,0.026934887125107478,-0.03535481167078423
294,0.040476092726420936,0.009143965126651481,-0.0030103563554584674,0.02534319095731881,-0.027924016919291257
295,0.04077460491300502,0.017763279410041737,-0.0023150419943489767,0.02278252457371411,-0.017260171955358863
296,0.03985397587674095,0.02409998815780441,-0.0025021974569362287,0.0205206260533415,-0.008099860198263505
297,0.036416810074005684,0.027177115541592026,-0.003372864417777805,0.019374808471390795,-0.001222702897963462
298,0.030984869233345525,0.02763957682798334,-0.004096628862272712,0.01951189504859153,0.003987500045459469
299,0.025237667937900103,0.026446876609901256,-0.00455449882897987,0.02038258512635105,0.007266199271880339
300,0.021741684032011682,0.025408458857758043,-0.004865982528254202,0.0217407941775443,0.009265098263428478
301,0.019327786983040048,0.02583447432968473,-0.004915812558351128,0.023281142084602045,0.013452680387450254
302,0.01645020541487629,0.026903169819840055,-0.005461299619342116,0.023794308759265376,0.018067788439662277
303,0.012994573786650948,0.02771878859462845,-0.007536036467786139,0.022401798378197293,0.019810609975506575
304,0.008006645270494052,0.028556835383101196,-0.010548379360155177,0.01983196679661325,0.021812588474793965
305,0.0038662488221907045,0.028972788895106315,-0.012994531942863602,0.017347083928050438,0.025166454113256815
306,0.001661022073269133,0.027587118898131483,-0.014624265116036612,0.015028932799737509,0.029068999547796664
307,0.0004280639796324989,0.024407649359380487,-0.015600532517434975,0.012747962452680776,0.0338144632457771
308,0.0016994115098331011,0.02005260224617895,-0.016041062372470254,0.010257865614278503,0.03474865699663351
309,0.003119710079999129,0.014196702578519255,-0.01684471256124172,0.007508076540194685,0.032842411402122434
310,0.0036972133409419634,0.007345390779049448,-0.018429115019918098,0.006293489748569477,0.03084998192096767
311,0.004673646605363631,0.0015508313892098778,-0.019847893695970224,0.007947756544514128,0.029515186519172752
312,0.004874057005380898,-0.001456182175152248,-0.019787276557865628,0.011570331825368407,0.030587079643290226
313,0.0047974433322362404,-0.001447058496485076,-0.01791832381670289,0.015602867926039507,0.03169226511999837
314,0.005286102592237033,0.0007833633642510475,-0.014573341757715573,0.019284020576957852,0.03193861101960551
315,0.006070262197154867,0.0037372815044579713,-0.01038814683565809,0.022564545815572573,0.03227473768891235
316,0.004919349340551202,0.0051912655870296875,-0.006655916096604733,0.025301374411183426,0.03305635543151761
317,0.00288950120218155,0.00485681493833672,-0.0027293410847151634,0.02835183393645967,0.032532984901136666
318,0.002163143059170757,0.005130556581868564,0.0032362438008377617,0.0323813863739769,0.03192182512088511
319,0.0016708591399315418,0.007190899106696519,0.010020492182124745,0.03564900264120167,0.03240370933121309
320,0.00022921437595037488,0.010356366319414567,0.014433959055328639,0.036088402189295175,0.03179833668501885
321,-0.0032593609675440945,0.014084836686122894,0.014639591974830264,0.0332811828148304,0.031118237800485483
322,-0.008520367796382733,0.0176796943010445,0.011486761236560875,0.02829203989685476,0.031433380720255
323,-0.014622695551312521,0.019540980348677857,0.006844158943958597,0.02253947444808609,0.03128073136011223
324,-0.020005854012924398,0.0191096062828158,0.0026857766835771293,0.017633573489091604,0.02839444844913415
325,-0.022483553275131442,0.017237858165856153,0.0012249749996634629,0.014945718532607124,0.025257653196857403
326,-0.021365131026278343,0.01491968362938705,0.0028109386244585953,0.014163340588702738,0.023136263788705435
327,-0.017582591153165746,0.013385168966202987,0.005559142583671533,0.013930899204393301,0.021386957455785057
328,-0.013032328272881262,0.012826683568090124,0.007396167768461922,0.013200277848026673,0.02148977057496635
329,-0.008669643356060876,0.012973587915518473,0.00835344413040222,0.012205345931345936,0.023345970771812417
330,-0.004940443630263576,0.01342819702533568,0.009379561080862627,0.011404054598790422,0.025627380228377235
331,-0.0030256328874079183,0.012644225761961399,0.010231563193981746,0.010318251877698782,0.02614215012475349
332,-0.002584493387174194,0.010042903674625512,0.01098952285851291,0.009237058631759307,0.02465122880528689
333,-0.0021407953007362137,0.006280435944412913,0.011772382586035269,0.008802280075380425,0.021460325252446916
334,-0.0017850115262529652,0.0013189924259737443,0.011115516581711336,0.00776121474245379,0.01651523371183284
335,-0.0025698500679832335,-0.0045282198964670594,0.007592588031275587,0.004528749736595549,0.010832531459740797
336,-0.003760441503451294,-0.009112753519147445,0.0024377399653623504,0.000608544409718224,0.0063659112345856046
337,-0.003179687450483242,-0.010007220972146775,-0.0015156058346946486,-0.000712755130703569,0.0054752060648011235
338,-0.00171457811731871,-0.008299552576530617,-0.0042115104508147405,0.0004949137638520912,0.006582411077098345
339,-0.0027852979491892107,-0.0077837642009094665,-0.007752434183939865,0.0007031293936959991,0.005616588461806707
340,-0.006036653746154992,-0.009464843703204225,-0.01176507600437168,-0.0019648540711634443,0.005227807290414392
341,-0.00939809010008699,-0.012134542038977198,-0.014217311086612276,-0.006585269667891115,0.0060036925547171036
342,-0.011927819615521773,-0.01525108412469329,-0.014336907328331459,-0.01163785604988525,0.006831760267993938
343,-0.012875433732232256,-0.017826618801595508,-0.012843603484330094,-0.015870877108723966,0.007848606712522242
344,-0.013830113375903973,-0.0197506202932715,-0.011808494357941403,-0.019413801689116134,0.006672833916181975
345,-0.016416027043931206,-0.02197888987291362,-0.012587209940182935,-0.022466143660248256,0.003752541688064025
346,-0.01904569025294874,-0.02330503581542723,-0.013994597668433539,-0.023602887659027894,0.0028593726294350624
347,-0.020536923364908664,-0.022124801611742895,-0.014812915680076507,-0.022752634231836155,0.005716607948346895
348,-0.022554515875378853,-0.01951542445246679,-0.015429701394931224,-0.021948312881760728,0.008902344219434758
349,-0.025613881592988087,-0.017769234301880765,-0.016165719667555294,-0.022240346919511284,0.010563050532741834
350,-0.027996157181062343,-0.017436587372253492,-0.0162234623469413,-0.022645056163089677,0.011674048677998386
351,-0.027921322190727405,-0.016735962675166038,-0.015152602973520897,-0.02179082173934711,0.013542634347850859
352,-0.025553123298100527,-0.015336139360871177,-0.014748434517034871,-0.020252308278374535,0.01612623547323814
353,-0.02288148135125313,-0.01546395276214716,-0.01675878928456423,-0.01977933068122431,0.017244325613926848
354,-0.019761514127793985,-0.017353006649262533,-0.019379934007811718,-0.02014319285079764,0.017475998335140023
355,-0.014919875723426202,-0.019671416645433742,-0.020282660405064757,-0.020128881506793993,0.018750550400126055
356,-0.01223174595578598,-0.021560088663783797,-0.0196614799936445,-0.019286980802968437,0.020880905236711815
357,-0.01032259093822349,-0.02288646871340667,-0.017396452071108306,-0.01650011169927284,0.02388363054890068
358,-0.007287403960154386,-0.02319035461704555,-0.013134819726636864,-0.01155266963897338,0.02779291582806922
359,-0.0062093152026277305,-0.023466885162944283,-0.008994095382600637,-0.0074648437147257305,0.030440524193974316
360,-0.0067468847170022925,-0.024356346128117667,-0.006982304713354136,-0.006490987126608527,0.03128124397032026
361,-0.008300356005294584,-0.023847099739715966,-0.006468618840661439,-0.007097919665234888,0.03292414139232111
362,-0.010523334672445529,-0.022027436617600912,-0.006471338228053726,-0.007601197538795416,0.0359403854939153
363,-0.01250509833587118,-0.020964408343985795,-0.006374645984898615,-0.007812452572401629,0.038390213218282926
364,-0.012109562224527474,-0.021421789743266764,-0.005411925003284439,-0.007530712032707853,0.039369503958196196
365,-0.011309082868564285,-0.023058246223306073,-0.004564359609388101,-0.007798034728254301,0.039101977698060876
366,-0.012402452732634621,-0.02606148387963733,-0.005975543446205375,-0.010206265215466812,0.03725970608015725
367,-0.01437025617483883,-0.03016563975170086,-0.010045037785299365,-0.01387360867842844,0.03445634692362432
368,-0.01711796131495368,-0.034548969001501485,-0.015479139783329645,-0.017276263033289007,0.03255968744474284
369,-0.01926831243390603,-0.03833565659676195,-0.020463946595111537,-0.019598143754384862,0.03159396348386747
370,-0.020695546987888294,-0.040219437176970706,-0.024299230446070127,-0.020432826188358337,0.029449638072741136
371,-0.02320187876577211,-0.03970073304414632,-0.027434752762575787,-0.020921523948408006,0.024730459729525568
372,-0.022632951965073297,-0.038216611540576734,-0.029772448217819637,-0.02182537784165659,0.018215404721965776
373,-0.02008890934963552,-0.0358772019512003,-0.030631459157687894,-0.02153337736810671,0.013577702479204116
374,-0.01628065836468076,-0.03202069919242412,-0.029105852877050694,-0.01868095667537024,0.013509307933678358
375,-0.01076065726743886,-0.02734432871405466,-0.025967641465972392,-0.014532598960937414,0.01719515287483373
376,-0.008665146093196234,-0.024205123742776974,-0.023837206391063213,-0.011447448999882209,0.021624671919663413
377,-0.010011844330211416,-0.024712478648084284,-0.023644399372642774,-0.01074750366138511,0.024046207433770922
378,-0.012587387603459444,-0.027879113640146332,-0.024258479497957487,-0.012231171880486265,0.024866814061797197
379,-0.01487864446857625,-0.030587053339853024,-0.02441174137353659,-0.014202229473968842,0.026207377017804255
380,-0.016756474424260866,-0.03025852186739911,-0.023296619556383506,-0.014210362145261916,0.028756777970141173
381,-0.01665198969089488,-0.02742794763629163,-0.021839648430128804,-0.01178372272610711,0.0308128116740198
382,-0.01572794192340272,-0.024254812226263613,-0.02121992915559187,-0.008252650436718209,0.030864643076395117
383,-0.016114216797746553,-0.022104844757565197,-0.020769585862042136,-0.004448183742523684,0.029146790782382137
384,-0.016499759973008895,-0.02225926657784421,-0.02022679886917129,-0.0016056057644488547,0.025865802664586438
385,-0.018170855835844567,-0.025242481113891584,-0.02054747093857894,-0.001515986291422707,0.021187077666798722
386,-0.02248207833014455,-0.031122638504205463,-0.02214671889085315,-0.00482810365553915,0.015859369762386617
387,-0.028860154729807495,-0.03829308483149354,-0.02454978410364377,-0.010816266942696861,0.010728672285568338
388,-0.03743354436671817,-0.04211486992624868,-0.027244162866524292,-0.017985120129371913,0.005196956125990891
389,-0.04469543801201569,-0.04264510424943924,-0.029238159482088733,-0.02383280395513223,-0.000789968102659617
390,-0.04763307626766929,-0.04016487448986054,-0.028896444503110817,-0.02599165145078568,-0.00613134296400841
391,-0.04724975449806055,-0.03473170366304588,-0.025997256894468215,-0.024804630371010848,-0.010467419962061552
392,-0.04517420570469897,-0.030134950810940225,-0.021814367871905268,-0.022460701450706732,-0.013987878105035772
393,-0.042920022003969854,-0.02636626039788637,-0.017265701032330927,-0.020105010134926278,-0.016682471749459346
394,-0.041199896071655286,-0.02242933513082409,-0.013158896041428426,-0.018258575918566937,-0.018497871607540236
395,-0.0399067335921575,-0.018423093687284075,-0.010094324427791571,-0.016946807408418828,-0.01906285706616384
396,-0.03765235636185569,-0.015288256399445478,-0.00768577375546269,-0.015513457597724765,-0.01832292963320152
397,-0.034675846299546106,-0.012164747648263124,-0.005523569278399757,-0.014566221914510078,-0.017180250755000282
398,-0.032316855038374975,-0.009446654760390612,-0.004356236025061502,-0.01550688039215526,-0.016974762893975422
399,-0.03176709394816565,-0.008890369885120188,-0.005511245961280347,-0.018751102505120718,-0.019040494415028954
400,-0.03321174433200245,-0.009273336887047587,-0.008678000878109866,-0.022971054670526184,-0.023314353648381178
401,-0.034585209284664825,-0.00862147424424336,-0.011668616602655488,-0.02631110030575394,-0.027446091844210686
402,-0.03416605091039938,-0.004634708185811899,-0.01257408377202656,-0.027745273258966658,-0.028785840541330862
403,-0.03113109678320346,0.0037705022524169786,-0.01133662346350096,-0.026672858429185525,-0.027199902041169365
404,-0.02621470017819934,0.007753333522943543,-0.00997383791398165,-0.02372473084894428,-0.02488270420366895
405,-0.021873023005219313,0.0094451481123526,-0.010548486914224357,-0.020582923108905114,-0.023608972306039106
406,-0.019684318503817008,0.011370101349253231,-0.013190179848709724,-0.018287425035458164,-0.023422587044808145
407,-0.018514873203840192,0.011722714686858204,-0.016802093069919942,-0.016475930169533068,-0.023107500344745735
408,-0.016207082752132927,0.015577527017103663,-0.02026584054195159,-0.01413569620403527,-0.021570285583194012
409,-0.013692750201109908,0.020153087768250966,-0.023847443105063565,-0.012495532543713182,-0.020194126177614152
410,-0.013553997069804731,0.020588634639230947,-0.028738491922666812,-0.013980418652544112,-0.021304836035292957
411,-0.015792410728935204,0.016734401982391123,-0.034202546312893364,-0.018054268205555783,-0.02455798547730405
412,-0.01815009628728555,0.01350489442620791,-0.03744638026785852,-0.021217343735131445,-0.02764269053202635
413,-0.019138179975442208,0.01061128891199048,-0.037215312277371265,-0.02135193069654887,-0.02969832626208586
414,-0.019215400442938166,0.007578978312918993,-0.03482295752645867,-0.02032528534166926,-0.03174421664833473
415,-0.0187495452255993,0.006424831708616081,-0.03146610570614512,-0.020471681037834377,-0.03368172584842913
416,-0.018230768682287242,0.004047118556863789,-0.02848436629940197,-0.022011702235628844,-0.03476493745000296
417,-0.01890262305052839,0.00020991322100589473,-0.027441514022873422,-0.02398363409664471,-0.03523844482262827
418,-0.020992065490387412,-0.0032531046801268313,-0.02781732131250045,-0.025321073490781557,-0.03554294413741425
419,-0.023693113698780945,-0.006876834840232948,-0.027967282514221842,-0.025634338436657196,-0.03604968449855615
420,-0.025870582055526732,-0.009660092152265915,-0.02752167848733168,-0.02564355917385425,-0.037070973261892765
421,-0.02763464592439181,-0.01305313881551536,-0.026902786435309176,-0.02615434253818145,-0.03811856386867433
422,-0.02858339179565872,-0.016074140664578334,-0.02636258527062932,-0.0267287709204898,-0.03807863273083737
423,-0.02868780566444028,-0.01654017869260757,-0.026200193361911598,-0.0265952746178632,-0.03655932476535125
424,-0.02951810730225264,-0.01656890099021008,-0.026819007039562574,-0.02619105475223175,-0.03437333867534754
425,-0.03212663712537085,-0.017256490000014342,-0.028657648617886323,-0.027108908474831415,-0.03362932694760726
426,-0.035839249403598214,-0.018103397657866182,-0.03078215684267421,-0.02953110372051536,-0.03586878876736758
427,-0.03774302306132551,-0.0175351439942788,-0.030271686524144897,-0.03070142903834572,-0.03860507044013816
428,-0.03681681310322775,-0.016239552460508216,-0.026331199227316616,-0.028939167809434646,-0.03762789702562929
429,-0.03531501439579993,-0.01535794054284143,-0.021993898589890978,-0.026510347116348223,-0.03298463883641048
430,-0.034141035722237464,-0.016147982891796683,-0.01906481929760832,-0.025354360382541765,-0.028398227378307717
431,-0.03163194621831143,-0.01882129602316033,-0.016302319177770624,-0.024543818576092974,-0.026087154091685674
432,-0.026811543763177455,-0.021176093192364596,-0.012664647345941893,-0.022930880952148947,-0.024652427952311293
433,-0.021064421805609693,-0.02324213385445989,-0.00844948443458135,-0.020614471811299544,-0.021635458510641657
434,-0.016630876581434244,-0.02568118930944943,-0.004157572593218957,-0.018114867926636323,-0.016965895882270834
435,-0.014759463141520518,-0.02819151204061797,-0.00023980553352419455,-0.016215522716203797,-0.012607143299207969
436,-0.016600766803177017,-0.027631390119299316,0.0018988094570851503,-0.0165812837545248,-0.010130865300259587
437,-0.021742304289829196,-0.027050844487052583,0.0007083106418061646,-0.019751226847480537,-0.009687429251489198
438,-0.028424529725603834,-0.027801839929118426,-0.002928745690923831,-0.02328994719271813,-0.010319852323740393
439,-0.03433547885946299,-0.02721679568562073,-0.006377135809291478,-0.025015825170448775,-0.011331286643614104
440,-0.03766121604073641,-0.02605645734429192,-0.007764485716891191,-0.025335909778712175,-0.01235292947326688
441,-0.03779478873767055,-0.021915803894796873,-0.006075133570700462,-0.024502668873038213,-0.011618168858613871
442,-0.0349251294998147,-0.013847786315249785,-0.0016487709670440903,-0.022171618392861418,-0.007946654616177011
443,-0.030572434136239588,-0.005499477414574483,0.003334028794263902,-0.019359893734750583,-0.0027899958660353268
444,-0.02572684188517032,-0.0012990772368352966,0.007154788894019726,-0.01704680906038284,0.002495327951902328
445,-0.021048383319086084,-0.00116141318129234,0.00923006542941695,-0.015494913825310246,0.007226488122604121
446,-0.01761139239626651,-0.0035207510600656924,0.009194869534678213,-0.01513365957635495,0.010143338377177626
447,-0.015946073946334138,-0.005972604345450379,0.007711196933073725,-0.01579336478120736,0.010829543917844109
448,-0.016133024797973412,-0.0051459121616983265,0.006351441247934828,-0.016820410116677748,0.0104855391803124
449,-0.016813130378901846,-0.0020344006119668995,0.006240853510581436,-0.01769527530411675,0.010738641204607742
450,-0.01745025622913685,0.001548097941446831,0.007108390342483445,-0.01828795804986668,0.012131111004744257
451,-0.017494459041553067,0.004591369719717978,0.008006544345174303,-0.01857383125214597,0.013780621064369104
452,-0.01673813812882668,0.004675877830410283,0.008722431907342832,-0.018090175299715048,0.014727231832526997
453,-0.016187742176428096,0.0022738238051206805,0.008998015435635555,-0.017461511222282417,0.014332886965291136
454,-0.016925629725587917,-0.0019386442595887318,0.008325044746231856,-0.018333208566027864,0.012414428773442064
455,-0.017433582203445427,-0.0062086199528331885,0.007507980253855237,-0.020406050007157953,0.010659217150051331
456,-0.01526347741182012,-0.006614603790533323,0.007874913152635134,-0.021903375304050246,0.011645750750433548
457,-0.011688735421906741,-0.004769588176985756,0.008551498554522747,-0.023283921674873143,0.014371945631086808
458,-0.009948764344575093,-0.0046385395190807165,0.00788221333877084,-0.02603044507357548,0.015141270052373383
459,-0.010044178439835126,-0.006004277673795956,0.0063813523083937,-0.028844310072387087,0.013468785025302967
460,-0.01011440301806768,-0.005386881970392547,0.0053945835359277185,-0.029722104509370174,0.011534053998418977
461,-0.009057712084626747,-0.001574223254890338,0.0054432691632289995,-0.028487160510225713,0.01039936376998603
462,-0.006533541744673787,0.004353435258039516,0.006410647955908003,-0.025266897957675512,0.00993378153419295
463,-0.0038085669595137803,0.009021737742570151,0.007957775136906117,-0.02114568906640992,0.009338848260497808
464,-0.0018237732076266044,0.009811225349614146,0.010850459610802029,-0.01771562190030541,0.00854511677146942
465,-4.064094671504149e-05,0.009006997505461663,0.016108290308848926,-0.014866209269533309,0.009051347596555353
466,0.0004821594807394016,0.007812630582988174,0.022119695009229,-0.012881568843430493,0.010741658426068524
467,-0.0015746948508405401,0.005166724501735126,0.02666237946592177,-0.01234780125752135,0.011957891221417433
468,-0.004242128910313101,0.0022038358279666643,0.030647069065820688,-0.011451070587405701,0.013006006637644254
469,-0.005304484722486715,0.00029885950458184837,0.0356152536827908,-0.008782282282001199,0.015027174029652077
470,-0.005702607583413309,-0.002024787646769445,0.0404382468226986,-0.005844598415004456,0.01758925107462657
471,-0.006457385848013224,-0.00600887354133032,0.043849535984252994,-0.0035927566188363475,0.020264552013204918
472,-0.007178962395944763,-0.01026173323770864,0.04554992494639602,-0.0016051503927406127,0.024312365698718173
473,-0.007444645007411435,-0.012606637430931919,0.04532169256019388,0.00037075284341336,0.03061366815905465
474,-0.006980126835291673,-0.012383300213673851,0.043862666615945935,0.002495494524690006,0.03677092589078474
475,-0.005674782447433418,-0.010910703555433427,0.04222953292947428,0.004549045328105939,0.03921155681092581
476,-0.0030971677466945626,-0.009402331502612842,0.040943943694338666,0.006658101048130865,0.03798843432955201
477,-0.0005588307967366231,-0.00874976401857604,0.0387354128239099,0.008159992921474138,0.03473436304229642
478,-0.0012273538939900268,-0.009842588999440197,0.03356032539425835,0.006778850853328867,0.029209772116106786
479,-0.005938495836038989,-0.012553657727613224,0.02577606611637414,0.0016686757153827273,0.02208577629348912
480,-0.012552182361893906,-0.01602730511664914,0.01781283269435972,-0.005178116285335923,0.015968323387190633
481,-0.017887515065946644,-0.01899692307125932,0.012013904736858469,-0.010602979215636684,0.012768742359893838
482,-0.02032983199505101,-0.021291639297782702,0.008760347284808368,-0.013148601741064195,0.011660689116947858
483,-0.02082185279818668,-0.023636096706950604,0.0068771484747029415,-0.013781317283525807,0.010564648466769666
484,-0.019910954032101306,-0.02457773670712411,0.00615455654421649,-0.01308494994189578,0.009606340459477086
485,-0.01731630533069396,-0.022214171614201965,0.006936139089299312,-0.010899006848024887,0.01025149511316046
486,-0.013502458105078148,-0.016802042702577895,0.009015605393164936,-0.007272279840397407,0.013276746915798466
487,-0.009779514875433546,-0.010633692609250641,0.011553566672862415,-0.0027427377005731345,0.017761979159642977
488,-0.007475254283759721,-0.006971972591820228,0.013547924755617455,0.0009958853014842835,0.02098194724183288
489,-0.005653882525516251,-0.006057489427287667,0.015916236708153564,0.003538942481737726,0.021967905783112366
490,-0.002461129506805584,-0.0056644671555798245,0.019961040515687426,0.006107550646214583,0.022083561091471627
491,0.0013020298796551826,-0.005723199042852813,0.02420739467591377,0.008608860139096655,0.02103262609262613
492,0.0035036326353134538,-0.0071663382168804446,0.025907759502125535,0.009975906556767188,0.017285347441641348
493,0.004027068385221218,-0.009159563427655172,0.024214589378795323,0.009987534732903446,0.012142770229089028
494,0.004429252326782699,-0.010789508084011124,0.02054262468931966,0.00950322427439292,0.008382762594498227
495,0.005866122819795844,-0.011779250686649196,0.0172612059521562,0.00965566036243194,0.006296226288254509
496,0.008782214807018362,-0.010634249024935484,0.016113724412438746,0.010992239205500564,0.004848978392965326
497,0.012031183965721058,-0.006912397976845693,0.016273082900434596,0.012516481461243146,0.003104382410947173
498,0.013279589058878756,-0.0028738935294803074,0.01580087341064451,0.01241555255993014,0.00023549177810778895
499,0.011279693407242055,-0.0009248976006576972,0.013904037819646357,0.00961114668965317,-0.00404703395688987
500,0.007418809397458568,-0.0009275599337329223,0.01153553182682347,0.0050430928441042725,-0.009219491879359913
501,0.004835383950027169,-0.00023068748396992843,0.010915857977310765,0.0013151393189100638,-0.013749008954466874
502,0.005046862014018431,0.002715608264802167,0.012463191758431072,-0.0002082972667254423,-0.016635947253774364
503,0.0072850873253769936,0.007185680237598669,0.014447631814823145,0.0002639828323910092,-0.018092280251139726
504,0.009992887490987543,0.011508186159239311,0.015579827804059634,0.0021874303490827256,-0.018775186988199265
505,0.011881325343244318,0.013688125127341228,0.01584318137399846,0.0046764878241674504,-0.019927065248833805
506,0.012941052855449291,0.012915466850033211,0.015784020031767834,0.007047735999562533,-0.02259188135588235
507,0.013355838606097186,0.010345089013753967,0.014897291017389278,0.008786156656899259,-0.026499648756337847
508,0.011698332385436565,0.0073788460386091095,0.011592939623205314,0.008534564735204846,-0.03096302530371849
509,0.007501270801847562,0.005254435735328297,0.006257726217210001,0.005958586442000467,-0.03518290999840425
510,0.0029541169738986307,0.004756968293472895,0.0014808316818789107,0.0029210607439686394,-0.038194050025282124
511,-0.0004309783628167542,0.004688583030541202,-0.0011269649476480384,0.00025904113406026354,-0.03998379386044978
512,-0.0036745660730432526,0.0033106363203134017,-0.0023020112288803314,-0.0032355052627290482,-0.041667597896393946
513,-0.007093422292273976,0.001190701149329332,-0.0032697760160757664,-0.0073126302717290564,-0.043643910532830184
514,-0.008792565817498762,0.00029397346660191764,-0.0036363556446609643,-0.010011701465178675,-0.0434232599975238
515,-0.008075392574157242,0.0008636656557781147,-0.0029523787424452076,-0.010943912839078394,-0.040086928947338445
516,-0.005353599961863959,0.002155739018284524,-0.001095185628217309,-0.010102991474734386,-0.033714439013606996
517,-0.0013464543337464168,0.0034561324703581593,0.00227183610356599,-0.006929350600497354,-0.02622635677172728
518,0.0019890971457006464,0.0039086261883626554,0.006028470055581441,-0.0023465139469306534,-0.02080361446422609
519,0.003336304359246822,0.0037542941166159825,0.008252813613845606,0.001986580748256898,-0.01862021104893292
520,0.002569251255913347,0.003507719344551196,0.007766271314302371,0.004911646098250428,-0.019470292472055683
521,9.757914740246623e-05,0.003631959730911461,0.004873295046441977,0.006358039989245842,-0.022302996723040855
522,-0.003310013823712147,0.004911302310338694,0.0012308368385690403,0.007347205193601322,-0.02587038801556011
523,-0.006433527048416359,0.007607093881946519,-0.0013493189387815295,0.0087548173350198,-0.02895321958949514
524,-0.008154406715357847,0.011413838226953162,-0.0023416710904186015,0.009994051694281306,-0.030241987192294043
525,-0.009046248496463419,0.01550262414260659,-0.00291542380248272,0.009034176597140486,-0.028916199541603085
526,-0.010304767516274915,0.018513526545053588,-0.004311098266734605,0.00489138262338627,-0.025502746332666266
527,-0.011206919403364076,0.020112684678404904,-0.006038447717146199,-0.0002510955470153419,-0.020852499144388914
528,-0.010362694691166591,0.02137431736003922,-0.006194643791588045,-0.0034997116955912486,-0.015398756155271899
529,-0.009545875813127607,0.021681842570658465,-0.004842045678272003,-0.005665678239506582,-0.011572644100332886
530,-0.011311632003529132,0.020259833935332934,-0.0033516940731356947,-0.008874677019828109,-0.010897276079173809
531,-0.014934112581878272,0.019181422432225058,-0.0011912746189160154,-0.01232953623523808,-0.011124982999892332
532,-0.01926061164584342,0.01931830420024526,0.0012864017196107243,-0.014986518109818135,-0.01141069118225569
533,-0.023720771568042504,0.020072453975770007,0.0026719682426892127,-0.016294014158756562,-0.011680740573148985
534,-0.026808303685231075,0.02276948084607177,0.0036732570621343047,-0.014970666736128364,-0.010843741451629682
535,-0.02774969111257098,0.02811524776175037,0.005310193850779092,-0.011624659761184115,-0.008928520515678256
536,-0.02749348428917046,0.033776056600040835,0.006922655079280494,-0.008578468026109764,-0.006453483035471935
537,-0.0267791402930191,0.037431160810645216,0.008171376379544926,-0.006522302262986695,-0.00438327630690513
538,-0.02563356848697114,0.038943511161129936,0.009539440410604746,-0.004461575101963652,-0.004534428806598745
539,-0.025779072489397207,0.038047814497023894,0.0095604238510964,-0.002995786109947328,-0.008179930135074946
540,-0.028591146036002137,0.03483336023184339,0.007024816989993505,-0.0033349352577492315,-0.012720421545428535
541,-0.03200018256967576,0.03161086016952947,0.00416329080207005,-0.004259097442701055,-0.014444146117038172
542,-0.03305535786313354,0.0308713023415951,0.0036716926845919346,-0.003868124288664214,-0.01265087007305136
543,-0.031795053905648185,0.032292199686170656,0.0052779525592545305,-0.002870170236098845,-0.00986499722529444
544,-0.030314064842326693,0.03320964392976076,0.006763913233476515,-0.0033994251018072156,-0.00888133059300778
545,-0.02885679563473693,0.03255002539330282,0.007521677383095263,-0.004593324641485178,-0.008612988819140395
546,-0.026479626130176136,0.031822435422793775,0.008822354647386978,-0.0035177263974743933,-0.006829677363893257
547,-0.023684803065040446,0.03207821855440579,0.011090166131141325,1.715048523556529e-05,-0.003729249926889967
548,-0.0213306287434297,0.03246671285229218,0.013295309160083651,0.004075323680736695,-0.0004214624549877905
549,-0.019108167486068733,0.031413160620182616,0.014519397839662712,0.00756863027560217,0.002899579287287386
550,-0.017003686571797037,0.027673287789706562,0.014314759375367058,0.00924649695560759,0.005351884907041253
551,-0.01600937457504775,0.02081415228116631,0.012568356121214005,0.0077797092094641805,0.005124494799608145
552,-0.016269141453506747,0.011981029350231499,0.010710217561270031,0.004426032089431392,0.0031141663786854266
553,-0.01785985290570285,0.0027130874323334354,0.009766199926891728,0.001174515520200537,0.0014444865690507603
554,-0.021470499225023972,-0.006386151437653325,0.008575621690174048,-0.0015795282965231099,-0.0008010081326336768
555,-0.026025851248637086,-0.013959325190778755,0.007096648013123687,-0.0032513974534876516,-0.004992225474827085
556,-0.029410682872421587,-0.018010942620511852,0.006641646756296789,-0.0034857327486393676,-0.009185072931005218
557,-0.03197140982497611,-0.019525380551360945,0.006217070500830179,-0.004311316865692001,-0.01124285756871831
558,-0.034548521721055464,-0.02067911237181214,0.005047578442298632,-0.0065149708635267225,-0.011157138407089283
559,-0.03557870481937618,-0.020846649220489462,0.005379194169483455,-0.0075465552228229345,-0.009484089847720407
560,-0.03498180992399812,-0.02007489845918823,0.007508854775391694,-0.007445476442255702,-0.008288474745113104
561,-0.034027103290726064,-0.01950816155771451,0.009479409229966691,-0.008245713476735198,-0.00883108716537335
562,-0.03274675287340976,-0.018789952730749872,0.010554585465303646,-0.01003535467370847,-0.009434151435367523
563,-0.03021997484548517,-0.016305876693222796,0.011712986916150492,-0.011452841833588958,-0.007629938171169193
564,-0.02567676261364567,-0.011066708893253207,0.014266107139106466,-0.010867868610347723,-0.0023838045075473034
565,-0.02099130184975946,-0.005620318969142782,0.01708013706012017,-0.00853611077432971,0.0038696451110063093
566,-0.01790173791643227,-0.0029552429846818754,0.018359749915825695,-0.005215133719865044,0.008351455132777953
567,-0.015004600482430398,-0.0025274080098710095,0.0186156502726302,-0.0004831186646241846,0.01190542873200708
568,-0.01116836339572274,-0.0030537412893435626,0.01888675792535674,0.004782530348979389,0.0165815254714151
569,-0.007620275944352621,-0.004855336865667707,0.018327652154816337,0.008002404804596727,0.02187705316834145
570,-0.005519287802354569,-0.0077579741718253855,0.015712075606085167,0.00816666074165881,0.024628022362722924
571,-0.004145539322403393,-0.010368437553648328,0.012208781265927464,0.007567228450225438,0.02220097667302579
572,-0.0024417898079355385,-0.012083653807167681,0.010200683887332015,0.008894132617013585,0.015681980988510022
573,-0.000579225947641557,-0.01386159444348906,0.010194792685533392,0.011877106797215159,0.008585695922005537
574,0.0006617680409479799,-0.016834224385856567,0.010567977967267236,0.014993888375410607,0.0030671727118069514
575,0.001032622122196373,-0.02062749663160564,0.010095363371925417,0.017525142475520665,-0.0006394344065573577
576,0.0009087608839394848,-0.023837274855309665,0.008991020172420377,0.01867151041550061,-0.0027580817435001927
577,0.001045548589940719,-0.024956401705577134,0.00792531112866237,0.018262855151831712,-0.0031454578116578602
578,0.0024471393993805786,-0.022517528301431968,0.007621041076640634,0.017762949485855873,-0.0010663783576542894
579,0.004905276946528733,-0.01763472334444362,0.007829453784936396,0.018037493757395596,0.0030173106085181933
580,0.007826542544721309,-0.01277918254284014,0.008001900395722671,0.01900484892191068,0.00783620702315071
581,0.011207181463995906,-0.00854572879016597,0.00832429526150897,0.020668488181248383,0.012691217507999118
582,0.013553850496708951,-0.005403958448204412,0.008078117664886397,0.021564008671610218,0.015855543105239643
583,0.013776917541385828,-0.003195222852190549,0.0068888744071073935,0.02063347541867485,0.01644002991717084
584,0.012720689548291118,-0.0011096265094836702,0.005638263677647744,0.018541334032427415,0.015234154087976444
585,0.011375273375613735,0.0008363029723281834,0.005009540925250666,0.01575659214332078,0.01293960928319896
586,0.010740798339792183,0.002576172133647321,0.005474667069408697,0.012861830017993441,0.010636127144290347
587,0.011586796174733916,0.0035964515795864336,0.006597758840011783,0.010614090833996184,0.009185971908563474
588,0.014696570204906834,0.003864307954012722,0.008021214560615745,0.009546464779624323,0.009453904247795405
589,0.019855470699035267,0.0038632489105613647,0.009364580430522065,0.009199342452628484,0.01183220000148032
590,0.024846652294734248,0.0037395478086805936,0.008870705987643992,0.008466686178719846,0.015158666412665138
591,0.028621193767345947,0.005029236254837049,0.00637795532910496,0.007950593164571232,0.01879753593974529
592,0.03178049896311477,0.009491768209882082,0.003783145208871404,0.008482915146137394,0.02283886829706105
593,0.03381497285860767,0.016302380213502377,0.0021671929974096814,0.009207831329500494,0.026728246713036963
594,0.034409155592065366,0.02305650624650737,0.0014494348852936436,0.009866995008305523,0.030407660538924578
595,0.03500210407277937,0.027674191879184785,0.0013187216783988416,0.010747451339694177,0.03371005151012213
596,0.034465965917379646,0.02905879811939323,0.0016185560704204268,0.011121781503186379,0.03523294614580425
597,0.03344772375419111,0.02762564524822246,0.00209025576056288,0.01046849670392103,0.034606059509771935
598,0.031603423930340865,0.02484215925688037,0.0025291176205695385,0.009443850641061036,0.033085974475070404
599,0.02781110497470723,0.022769463696236,0.003227230377396997,0.009480756183312481,0.031811800617170954
600,0.02399007864475146,0.022785860523939442,0.004199358355652261,0.011250252463730579,0.03107150436512688
601,0.019514335498015147,0.02338988485106937,0.004308392790599672,0.013442195730902816,0.03003641128569863
602,0.012981475491471061,0.022227056576297918,0.002792872653953655,0.01476170709317041,0.02809879950310273
603,0.005519267394359611,0.01996706566770824,0.0009708504778830531,0.015972721778369534,0.026478731024501028
604,-2.6811247183719617e-05,0.01947248014870182,0.0006496609194059656,0.018080205615683572,0.02664158008459254
605,-0.0035607225604202546,0.022676502995856995,0.0024149247265663936,0.02064359446080378,0.029186726893929413
606,-0.005964152282484743,0.028795292865816478,0.00563861678386608,0.02238855065581809,0.033515570941802214
607,-0.007766418532360674,0.03449002725860832,0.009096003986011823,0.022491123677763836,0.03693193671751021
608,-0.009911756904007103,0.036821088454816436,0.012293523100188641,0.021382393748266424,0.037112311843042145
609,-0.012022369718188429,0.03526859670908053,0.01518176391043112,0.019813445386330713,0.03513194694706163
610,-0.013653767007541597,0.03152261493589819,0.01758942718735027,0.01867323051235357,0.03399116621151166
611,-0.01442810496427966,0.028834355873457722,0.019897865794567506,0.01905091397252342,0.03488299902000436
612,-0.010145405200762733,0.029466960341412954,0.022273132855649917,0.020896295466360355,0.035675392380519734
613,-0.00426503369464789,0.032792965405401234,0.02415720022978445,0.023369089968421273,0.03431385569218365
614,0.000352679973799004,0.03710684250611631,0.025250801849439623,0.026176330225801587,0.03281609698131173
615,0.004967349671369886,0.04185066841986267,0.025764222124152754,0.02938996350389882,0.03462050841435456
616,0.007223946988283586,0.04630924360838207,0.02520321451731576,0.031634474570439816,0.0390786226132699
617,0.008465551715308465,0.04955579052190222,0.02351193550921633,0.03165836215227991,0.043306254106737614
618,0.010444348620557367,0.05178346175588565,0.022014403684898338,0.03072915134864683,0.04618973425755142
619,0.012335811456712868,0.05346364795813609,0.02126361024646066,0.030498878655873776,0.04786334430178474
620,0.011195475389726251,0.05385434923872193,0.020226336087191467,0.03066998525117032,0.04818384622290164
621,0.007202116055421635,0.05089719696745376,0.017698324381809453,0.029507253833324164,0.04623884128833612
622,0.0022116611253986986,0.04453256725597216,0.014647268390534299,0.027138648655092457,0.042865036487360286
623,-0.0022007008472258675,0.03674904535958798,0.012509903031061205,0.024863503035058965,0.03988378143265759
624,-0.003643730994512777,0.02896556359900238,0.011182117628810669,0.022841055887175013,0.03735552382085177
625,-0.002679060979240507,0.02208209883329701,0.010587951331651392,0.0216269821606166,0.03436424753437598
626,-0.001054736606049853,0.01668147608936204,0.01040682176490003,0.022088452493015245,0.029974786564932885
627,0.00039101570903057095,0.013480029033874668,0.00997732499591851,0.024169521711458128,0.025038985447007653
628,0.0011835483818715819,0.012442243753085957,0.008842379613879355,0.026123898773597068,0.020519654829442267
629,0.0004686087962412512,0.012235867057565119,0.0064384034071031234,0.025977749987226472,0.015011576113434623
630,-0.00041815737222139216,0.01340934068568072,0.003380285194997761,0.025041237736699584,0.009107565313079238
631,0.00027658996315939316,0.0166456161771859,9.094086428432063e-05,0.024775283118369667,0.0052648619083717416
632,0.0009928396268204167,0.018402415038175208,-0.00500409455867272,0.02324692986721708,0.003086086857250107
633,0.0022983470965037577,0.01689137647836255,-0.010709345858898468,0.02054344378673728,0.0026821126707002197
634,0.007119531905074602,0.01518202330207023,-0.013218130158119028,0.019288172320386453,0.005444522727255469
635,0.01356077679598833,0.013552097138777705,-0.013470218528233997,0.018107250564123063,0.008092662217821832
636,0.01768520814242982,0.01017657928682761,-0.014853796841071264,0.014176240445459612,0.0070663613477473025
637,0.020228985635612474,0.006757678167030718,-0.01631770092489033,0.009376299366094682,0.005147089476864635
638,0.023742558342707953,0.006111050056083887,-0.01529331669531204,0.006853266571448409,0.005455702545707823
639,0.027575825754919188,0.008269677450166595,-0.01315283702638263,0.006121490534688345,0.0063763300333829495
640,0.029725193696773858,0.011106338994582859,-0.012530433437621434,0.0059242584616977755,0.006177451237179896
641,0.030379927678818443,0.013710084551267593,-0.012254438868467277,0.006976736455568132,0.0066832448793407925
642,0.03171144843781422,0.01590503502502054,-0.009943187817597163,0.009240960959027721,0.008706033255115176
643,0.03233407000792303,0.015170210129988091,-0.007413089479019683,0.00986622245787601,0.008215653179524439
644,0.027209140156661215,0.010732797273808554,-0.0068893430107601255,0.007477536302083868,0.0033778957262123608
645,0.02274196949826638,0.00710802344568158,-0.005884258024789651,0.005447389981865067,0.00016541996261500334
646,0.023767964345043767,0.007735598028395567,-0.002002863240378443,0.006460134099243817,0.004186736015917516
647,0.026097283786429327,0.010276597124495681,0.0027456585905079166,0.00825832925457425,0.012033439301963258
648,0.027556641232735497,0.010320793296968576,0.0054389001742611515,0.007229103503430401,0.01518167480620723
649,0.026259939576667057,0.007098326532309226,0.0062429709724358936,0.0033431938037662965,0.009857341187285908
650,0.02302288029867001,0.003655279033077262,0.006416520186736748,-0.0005329578276298769,8.660271115823379e-05
651,0.020972218751567493,0.0029751548800749264,0.0065094098874175195,-0.0014449151030656478,-0.00766599092625208
652,0.023459922326414164,0.005463663206894449,0.007375504098134056,0.0017635556333937942,-0.010469749843092565
653,0.02840510481254045,0.009278924670595505,0.009560242246120409,0.007408523220351013,-0.009180675933271836
654,0.03334268133299573,0.012377992737401889,0.0128946980030553,0.013176930281900699,-0.005075027222906871
655,0.03828432755290411,0.014057322221065163,0.017073511508166394,0.018328933161201346,0.0012634323938274857
656,0.0422777610131819,0.015380730165047112,0.022073379166587186,0.023525434015705237,0.008740736684415258
657,0.0450152347481868,0.01730766098335249,0.02695919310308219,0.02836768466457321,0.01460106546670818
658,0.04458455821703405,0.01959641908557319,0.029250646815912707,0.030017382947490703,0.01629874675445555
659,0.039417648454778985,0.022069788756802173,0.027803315088554506,0.02684918947470956,0.014096044173166107
660,0.032853891181166696,0.024314703114915407,0.024270521232308943,0.020958029603385272,0.00967424952593798
661,0.026488348888212762,0.024734752843272218,0.019865713364525858,0.014622337284732561,0.0036570362269406193
662,0.02128555367220235,0.022739686446658445,0.014843598524864193,0.008607889410531208,-0.0033485511671398254
663,0.018627421253493433,0.01984007749086894,0.010219721775536292,0.0036668209937981817,-0.009237120114532966
664,0.01740015216095752,0.017593631664451177,0.006569780923388626,0.00027745789142311663,-0.012065544830117337
665,0.016795966079120282,0.016526629554301037,0.0034928438525475025,-0.0018287136044953666,-0.011987757736510585
666,0.01597349842166471,0.01588712709342406,0.00021043667141336966,-0.003673398825535316,-0.011318214442553768
667,0.014916998366538935,0.015038011102988021,-0.0029580997683799314,-0.005823356557379423,-0.011730125263221912
668,0.014039639718720322,0.014610272799058575,-0.004655166088205513,-0.007624654721930163,-0.012664927627180775
669,0.014576993769835903,0.016169690235932264,-0.0036464554856539028,-0.0075180176003978505,-0.012703153792723462
670,0.017158688092801813,0.020215092923209117,0.000301762751732032,-0.004857069715452947,-0.011024772586100557
671,0.019623955726252983,0.024126823968224034,0.00480367119812725,-0.002111675078714387,-0.008242273278658566
672,0.01933274774555316,0.024861844182233504,0.006399408024825226,-0.0026866889193550496,-0.006039252824909955
673,0.016369334654704852,0.022686952589562125,0.004640266907542184,-0.006717609025392152,-0.006099028893624743
674,0.013634792727282624,0.020046590611155702,0.0023360618900758905,-0.011220789695353306,-0.008635714132662549
675,0.012020162706130419,0.01767044269294364,0.0009298777301797562,-0.014477960807212125,-0.012704240417227943
676,0.010710571683434447,0.01536401089278799,-0.00013476378993598962,-0.016325089158698642,-0.017166624649173554
677,0.009589138738359999,0.013394304592647888,-0.001398695038160552,-0.01676869855060578,-0.02151995457439722
678,0.008320328849069147,0.011503102367267513,-0.003365454870560167,-0.016496321172916686,-0.02566890486378872
679,0.0072431152910964755,0.010263368365244835,-0.005578554713525309,-0.01564653806696365,-0.029049290860383613
680,0.006020586315412729,0.009916715865960646,-0.007885646513284923,-0.01489405560874761,-0.03252939155683015
681,0.0031246587782832705,0.0089459077014187,-0.011528565028913758,-0.01645377555470645,-0.03751780031262466
682,-0.00019725704588709973,0.007292904507689232,-0.016402645263843486,-0.020364478969774464,-0.04249809835291731
683,-0.0009948069371414196,0.00633747271034455,-0.020560339640677522,-0.023736509441723484,-0.044908774090587855
684,0.0003335712478164421,0.0056694998769619325,-0.02322436309230531,-0.025439751038077142,-0.04489280604448171
685,0.0015917172760973905,0.004748917483936128,-0.024749113693485782,-0.026662719876259955,-0.044192242549730795
686,0.0019502121929354985,0.0036963050732698997,-0.025133813201708505,-0.02827266137012353,-0.043328130926537194
687,0.0007866120844774028,0.0011673265699676302,-0.024795600429118415,-0.030600101792956937,-0.04152210384643953
688,-0.0014860414993358637,-0.0030728837597554376,-0.023883965224662716,-0.032995991356860425,-0.038725779652939676
689,-0.0029633186694284492,-0.00724716379620901,-0.022199172096004426,-0.03436813856725,-0.036859216496547824
690,-0.0032046131836916823,-0.010397004492073274,-0.020567574872429238,-0.03428415319832727,-0.037262411441063174
691,-0.0035078024544877512,-0.012023232235763077,-0.019297008319267943,-0.03301806830324592,-0.03747287592841791
692,-0.0046874804330621625,-0.011898098806310388,-0.017402766702536297,-0.03151173503281766,-0.034162010176559135
693,-0.007175421473639739,-0.01182342235118186,-0.015296415822357327,-0.030692826292047913,-0.028798133030780836
694,-0.011398834205609162,-0.01403830145548073,-0.01450901511932105,-0.030579340284363873,-0.025357265000098248
695,-0.01617282589619375,-0.0173475401443242,-0.014440608872116543,-0.029919709531135295,-0.024604684716348257
696,-0.02012753322653936,-0.01871115009102404,-0.014096072243516182,-0.0282660981507845,-0.02544211311722956
697,-0.0238330290445106,-0.01748522854364936,-0.014295522523122139,-0.027246543794230527,-0.027689708088965433
698,-0.027972748738136308,-0.01515084101051076,-0.015240439826001562,-0.0281521541757912,-0.03103013093304763
699,-0.031707328536208036,-0.013144847118125842,-0.015753943495980086,-0.03013706729203934,-0.0341370296039244
700,-0.03322551401280103,-0.011818977202170657,-0.014992528538400182,-0.0310599144084469,-0.03541286598208426
701,-0.03250845308223251,-0.011691780373618545,-0.013605797849659823,-0.030610985200056236,-0.03507014615870693
702,-0.03226184838437301,-0.014324122686960998,-0.013342361893407265,-0.03074346363307491,-0.03562904844090073
703,-0.032583379313302435,-0.018094064397872405,-0.013811102048198007,-0.0309388484930644,-0.037112789795790815
704,-0.03025502352270835,-0.018396394893485796,-0.01252879844343855,-0.028764681498591235,-0.0363521886594978
705,-0.02529568144428837,-0.014546675018262555,-0.009896606501498687,-0.02519848074058829,-0.03253745762025813
706,-0.021353429800594653,-0.009969018713314027,-0.009035241712446119,-0.023452648151003303,-0.02742358985036143
707,-0.02018651986251353,-0.0071069618323724125,-0.010811119175933494,-0.024310288704346306,-0.022504951796751497
708,-0.020314771140625326,-0.0060841131772598174,-0.013225314722045774,-0.02594923143113133,-0.019362847179867883
709,-0.02020906528935423,-0.006043862021304297,-0.014849053700966367,-0.02680705705600313,-0.018989216618931062
710,-0.018776269941186103,-0.0058853078106178396,-0.015285144065170385,-0.026266985410796508,-0.01943746398374615
711,-0.016035796596090945,-0.005868594389908891,-0.014679439005075259,-0.024822794037856526,-0.01773265487655118
712,-0.014549072509363476,-0.00664101620706065,-0.013758805107105004,-0.023652659882848898,-0.01282846580838823
713,-0.01727218674090484,-0.0076639981861705226,-0.013090121134458413,-0.023699718535329744,-0.007035844206411296
714,-0.024695845096717864,-0.008942145912762413,-0.013059117446201442,-0.025340092436142332,-0.00412906430887561
715,-0.03354788597887698,-0.010446057070835983,-0.01340047253492615,-0.027055840029369466,-0.0036476693442504065
716,-0.03947482886185105,-0.011246513220045702,-0.013749387889522768,-0.02673148158515707,-0.002639234046682143
717,-0.04072726696664534,-0.010370472809122589,-0.013835979230151618,-0.023993170447126084,-0.0010526867495583435
718,-0.03768833165827706,-0.007263787155103363,-0.012381680676991212,-0.01950173351826479,-0.00022046081018165073
719,-0.0320364176206157,-0.0030526247161187783,-0.009534903807862824,-0.014579195077712177,-0.0008022912949061223
720,-0.026998800621782136,-0.000264740621609363,-0.00800806238044146,-0.011704197551286299,-0.002911282530170803
721,-0.024480511579501096,0.00044521207276349863,-0.00887137499514282,-0.012429293221431234,-0.005404490828468782
722,-0.02336184630025185,0.0004587007617106476,-0.01072159916050007,-0.01584013994702626,-0.006970360477256289
723,-0.0212478595941149,0.0005617751580447764,-0.011917961705345223,-0.019112097719827012,-0.007228298586310164
724,-0.016792050956153357,0.0007529095728382858,-0.011250532668189752,-0.019407155799275936,-0.00667245393994826
725,-0.011741043379406192,0.0007596787652665437,-0.009275995188109176,-0.01712739543848355,-0.006677365004876025
726,-0.008487393564352085,0.00046876850073316814,-0.00769576509922332,-0.014675272879120918,-0.007779074666997567
727,-0.0064846843558445475,0.0005480507954373551,-0.00634423435321588,-0.012855048529310924,-0.008741803452732504
728,-0.0036165167172410406,0.002192051074568311,-0.0038674201906259264,-0.010818354885976697,-0.007695179145097425
729,-0.000306173882843797,0.004496211932455316,-0.0016013723202466957,-0.008689169259793421,-0.005336005519399948
730,0.0011576547001500995,0.005068443679059303,-0.002005416401508707,-0.007872333937315464,-0.0045927878468102895
731,0.0013315548736324784,0.004379123117652383,-0.0038372008898135404,-0.008013533034410847,-0.005526769740171503
732,0.0022423193221890536,0.003798879393916273,-0.004280515798840751,-0.007851194677159626,-0.00612974132648029
733,0.0038521034263041703,0.002756244298016853,-0.0031770250382531957,-0.007094256640205945,-0.005962728655275839
734,0.0049443356153186235,0.0006752529912668572,-0.0021585215049848235,-0.005293869980378278,-0.005448898211916403
735,0.004624168371846977,-0.0017854111093984582,-0.0023421309527887086,-0.002532847361218052,-0.004367312156039649
736,0.0030507697200582154,-0.0033463687353242127,-0.0038531339689713796,-4.559214907185264e-05,-0.0024718513135814375
737,0.0015667016248789149,-0.0031778455808227444,-0.005904828746799034,0.001592920948745999,0.00020253615615557576
738,0.0020553539801165355,-0.0011761145119335587,-0.006764345958049306,0.003447366181093481,0.003806278589380071
739,0.005275579656061685,0.002037510553984259,-0.005362667064905919,0.0063140477703024864,0.00801923728776071
740,0.009925885742546641,0.005542820036146217,-0.00211397956831453,0.009860555772492159,0.012208413188508994
741,0.014047583696169862,0.009089033876035506,0.0019865137975580423,0.014122501148823723,0.01597060524328931
742,0.01608700930132608,0.012404691277840775,0.00525112693008597,0.01854080715315247,0.018914472318761644
743,0.01584025815111266,0.0146214545875543,0.00615979842189252,0.021619433616238623,0.020516227555338613
744,0.014724457560161407,0.015395798743139842,0.004898986632497588,0.023206636224173773,0.02040017437762567
745,0.013250548251220877,0.01456609131876612,0.0024289873838494657,0.023562943587937032,0.01868750169748138
746,0.009562367059754034,0.010491019920583143,-0.001438991972753505,0.021065978880923007,0.01501691440547286
747,0.0032066556157853885,0.0028222323919493138,-0.006598545888724584,0.015318500267376613,0.010263742151270471
748,-0.002661391780784341,-0.004603936160688016,-0.011534444442420258,0.009645292556221747,0.008248196586222108
749,-0.005608702696335312,-0.008442654968482639,-0.01562718499528033,0.006984206925274065,0.010503034662919214
750,-0.007049079578088635,-0.010246001574352504,-0.01996425669162025,0.006042136306578242,0.013319917516231855
751,-0.008516033307607728,-0.011740880939774417,-0.024807104988219263,0.004470998590701939,0.013737114726816569
752,-0.009142462963525767,-0.011828272210299839,-0.028684800886982283,0.002539807194036909,0.01310141712173036
753,-0.008466774977941056,-0.010752614594491457,-0.030827243396019187,0.00114164354198241,0.01368698576456637
754,-0.007187709141342309,-0.010118486418598109,-0.03161106944300358,0.0005345088014567719,0.015139970748136009
755,-0.005962893367030597,-0.010480085257083938,-0.03186511668789736,0.0008066649085844127,0.014680420994926358
756,-0.0053858789074508195,-0.011488543604805283,-0.032264787711085006,0.0015361676853090408,0.010702777793819729
757,-0.00564102946213403,-0.011967136898828123,-0.03211792016187392,0.0023713319101952082,0.004823467222465102
758,-0.005747809487418882,-0.010231805631670617,-0.029914868710659542,0.0038266034136187933,0.0012084977024188035
759,-0.00598864808605361,-0.007018941089195107,-0.026058996153140834,0.005594581031687905,0.0018821113527354896
760,-0.008060821887776636,-0.005079148961390903,-0.022517977156729114,0.006390725929218199,0.0037237380709642985
761,-0.011077064847637555,-0.004787677849297428,-0.019570890108379833,0.006520726083778075,0.003055108805885498
762,-0.012191871997434735,-0.004629445075480817,-0.016328975123992985,0.007703230557788083,-0.00044695248594545475
763,-0.010083238298218035,-0.003706435984527111,-0.013032119927048617,0.010334431462884064,-0.004468142223076778
764,-0.005887590556625729,-0.0019952854139401372,-0.010321233876115781,0.01290400596110347,-0.006768523461999985
765,-0.00220662104515867,-0.0007164651370726547,-0.007765373273465068,0.014016477872062259,-0.0070776846841102995
766,-0.0013348100079819793,-0.001396947271453043,-0.0047762424191302106,0.013742084302764938,-0.006511572610342948
767,-0.0038238353943173048,-0.00414217575256731,-0.0017620163650247656,0.013124854788139637,-0.005930898795849605
768,-0.008698518683050717,-0.00793364531530297,0.0003450556985583267,0.012946547861990525,-0.005676575103462781
769,-0.013355244017130743,-0.010681666969814957,0.0018468999208403757,0.01446052765705355,-0.005568022424436402
770,-0.015574319045600252,-0.010789423681157135,0.003595150647596372,0.018279269286510483,-0.005605205363026016
771,-0.01595600860747549,-0.008498019957541071,0.005262549600124533,0.022361957955314943,-0.0062306291117680025
772,-0.016721071699596933,-0.005414454040280025,0.005831338885322072,0.02365208187116511,-0.0075128042493952515
773,-0.01892447332327237,-0.003492725394145397,0.004901072585109446,0.021320049716782124,-0.009001416769833718
774,-0.020419503325389884,-0.0017839422064108333,0.003997044881407114,0.018365296445537662,-0.008628453128417677
775,-0.018966718349248998,0.0021610129867001854,0.004844284831153138,0.017877872509871617,-0.004175779288885867
776,-0.015067920574110029,0.008110074745522116,0.007672243808098279,0.02049698376378552,0.00384729929549999
777,-0.010655941685988494,0.013768872549319673,0.011731811780930471,0.025197066830715112,0.0123999874833786
778,-0.007972507558795246,0.01731296335076781,0.015173336409157398,0.02945587978910066,0.018070089533133406
779,-0.007537543048724849,0.019192646484470697,0.01664847552112606,0.03219132919063185,0.02012264605081073
780,-0.008714792265325988,0.019879460828526558,0.016032324150714122,0.033491414452693366,0.01930781641192243
781,-0.011460687113093315,0.0178501852879465,0.013430062155392527,0.032139588293038576,0.015254300121878577
782,-0.013760260975452935,0.01362903022734713,0.010840866305350092,0.029033548768391287,0.009682018784816691
783,-0.013300501358267618,0.010219863813947882,0.010392884505342526,0.026548272374873075,0.006653946307183517
784,-0.011527669681821479,0.008497626985795403,0.01114400119131679,0.025015223559959752,0.0072924003964444034
785,-0.010101727238090571,0.007839768063680839,0.01228070872091069,0.025320983123741255,0.010257872866960562
786,-0.008828420260425341,0.00796435220895677,0.014171727504751503,0.027734260474232175,0.014359804806448988
787,-0.008792398542605934,0.007166723435094844,0.01519092570450757,0.02871461437951053,0.016980812882272003
788,-0.01073979613900319,0.004084421424386829,0.013806128620273346,0.026270187826269185,0.016370129848394407
789,-0.01319653787548094,-0.0002045698971872386,0.011268141262913874,0.023002447384973358,0.014366523693639454
790,-0.014487379403844904,-0.003946037421402698,0.009598041062534403,0.021799498029988283,0.013595361278712583
791,-0.013830071529358145,-0.005919642365868843,0.00993180601032081,0.02328740342976383,0.014689672621624822
792,-0.012052383366178209,-0.00632255028337947,0.011833248194439627,0.025510630544669725,0.01520701342743455
793,-0.011080030918554305,-0.0072368460277380305,0.013323367226468782,0.024974490160290477,0.011768472059659278
794,-0.011883447011944041,-0.010753140884442399,0.012512450214102494,0.019980629572538385,0.004439204406190018
795,-0.013499000383323393,-0.01632078754931692,0.009899427105671956,0.01274003121447463,-0.003287208850285119
796,-0.014605859842455516,-0.021411701712070776,0.00777724171689318,0.006817595759083114,-0.007760164094891068
797,-0.01553339814918432,-0.024851036076805055,0.006645216498418051,0.0033997442576901237,-0.007671964645463108
798,-0.016010884308831415,-0.02645209352892415,0.0062543950721705216,0.0023717045440401967,-0.004665540400260438
799,-0.014187691246146421,-0.02552510832787609,0.0073772246253869765,0.0034630921630707874,-0.0013096885351423593
800,-0.011018810456429794,-0.023254733824257374,0.008642456142353303,0.004346895080642782,0.0005126584400728434
801,-0.009274326885282442,-0.021708874957235284,0.007903817924279865,0.002999460561565467,0.0007670436268582506
802,-0.00916139909713845,-0.02143860851050293,0.00556542019019043,0.00031624350836162847,0.0006915912452499567
803,-0.009368219727943168,-0.023003695075455986,0.0027401876217865956,-0.0024350179991842053,0.0006940355540279631
804,-0.007587910510993798,-0.025607090654111903,0.0007610789261402932,-0.004316409763786883,0.0015807332328656987
805,-0.002476947434289663,-0.02740197204499821,0.0006142811244129745,-0.00416707735383385,0.003821363252042361
806,0.0026141049143295104,-0.02907343023712454,0.0011307319878135144,-0.0017585106770284511,0.005029547499649439
807,0.004442317452698211,-0.03103877877558393,0.0016448885962204501,0.002947675582635325,0.0036152893000883706
808,0.004011702161833299,-0.031494421308957,0.0030172208065313813,0.009302694466451109,0.001317335883439959
809,0.003006017752096036,-0.029805146777862564,0.004763775427804694,0.014013706066256508,1.5542934730303624e-05
810,0.0012120455022004916,-0.027789201828996492,0.004660949930573134,0.01336675936353888,-0.00035503093109114537
811,-0.0015063058376669912,-0.02678713927400964,0.0021235093226700265,0.008454500661783193,-0.00021548064355130225
812,-0.003291814501088346,-0.025583430201180757,-0.0002298084471402645,0.004778957348861947,0.0009992470430320718
813,-0.003833488504449059,-0.024071900032606366,-0.0013629403437552066,0.0043022668323415125,0.002282229294948958
814,-0.004902884152030374,-0.023624856361951364,-0.0030009626306982517,0.0045932454485788235,0.0015001165724589207
815,-0.00645152244974024,-0.023892528144209012,-0.00532343502565501,0.004612194850744575,-0.0009506318496410659
816,-0.006243144658156202,-0.022948117321988485,-0.006266275243285961,0.005720727829700648,-0.002495002713254088
817,-0.002963798067085765,-0.019757548944681236,-0.0046878520189195605,0.009406211813558548,-0.0018413140459600716
818,0.0013647533542268488,-0.01664373766030306,-0.0022301331550761486,0.014513673081338429,-0.0008252962603461783
819,0.005097775678813354,-0.015261612711603464,-0.0001261373453835623,0.01892343206353587,-0.0005057923464653036
820,0.009013641078556128,-0.013862588839046352,0.002361502163589141,0.022776971822778325,0.00046728435434511927
821,0.012602120312075906,-0.011856910680796523,0.0051553135721602115,0.02632964137757336,0.0018388306405767766
822,0.013563105537171279,-0.011153317453372,0.006689752066484779,0.02764612872524553,0.0018916809634524651
823,0.010559886688322981,-0.01304909796523003,0.005952527587321988,0.024807213850197136,0.0007991330679111129
824,0.004042882544812625,-0.017379485767591036,0.003043389063276092,0.018276613288794666,-0.0009174870380772673
825,-0.003397548201376269,-0.02207239755469973,-0.0008130778183429529,0.011115270934755984,-0.0037180068023922527
826,-0.008759510793609265,-0.02437713448498603,-0.003763510964447559,0.005894015089808875,-0.007121634174956818
827,-0.012170100555186143,-0.024430261717606754,-0.0056544900719939836,0.0015080513210322455,-0.01046613452071035
828,-0.014781029706609383,-0.02320648081669155,-0.0072082812595150505,-0.00321117860470554,-0.013044586029522338
829,-0.016184212809324857,-0.020214940030976302,-0.008186142804981518,-0.006451644319408695,-0.013704688426077558
830,-0.015657113152060777,-0.014715733426576191,-0.007958033221897273,-0.006170283762033414,-0.011817746369835559
831,-0.013789798679285791,-0.00757320673131193,-0.006831398572858325,-0.0031647557878514685,-0.00827986916549958
832,-0.011393338801840193,-0.001341880221989974,-0.005352272537535424,0.0007164947650700518,-0.004526143469131208
833,-0.008451653924923896,0.0022658685808519463,-0.003321798396987195,0.0045065890426094395,-0.0010825617294907657
834,-0.006143258898733617,0.002839443804960235,-0.0015946279992868108,0.006696071433357319,0.001017120454517946
835,-0.005607899029036811,0.0013787235578819888,-0.0010066550657133763,0.006696369257236629,0.0012625623804821725
836,-0.006070576770883686,0.00023320544943606562,-0.0004975288033656091,0.006056175922031998,0.0007514667543094413
837,-0.006714704990747853,0.0005666513164989751,0.0013207630234961588,0.006592710530251662,-0.0008126829871674426
838,-0.00758373199283594,0.0011959854852969395,0.004711244151676346,0.0085237834583823,-0.004689324401048222
839,-0.008690259299254339,0.0005885090498999693,0.008397506152826409,0.010554093813036222,-0.009574472077462138
840,-0.010395720443537983,-0.0016625703804062214,0.010296559184254244,0.011075893143047471,-0.013212683351146733
841,-0.012930990126219209,-0.004324551531968451,0.00973845634240242,0.009531168134657972,-0.015177639197757647
842,-0.014826871914897398,-0.004816560891240628,0.008463115690246407,0.007835228052511318,-0.015188173323734896
843,-0.014643829692490142,-0.0021728432524405427,0.008252217477595197,0.008055552025133934,-0.012226114113566864
844,-0.012570779808099316,0.001730186333618946,0.00942784509736365,0.010081092835177493,-0.006725157178917834
845,-0.009948594783112575,0.004188684328888638,0.011224371504625356,0.012507551879667903,-0.0013286760215136745
846,-0.00867352507849416,0.003559388895458808,0.011674402936651444,0.013082388146923259,0.001613177580631674
847,-0.0086166690848502,0.00098348960143343,0.010115231527279197,0.01089462115431143,0.0026666497722021257
848,-0.007725059806220836,-0.0006047617322907381,0.008730081968757398,0.007917633092184647,0.003937105678493379
849,-0.006017977478550908,-0.00044868661906911217,0.00889118960528248,0.00557896953894921,0.005720237896067287
850,-0.005532784780280447,-0.0004941398969572806,0.0091332434437563,0.00327523886357494,0.006492804020876009
851,-0.006628122897674212,-0.0014248648697889985,0.00845510815314707,0.0015919356956004397,0.005872203080432596
852,-0.007517417635326487,-0.001766386830903549,0.008252477664781504,0.002416624965688814,0.005464416329437361
853,-0.007413628856601829,-0.0011390389950723461,0.009162928683030343,0.0049686642359432435,0.0061089231715153
854,-0.006898451898104036,-0.00046471424524419417,0.010038192256192555,0.006246492438172416,0.00728841819798052
855,-0.005427918134032133,0.00011217747568501474,0.010568888083154553,0.005501217721850104,0.008594301272462006
856,-0.002306507166656043,0.000566058284507125,0.011220575250620491,0.0040764900422429985,0.008977038059388957
857,0.0008167433637954011,-0.0003252576913793166,0.011024365446623897,0.001711820160785965,0.006692616190447891
858,0.0017689808629324998,-0.0033400070003154615,0.00851331379441591,-0.002733219147190137,0.001407674212694759
859,0.00129561009160811,-0.00716243216966024,0.004680150339657254,-0.008090653214826897,-0.004790878154262566
860,0.0021464068124016837,-0.01002524915768673,0.001982745820523931,-0.011830831434545547,-0.009211158360885811
861,0.005367679777575516,-0.011528205552595148,0.00145083795088213,-0.012801747067980056,-0.010166205245180845
862,0.009324576672016248,-0.012766754891208985,0.0024058330138304615,-0.011550668099414841,-0.007966443403278628
863,0.010910519166279263,-0.01603528699310096,0.002856006777307633,-0.010281266594299097,-0.006132064019195388
864,0.009185882543798684,-0.021798398027890874,0.001880637434389495,-0.010838471340325149,-0.007212735063189915
865,0.00775571825864161,-0.026525958545208003,0.0015329230051323278,-0.011534235527679694,-0.008865719976968483
866,0.009310517575943667,-0.027160192888425135,0.0028925864383914954,-0.010715770670405883,-0.008403237098837255
867,0.011630910078830953,-0.024875692921808374,0.00409043216665773,-0.010542996556208127,-0.006521611228866978
868,0.011814044336438316,-0.022566044757701246,0.0036615229792192174,-0.013329626307101942,-0.005037140908994063
869,0.010059533640856079,-0.021789656953726935,0.001961683010114574,-0.018069126421696644,-0.004059839886185575
870,0.0075014707854421745,-0.023005902937331693,-0.0008595302674482493,-0.023158961965016895,-0.0027382008775218955
871,0.004708944470072312,-0.02566515754482229,-0.004679718272639855,-0.02788685887426504,-0.0013939741103816473
872,0.00276681144206235,-0.028688003462013077,-0.007750343510856892,-0.03044885638696546,-0.001532836557189661
873,0.003555979654746222,-0.031118364018326964,-0.007617342868194216,-0.028658224196000205,-0.0034365198206997884
874,0.00786863640720857,-0.03230946222572671,-0.003809352502648218,-0.022473671688019933,-0.005477097814745507
875,0.013525684649849103,-0.032824409706181376,0.0013235482275282603,-0.01484331432236227,-0.006530634948251098
876,0.01776689692323569,-0.033415465971829136,0.004978519935751851,-0.00953464732786437,-0.006608188837853954
877,0.019068555275193414,-0.034343751985516396,0.004981472841032336,-0.009015751454495888,-0.006474036042217341
878,0.017981891870860557,-0.03517176639014663,0.0015548181231675017,-0.012491772549914477,-0.006398877007141559
879,0.01701985506874136,-0.034540445508580556,-0.002136612551812805,-0.016228876528236357,-0.005469785645784814
880,0.01727756215066055,-0.0316718076121058,-0.0039998350234013505,-0.017862542011390287,-0.0033014009515357078
881,0.01819733594938923,-0.0263689976217316,-0.0037847232785428804,-0.016948722615821688,0.0001133900843550596
882,0.018606760715581296,-0.019491570818148327,-0.0027081975660460723,-0.014150414913765712,0.0039813379630316195
883,0.017346809834240192,-0.013508042797766733,-0.0030068588811702477,-0.011418314522722853,0.006484699515164955
884,0.015331845445251112,-0.009656963080715567,-0.004921450984666901,-0.009565110090511237,0.00747381579234328
885,0.014663922060182438,-0.006757640395253907,-0.00684388503612587,-0.007531893540841673,0.008151317808095544
886,0.016614370727530497,-0.0030456826126011136,-0.007093494327982157,-0.0037192547248079957,0.009384648260388793
887,0.0205093803025848,0.0013117980731189973,-0.005441302467491031,0.0018452706442533325,0.010732958658763624
888,0.02404644991525093,0.004518417948982394,-0.0036539595305816164,0.00642985937740777,0.010357193851641504
889,0.026058681264223314,0.006741263461130991,-0.0029564738460436534,0.00768910769778962,0.008039504769570653
890,0.02729637339262137,0.009867443495958831,-0.002978669163592578,0.005871941417916743,0.005569569407669325
891,0.028658091407190632,0.01468877877184551,-0.002833358635823798,0.002741952772005972,0.003994178631397587
892,0.030216549631410457,0.02040697688610803,-0.0019729497090847587,-0.00010551647203381427,0.002971886905268551
893,0.0313650648743524,0.025426073741174608,-0.0007942666547908127,-0.002463301180778107,0.0014190081279951915
894,0.03219192032994662,0.029624317202116505,0.00039974034195707495,-0.004429741979422131,-0.0006390268513083097
895,0.03347939607022209,0.03414639019659683,0.0016608079530938294,-0.00551797346271618,-0.0020417021692070766
896,0.03470639504718588,0.03832802222404729,0.002855859952485968,-0.005791915614580935,-0.002604527787644156
897,0.034207846402097536,0.04009338842573877,0.003583728906176939,-0.006048846559358091,-0.002739827296734201
898,0.03158529983946288,0.03885792749937525,0.003167393455103288,-0.006673526548076252,-0.0028852308889658292
899,0.028115232344963645,0.03591986412372003,0.0014419921897977942,-0.007255157089708857,-0.003572556911584222
900,0.024852065172960486,0.03233342210294607,-0.001432043268271827,-0.007980528694411217,-0.005145160125252278
901,0.021624134781186875,0.028278238892074162,-0.00523744158948352,-0.009951164148849506,-0.00776199599921352
902,0.018037897683323575,0.02444951541603813,-0.00936085189842361,-0.013067254905470848,-0.010647831536370875
903,0.014951617514370404,0.022703384431862594,-0.01252068227006115,-0.015224877785977415,-0.012001755872299598
904,0.013577129611421535,0.0243857350584202,-0.013512672052224775,-0.01462336156007902,-0.010990495573088425
905,0.013463327056103135,0.02800597760349368,-0.013101615464848244,-0.012518924675546134,-0.009228515315214897
906,0.013516587420182422,0.03145466790245356,-0.013063668159091818,-0.01193924148795776,-0.007564617867811981
907,0.013806339424384763,0.03506528150724414,-0.013596431336368649,-0.01317692692065433,-0.003865971925897548
908,0.014021924121996463,0.038349578818587186,-0.013975127173580125,-0.014155592801656574,0.002330510908596029
909,0.012510066731664672,0.03840781137627894,-0.014488006340551836,-0.014646163087395386,0.0077955898261096186
910,0.008721632404362072,0.03423720263078276,-0.015275069772647892,-0.01574595161807577,0.009124175831129662
911,0.004157104668404796,0.027737926268946504,-0.015564603018485324,-0.017465702183351684,0.0053653631735344496
912,0.00010339147949759347,0.021010832787760735,-0.015429156081465495,-0.01940119316951185,-0.0014747388866376326
913,-0.0030714444101593106,0.015854368133863005,-0.015419537371334526,-0.021384520748083256,-0.007834199522626623
914,-0.004695476257936628,0.013178735084545624,-0.015404205097724907,-0.022867513038963404,-0.011570948373932377
915,-0.004115764683058286,0.01239763788356768,-0.014955823878713255,-0.023214366563469545,-0.012797629170996461
916,-0.0017275464112119572,0.013576392502795936,-0.0134618900282922,-0.02207597272569447,-0.012125995218246567
917,0.0010869629319462182,0.017244935508699512,-0.011024075305832595,-0.019705900659850624,-0.010328056992035062
918,0.0026669327711625972,0.02219609796466613,-0.009423491540021405,-0.017887107894432097,-0.008801410017953674
919,0.002108503581197169,0.02679414816040578,-0.00984075149700348,-0.017922116432804013,-0.008444526892379255
920,-0.00061198050997918,0.030250807500257916,-0.011332462982141035,-0.019158961947161594,-0.009168731218352101
921,-0.004985159463648706,0.03193767157953062,-0.012510070026653573,-0.020642257338897064,-0.010707550454022902
922,-0.009701138645950173,0.03192337050504832,-0.01240920153091664,-0.02146758332890923,-0.011755158715597631
923,-0.012763980037134302,0.03185805525969274,-0.009977644080865437,-0.02075581934372508,-0.009608929588761982
924,-0.01341242838170536,0.03222470063978918,-0.005428721285062739,-0.01930285665812858,-0.004527327289449946
925,-0.012912392193476124,0.0312850995599415,-0.0008696411649808636,-0.01888400846426037,-0.0002662814150969291
926,-0.011453570183200349,0.02956144688893049,0.0029596207622936423,-0.018019278673179154,0.0026096067073426753
927,-0.008544494080197279,0.02881234841848389,0.0065787206666532835,-0.014014861975527844,0.006197986182511301
928,-0.005356524128840069,0.028673607394069333,0.0093465663938191,-0.0078159081488997,0.01050215315316477
929,-0.0027791227553904765,0.028516673126809413,0.010818295553078092,-0.0018015441495112339,0.014454149157413772
930,-0.0012262158407832014,0.02732316297388732,0.011032293420624166,0.0022522589790855666,0.016925487796881643
931,-0.0013231567406124347,0.022984210672741746,0.00978278274607757,0.003461433823789276,0.01708061586464964
932,-0.0024524586341389894,0.01555347923885728,0.007863973390876659,0.0029154164569736743,0.01637052014009793
933,-0.004010003390974667,0.007432841543641277,0.00639397755471437,0.0014271744741166297,0.016660151077888787
934,-0.007280259574917362,-0.0006475525047619665,0.004723878838732328,-0.0019592053002972397,0.016222777402678978
935,-0.013016838642752545,-0.009019435692856105,0.0019239391403145483,-0.006853516142767412,0.012687339397863234
936,-0.018510991365076314,-0.015667885321974658,-0.000360998083506127,-0.010200967374021631,0.00787451322341272
937,-0.02085266176083232,-0.018530180291479004,-0.0005225977484939047,-0.01036654700634559,0.005002974503938644
938,-0.02069174879873725,-0.018708512870361783,0.0005225778295376246,-0.008801275640774535,0.004850132075179306
939,-0.02033254217836142,-0.01899838726843547,0.0009493794395100544,-0.007822191424463134,0.005533276601451459
940,-0.02047231635534173,-0.020403727906555404,-0.00018305550516107278,-0.008358921016720618,0.004856794721400295
941,-0.020619282035674633,-0.021107898354620232,-0.001567579716872019,-0.008572995733685682,0.004317389273853833
942,-0.022070754603497385,-0.019614966691861656,-0.0020748014380019067,-0.00698837969176045,0.006473564532173
943,-0.025721692498208965,-0.01599642791972296,-0.002107135815207291,-0.004925880892648437,0.010250028368407233
944,-0.028680982508598463,-0.010836548199120949,-0.0008666526458940482,-0.0035435244954415716,0.01401693216908977
945,-0.028950162243678346,-0.00608520486948619,0.002076218400463617,-0.002933629060167261,0.01740613047058813
946,-0.02838232508432744,-0.0038468495185532384,0.005278138304763123,-0.003423103292874431,0.019321674450385788
947,-0.0283409797936806,-0.004020381045201806,0.008124107504860317,-0.004521950261495049,0.018808149589010833
948,-0.028652428104516514,-0.005273280199292666,0.010467322919461872,-0.005321815714671251,0.01685671922061057
949,-0.029217962326843837,-0.006697883890698245,0.011473992320429682,-0.005898749867822475,0.01617612069023293
950,-0.030551491793024244,-0.008887980113506085,0.010383047686424679,-0.007167986272975304,0.018237951350077674
951,-0.03295683484692721,-0.012645578073307608,0.007771284523827753,-0.009299395177138061,0.021719445988472863
952,-0.03526001745635341,-0.017285060114898172,0.005189696235753729,-0.011172801376071304,0.024286560019354413
953,-0.036397316038322414,-0.02120522705374685,0.0030729417913112037,-0.011959328966679806,0.02447945252014621
954,-0.03676069075367201,-0.022765633600946456,0.0009016058687435134,-0.01196067944782207,0.022476561894900517
955,-0.037099119166772915,-0.021306921159360913,-0.0014347211477348514,-0.012078497643794749,0.020025604181219007
956,-0.03639489765316749,-0.016407635445382738,-0.002526873824912849,-0.011609137682271647,0.01988452618221641
957,-0.033123832601559204,-0.008941594258581948,-0.0008616761244422031,-0.009016534070251016,0.022534093236794034
958,-0.027962870809526832,-0.0024065215776625797,0.0029082974278888127,-0.004510469054911183,0.02497035685496287
959,-0.021797002118445808,0.0018741696526713653,0.007480367743535751,0.0015586337504180168,0.026092519721240288
960,-0.014199656498497193,0.004657080598847994,0.010512328516464135,0.00732849387472624,0.024638467153690155
961,-0.00919637370910598,0.006843935077106496,0.01203615514827977,0.010973125816068671,0.023792699178644825
962,-0.006346036430015742,0.008167286918418845,0.011647631600262446,0.011341946235584231,0.02162959235247466
963,-0.0062452000645510765,0.0075016229131615085,0.010475991138621615,0.009192133234719567,0.019591393653879637
964,-0.007338584261686209,0.0052753095150243874,0.009520658015754309,0.006836709218345579,0.01840232678101576
965,-0.007903669228973481,0.00494508110189269,0.0083831208660266,0.005838329501380319,0.016320485545619837
966,-0.007981287649016254,0.00796601016113555,0.006305765754033692,0.005247953912450203,0.011250288147446452
967,-0.007507439471077917,0.01139461938683991,0.0042635851946617115,0.004279956309966006,0.004313170660062388
968,-0.006489624925320591,0.01151364816560033,0.003061664770927938,0.0030437466854632885,-0.0019593261913686414
969,-0.005067606893719019,0.008140098089113024,0.002644080599294488,0.0020300226205044215,-0.005852221473127679
970,-0.0031020524274646822,0.003823899665440233,0.003070944740002665,0.0016406015482167949,-0.006296552352266017
971,-0.0013319529558332576,7.401885051973343e-05,0.003980024232284803,0.0013730389297078453,-0.003308695729707223
972,-0.0007809324759565496,-0.0030144403348425987,0.004552849058104534,0.000729378110393984,0.0019011993562509787
973,-0.0017441633170968188,-0.005811031699588162,0.003692125923590106,-0.0008660582968765742,0.006467398087426251
974,-0.0032771722878349205,-0.00862357795147261,0.0015007292873880492,-0.003352400922828348,0.007320038797901065
975,-0.003263931984760316,-0.011124940560748173,-0.00012349129040186056,-0.004501630248681723,0.003914108982335322
976,-0.0004518697265449994,-0.012648088692702265,-0.00020657205458531609,-0.0022154162805839354,-0.001789879854114994
977,0.0038603964564923638,-0.01293003559545885,-5.171109403302841e-05,0.002304028572319378,-0.007671076172746322
978,0.007114020759374936,-0.012104703768600709,-0.0011097039582255465,0.005651161628097331,-0.012680493376614109
979,0.008892674544916926,-0.009333022772028191,-0.002572906021887728,0.006897484330068547,-0.01546183977453773
980,0.010531939915990775,-0.0046409576173758625,-0.002849077384091678,0.008165521388176304,-0.015630536678845494
981,0.01188710615551375,-0.0010921015817442162,-0.00237685107395605,0.009968571039593916,-0.014469037937548477
982,0.012341851679177515,-0.0008465218877049993,-0.0021319745788252026,0.010898556525188402,-0.012105557799267945
983,0.012334285030404117,-0.002886774576651764,-0.0018092478543619975,0.010794966926974764,-0.00902770172340157
984,0.01192501822252709,-0.005600763228556392,-0.001425569594883686,0.010273761748145295,-0.00797690752827198
985,0.010765858720443647,-0.0077602804478854375,-0.0016302154420409936,0.009474690337328732,-0.009744797654442076
986,0.008862266880341831,-0.008500048055862264,-0.0025037224338295325,0.008210272754152453,-0.011844172402274965
987,0.00648519658629429,-0.00816543491148444,-0.0037323445466534723,0.006247185023305214,-0.012870187708010366
988,0.0044467083567572225,-0.007705464358644209,-0.004765315465685737,0.004094001439619481,-0.013281504699845532
989,0.0030494546799861274,-0.007822757310441863,-0.005436106965967151,0.0023029461287541386,-0.013419236057412501
990,0.0020369505279258728,-0.008222840954792046,-0.005960508174850835,0.0010730496441830268,-0.012809910625807348
991,0.001994405307501748,-0.007443654612551978,-0.0058269418983646366,0.001165982573559351,-0.01080986057380471
992,0.0033092303556128124,-0.004972933456861629,-0.004491519558981285,0.0028962979768196754,-0.007894579353846938
993,0.005080633996399637,-0.0018896856240737093,-0.002457086925782017,0.005220899127866764,-0.004865307489363538
994,0.005775749285536681,0.00026096179168936655,-0.001034973631808903,0.006634100241341488,-0.002368968275654696
995,0.0051311241947527815,0.0008899683553122993,-0.0006357460947322887,0.006794340725163678,-0.0008722313647278067
996,0.004369161163315588,0.000874962087170206,-0.00034555644384767076,0.006464112387028757,-0.00018487930962324256
997,0.004092991140913832,0.000889081529570556,0.00017550613680240924,0.005851419682980978,-0.0002471295669522196
998,0.003979385798372029,0.0007103453476376331,0.00039671467636394125,0.004679171360346505,-0.001247131642444023
999,0.003684352630211775,1.8822026476263094e-05,-2.705633853141296e-06,0.0030221429036282814,-0.0026785827996425905
