,AF3,AF4,Fp1,AF7,AF8
0,-0.0008343107995589423,0.005720408959954873,0.00040699355416025975,-0.000994332448992739,0.004482571242137566
1,0.0003785259408606811,0.003405081020676259,0.0013790136671208942,-0.0010178959133245308,0.0038595217292716416
2,0.002657998401039581,0.0039026724746136603,0.0027534674980046157,-0.0006589062088353343,0.005244396883129982
3,0.005600975481436009,0.006059227438995626,0.004003039406682697,-0.0001725234744490631,0.008540062472802498
4,0.009806846390407855,0.00851612640816957,0.00596336722320495,0.0016590131062200091,0.013084678761197671
5,0.016100349183715452,0.012020117695527107,0.009373680231760105,0.004907124032877125,0.0189600515031421
6,0.023404835244387044,0.0161245508707432,0.013458823441833757,0.008793223292613042,0.024942516575010364
7,0.02915151419022398,0.018531210862486686,0.016563940460687,0.012972557937062125,0.028529749375263275
8,0.03156458954943848,0.018095167729411176,0.01754875117766513,0.016433292364798433,0.02862664633495097
9,0.030155605945969763,0.015581554947810116,0.01600685529511131,0.017613593729123224,0.025625022322829063
10,0.025966464801786583,0.012987006851450968,0.013296044712192694,0.016212519765910954,0.020922047490414056
11,0.02131587479130754,0.012117839189577597,0.011932227662762937,0.01332291759307097,0.016400918986639625
12,0.01842466768218088,0.013159743473612342,0.012898879705242472,0.010849978537515723,0.013495564429482361
13,0.01888149601165719,0.015494116358539924,0.015989812338028542,0.011276282212797892,0.013509298348317123
14,0.02171514179162513,0.01845516715309446,0.019975350747571338,0.014570120357834553,0.01642073742192305
15,0.023581694489480862,0.021225928202748517,0.022678133219849912,0.017500319092899796,0.020078162213291076
16,0.022767414422428665,0.023170891647424786,0.02320860289890439,0.017850650520486414,0.022482251663954102
17,0.019502672079009922,0.02310271023965846,0.02201636091206659,0.015349262851898953,0.022371367876236475
18,0.01569441597289517,0.020426599072733954,0.020283981543132074,0.011905234478020063,0.01980285623187008
19,0.013882148059100851,0.016455835235617805,0.019188953991621866,0.010593844007027477,0.017008298469717707
20,0.0133424292277483,0.011893482990651018,0.018731808488860396,0.011523321562184038,0.015045773108161383
21,0.0121793724033546,0.006798900386002069,0.018774451560205747,0.013325622414452265,0.013000957161394523
22,0.0108392694217468,0.002165123908205614,0.018796703401393472,0.01548208846242463,0.01086747286759667
23,0.011078157556094155,-0.0009758928138570025,0.018060992961151903,0.018577768212578873,0.009642148309204793
24,0.01371264755814526,-0.002385970100095796,0.01722959959055148,0.0239224318208711,0.009909753725808922
25,0.016857252260709388,-0.002472560463514544,0.016896812295499834,0.030082322099115186,0.011390497602625628
26,0.01861029992671189,-0.0010932802533990937,0.017185825385321846,0.034054613748412045,0.014120508417917666
27,0.019346623242026226,0.0013958346319395262,0.01837835164730919,0.03550219298484206,0.017970584936336298
28,0.019150519860685222,0.0025002379089382825,0.019693608158553352,0.03552152149811186,0.020988393538824802
29,0.01743137270136885,0.00038057357493706474,0.020111072723976667,0.03428784133793311,0.021640361893773063
30,0.014806680815119306,-0.0038808036912973253,0.020003297239195927,0.032133583125088946,0.02084546533924863
31,0.012785052488214044,-0.008376837163934473,0.020096078583991064,0.030227948408449157,0.020205447632677374
32,0.011972858290975984,-0.012689262404077684,0.019991287885327228,0.029538540873248923,0.019734019957706277
33,0.011199575347750524,-0.017103036203342747,0.01856255222503828,0.02993274436434634,0.018222015741615454
34,0.009850874018069047,-0.020864754988346553,0.016072262609281743,0.03100224138762621,0.01576176983018884
35,0.008609248913169254,-0.02288042963420618,0.014029566832342045,0.032344734463187697,0.013806659802270362
36,0.007087038356919472,-0.023400109235868046,0.012721403527673323,0.031412249716034873,0.013227330516809983
37,0.005762332024084728,-0.023322784780164092,0.012507423318877721,0.02932004458965193,0.014369437974855785
38,0.005939698463053109,-0.02397429851499237,0.013740802185174547,0.028144538206116475,0.016068618768768306
39,0.007040549561164392,-0.026650144659822565,0.014956039535490035,0.026467668929169838,0.01566891210813386
40,0.009117457243839987,-0.029633611078605265,0.015887568386608007,0.02477751502882474,0.01350646799997998
41,0.0136224424433172,-0.029239741595385914,0.017996869969304552,0.02506073801293574,0.013165707056993554
42,0.019883050942238082,-0.025252654230824033,0.020804944054718284,0.027143007310426855,0.015178173099646067
43,0.025282633906960086,-0.02079081794207231,0.02230108692021627,0.028289158134019925,0.016143804695409318
44,0.02833401552805473,-0.017174969773907017,0.021740996006902043,0.02707785311338456,0.014917840941163111
45,0.029306604196978576,-0.013053399933708769,0.02037790098032712,0.023560611999705293,0.014209438524908342
46,0.02881424601293443,-0.007902192647240526,0.019785600087067347,0.019292305633634526,0.015725759081093513
47,0.026913116632068787,-0.003449947601664085,0.019661289523457328,0.015431179755804854,0.018069682635486774
48,0.024097325121982822,-0.000998966766430981,0.018958731550648974,0.01082656392942196,0.019791318151279966
49,0.021477714390703957,-0.0003936335004947705,0.017675509080291165,0.005210838262622914,0.02101417144087394
50,0.020072968011214096,-0.001151206960943729,0.01651519586004813,-0.0003401554390137522,0.022443938549467038
51,0.020154114425804785,-0.00273326351877857,0.016107586157802133,-0.0049582145063724594,0.023885720075409223
52,0.02034353242429959,-0.0048049003632214884,0.01629969937360806,-0.0038692315398236674,0.02433196875464643
53,0.018714403752118258,-0.007324940613137069,0.016394686630753417,-0.001663264451457407,0.0235227304444418
54,0.015915912691585436,-0.009311012389580481,0.016778132331530683,0.0002255977714333843,0.02279200865852701
55,0.014206561051632868,-0.00973186573913814,0.018058238528864658,0.005680103137994791,0.024007356026794057
56,0.013798925083801485,-0.009169665152437383,0.019429217352856475,0.01044455845263765,0.02704656008726735
57,0.013897109480900467,-0.007725366397857476,0.020632274509667394,0.01420483414418051,0.029789088156698566
58,0.014245933444523313,-0.005226793077583471,0.022172694984741982,0.01891252150500833,0.03035313533043198
59,0.014961955037615302,-0.0025782480690413395,0.02386064496928955,0.024784973755949416,0.028921392982740015
60,0.0163110939080784,-0.0009622494729343251,0.025243981674146716,0.029374780814899165,0.027003407759886227
61,0.01792049007112237,-0.0013454858742343494,0.025839411317157644,0.03334827962931584,0.02528056074688244
62,0.01925083678302326,-0.0034393809543992347,0.02525751358996855,0.036884310158294,0.023402461726000558
63,0.01960474407877286,-0.006011208084576757,0.023415373776790257,0.03883755306762247,0.02077825764661869
64,0.01825071500613048,-0.007743638664081297,0.0208151897643648,0.040943772016442774,0.01760763092948432
65,0.01607154327521456,-0.0073699375626463375,0.018765114700582473,0.043131070480453254,0.015080895984294273
66,0.014884958259253199,-0.004868000850998302,0.018635523274653704,0.0454036161369089,0.013991741149198019
67,0.015465188974361322,-0.0015793306306388245,0.02061945862237959,0.04992611239138956,0.0142190035571594
68,0.016765033940902018,0.0010011767271206127,0.0230696722132582,0.050247272376664494,0.015046854111601372
69,0.016640776131949437,0.0016394832254757327,0.023953608618929503,0.04785200237965027,0.014702285000505928
70,0.015212546860003008,0.001443557713385538,0.023625172368726348,0.04552558328106336,0.013484128166843365
71,0.014561022535293126,0.002877006238070159,0.02347541290166921,0.04218675840608329,0.014403060181632744
72,0.014749848103162735,0.0055730073846376425,0.02305864936499539,0.0404914354032318,0.017558433000391716
73,0.01408084239156805,0.007822059415800603,0.021582048428392835,0.03809343214918528,0.020477544532307164
74,0.011534067592189634,0.009491351103645813,0.019568908659580265,0.03274172383264394,0.022632911686098107
75,0.007321053902822204,0.010605078392747413,0.017117109660855313,0.024852373826944277,0.024505779886221494
76,0.0029450061549572814,0.010054703030605901,0.01367367240074825,0.01833491591947926,0.02562634284154156
77,0.0007779489342682423,0.007656483949952923,0.010243809794258069,0.013593487326189601,0.02613180609690114
78,0.0016951775139471454,0.00465089061691146,0.008030223442541597,0.010752482804828125,0.02594010460619558
79,0.004576520412551358,0.002320023236280278,0.006767937984465825,0.011267263423787956,0.024208359144118497
80,0.007502293086482008,0.0007744755159570959,0.0054790821634147,0.012359210860632418,0.020532254006636677
81,0.009292848418052255,-0.0008084455336613778,0.003821730762142212,0.013611225126603402,0.015134225638140406
82,0.010929026762345317,-0.001973338384603974,0.002935246545453174,0.01588663646168869,0.010267291248416743
83,0.013290559447486775,-0.0021348511242979687,0.003585501992256272,0.01705737517431814,0.008188954223054844
84,0.016022682844665823,-0.0010562409207538273,0.005648152659685208,0.017416972012829726,0.008885698088739577
85,0.01812570769952676,0.0019591335884530485,0.007927602043968545,0.016630170141071744,0.011113720863719562
86,0.0179307333819681,0.0063506528875597705,0.008050638022709278,0.01416315884000026,0.013321111578864814
87,0.015400808830114108,0.01084106421443905,0.00596451956026594,0.011842153804716874,0.015139279096004973
88,0.011605820664167505,0.013798587576983155,0.003442083998394292,0.010279250418082036,0.016470252259300672
89,0.007376572663788617,0.014417076659760275,0.0016576671310442866,0.009705040239482432,0.016990740379495925
90,0.0036554788336276107,0.01397361117010573,0.0012752780313959725,0.009836433475618842,0.01721544098094445
91,0.00035447944447642435,0.013452608199507884,0.0015640568098273958,0.008948057532502296,0.01819721912494501
92,-0.0025586245895460272,0.012749275994976108,0.00151756881741212,0.005637051557569233,0.020422684564574526
93,-0.0036995327422076276,0.012487543517107734,0.0021087200693115757,0.0027458944066341365,0.023052733575125092
94,-0.0026828383548742995,0.013760812831229126,0.0045636914821553815,0.002000899277773275,0.024720768768776682
95,-0.0007015962631557878,0.016323967691770712,0.008361965554312182,0.002645538013550231,0.024671615333514967
96,0.001310091891946141,0.01919589454421036,0.012041367187085036,0.0048751208400802945,0.02395771361038479
97,0.0023986541232485204,0.021387696684345668,0.013486905930430773,0.00659169582145852,0.02314805065854645
98,0.003140415424152077,0.023459100055572755,0.012833520320679451,0.006897961982368295,0.021760001330464924
99,0.0044970763641212115,0.026180132464306373,0.012319867686724554,0.007038238531778973,0.019827871065069388
100,0.004925077340775766,0.027302200273816912,0.011283628533204226,0.006552951377918465,0.016414341596090905
101,0.0038506341202201397,0.025902970847496046,0.008654120630808927,0.005726117987222489,0.011677079470186072
102,0.0018542896493388696,0.023239754599581372,0.0052139525586852005,0.004375425288676017,0.007063950571562115
103,-0.001032048853494928,0.019211846392903992,0.0016492104874158402,0.0009079274380339298,0.003206809322776888
104,-0.0030054167990931314,0.014824077708151393,-0.00040230939232383846,-0.0027960760301378442,0.0012666082901017892
105,-0.0028313378651862067,0.011910748418140236,-0.0001541525501470762,-0.00446715613140957,0.0014140677662048894
106,-0.001675457501251816,0.010568535762193715,0.0010750288076119261,-0.004630983694735026,0.0019832975047758866
107,-0.0006434422408069864,0.009391779955905987,0.0023576465492401184,-0.0038271922211231394,0.0014058527086569389
108,-0.00033394020929487447,0.007096422516752848,0.0031953505986632015,-0.0028106900275245614,-0.0005624798647258741
109,-0.001247372129996507,0.004589877205266155,0.003079535018543463,-0.002716230623923576,-0.0027922894764519624
110,-0.0032984659128884,0.0030389056504460414,0.002319896589414289,-0.004081385849573495,-0.004498582165813097
111,-0.005185033222190251,0.0021653107750844894,0.0021571453303725085,-0.00615149922683404,-0.004842477572210198
112,-0.005312788625692081,0.0018106648917698945,0.0032623942370094833,-0.006809130941324342,-0.002570162152498044
113,-0.003010263618864936,0.0025541635342774456,0.0052738803173563885,-0.004139940723096192,0.002740421349185057
114,-0.00019916160232853693,0.0036673141909189058,0.006952680795163945,0.0003398804853369558,0.008950079474738429
115,9.23468027405677e-05,0.003177995232282256,0.006939703274567213,0.0032116186847798768,0.012109176097083077
116,-0.0016906272872266918,0.001517103701614261,0.006355281786163446,0.004527378573413391,0.01158161369453785
117,-0.0033085340695564245,0.00024376563124979404,0.007044564125298995,0.0054422603952756264,0.009553200736243467
118,-0.0037094026396300725,-0.0008096725491461602,0.009125137416314164,0.00584890630620209,0.006999134829844319
119,-0.0019866984806064516,-0.0018250037526593129,0.012413597298918583,0.00667442496524398,0.004261161015806065
120,0.0014925133477612013,-0.001898870272691319,0.015621362992448195,0.007790431034422436,0.0026535392925033673
121,0.004370939236580294,-0.0010262223230029228,0.016301094583120918,0.007211371088756069,0.003038839359284291
122,0.005237168790849804,-0.0008264043798720411,0.013774255246204181,0.00470948944288656,0.003298420307556497
123,0.004762141224498765,-0.0018171053574937567,0.009825008031694577,0.0019773756056683345,0.0009074418458863072
124,0.004394455565550217,-0.002081606754301337,0.007011315460960307,-3.9496310080096876e-05,-0.003074430575291849
125,0.00499892513228365,-0.00017561607899115787,0.0061388620852097205,-0.0014589367001468484,-0.006205876530484168
126,0.005687826142559159,0.0025303863412720782,0.005332605972699059,-0.003419390551272505,-0.007848831250278005
127,0.0058020988298054625,0.004415481453267675,0.004140734521862034,-0.006563476766918403,-0.007789406203423841
128,0.006519919877661281,0.005459149261257188,0.004760169485900346,-0.009440615293698967,-0.0063395355056177615
129,0.008250243625382105,0.005573382262141678,0.0070521686007258,-0.011058717039655573,-0.005492964931600235
130,0.009889720252863384,0.004397742383335363,0.008261621236114262,-0.01247546583928837,-0.006323878440464618
131,0.010236021254244707,0.0020001930946877302,0.006883567243799953,-0.015141636571928886,-0.008250961489620533
132,0.009526837841684113,-0.0009612285730468014,0.004304107240675595,-0.015527485912113455,-0.007701654966152499
133,0.00878042390862616,-0.0037892185867665212,0.0027000448234585544,-0.014082434741821262,-0.00679024485115243
134,0.007993701741613263,-0.006093339090662756,0.0025818666962317233,-0.013241081320966715,-0.006788789503742327
135,0.007149663544877828,-0.00733539313112843,0.0029751400941144157,-0.012142173834104026,-0.00560677117267849
136,0.005867750337534739,-0.007278132111301491,0.0019261510926258242,-0.01131624604043185,-0.005030507915885738
137,0.003564781049457709,-0.005527439040827407,-0.0009172003031447123,-0.009800242638736637,-0.004103577465436872
138,0.0005129191100757024,-0.0022092580206455764,-0.0035974497149328585,-0.006764000408076832,-0.001169075694871872
139,-0.0033114967778791627,0.0014299664937843575,-0.004975338889102263,-0.003975608138709074,0.0023507750339736666
140,-0.008023678440137095,0.005195831963052714,-0.005169778068218538,-0.003962581107926115,0.004005206811634333
141,-0.012692875960318992,0.009582445775996606,-0.004369207836005969,-0.004895156332181364,0.004886998088288833
142,-0.016002275603180828,0.013844211499082796,-0.0032326377932045906,-0.00433800747366629,0.005912958530170041
143,-0.017627278062385277,0.016206179954589478,-0.0030419112786014297,-0.0020564744403210318,0.006068042430175599
144,-0.01726510131569078,0.016338922547680396,-0.0035260920618916686,0.0026344174022400677,0.006901519547933981
145,-0.015092991331391884,0.015645435430435062,-0.003864919247988894,0.0076650350497165015,0.010309835518568877
146,-0.013405919287882349,0.014373873745507984,-0.0053857339818547895,0.00994778340670362,0.015061219552160589
147,-0.012962781458366384,0.012144303018118776,-0.00851433772038626,0.010417037281347855,0.0177455098413174
148,-0.011770712188930759,0.0098812167818587,-0.011512154909245204,0.00755960461256901,0.011955782604919803
149,-0.009154291134385624,0.008482615152704907,-0.01383415680457873,0.003759859982326787,0.002714505168357517
150,-0.005985730808108313,0.007383923114536673,-0.015987887174126504,0.00039495356397482374,-0.005862350918976886
151,-0.0026556057166611793,0.005837283613424093,-0.017393002226210222,-0.002642798325951131,-0.013791831941251522
152,-0.00010920483738646568,0.0034578494942904994,-0.018110779237998063,-0.0026264420182098586,-0.016740645535762558
153,0.0006012408252756955,0.000713671050010211,-0.018994429457092014,-0.0016086992856927222,-0.01637676552130398
154,-0.0004231485778255276,-0.0006408893856817245,-0.01957791694957141,-0.0022399003890168226,-0.015189133110991097
155,-0.0033574562807996517,-0.000334242667048693,-0.01979881688653835,-0.005570715415602497,-0.014027040702553806
156,-0.00753034801423034,0.00022049640656636593,-0.020186231293101563,-0.008271824490585238,-0.011626309235414719
157,-0.010554956190164807,0.0001152140067930686,-0.02037200378807244,-0.007884977676320995,-0.009809856424880626
158,-0.011146483195462218,-0.0007827448431022305,-0.02006285271290721,-0.005026839777946406,-0.009433117981129014
159,-0.009657759834837982,-0.001011654834479502,-0.019028826456165028,-0.001416048098183413,-0.007809589074582771
160,-0.007771430180951506,0.0007048862930104064,-0.017615616550301645,-0.0005414179950544076,-0.0054090220322145464
161,-0.007864749531148458,0.0028524320298512354,-0.017095159641884253,-0.0031666074986181503,-0.003493442234410475
162,-0.0091933364892356,0.004968958041617962,-0.017180058610927494,-0.006621415062925366,-0.0024547550983253083
163,-0.008888751690173217,0.009424283254906369,-0.0163447938632714,-0.00782402027215526,-0.0013052130681236952
164,-0.006834487430352993,0.01634108100426196,-0.014643752237827283,-0.009731448966873738,0.0004211355590604601
165,-0.004261512735428154,0.022661378676792205,-0.013056686515229851,-0.011472242353837361,0.0022918974074552525
166,-0.0005299452451469954,0.0267202386389472,-0.010912480899214951,-0.010723732434652274,0.00501857981173361
167,0.004410292565270347,0.02849803675885651,-0.007527957033185477,-0.0080978319952201,0.009053655475976873
168,0.00875211449219678,0.027946533013730217,-0.004355176903814741,-0.0035155579892355232,0.013113721607403744
169,0.011052326165881414,0.02567045619150612,-0.002968664882871593,0.0007265698227155784,0.015312744403734051
170,0.010028176237659185,0.022211367123107426,-0.004245932918225968,0.002162071592497592,0.014947403532510136
171,0.005543270406970334,0.017859129191749354,-0.008006821216426308,-0.0004958262890394132,0.012876882123134632
172,0.00010131329658764833,0.013807936693810368,-0.01183644849762035,-0.004456287019162055,0.010569275607445677
173,-0.004435529572963427,0.01092086329029622,-0.014032228802785585,-0.008815962200946941,0.008693065352227192
174,-0.008174870767305008,0.009039485621561092,-0.015535597071825101,-0.015059228788978559,0.007102000484292822
175,-0.01097702270531861,0.0077867168950189886,-0.01720631944869227,-0.022694532259553445,0.005320211928746018
176,-0.011760173392202557,0.007156734544374212,-0.018145894767407036,-0.029993637482042982,0.0028740625274155667
177,-0.009425029082214587,0.008610567618105601,-0.017205088497925392,-0.03495871880798923,0.0005351284467551282
178,-0.0054483222681937435,0.011931574582737737,-0.015650524411631127,-0.03946771833145592,-0.0018629520610849704
179,-0.00316825536677815,0.013507016269083254,-0.015645699323623915,-0.04670364596168206,-0.005492818093798606
180,-0.0035863593216167835,0.011276816255912906,-0.01645400237526247,-0.04797944179096109,-0.008076651829873173
181,-0.005702434453348496,0.006689648873575189,-0.016206214405347686,-0.04582500295069528,-0.009341756304259404
182,-0.008257940683709771,0.0025717318244140924,-0.01455266504698663,-0.04353521386307652,-0.008890479533142055
183,-0.009276769823794651,0.0008893001822309414,-0.011442715400246137,-0.038351269819625215,-0.005631082414478238
184,-0.008394953650277433,0.0011445478462218392,-0.007850273683389737,-0.03456155946906871,-0.0020068645183472815
185,-0.007668460509543201,0.0013072441815885415,-0.006058506829144057,-0.030424306816868345,-0.0002679102073026723
186,-0.007767161213839227,0.0007876109063478338,-0.006137211565178314,-0.023477573702784225,-0.0006923878583883038
187,-0.008134416751546606,0.0002939953391240857,-0.0066867189131328475,-0.01596408729248301,-0.0021583725952616212
188,-0.009276947177584186,-0.0005364874913658624,-0.008022736831628558,-0.013298691708080675,-0.005186126974847075
189,-0.010059266890143876,-0.0007220013866852037,-0.009419682775182982,-0.011487229902011472,-0.008402288557152597
190,-0.008841567100917899,0.0017689064760268213,-0.008920052439296987,-0.007372503019384372,-0.008883501168979086
191,-0.007014912950665538,0.005996181547490491,-0.007200779961843006,-0.003783513780418835,-0.006629833224515332
192,-0.006350123903627077,0.00962527323863918,-0.0062754440759004194,0.0009233486703434592,-0.003371512888616683
193,-0.007278906176473233,0.011227646552483681,-0.006324276625015577,0.005665666539628056,-0.0011800962874138209
194,-0.008366339523948803,0.011451827890769649,-0.005438803632619567,0.010484559461975927,-0.00039918170529425586
195,-0.007452937622117334,0.012019746888811926,-0.0025844093316120856,0.0164150758677545,0.0006432463051726262
196,-0.005546013670052087,0.012515992527280008,0.000485761167044724,0.018495987486974196,0.004730746404043539
197,-0.004590502064563827,0.012151078713143732,0.002420080758580575,0.017056145740840304,0.009345089502329451
198,-0.0035631107306117373,0.011908536764625938,0.004012843151094625,0.015153163077514516,0.012450627350578225
199,-0.0016055095878250855,0.012021651495852126,0.005111814174128109,0.012548949165606829,0.014595331633275978
200,-0.0002824804565352764,0.011206923134328601,0.0047348710849196805,0.009754047975065572,0.014885748381329032
201,-0.00031621582246389626,0.009590967373514628,0.003344462729002904,0.006626797537759379,0.015543457615246748
202,-0.00024133304146657167,0.008739519552810769,0.0019853734068617933,0.004154979929779192,0.019371283709193356
203,0.0014242471989638038,0.00885345987370089,0.001643033239487124,0.004459099014150039,0.02669664821553888
204,0.004270453517031202,0.00916256820345759,0.00274032178872,0.008232227929241463,0.034027203391827826
205,0.006842517671202984,0.009882900563762651,0.004821144694651537,0.012029437336971172,0.03879903719661561
206,0.008985749691269591,0.011866746885499138,0.0079761702607804,0.015583688436748323,0.040568598505358724
207,0.009740310440637999,0.014415281176284104,0.011368583072695466,0.019156769095870392,0.040074130372785
208,0.007270444605875956,0.01581755514838845,0.012949428048512159,0.019723209139773375,0.03921816930396538
209,0.0028325678391588043,0.016038044644397807,0.012625500452544172,0.018879942320057297,0.03829908179805972
210,-0.001439554179792475,0.0161575543450278,0.011091411508792707,0.01854879837692488,0.037641053115101436
211,-0.0053863138347828386,0.016262363978991876,0.008388785813305445,0.017739300009306336,0.037971916143417446
212,-0.009730302151480269,0.01480133541953143,0.004768347527372562,0.015553242287817423,0.03656709234841469
213,-0.014438122632135522,0.011004795830386709,0.0009522343670136241,0.011746091186961473,0.03342683638550252
214,-0.018096661708870167,0.006886641386777014,-0.0017234066648673307,0.008091254597991567,0.03078607120147927
215,-0.01959110850461917,0.005038465299613902,-0.0020017037178309614,0.0073519823444773615,0.030208115741646047
216,-0.01944751313401116,0.006159269390946461,0.00019958302219511652,0.009779553888074721,0.03312326755038571
217,-0.019409419567028404,0.008376868473956361,0.0029945204840803982,0.012071849741908997,0.03739807187724294
218,-0.02058386687743751,0.00910518272682895,0.004457244636392754,0.011139637063362377,0.0399899646217077
219,-0.022325888314689357,0.007216565294314851,0.0047427845539109986,0.007900319004326582,0.03977843926747536
220,-0.02313879848392131,0.003260936437085363,0.004751156088587013,0.005329462414648909,0.03787349342840767
221,-0.02174696146677061,-0.0005756341282413653,0.004991057526024,0.004608501613777608,0.03589637858327689
222,-0.017724882455569184,-0.0021423484531315875,0.005991307411309327,0.005504604121711739,0.035264650910008626
223,-0.011802104136661815,-0.0017844443785239611,0.007936065987101473,0.007917862659834126,0.03587025543438948
224,-0.005769066740752812,-0.0013550352736511762,0.009387109051501849,0.010158440520236902,0.03597370773085078
225,-0.0011073034321649206,-0.0010691407948838806,0.008842306881179603,0.01014612321981356,0.03557750742677856
226,0.002934022999661814,0.0009574021327662912,0.007836754248994939,0.009317933773563094,0.0360408321459997
227,0.007218459065363755,0.00502923650929281,0.00865179512301984,0.009990296241819034,0.037325269444308626
228,0.009748212552804936,0.00795877698304552,0.010482084518446686,0.011313085747487678,0.03579997275701539
229,0.009399324624917422,0.007798257059553172,0.011771677998364753,0.01200942489102946,0.03120296576901335
230,0.007187949777235429,0.005920144187184337,0.011896885932768702,0.011220574002227248,0.02715447560100009
231,0.004537857548160857,0.003654699894469418,0.010797044146080046,0.009017068908826866,0.02536512747569487
232,0.0036192156586155252,0.0011272947448329811,0.009713623621041965,0.008321658046620755,0.024819870538993417
233,0.0042291609055127915,-0.001692831581057264,0.008918644402431395,0.009731692836989946,0.023022286970084783
234,0.004604580089925732,-0.004491852734534665,0.007550984480188604,0.01047629413516228,0.019747547721847628
235,0.005448814558918546,-0.006760898745642193,0.006179688715344025,0.00990898357622562,0.015738307817247905
236,0.008184600323591258,-0.007373410021444459,0.006353832701520995,0.009777972012762703,0.012367867425789767
237,0.011825041702547423,-0.006003216769039562,0.00834212930335135,0.010604806678393981,0.010275037942553973
238,0.013433511070661566,-0.004820319077923651,0.010195789973873904,0.011051360547073575,0.008255174922101195
239,0.011351994760765859,-0.005339316006369485,0.010205559530151006,0.010330851390165456,0.005487581890736154
240,0.007231042558507592,-0.005714716301057239,0.009068767812794795,0.008607997559186713,0.002584112174957677
241,0.0034584582526075557,-0.0050058118483904184,0.00758145739952989,0.006153828779553866,0.0002079198414091346
242,0.001064541892958179,-0.004764788950997383,0.005793943183732285,0.004514605877842273,-0.0025145210205346383
243,-0.00011585588915843515,-0.004951943323350458,0.004082405168788804,0.004672162536398024,-0.0056176269193351554
244,-0.0014975044901668125,-0.004312568641419636,0.002117377006362294,0.004944526327605351,-0.0052003790613043815
245,-0.003052386568650485,-0.0023387973238250775,0.00031189998168140617,0.004986672809566666,-0.002867163613925418
246,-0.0028976208667395933,0.0008892177151590139,0.0004772048412031133,0.006257886477180387,0.00018059856593564377
247,-0.0009004796473395056,0.004383127436866733,0.0021659971051120664,0.007900780372801515,0.00460013920094267
248,0.0012543148692563217,0.006705537956422477,0.0029595428403661576,0.00814870982975922,0.006788295159625098
249,0.0025714508057128782,0.0074963421383969836,0.0023339742369539447,0.007770507433238809,0.00690782869240762
250,0.0034132286901745576,0.007637877516628851,0.001744286989364286,0.009000385000237714,0.00784228403255627
251,0.003950309381509477,0.0070947964195221145,0.001797496421673191,0.012060955300013868,0.010429720842358986
252,0.003291488352387862,0.004561464916131696,0.0013678833714424713,0.01414990093894375,0.010987472664930754
253,0.0011471872861445434,0.0006651576676580576,0.0001531854828534003,0.013112099178600296,0.008363497546164642
254,-0.0010392283436338585,-0.0020179122927851474,-0.0006114201724767422,0.009851516436124282,0.00451110567727987
255,-0.0010720078441126015,-0.002006776866834521,0.00032495257613214285,0.007206037435083768,0.0016669193413830837
256,0.0013910251578960434,-0.000985574576075603,0.0027742835000642086,0.007710632341019746,0.003771497007758432
257,0.004727123441006052,-0.0017461729335713039,0.005333653732112741,0.01144553222764222,0.0009887244313625078
258,0.007537707597364183,-0.004230136703871459,0.007241379575389231,0.01578470492660101,-0.002932557840970529
259,0.008752032131854355,-0.006564660120559852,0.007849576125434523,0.017992845232981634,-0.004874482386066538
260,0.008212196670013949,-0.007623930043896947,0.0070275205293169885,0.018611558547311953,-0.004678565373261739
261,0.007774279489415079,-0.00706300421535764,0.0066174418846700915,0.020583913930296086,-0.0036566197692135165
262,0.008884928148451616,-0.004997466326023085,0.00786425999367891,0.02416733109508076,-0.0018089366887892892
263,0.009790838239453065,-0.002864858884482011,0.008852540935693255,0.02573624602847471,0.0008931361042283651
264,0.008693376246572059,-0.0026913346747878034,0.007389302721577811,0.024294477226389097,0.002669327746322505
265,0.006543429175263861,-0.004941426180031888,0.0039379840850163675,0.023334369070379713,0.002177472619482639
266,0.004348969675096672,-0.008489619753653328,0.00034129808864036016,0.024788583725262037,0.0007531912109501355
267,0.0025002731381837187,-0.011707366922131004,-0.0018272858985653097,0.027525985378992195,0.00101181458992691
268,0.0017197657945760383,-0.01304103523405852,-0.0022742691043448927,0.030163995999641136,0.0038275808220138516
269,0.0019508373817876908,-0.01250096220508613,-0.0022090192282685434,0.031953983218206986,0.007012137618604745
270,0.00273916005668038,-0.011763747131864363,-0.0021455211058607642,0.03253087052937041,0.008107627677349122
271,0.0039337517094267145,-0.012157464154669196,-0.0013174703908412375,0.03216441184765421,0.006948723447204889
272,0.005019530254023726,-0.013815098417955703,-7.789322245711688e-05,0.03113996630367874,0.00392163318120553
273,0.006378717006370616,-0.015414896129507017,0.0007013802344848251,0.029988907449376746,4.904891797287086e-05
274,0.008983558036229109,-0.01642075973285629,0.0009183153584839251,0.029838014510058707,-0.0027914291123726934
275,0.012164675394714103,-0.01815104393746376,0.00048239779946055827,0.030642827966444436,-0.0034151884802952
276,0.014184065890840973,-0.02165933864976858,-0.0010007519248540313,0.031080592162345475,-0.005500621319816501
277,0.01424793068023288,-0.026803395060717616,-0.003532222944493158,0.03047411069907802,-0.009004223244803707
278,0.012855114997669215,-0.03215817923187036,-0.006170592857388275,0.029044876186250113,-0.012557065278811442
279,0.010045626137400804,-0.03646330383757865,-0.008959245546652266,0.026244337628741073,-0.016361186541332326
280,0.006671097493937302,-0.03837705842149412,-0.011832974029428544,0.022555063385160584,-0.018266418309609116
281,0.0049420635105921085,-0.036240291183278296,-0.013283455509275767,0.020086152453929272,-0.018035075378190574
282,0.004678432760133325,-0.03140520359114641,-0.013846585263036275,0.018466545229100607,-0.01746730899785185
283,0.0038697273692289823,-0.027455552126568108,-0.014907592570260158,0.015782904448886977,-0.01821568254478708
284,0.002267356123829375,-0.025294568040119224,-0.015690949805728976,0.0119590271914191,-0.01875946951367809
285,0.001330230820123196,-0.023464006112894883,-0.015376173414913213,0.008180664709634062,-0.018703108965371945
286,0.0022628070892166787,-0.021012159974720064,-0.014221735613828813,0.005828682177871048,-0.01822250061399578
287,0.004928700922588554,-0.018281254361905083,-0.012416901978095665,0.005790045762449251,-0.017000523913132257
288,0.008486834728067244,-0.016149242369856542,-0.00976044005458711,0.007809173212638815,-0.016440068102049593
289,0.012076495166858468,-0.014133917675001013,-0.006584337220302658,0.0101895222756633,-0.016400379058096586
290,0.014766426830158181,-0.011397019036426034,-0.0041772871420481875,0.010844907666197705,-0.016214916843227116
291,0.0166365467635485,-0.008055766242058482,-0.002689087729893088,0.010259691243743716,-0.015590850435286846
292,0.01867281107179338,-0.004380029314865467,-0.0007004993856806331,0.010845400164117891,-0.013273629390318951
293,0.02004652924446551,-0.0017672374487975632,0.0008429946606630819,0.012347198072717405,-0.01104855320388763
294,0.019406391690366582,-0.0021419371833303097,-0.00027668470541924263,0.01320342048615516,-0.01110289308298674
295,0.01840801558994178,-0.004449856044536892,-0.0025343001907840762,0.014528644003951527,-0.012399130039321922
296,0.018892378359618708,-0.006090603092617959,-0.00336143466039635,0.017290305555591332,-0.013347599436987049
297,0.019522991581485724,-0.006840071314193286,-0.0032663693052951,0.01977637299067423,-0.01352299100529897
298,0.01877228742299122,-0.0074820756306348294,-0.0031499883490702257,0.020833074971522637,-0.01305884149463457
299,0.01747983322824932,-0.007800506642453025,-0.0023742101479750782,0.021163993519768796,-0.012185353538275604
300,0.01574260446455649,-0.008475460083968827,-0.001312277126838522,0.0204854267570052,-0.012758312980771387
301,0.012451651742867515,-0.011071690285299205,-0.0006868639219266829,0.01835730186784025,-0.016083558979128432
302,0.008903043797551214,-0.015042029496390713,0.0004015440357620077,0.016546685530266187,-0.020513295281125336
303,0.007051653551018663,-0.018445873450302196,0.002400063828417479,0.0165623588569767,-0.023334160433239475
304,0.006602833757937837,-0.02035539945166978,0.004207477283827545,0.017412002646414095,-0.023328774316865412
305,0.007118220293689943,-0.02058460738616179,0.004870751315937009,0.017970520888228734,-0.021257453875913632
306,0.008405212187725579,-0.0196429547567496,0.004229000978356063,0.018002638538685372,-0.01752046688920751
307,0.009633696156522082,-0.018222509006172474,0.0023634666510081318,0.017324815512189885,-0.011101998425607612
308,0.010299955225084026,-0.01668332101329675,-0.0007570507075158563,0.016060820222775184,-0.003919855229814005
309,0.010972137675831271,-0.014527525861044572,-0.004147588881434272,0.014846249884701049,-0.00011963772189434284
310,0.012585851220600798,-0.010336522334142947,-0.0057569539339931836,0.01440847050426696,0.00014636302458677047
311,0.01411076549056231,-0.005240772098094843,-0.0059319533366591235,0.013965984436373728,-0.001648687016653614
312,0.01363810856033573,-0.0026850579810023126,-0.007093902934462695,0.012622538322929974,-0.005209622659269124
313,0.01134246412335527,-0.004251301525812822,-0.009910874632355272,0.011627944033590987,-0.009041908634293374
314,0.008740819867533153,-0.009014217221948586,-0.013141192059343068,0.011634799104968585,-0.01096963159351645
315,0.006729075139165837,-0.015055680729632684,-0.015343008660656627,0.011339299674693947,-0.010382402696108435
316,0.005349445837862749,-0.019855558397777005,-0.01590134322372305,0.010060370714378111,-0.008525258251596833
317,0.004375724054687276,-0.021299891424482173,-0.015185172575139476,0.008216599114673675,-0.0069526954982835005
318,0.004230697107950315,-0.019634939140571656,-0.013260410836846854,0.007379118838316486,-0.00605692904920912
319,0.0055010906787483485,-0.016601936565101675,-0.00988156104965241,0.00903472140942783,-0.005164659653995226
320,0.00689129167684471,-0.013816404997871146,-0.0061912238057889235,0.011668992726023984,-0.004236421498117937
321,0.005590522225173371,-0.012870019150824509,-0.00453678130037028,0.012156778595903507,-0.004545694450253396
322,0.0014425222839722926,-0.01423956554538441,-0.005628300252995071,0.010195120005006475,-0.006372546218603541
323,-0.002172658534676395,-0.016596851110652802,-0.007383097264895033,0.008710075307781784,-0.007964268975543896
324,-0.004223988084062004,-0.018466807543067287,-0.008103347181414955,0.008969348903870513,-0.00787608496004688
325,-0.006070779935773451,-0.018604890221554992,-0.008000968276239412,0.009508050695850596,-0.005969234751898353
326,-0.007326893551425792,-0.016370343913114295,-0.0074549230670464175,0.009353345556511596,-0.0029261088814999145
327,-0.007351779860760982,-0.012715974220481067,-0.0059885441713859455,0.009485507528005298,-1.597632744326662e-05
328,-0.0058149661174646304,-0.008790171861268539,-0.002765289419546942,0.012024896635338804,0.002345660432548367
329,-0.002555745632844474,-0.005335784923862437,0.0016848056521805823,0.017047382368261765,0.004610170440822876
330,0.0007496393328000827,-0.003231131601226475,0.005707335234437042,0.021331886182488085,0.006823277237108226
331,0.0011816225804209609,-0.0034447053171280423,0.008054996606497182,0.021348784232146135,0.008530951972901586
332,-0.0025157451491654966,-0.006444673372649388,0.008464375902594457,0.016916968977162813,0.009289726960552844
333,-0.007887600143494922,-0.01016843540835716,0.008274884373802338,0.01189679229507112,0.010316243042497142
334,-0.012205392703977134,-0.011822114638106618,0.008278705928829495,0.009055499726036014,0.013038520516717542
335,-0.015547913631798293,-0.011871315127834795,0.007387509217631596,0.007143136496994277,0.01589929405185557
336,-0.017836421359909028,-0.011732509105890805,0.005739061741215041,0.005457997885278549,0.016847615362309606
337,-0.019069443274112034,-0.011539394809313779,0.0042357185383807144,0.004107301751406523,0.015919147594768302
338,-0.019796551612836846,-0.010741852383042453,0.0030635592224239187,0.002780080243847872,0.014815686225275937
339,-0.01922803009664926,-0.008856357975479194,0.00287143304799994,0.0028164421218406753,0.01550264500485942
340,-0.017107724509146948,-0.006884659965579048,0.003962040761595571,0.005241045093003809,0.017760648027417104
341,-0.014117082093696259,-0.006017098541983065,0.00580792183631628,0.00910901290489897,0.019397042400654166
342,-0.010810893856072566,-0.006672269636018328,0.0077998569115256796,0.01292853570082271,0.018607771411876483
343,-0.008115437588121872,-0.008710972068625209,0.009260176393003002,0.015170295552677347,0.015666985531822816
344,-0.006920294083398058,-0.01073657661169429,0.009658768850312275,0.014917063026244699,0.012351414284073547
345,-0.006457498472949872,-0.010059665532374189,0.009954995076930115,0.013718653332047116,0.010940023355473984
346,-0.00562646393330468,-0.005688745004605903,0.010697862681709417,0.013655215886535992,0.012325163893350578
347,-0.005720618512419079,-0.0008499082994371662,0.009636800446252957,0.013337965676798265,0.013948685312769243
348,-0.007492837498355822,0.0021091107594355504,0.006056359550560699,0.011206704994122404,0.013477120441548088
349,-0.009021406214175832,0.004520379208682655,0.002803761258928232,0.009680953529944076,0.011409206191027123
350,-0.009150777299004877,0.007015198062558807,0.0015945657158817203,0.010571078045027068,0.008911370684450429
351,-0.008974767099687782,0.008325725202012827,0.0013995717126607866,0.011511293381900847,0.007793927721719741
352,-0.009920825133813774,0.007323589442497392,0.0009369940168977388,0.00967624396675974,0.009579397509322886
353,-0.011890727730935522,0.00525286126212359,0.00031770124982257136,0.005535147413442816,0.012577757033719592
354,-0.013996102142094983,0.004795533229548579,7.248804914227109e-05,0.0018938985226348267,0.013184508153716589
355,-0.016397769065956965,0.006053786966561321,-0.0004921323862708199,0.00013654078004773606,0.009830495802936209
356,-0.01957102971932672,0.007085426328760216,-0.0017553330822386525,-0.0006674303120624275,0.004438879271205406
357,-0.02261669837731004,0.0073433289734161945,-0.002145757017504195,-0.0012684204156733561,0.00041934231106136586
358,-0.024213128247835596,0.007539429491441884,-0.00042981953008005934,-0.0019031749105638987,-0.0003243571207529358
359,-0.024696311127918535,0.007653142426603947,0.0023477441362173843,-0.00355481086857248,0.0015018845938696206
360,-0.025319420076582697,0.006868445382011499,0.004062482836511873,-0.007114613551558394,0.003529754681623919
361,-0.02571073091894297,0.005944241190146039,0.0043226004158882616,-0.011681105822136193,0.00490030179727853
362,-0.024420628971589326,0.006683581345082159,0.004914473537401391,-0.015799202456048662,0.006594170902579181
363,-0.021183078182366394,0.008684136718960747,0.007018338281104293,-0.019032583609973536,0.008176583837319232
364,-0.016616377873065847,0.010563139135981633,0.010319865568006183,-0.020404850791463917,0.009593024239246167
365,-0.011433844504852351,0.011972951550976196,0.013541526556728176,-0.018493935958803085,0.012522181025224855
366,-0.006696290433439406,0.013042939003229212,0.01520053881082863,-0.013921209181097042,0.016488213085172537
367,-0.003830310427019774,0.013988211155241322,0.014984374793644993,-0.009398337201436702,0.018354156368750308
368,-0.003581428525458343,0.015312504861924496,0.013507760716612674,-0.007299868445078258,0.01647356714038358
369,-0.00472573619209277,0.017443827496250324,0.011914482122040273,-0.007529582779029288,0.012913611317769328
370,-0.005580580416682859,0.019614934571292084,0.011007922547982362,-0.008768671911770479,0.010415564728264543
371,-0.0059568235159641915,0.020379594439505662,0.010535296494938395,-0.01035081304138798,0.008955025334771535
372,-0.006563813689383824,0.019226053430379357,0.010249134574899378,-0.011627369143310296,0.007684311263487481
373,-0.008141866421999423,0.01676342329979752,0.009798900846789126,-0.01249696739071642,0.007414079701197923
374,-0.010619812434486484,0.013403817877293958,0.008960786417247965,-0.01302276143143273,0.00831285862298251
375,-0.013175644477149591,0.009109787231221148,0.007430430097501616,-0.01348759176052765,0.008831277950090019
376,-0.015359353352779293,0.004805756122523067,0.004759929798022026,-0.014871972129718476,0.008583072163519771
377,-0.01734622996111842,0.0014455169622486278,0.0014707656128119908,-0.016802071127610577,0.008159368064553618
378,-0.018755355952405142,-0.0007706887810869972,-0.0011927089843038856,-0.01780276649220879,0.007581665778555041
379,-0.019375036025775373,-0.0017993694134146709,-0.002654325112517729,-0.018213188614127594,0.007154115327233161
380,-0.02014453485682567,-0.0025536586053389898,-0.004053121939710356,-0.019424930334675947,0.006642478480515041
381,-0.019572804658794882,-0.0027653452712433106,-0.00490375914635407,-0.01927986521980756,0.006162884302734194
382,-0.014749959239960477,-0.0010146062173340537,-0.002659861970924765,-0.014496606081956034,0.0070321983762609615
383,-0.007331535634979748,0.0012672125934073044,0.001520504213948666,-0.00751615803629167,0.009042555716830995
384,-0.001157325332744519,0.0022084549978439137,0.004458496954326322,-0.002719281155326689,0.01116128787376031
385,0.0031542112968062325,0.0023845728350204726,0.006090161780418852,-5.151280806331373e-05,0.013362600673411882
386,0.006760793545242659,0.0022084795906333428,0.00707152887163346,0.00162359839691336,0.015050849758147022
387,0.009093390433777805,0.0007145849388011629,0.006277559146154179,0.001038695901089433,0.014263441153646871
388,0.008225877894098598,-0.003165844703059213,0.002735106185209336,-0.002986555606973404,0.009713220744879672
389,0.004714770567419247,-0.00832866802902582,-0.0021095252902586913,-0.008477965154218586,0.00356203858613888
390,0.000998849713146267,-0.011928843845505131,-0.005826614102966627,-0.012592986557230169,-0.00023719433910207675
391,-0.002499723637911029,-0.013646828109544647,-0.008375442477894509,-0.015181291982534506,-0.001324182966345147
392,-0.005779785473893133,-0.01490643107019297,-0.010700125979231158,-0.01656715703894719,-0.0017380111236295229
393,-0.007269242749255361,-0.015205796083331159,-0.011798147999451327,-0.01597923589838668,-0.0011985165436803255
394,-0.006360311373209613,-0.013904011586239717,-0.01056073302797212,-0.013670044255621593,0.0009384532711809555
395,-0.00466123237599342,-0.012350607173146367,-0.008307478756854775,-0.010949010102998322,0.0028738816077178856
396,-0.00292789790419993,-0.01101371892258091,-0.006545230285154918,-0.00800266621196763,0.0036083401799646034
397,-0.0010276986749755258,-0.008693012857433338,-0.005512580328669834,-0.00514429596894492,0.004345313436364418
398,-0.0001738043178286757,-0.005498115540559803,-0.005362536200043116,-0.004453425718634548,0.005384800984262242
399,-0.0007422757399529561,-0.002422114902101037,-0.005858704224526249,-0.006534106947849244,0.005583607311468469
400,-0.00196007625428232,3.2198485487166335e-06,-0.00705135030147822,-0.010121635059617587,0.004333576175305982
401,-0.003906143393551262,0.001701494521693509,-0.00924109229421963,-0.014831336775519835,0.0030189427949264486
402,-0.005870539861648345,0.00304793636772967,-0.011326060436886084,-0.019386345697475462,0.0036484892112039354
403,-0.006047972270586918,0.0037445342892307642,-0.012252761467382677,-0.021407987672468324,0.005822126079469622
404,-0.0036838205193760044,0.0032228937124873713,-0.012665083966409533,-0.02043464242831109,0.0072833820928624345
405,0.0005918387083151417,0.0020733336155523974,-0.013301285453431557,-0.017686356448773394,0.0071563497019397565
406,0.004743220143041478,0.0011658588799341016,-0.014305521487130417,-0.01548372469463319,0.006329063122271078
407,0.006897959689336293,0.0008684064330264403,-0.015624914114296397,-0.0157357468420183,0.005858424024609148
408,0.007211054579276136,0.001010724396396188,-0.01690201484664994,-0.01839419781758472,0.00602671216322174
409,0.006876996479351605,0.0008846970587269654,-0.017637570976445693,-0.02252965461743693,0.006378923030285429
410,0.006972031592545328,0.00027404293714351974,-0.017479265377503266,-0.026136728816379094,0.006805246879377052
411,0.008181051012073325,-2.9611881512300737e-05,-0.016312312771891966,-0.026542879924554227,0.00775787689659218
412,0.010248010285425702,0.0004411970283188571,-0.014754659775948767,-0.023766938748123287,0.008977654686144244
413,0.012039855396117714,0.0012035701724751318,-0.014180462611687842,-0.020858742105074757,0.009441152522697385
414,0.012752044399615126,0.0014358359151986446,-0.014880372982646255,-0.01934098123668784,0.008285029634138553
415,0.012535919371749093,0.0005225769366627663,-0.016079851601649466,-0.01878736297196394,0.005550600386601017
416,0.012258997482376653,-0.0007653878853303261,-0.01727028612696655,-0.01878108610646063,0.003392675154828567
417,0.012726919902334828,-0.0009509863237595376,-0.017862264425084675,-0.017862258765143635,0.003930998212202193
418,0.012467262635210506,-0.0015767097060258547,-0.018414460296557533,-0.016267932303949243,0.004338945142837641
419,0.009801463819075333,-0.005087810562181329,-0.019689874020451442,-0.015923581570213462,0.000809329524216728
420,0.00673513227811255,-0.009749591135305066,-0.020169337053957338,-0.015962760658673626,-0.004423412752060595
421,0.005111080861227314,-0.013219548858924589,-0.019414404228727682,-0.015182863635667428,-0.0078125218884027
422,0.004083713497420727,-0.015564866388701734,-0.019219857987152544,-0.014654548831538374,-0.009339746383915425
423,0.0027610886198778484,-0.017018983693944754,-0.020013319617810225,-0.015464224095010345,-0.010229124926728658
424,0.0013897515871845161,-0.017480833825974963,-0.020613191068544572,-0.017160551378012194,-0.011094045159414962
425,0.001069956321723967,-0.01691799756001506,-0.019968272384405853,-0.018504078519921474,-0.011443230603299702
426,0.0016844331822447977,-0.015615820077207253,-0.018400285721404352,-0.019438708507711625,-0.010939517180739974
427,0.0013592976064109254,-0.014538378556523221,-0.017493934580067944,-0.020473508039421724,-0.010296409982808884
428,-0.0003898614980875223,-0.014149571219485374,-0.01751074208853097,-0.020730817457302323,-0.010039970930537724
429,-0.0017663377697373526,-0.0135021879264786,-0.016872099919271744,-0.01924873889544638,-0.010059083102775566
430,-0.0017381908303459373,-0.01198264523193537,-0.015111953869660435,-0.016840223776212908,-0.010335788310421135
431,-0.0011401201583144947,-0.010960113726659004,-0.013453540268355218,-0.01485519516506401,-0.011618055897039105
432,-0.0006430540519693478,-0.01193134209615913,-0.012575293062652058,-0.013390747878596855,-0.014301154429862163
433,-0.0003143437341535399,-0.013884547642400952,-0.012279558409788565,-0.012219674296919576,-0.01729550617495667
434,-0.0010254376768506464,-0.015309337991540746,-0.012710857737744403,-0.012065861268952014,-0.01965595398433045
435,-0.0037285985327303282,-0.016598759652447625,-0.014386941766129894,-0.013367551474804895,-0.02145529623533321
436,-0.007694777290381178,-0.01820509026100836,-0.016649750539801656,-0.014705380815370556,-0.022644056028930843
437,-0.012126078593730322,-0.019583348114657336,-0.01811378471356008,-0.015363867531935534,-0.022704230356868402
438,-0.017087119623779384,-0.020217031298813845,-0.01873064653539616,-0.016702447558024597,-0.021271806598898036
439,-0.021210526538884316,-0.019320290972599134,-0.01880015967513368,-0.018213442174265657,-0.018590724535175737
440,-0.022443320600555698,-0.01578458986890843,-0.01762759951324672,-0.016885441286152453,-0.014833065814110407
441,-0.020994349696939685,-0.009883411899326235,-0.014876809847912195,-0.01190852574710333,-0.010128029259604623
442,-0.01901051591253895,-0.0036085042958635535,-0.011833395750885017,-0.0065688405733868626,-0.006142543604330022
443,-0.01802761525648128,0.0009380151904920666,-0.00989959452927443,-0.004302894119399498,-0.004911112304246525
444,-0.01802357934771769,0.0034475084088018164,-0.008982552162056673,-0.005431112250475293,-0.005938629254008484
445,-0.018407566066471415,0.00508260527385328,-0.00826104485526441,-0.007942390998556762,-0.007212381951993074
446,-0.019281231090776528,0.00581702402208108,-0.007382940547577352,-0.01032969673299878,-0.008207928054781344
447,-0.021902887891995047,0.0041400572029983915,-0.007374422598339168,-0.012793831321479656,-0.01017186208146112
448,-0.02576990135146588,0.0005442392131601016,-0.009169261011333278,-0.015205893448405422,-0.013350168057046193
449,-0.027455352243679114,-0.0013158026219377424,-0.011348519555681552,-0.016030790790182662,-0.01579777063356351
450,-0.02545550418215816,0.0009301898055976774,-0.011975182542226761,-0.014338172207026968,-0.016379930003952194
451,-0.021151681025348985,0.006394135290822915,-0.010682557688282864,-0.010833751078638917,-0.015476942727250807
452,-0.015372692855359202,0.01400436524945847,-0.007391808146316893,-0.006404820887653647,-0.012715428760431186
453,-0.008460867680088803,0.023098024852133615,-0.002268591639454327,-0.002356706728677961,-0.007752777477561042
454,-0.0022364404308044482,0.030878452615501862,0.002682081409685057,-0.0005361330691920633,-0.002006445586640383
455,0.0013126098658750081,0.034479834539645274,0.006034847670794515,-0.00040799846371193904,0.0027863597752187325
456,0.0018504777869977978,0.03432715146114139,0.008398504191841074,9.620424940922318e-05,0.005655994094525995
457,-0.00030398225250182463,0.03232921768003576,0.009829428399821651,0.00046833697855671046,0.006179920718241871
458,-0.004782813114012899,0.029402128457988588,0.009589924687883715,-0.0013401688621789136,0.00445403124118819
459,-0.010365804698975982,0.02503773729073151,0.007609867674057848,-0.0050828165584955644,0.0006297292924456041
460,-0.015316749128945333,0.018367026984717184,0.004193331398054148,-0.008740330261079272,-0.004981521229288348
461,-0.01802418299386923,0.01112237854554237,0.00027340383303167936,-0.010562961805239033,-0.010730200282166907
462,-0.017040124201547557,0.007622201560971794,-0.0018786277389045319,-0.009279973795819301,-0.013033548452685256
463,-0.01324877172775395,0.008848630665369162,-0.0011739323590665785,-0.006107565257027598,-0.010037121844154966
464,-0.009023803972917117,0.011547781319096284,0.0012192216158175763,-0.003678593517526834,-0.0044816250523693705
465,-0.0055879733255396755,0.013054031478144299,0.0034011500736524053,-0.002433497020126943,-0.0004375742235950253
466,-0.0038607157598642863,0.012556220757707572,0.003604620724702709,-0.0016181852249086736,-0.0005473408386293285
467,-0.004263488294673018,0.010566792838844898,0.0017899773533590932,-0.0008006712282975704,-0.005476450270210016
468,-0.006164550388856581,0.008350931051305997,-0.0004255606633145242,0.00012142026381707334,-0.01343847202420088
469,-0.008560039675006048,0.006930886065109726,-0.0016600126478696616,0.0012118028816425518,-0.02153852446879542
470,-0.01071986488728225,0.006752396632903669,-0.0015822966762703355,0.002694665497998971,-0.0274173544077454
471,-0.012478139912712346,0.007679059744492325,-0.0010332017023412855,0.0037626830590663514,-0.030254151351640644
472,-0.013450529229155994,0.009673214041375302,-0.001080711972458916,0.00354460765421805,-0.03042272708831258
473,-0.013477393422109888,0.011787326781161742,-0.0021930363091465167,0.0028159509250895985,-0.0296172777578491
474,-0.012627730775158523,0.012756504984331254,-0.0040118390399597114,0.002404713486238275,-0.02918853509469732
475,-0.01033190221497118,0.01364809325735641,-0.0054910021584694555,0.002178550204995257,-0.02736505935539043
476,-0.006911117055763355,0.014810598639156009,-0.006048257959619613,0.001970229169309078,-0.02345172344118351
477,-0.004165997842283117,0.014333484227865803,-0.006131835483265754,0.0014423710537697205,-0.019769315094171628
478,-0.002292075722710038,0.012910192938285313,-0.005763760948635642,0.000722581778973678,-0.01654140832450728
479,0.00038914768710170236,0.013258322830243014,-0.004050305017566782,0.0010392315087475088,-0.012696643791659704
480,0.003206994164379816,0.014867308651346115,-0.0013439654543283184,0.0018693435267660193,-0.010024294788919138
481,0.00426527383775428,0.0157019263094728,0.0011410482717525573,0.0011446153630237529,-0.010416347291097021
482,0.003465438124813311,0.01490883175812903,0.0023087220679867877,-0.0013825253076950152,-0.013802244647858326
483,0.001676476553961631,0.013092306983868911,0.0015450553830037282,-0.003654477090462049,-0.018895835296929092
484,-0.0007002680874425707,0.012060370296115418,-0.0008918149422397069,-0.003911888549951169,-0.023653685916319833
485,-0.004103629714837614,0.012315575381199418,-0.004487066961139244,-0.002287471947053431,-0.02724736186708808
486,-0.008078379723169698,0.013110020801090336,-0.007779700247023394,0.0007276850109543463,-0.029606582736911406
487,-0.010469406358024824,0.014335294069477476,-0.008730265237107833,0.005033004165584664,-0.029407972566967415
488,-0.009406300840542916,0.016691823348283747,-0.00640230741084978,0.010157311621113394,-0.02576803386065667
489,-0.005865268260868972,0.019611780374018797,-0.0021005141125431193,0.014266951030145173,-0.02103347942423917
490,-0.002059722832797235,0.02202334797644909,0.002512243120194901,0.016374678643633126,-0.01778070847194906
491,0.001039636984169779,0.023954451963707907,0.007008554857354472,0.01762423327843687,-0.015901230766247894
492,0.0030790900757681743,0.024621579165327725,0.010448493817964252,0.01825329992077246,-0.014228985179078448
493,0.004627903384265687,0.023492779705245614,0.011980168073669497,0.01762575025110264,-0.011634913800778706
494,0.006231995714799479,0.021498088325149496,0.011653023427570356,0.015549302037083802,-0.00790533742955916
495,0.007358508045130161,0.019547050697713737,0.00965836847964649,0.012712365300400555,-0.00427033759273648
496,0.007954584195141138,0.018357974745347026,0.007032918981256656,0.010659175072677243,-0.0018001620315092146
497,0.008691579437712607,0.018609255656987823,0.005295221607772307,0.010042315458435869,0.00018324851168058333
498,0.009859164300780663,0.020300740058598506,0.005039887257684776,0.010393898335085215,0.002639019784215938
499,0.010755374404179398,0.02253187566225695,0.005391264656050448,0.01021538755254666,0.00496246420112882
500,0.010650376586770207,0.024456750901050157,0.004923492993200967,0.008049007324193837,0.006403063702453138
501,0.009710802835755915,0.026141466765574044,0.0037149171008673838,0.005041049288576216,0.007418555383623665
502,0.008435391157496856,0.027690200463322094,0.002902858915069035,0.003681052664441313,0.008179387627770237
503,0.007148210123108845,0.028271939800206747,0.0025523467643061492,0.0046863542185930284,0.007613591063075894
504,0.005557742821241498,0.02722768043506581,0.0017721600235751584,0.0067526307202193285,0.004829668093044083
505,0.0033377713735890336,0.025637189846553173,-1.6476709787043257e-05,0.00788716264348021,0.0014418255024710711
506,0.0015816324778048889,0.02505013620419873,-0.0023846684460159776,0.007274739876960172,0.00046708689733726175
507,0.0016164304964054145,0.024060985687110417,-0.004483740165544361,0.006062763859981646,0.0009458049439984613
508,0.0036190315741772105,0.02009416718256011,-0.005105279012185313,0.00619229805294659,-0.0006363301317719314
509,0.006977885251629394,0.013143406928502277,-0.003321435910481377,0.008341420845095539,-0.004840204948885487
510,0.00936128372578256,0.0035383136024770504,-0.001308073926432286,0.01000816043312726,-0.01113562998102626
511,0.009215095420038894,-0.007426833712770658,-0.0014231745150530052,0.009428310916098125,-0.01822901772162922
512,0.007668069363172179,-0.016069276492568355,-0.002762739876669429,0.008168222235794479,-0.022865469721301757
513,0.005298932341319625,-0.020769358629696942,-0.004353063365777846,0.006505478390693082,-0.023886694448706135
514,0.0022896613099164663,-0.02312049316547422,-0.006424969288195835,0.0035571303097565276,-0.02336505539075057
515,0.0003841153032908721,-0.02391775136130069,-0.008036554521587138,0.0009139214293597746,-0.02243614886658439
516,0.000511927934866166,-0.02222868583338722,-0.008119251371440985,4.482113147670235e-05,-0.020132855219999662
517,0.0016091531310282682,-0.018031217926656254,-0.007270461303847268,0.00023366840354166924,-0.01657290209037195
518,0.003014417485097179,-0.012848092837125645,-0.005850690399437315,0.0010657323319425197,-0.013198416411962191
519,0.004687621805390166,-0.00897601215927873,-0.0037846341323390133,0.0027088280956537145,-0.010536710623815015
520,0.006462467203954143,-0.007728729996331214,-0.0015421644395871889,0.00505284475625264,-0.008047366954245558
521,0.007936443547940231,-0.008334050644464183,3.230958613975449e-05,0.007189224414113247,-0.005701393916212763
522,0.008100846664848964,-0.010264194212993254,-1.4954597461895995e-05,0.007618017568235572,-0.004919280947855082
523,0.006389929985808745,-0.01298065469355823,-0.0014095490218486728,0.006180313197057094,-0.006035096333069001
524,0.0041205448432236015,-0.013775850464116895,-0.002163440819706251,0.004755536733607497,-0.0065594225202813775
525,0.0017786613682727241,-0.011911795762148954,-0.0018407756732922833,0.0038351701925772564,-0.0054600654354813915
526,-0.0014481926952979328,-0.00975446092316526,-0.0016075713257164242,0.001986143660315605,-0.003972908634466135
527,-0.004247241196130028,-0.008206273632346307,-0.0010834987326029423,5.370734360110182e-05,-0.0026906685953748746
528,-0.005706298599403375,-0.0071018558729536016,-0.000375156102116354,-0.0005213751907311438,-0.0024949382832742915
529,-0.006956137324598055,-0.00646811338178944,-0.000792120797975599,-0.000594998980148179,-0.0036895345681799948
530,-0.00856936293444532,-0.006111739726251152,-0.0023966631628516595,-0.00157808531322225,-0.004825056257491573
531,-0.009828152448283186,-0.005827214454172996,-0.0040140471865492385,-0.003323219421365449,-0.004608834364686929
532,-0.008676945950112428,-0.005354494331897845,-0.0038981812803528275,-0.0032759893023041053,-0.0026752425157973996
533,-0.004960286843338482,-0.005670907116399006,-0.0020270213411367624,-0.0004980706030684,5.928180745873692e-05
534,-0.0016306974051788245,-0.00821717360160801,-0.0004312875982675232,0.0025193849500728662,0.0015946881667303105
535,0.00023318452486842105,-0.01204331114827875,0.0004808672678513046,0.004500012155668566,0.000866360495827355
536,0.0028116973480943304,-0.014645695471273316,0.002103764462926312,0.006948932042733118,-0.0012797633098726592
537,0.007115288454995984,-0.015118685801810312,0.004615630210976183,0.010987943138843949,-0.003681770721827211
538,0.010572851623434628,-0.014371419087961433,0.006340549451178347,0.014845154042733939,-0.005642180216001448
539,0.010861858161055409,-0.013191773599993552,0.006491184741835659,0.016210147340841922,-0.006435694248543726
540,0.009073680191619107,-0.011817057163396554,0.006714137036670009,0.015904663668854423,-0.006181781541222865
541,0.007933280008380872,-0.010063769730432968,0.008793918421833144,0.016824262569984778,-0.0056838025890736405
542,0.008324464173725128,-0.008421490638701156,0.01130539600794537,0.01857297686748275,-0.006124254008451135
543,0.009695481950059854,-0.007229531713413504,0.011834834219219294,0.01828556432681789,-0.0075009418457124095
544,0.012271734114812817,-0.005679172277899512,0.010752639701193674,0.016435525803186978,-0.008012174568502122
545,0.015449263870020997,-0.004598448693711058,0.00872479196304568,0.01474354472828692,-0.008073450811043558
546,0.018355420481883794,-0.00520791671439249,0.006222088533658006,0.013601696600277383,-0.00908083470865392
547,0.020673334940733146,-0.006822969729389338,0.004767879723181459,0.013022677165752585,-0.010648466179442548
548,0.021873198856409256,-0.0077336063479561505,0.005328140647239513,0.012683043726408195,-0.011811423169436246
549,0.022787054562524615,-0.0062130324914203405,0.007957056420014251,0.013235789510255112,-0.010923850330773798
550,0.023948474207667023,-0.003226491798428142,0.011271223504518209,0.01456622608332498,-0.008433060239097295
551,0.02484772148686537,-0.0007236284082645511,0.013387598646206282,0.014952425850477954,-0.007028259789006766
552,0.025937414409693296,0.0017319370730059342,0.014293223085942601,0.014212410628970239,-0.007381345004659521
553,0.026955168638922864,0.004645468857612601,0.014272337008342356,0.013183296459568287,-0.008641608416607702
554,0.026930176352206917,0.007180535270017518,0.013035718661967278,0.012497964151362853,-0.010684256766145298
555,0.026813570390897407,0.009000734528269081,0.011925754466424856,0.013304384898190011,-0.013655223605595252
556,0.02745697370968605,0.011045040344938108,0.012194319262712203,0.015242877052990893,-0.016893939909487326
557,0.026774886150620434,0.013406274247650724,0.012310769783787132,0.015453249207493398,-0.020164135531341196
558,0.02297470112067003,0.01401202033107337,0.010544604598420056,0.012735072149167881,-0.023954244751803657
559,0.018901437160005165,0.012567528387959765,0.008423295329006179,0.00991473949217032,-0.026187163298604908
560,0.018151440595818736,0.01087017870156404,0.008001155260813207,0.009682586153392361,-0.02479706890003624
561,0.020037804714545623,0.0089083692207661,0.008796992390806285,0.011700345721438798,-0.022206115676264272
562,0.022448285817944485,0.006448343940701982,0.010458058931153022,0.014825532469112307,-0.02083421694651215
563,0.02371020589721662,0.003474186939722781,0.01262453828570528,0.017128881299338705,-0.02131479136472844
564,0.02282233705188603,-0.0006452773287572242,0.013701208804214193,0.015975136252608886,-0.024054316588645184
565,0.020957758100959772,-0.004992996549907917,0.01345536065268928,0.011641359780669262,-0.02684043586429586
566,0.019411472947166133,-0.008210478020634715,0.012693137003395385,0.006526599370551816,-0.02675618727117585
567,0.018131323720248203,-0.010427654217710452,0.011609588059579469,0.0019384940419935786,-0.024236148229153494
568,0.017024632622797565,-0.011901450167159298,0.010728006728607777,-0.0017064335576755516,-0.02119256977603758
569,0.015543089105938239,-0.012749722658351783,0.009994364566222167,-0.004786312624561701,-0.018270795949721357
570,0.013219381661035602,-0.01329160235840343,0.008616328943345368,-0.007370527671410424,-0.01554113960476098
571,0.010402991081336795,-0.013924088507153272,0.006630746924837176,-0.009293541558395345,-0.01404197122967176
572,0.00757830773671758,-0.014364618906638644,0.004510395242830881,-0.011464459248867043,-0.014508404960450565
573,0.005470914104803946,-0.013150985583730785,0.0030487635862186026,-0.013746595133307359,-0.015686467817300837
574,0.0036298342771802954,-0.010325486660514707,0.0025025225754410937,-0.015757639309116972,-0.016848803145546813
575,0.0004676963129903974,-0.008287842394926847,0.002018426033481656,-0.01816637094750955,-0.01820965678021556
576,-0.00403090907203353,-0.00847819646635512,0.0012522360014414868,-0.020096202085975484,-0.018404779627624407
577,-0.008980233148832154,-0.01043801476222912,0.00038920298683216086,-0.02074852037402848,-0.017134421481833872
578,-0.014327369806823342,-0.013527651541478962,-0.0004546729385108769,-0.02174681984518944,-0.01668788279744039
579,-0.019528976328838092,-0.016704834942420508,-0.0010128979746869492,-0.023350394089486765,-0.01787402898916967
580,-0.022886140606464534,-0.018590449323178028,-0.0009968939540748235,-0.02372184732400078,-0.018980340946895713
581,-0.023468488909188418,-0.018710715849588937,-2.683367105484547e-05,-0.02290507858363022,-0.018353575432181576
582,-0.022562757276488488,-0.01748144115309522,0.0016630559586685485,-0.022130703208380044,-0.015618842115281775
583,-0.021565127944139124,-0.014892660050961124,0.003110893032364408,-0.021189402808779623,-0.011043090231416754
584,-0.02047170398333138,-0.01075913594048581,0.0033617176150310514,-0.0194203192886811,-0.0056260615446290085
585,-0.019870953387625342,-0.006078587904997293,0.0017033249663636776,-0.01729395164865521,-0.0009537425509346711
586,-0.02042236235117705,-0.0016811607564735827,-0.0011044710834526167,-0.015785977062826674,0.0027276231776182094
587,-0.02153080422140564,0.002187799561459797,-0.003549830345468035,-0.015585812490147264,0.006179853770006563
588,-0.022761633511662445,0.004436533911327477,-0.005515608846842964,-0.016944349953555336,0.008992633641485448
589,-0.023827800763587655,0.003968976723029548,-0.007515220358721912,-0.019120263849810228,0.00962889265048057
590,-0.023734045100527727,0.0017557938821798841,-0.00878147795619128,-0.020622931077131194,0.008378809032812976
591,-0.022091037005886528,-0.000474990686089529,-0.00796810378420391,-0.020453172031935217,0.00740295850668906
592,-0.0196263525294669,-0.0022715816311528205,-0.005385464650108299,-0.018390200408195716,0.00734477183000178
593,-0.016914963563913754,-0.003182416430828499,-0.0026253242891290897,-0.015221873612808478,0.007921893900356837
594,-0.014893116962599793,-0.003162492117652251,-0.0013487974653064502,-0.013486760815074234,0.00950282160307699
595,-0.013800508965779239,-0.0023422873845047806,-0.0014962231863756015,-0.014206308518927345,0.013383140604886438
596,-0.01160769534622613,0.0002421907405804891,-0.0005013044712578179,-0.014610084011221838,0.020104849458687412
597,-0.0059518761155087415,0.0052185769072870085,0.0038768766044663416,-0.011289222831911099,0.027692639537006625
598,0.0038459249706729905,0.01255500644909833,0.011748365299970488,-0.00276411031713901,0.03429226855475123
599,0.015237944821068987,0.021250282057646598,0.020590812345684172,0.00887414850860528,0.03897115339283473
600,0.024019823813133293,0.02875075316076411,0.026537493529208006,0.019166441814747498,0.0410626780262675
601,0.02868326943534917,0.03251170988358295,0.028249232541772903,0.02511769300626596,0.041388848700090866
602,0.03154796525397659,0.03240937999406003,0.028105396775345813,0.027191751058169022,0.04164862733822444
603,0.034408314015558265,0.030293862401977983,0.028144979337869698,0.026917581367299267,0.042578830227748145
604,0.03640674019467687,0.02755474308093761,0.028421698984243765,0.024605625545446156,0.04425199850470926
605,0.036791790621428656,0.023804093188919385,0.02860428424534163,0.020750745744706863,0.04544492419446851
606,0.03640285265377588,0.018922174982554822,0.028565896309265246,0.017018655450436748,0.04427697125260413
607,0.03744016220369701,0.01564198675867851,0.02982475465878205,0.015748937814693834,0.04191115147528352
608,0.040416368882217855,0.015121854054565374,0.03266275541030592,0.016700766160879503,0.039768542402734544
609,0.043213642671701115,0.015374659130701171,0.03446066515624417,0.017152989494455546,0.03714383703148057
610,0.04441441127677671,0.016274450455093667,0.03428441898340247,0.016005339981680248,0.0346794824903302
611,0.044622802548138454,0.019379333089012275,0.03381040807704305,0.014248523605970993,0.03408705812725056
612,0.0443501175536059,0.024173312014616807,0.03389089990118627,0.0124315983211787,0.03523080161293921
613,0.04294013647960043,0.02775154794532149,0.033225610853804745,0.009354346864274,0.03589562021166838
614,0.04060318673725598,0.02799745811806179,0.0309128930964005,0.005222020217001419,0.0347166329938624
615,0.03914358784807054,0.02605315373032617,0.028124878391718757,0.003225413896877224,0.032888225990519125
616,0.03944059524140214,0.024570933960109717,0.026090639463573408,0.004788204060530036,0.03182779971138014
617,0.04009111308442718,0.024650098962503916,0.02482295282787275,0.007604654563091978,0.031370076232705095
618,0.0394120303654306,0.025475965514204984,0.024006599852052217,0.009289842655949955,0.03072325083065894
619,0.03705251163224995,0.02541458827091509,0.02314838978317191,0.009854520205061558,0.029474928394255532
620,0.034337897164594386,0.023785197011704406,0.021865052044684828,0.010368168468904494,0.02888465014626209
621,0.03346369171288936,0.021485304076086714,0.02041188100669194,0.010849366201222626,0.03156405139300317
622,0.0353430209816932,0.019167390829455896,0.0191072680416833,0.011197959727936269,0.03721452965015088
623,0.03895000450947877,0.01651634663119686,0.017998108988345588,0.01168918358842355,0.042230259081047924
624,0.04232334514809969,0.012937261731594494,0.016872330440104426,0.012049768051131376,0.04350134681197652
625,0.04415196162376199,0.009153252709295479,0.015910294006640787,0.012189779842001102,0.040721147356863586
626,0.044193491372761656,0.007001266271204637,0.01543465797145163,0.012029161451000282,0.036290202280654174
627,0.04260016200737453,0.00705867072596693,0.015568535340791544,0.011844401058047993,0.03259497896523928
628,0.04015403594590564,0.008834765707288306,0.017065812622394472,0.012796989174910756,0.03025850781194169
629,0.037049011846710354,0.011089572028231293,0.019217803035974954,0.01417672431209593,0.028166112820648726
630,0.032625598838350596,0.012305175898515524,0.02012281038186516,0.01406181392928717,0.025457825362997365
631,0.026619715782253008,0.0114946738498187,0.019047983579343154,0.01207970197532728,0.022647113072453862
632,0.019908404981701704,0.008985554719041845,0.016152687784960745,0.008859041431028173,0.020346910655055894
633,0.013898374206308763,0.006204541781450496,0.012439762694311098,0.004659612629741394,0.01898751855535934
634,0.009254443352609469,0.00360754951426887,0.00895317789949524,-7.639990378336527e-05,0.018057707305030674
635,0.0066857893114432325,0.0017888552550373222,0.006432174143902848,-0.003588982744013223,0.017080195962481896
636,0.006305576014358232,0.0020191037634649297,0.005456232062924896,-0.0048102739466068115,0.01676494424639789
637,0.0070685138277483415,0.003929078175625189,0.005484174529741829,-0.004553728798523573,0.016566941622168034
638,0.008318453174340379,0.005686360720065757,0.005492336823221215,-0.0031716824255296682,0.014899478307976896
639,0.0095619315845977,0.005951149239617721,0.005160898362086147,-0.00015476280862828097,0.011485598801773045
640,0.009909521711027665,0.005248749131809695,0.004518654854655762,0.0033419386403129546,0.007261115810168471
641,0.009744720401722046,0.00466054731573146,0.004179131854704619,0.00568477133404982,0.0033249379941959006
642,0.01065684131892136,0.003869125169262454,0.005081755316956739,0.007400090884834415,0.00011552330185750558
643,0.013527713290284543,0.003588468418609503,0.007670594587136142,0.009784550732902303,-0.001856652358702371
644,0.017372563681058252,0.004800031169547551,0.01119719667451482,0.011868777278799276,-0.0027659858658028364
645,0.01981733611266115,0.005478328669161008,0.01377123809295247,0.011517220864235492,-0.004789790273877346
646,0.020582526068360276,0.004659419972551423,0.015391589617296596,0.010112995168166218,-0.008178079497860036
647,0.021237360160231564,0.004084688561232583,0.017591324989134037,0.010462725512559255,-0.010768618288350901
648,0.021555959300934822,0.004304350740545599,0.019855289913545824,0.011694206866132508,-0.012178681856850993
649,0.020379866340223946,0.005012299632313629,0.02070647307880553,0.011264162087590594,-0.012708172145968219
650,0.017734152513316784,0.006461784405584344,0.019927983494800523,0.00914424259893732,-0.012300270859022548
651,0.014932634537871244,0.008722797869463908,0.018524426683452923,0.007847828122216226,-0.011389479911083848
652,0.012793169986140114,0.01115648644021168,0.017312973811054636,0.008438929465989483,-0.01052732335255486
653,0.01087082490121891,0.013208309148688193,0.01602392387357114,0.009180183816779992,-0.010142519699659252
654,0.008848822686395454,0.014410496331363175,0.014056153453885356,0.008863227011277702,-0.010135522270308568
655,0.006693359717055338,0.013696953842665449,0.01133613513728343,0.0078006470714764966,-0.010441123235801158
656,0.004517427351477956,0.011483966208575272,0.00875365677826977,0.006730184473697861,-0.010924085422758552
657,0.003063203494502705,0.010205774161627911,0.007230348051985244,0.0071803880160722176,-0.0107217622208211
658,0.003107041778079727,0.011392285566807735,0.006786741103900585,0.010357935797186918,-0.00884200784027347
659,0.004044442390713472,0.014345759174625787,0.00712861168532726,0.014748233475048604,-0.005288008956718265
660,0.004481542492727262,0.017323018046091824,0.008000546455959186,0.017621295813196075,-0.0016142068433666005
661,0.0033031755688003248,0.01839921584973482,0.008506697765561075,0.017640936278620636,-3.879241813610158e-05
662,0.00045718845695773297,0.01722899951447868,0.008267543102648064,0.01581940248121992,-0.0006742871938473233
663,-0.002916775368352533,0.01569945203541954,0.007938482757272172,0.014129195170983948,-0.0010438291473099188
664,-0.005290390645179784,0.015613945384104771,0.007959970467297777,0.013330750880239528,0.0010949897421853587
665,-0.005889781731786513,0.0167557159842089,0.008648543681164031,0.013735725964226767,0.005527313086169878
666,-0.00630202611081359,0.016842319311599907,0.009158353252740954,0.014006035650116882,0.009403848073925887
667,-0.007820465959129257,0.014615259007253394,0.008566963560438706,0.012391278125580106,0.010897663514417469
668,-0.009384389784828057,0.011957320810190745,0.007699049746739138,0.010118871643011302,0.011527295301500274
669,-0.011016810411116957,0.010360440422848748,0.006523755316520707,0.00813131302635915,0.01234212551635271
670,-0.014441298546688925,0.007933677002422779,0.003777616390785669,0.005504380292860338,0.011125931797268625
671,-0.019370221813089592,0.003658193172823345,2.231351163959093e-05,0.0025440726469159874,0.007247213445247355
672,-0.023914055431144356,-0.0007245610992838245,-0.0029068120676111102,3.866904368134479e-05,0.004106504121417139
673,-0.02730626606888493,-0.004344435645588256,-0.004357520700675605,-0.002220513809983432,0.0035334923969823754
674,-0.029103669667135474,-0.007246926884032652,-0.004417714342998729,-0.0034926246803403268,0.0043396607902819895
675,-0.029055544299114926,-0.009529208028010917,-0.0037478872509660805,-0.002562426479231333,0.005664348963154325
676,-0.027522541861417765,-0.01137127949907658,-0.003241912899446812,0.0006235171191876903,0.00728111041893373
677,-0.02508051812208677,-0.012382722044549828,-0.0026502077190238434,0.004836756943556007,0.008454023234852639
678,-0.023094216952215547,-0.012248531225374337,-0.001516892557049996,0.008036658756483132,0.008471706700791459
679,-0.023719784899951787,-0.012267162655762736,-0.0010941479808200664,0.008630366280523495,0.006424907518395263
680,-0.027681193144714945,-0.013702177892915389,-0.003121864298018942,0.006562051864882937,0.0020536894880562105
681,-0.032794524517379166,-0.015165184231164013,-0.00668288175507212,0.0035057952510700375,-0.002039242303955146
682,-0.037045943389793404,-0.01577492476463446,-0.009937596410644397,0.0010009751934621804,-0.004478025593346615
683,-0.04045707658726667,-0.015980205608979163,-0.012355674683742603,-0.0008303908335286739,-0.006038356768440294
684,-0.04346543016319327,-0.015050012646702825,-0.01362517880706602,-0.0027504253481950903,-0.005873135217164906
685,-0.04479340158116973,-0.012929660353231426,-0.013365858589889182,-0.003601536219510184,-0.0041364471533755645
686,-0.04204878394155175,-0.011155794225033594,-0.011585173516275074,-0.0012472387342987055,-0.0029888734027768487
687,-0.03627680763088406,-0.011063007276432156,-0.009468094334769715,0.0027170509052708916,-0.002671201925060274
688,-0.03125598176210664,-0.012274172550088067,-0.008541946989744866,0.005645639723667967,-0.0008719036801392778
689,-0.029083841881409212,-0.014128309287361213,-0.009172870555324094,0.006871474164680311,0.002331787642618116
690,-0.02976277991790527,-0.01789277893587829,-0.011104958010727431,0.0061636668771556,0.0033951068746325102
691,-0.03190049607006741,-0.023891909503304783,-0.013732093466861588,0.0036090846351799224,0.0012456750069927977
692,-0.034508566786197195,-0.02988607443167419,-0.016430550740321858,-0.000741340038499405,-0.0021564062071384254
693,-0.03715974436139773,-0.03356225250635546,-0.019028383655830407,-0.005855120335689838,-0.005311074064933026
694,-0.03849123630591313,-0.03299594935542093,-0.020941837630690404,-0.009085728859078636,-0.007318480515562681
695,-0.03753246914600183,-0.029074901068324253,-0.021500642954510908,-0.009409554984768973,-0.008459219220855517
696,-0.03539500606837292,-0.025650031242768764,-0.021681216344654402,-0.00891945011388107,-0.00999620280099807
697,-0.03396175882890439,-0.024930183295345996,-0.023210629908803307,-0.009776034845163968,-0.012327063405135423
698,-0.033036320182886304,-0.02611319350860943,-0.02611070792730373,-0.011742450403962391,-0.015026290197427192
699,-0.03196065071182494,-0.02836922736860298,-0.029522042440273778,-0.014599846420356272,-0.01785161757879036
700,-0.03077595448857529,-0.031355082746888675,-0.03233615452169606,-0.018372074377230044,-0.020359112360636273
701,-0.029342321271849565,-0.034242953436558504,-0.03387429432540301,-0.021995690989776377,-0.02203437429807149
702,-0.028321208671037754,-0.0375712614268257,-0.035034938529963734,-0.025090909993266033,-0.02357483083620774
703,-0.027127202281561003,-0.041024387162682134,-0.035437830058523856,-0.02689827647048812,-0.024906974631674236
704,-0.02457856569482399,-0.04463765663013841,-0.033896657812579375,-0.026315455725927743,-0.024415589813781197
705,-0.021791116204532834,-0.04232775678317884,-0.03147882199551896,-0.023785171761826727,-0.021883519188512876
706,-0.01964597054654693,-0.03611680440931767,-0.029555218563893662,-0.020219387214858053,-0.018037319451574167
707,-0.018143764374564896,-0.02754881271477406,-0.028679159677772702,-0.01741610641616075,-0.013949895056280226
708,-0.01734278012936564,-0.01949237642042245,-0.028719711153301564,-0.016973914160349553,-0.011034581520954488
709,-0.01610338591102314,-0.013664629427287732,-0.028142202932525243,-0.017533285086584607,-0.00893079568527263
710,-0.013605490576709348,-0.009431484242514311,-0.026267748034121255,-0.017060124352126258,-0.0071231642202965635
711,-0.01101561674147269,-0.006277907946231043,-0.024438097988446976,-0.015810014420420394,-0.006817196233954565
712,-0.009422889722860591,-0.005009273226835186,-0.02327239866595696,-0.014585717220712429,-0.007977245931806988
713,-0.009017489962538955,-0.00574705211350254,-0.022405939393424355,-0.013967481503171524,-0.008321575278959324
714,-0.008926031521087986,-0.006824978363388343,-0.021249775035620224,-0.014176599427978836,-0.005901742615807614
715,-0.008214510813636396,-0.007635981275232083,-0.019694578618583296,-0.014272662679306372,-0.0025572251791578446
716,-0.00769769873876686,-0.010287996638677561,-0.018962799622318616,-0.013886865771142443,-0.0021638525632065217
717,-0.008005197202797734,-0.014508804887835153,-0.01930752608598093,-0.013415304786361264,-0.004968652493667637
718,-0.009386010395302513,-0.018198405753482545,-0.020112836477512323,-0.013830531590885577,-0.008265649424817249
719,-0.011489184799794126,-0.019014976968429857,-0.02039708827519109,-0.0155098464281767,-0.008828332187768968
720,-0.013199652418741166,-0.015206951951917213,-0.01934779142298026,-0.017825516571495198,-0.006035632158070142
721,-0.015148825913662886,-0.009853172371921577,-0.01862767664621878,-0.021163251882751963,-0.00371062378087653
722,-0.017713020621611026,-0.007013305794873345,-0.019295342550828397,-0.024341813921713862,-0.004729263233786091
723,-0.018912442520030572,-0.006217611531224647,-0.0193496411157132,-0.024591997337352137,-0.007305707579967292
724,-0.01792505573276397,-0.0036547858038715173,-0.017531938076324145,-0.02262776947433314,-0.008397957521516152
725,-0.01664758534075713,-0.0008682003922724025,-0.015556002779053793,-0.02147755367725964,-0.007949306516988422
726,-0.017002803053446088,0.00016777778096804932,-0.01548956589131561,-0.022541859810407447,-0.0075716275533637
727,-0.01915417485326365,0.0004847679486082749,-0.016955016130281945,-0.024860074486997747,-0.007489316988195421
728,-0.02168068212226527,0.0001453767792532714,-0.0180252953263808,-0.025857278400425617,-0.006799875694957887
729,-0.0224918784401988,0.0002378175991733688,-0.01764822421690199,-0.023816240936115736,-0.0049321562836879065
730,-0.02074779128656441,0.0008801164945380753,-0.016049340437340437,-0.01959877623884091,-0.002352126070330019
731,-0.01822540579184839,-5.898558320415744e-05,-0.014538747806990706,-0.015694741096872657,-0.00048595805036936844
732,-0.017438319575113544,-0.004400158394737797,-0.014697278234113568,-0.014403814290294775,-0.0006153822656487941
733,-0.018061260576332276,-0.00922841874610306,-0.015696324159771513,-0.015011667467297797,-0.0015115408077283094
734,-0.017840407148060382,-0.0109431248374916,-0.015735498864170396,-0.014821891747767818,-0.0013051520864773704
735,-0.016105016895280697,-0.00971698593152376,-0.01513678621976607,-0.013094778358505827,-0.0010087250762162404
736,-0.013849672242984565,-0.006295873185493999,-0.014717191396203012,-0.010919569293661035,-0.00045327482466668296
737,-0.01287674562322113,-0.00218343624693471,-0.015115755991692464,-0.009964813402325974,0.00255358617038976
738,-0.013436365212192119,0.0014983437625053844,-0.0163492035432383,-0.010372607517275364,0.007458207221592237
739,-0.014333979433477579,0.0058149268500341115,-0.017488117735798128,-0.010977954240446461,0.011419830071905461
740,-0.01555300277754056,0.004584971561388403,-0.018441253078124154,-0.011536745267463235,0.01182111045639015
741,-0.01629905563007625,0.0013097789197334295,-0.018790325564383495,-0.011395576408028268,0.00970019499310429
742,-0.015158590863830552,-0.0002359965474446833,-0.017439018615898964,-0.009859356558526815,0.009305145264998656
743,-0.012336399589405295,-0.002365737974414998,-0.01453427081863792,-0.007345858056756118,0.012090064398090595
744,-0.009136623274357,-0.003211358863781966,-0.011628414526545781,-0.004891804542772097,0.015399115912723289
745,-0.006910008596682752,-0.0053298240347342445,-0.010236410975536257,-0.0036525558606426757,0.016880369673391512
746,-0.0062644094716277935,-0.009857440807471689,-0.01075075703830029,-0.0040911990934797355,0.01671854811083475
747,-0.0067674702418198535,-0.014872118119383932,-0.012681691942475579,-0.005698447249141489,0.015544197729785318
748,-0.007222127664527256,-0.016530243562681894,-0.014615311037585845,-0.007580582739561942,0.013488297976543762
749,-0.006272968968883617,-0.015657920562729872,-0.015071217959773555,-0.009012284876765761,0.011349167447799562
750,-0.0031657235588100872,-0.013881510896703165,-0.013850356081947582,-0.009018304223248614,0.010474447626335743
751,0.0013929669884428224,-0.013210690555621452,-0.011623964638613624,-0.007052013746164794,0.01095333591556263
752,0.006303728411873295,-0.017362999141571286,-0.00855137215899998,-0.0034664741075974017,0.011623384295384663
753,0.010973240581100703,-0.023296633801604162,-0.00470427722949301,0.0004883263061458829,0.012017736501973297
754,0.01453621992461667,-0.028169039196065206,-0.0014934704164607723,0.0028742019573261583,0.012200405936424212
755,0.016518856372852712,-0.03253901458423389,-0.00027564531076617504,0.0030844178946754968,0.011165419704439083
756,0.01749994248386624,-0.030204150601463232,-0.0006385917566451365,0.002084338380593255,0.00802657854992484
757,0.017933802774690137,-0.024653946176568464,-0.0014677019932917222,0.0005080838728963369,0.004107041102429258
758,0.016876257471460966,-0.019847608388671785,-0.002480750909242322,-0.0017498967688414368,0.0011563417338111448
759,0.0125811923541031,-0.016130739423276374,-0.004816785974437712,-0.004817349345516808,-0.0018137625210016904
760,0.0056409654330168806,-0.01684793776274379,-0.00849575236682649,-0.007705098547388924,-0.005642553101824056
761,-0.000982617268532087,-0.0168303726403563,-0.01128958914920698,-0.009198715050214199,-0.007664456848385257
762,-0.005903144797066714,-0.01245961777011597,-0.012433129003920039,-0.00989064135355898,-0.006510819930917802
763,-0.009164531020623272,-0.0061465858044380565,-0.012389292719503934,-0.009508040413386518,-0.004576313648976756
764,-0.010541049653793896,-0.0027294416789210357,-0.011426135864275372,-0.006719098420268175,-0.00390510101109623
765,-0.010817657400936652,-0.0012139534984877004,-0.010919558589157021,-0.0035233421679787573,-0.0036098257488837012
766,-0.011956952393611223,-0.0007377677127832945,-0.012513939049960187,-0.003584983642779329,-0.002193515452984569
767,-0.014488981155655046,-0.0019868238010610846,-0.016443499903625078,-0.007227437501427915,-0.0006381083978617466
768,-0.017142474626205842,-0.0016690993937084374,-0.021576468830603122,-0.01194498498291426,-0.0009122417169949037
769,-0.018159813126810257,0.00035318150493701705,-0.025406379981878634,-0.015033672874339647,-0.0025656433384469704
770,-0.01603303360232561,0.0039937049217802015,-0.025219753184381136,-0.014657561913293147,-0.003102180516711379
771,-0.01166484718864774,0.008510084602915389,-0.021867616954578378,-0.011623350549202835,-0.0015788375847501515
772,-0.007782112693010883,0.009656366824651744,-0.01837412747304989,-0.00865807160121346,0.001084279475027331
773,-0.005575654088380223,0.00814223116432076,-0.01518123738104137,-0.007258865422996742,0.004239296078653873
774,-0.0048641119426953774,0.006731345298300865,-0.011543458437947938,-0.00723558166275485,0.006892229001950186
775,-0.006438749289582012,0.005309094260254737,-0.008480695181169947,-0.008618736257603343,0.007204896500828224
776,-0.010769221175229852,0.003917129096177137,-0.007201859465233191,-0.011661088487055287,0.004644752843187672
777,-0.0160721612394354,0.0024709675853613012,-0.007302409239895805,-0.015241252220964818,0.0006260405730870329
778,-0.019480728462880192,0.0017776240115185478,-0.007292984938556281,-0.017432239775630905,-0.0021642529205673226
779,-0.019212533111418576,0.00286150043121494,-0.005940324927151236,-0.016939118936037414,-0.001814529624202053
780,-0.015306295553943767,0.0062991692475161945,-0.002696837110314462,-0.013083189818714916,0.0007304935944815321
781,-0.009264678125109211,0.011039431498444552,0.0021667364962291995,-0.006921433737633023,0.0036057459458327303
782,-0.003396804456907296,0.01562234674695882,0.007347883449011502,-0.0009999084786295827,0.005724901920589008
783,0.00048072409534728104,0.018312062125042692,0.01103331622927977,0.0032515836414642426,0.006687739957401047
784,0.0014284255534005384,0.0178643454097552,0.011636792063672735,0.005633033887595319,0.0069508059092368854
785,-0.0003227212260706677,0.016062343940051113,0.009530736819715804,0.006822573842380461,0.006986760310945491
786,-0.003452992664264021,0.014719911932546157,0.006853024908271652,0.007818066551353498,0.006273952060740004
787,-0.006631828675416047,0.014765747808959864,0.005099895078949805,0.008941895680960278,0.004695875876512887
788,-0.009325241383421386,0.016839582153379037,0.004570476560112929,0.009892925863190525,0.003378523027337215
789,-0.011537806994860194,0.020086093684129332,0.0052183063255905535,0.01031335497011578,0.0025192337204120166
790,-0.013770102735139522,0.02226110675521752,0.005861558805702193,0.009731318561774028,0.0008146738879664531
791,-0.01596802632961544,0.02183035412939598,0.005251525465201893,0.008176723208838324,-0.001626348917979716
792,-0.01618816978366743,0.01974737559817737,0.004495250603293713,0.007558094224630458,-0.0028000382646474523
793,-0.012934488754440091,0.01833123354825854,0.00538947309126816,0.009709738439256162,-0.001034396092274295
794,-0.00751439104604042,0.01816027771713786,0.008113456476391119,0.013646289064110799,0.0028392928542719745
795,-0.0026416370385875416,0.0177612081824154,0.011214307096213431,0.0167320398530551,0.005124976115248545
796,0.00024448840029326165,0.0171247417421029,0.013348388000523853,0.017497169568556497,0.004031199039295249
797,0.0015019370476129228,0.01772965719137781,0.014473304686510282,0.016722377942603686,0.001727747759120581
798,0.0026290490094082876,0.02024262238622085,0.015098924075504115,0.01630404396919984,0.0007879847346496613
799,0.0039736731037306435,0.02426579321442672,0.015245832007080344,0.016669565473935933,0.0018216793914007023
800,0.004361258316481776,0.02871732026033584,0.01482588002488837,0.017132809545800723,0.0039757616442182
801,0.004031304092270553,0.032544331160138516,0.014153561098131385,0.01753859350598435,0.006967378590389497
802,0.003895376096824205,0.035696822090167744,0.013679889318072763,0.017068321443238284,0.011376291382857659
803,0.0034109000306811366,0.03798126071686602,0.013262233686235823,0.014418678934199501,0.016029583373982307
804,0.0024230406051911676,0.036697017367197875,0.012716115563911312,0.010882132397137773,0.018421421171623917
805,0.002473055152144858,0.033589602498066744,0.01290490078785388,0.009510406768788088,0.018349011081142744
806,0.004797684668453714,0.030903207485366475,0.014654317132443969,0.010912819047598806,0.017754339462185124
807,0.008989602746531902,0.028700136727742232,0.018080628006585442,0.013673828383381728,0.018281578112982033
808,0.01280260104421807,0.027378801515225898,0.022328803218943143,0.01611623925384475,0.020066906955002482
809,0.014523191968192291,0.025250462364244993,0.02620834780068717,0.01751836649032363,0.02190955142570966
810,0.014366320806597622,0.021553430225468163,0.028978477250635588,0.0179060234445945,0.02212815593960114
811,0.01301086004077641,0.01785086252403455,0.030873045397125466,0.01677883498644255,0.02059926460412404
812,0.010958821221317874,0.016338394390029525,0.03240213069802539,0.014313897420691788,0.018485738245654425
813,0.0075338758554734575,0.015560425506752474,0.031954338821680035,0.010979872866350328,0.016175020435466123
814,0.00234995639500588,0.014111096540024173,0.028438700295350828,0.00768723579739734,0.014268503814472647
815,-0.0029350773923435864,0.012176788246333121,0.024207497882995126,0.00592749505257926,0.012860278503185194
816,-0.006143891832007512,0.008873196513142835,0.021977188424898153,0.005599452948068608,0.01104881639478604
817,-0.0066134691097126524,0.004311703784783754,0.021544877951753225,0.005352277500668826,0.00901913555647484
818,-0.00566539951066236,-0.0018530448084580502,0.020987093094201506,0.004789963911743161,0.006913506417198314
819,-0.004640611807152684,-0.01025395078522016,0.019635388373540577,0.004549976371779952,0.004328350383562144
820,-0.003935407370695425,-0.013357747943614339,0.018405490500595135,0.004758064229182503,0.0022504466688237548
821,-0.004167229243626629,-0.012646358075974334,0.018164525989478694,0.005068453676651729,0.00164350174202638
822,-0.006381635551499416,-0.011137624310444993,0.01781668946794805,0.004822291793160008,0.0013391283816622907
823,-0.010338096005106576,-0.008143648880744944,0.015607155817659323,0.0035054625977068037,-0.0003000677356109738
824,-0.01514997070548324,-0.0077469702034667215,0.011021646908200481,0.0009451161309704155,-0.0040889234835571695
825,-0.01928991554891904,-0.007128092133561243,0.005894886602943116,-0.001813162356033819,-0.00832445392059567
826,-0.020006627503582997,-0.0013676193592474842,0.0038865141139833516,-0.0026232606389215564,-0.009035483757756363
827,-0.017140433159697387,0.007809745694997947,0.005313231846088662,-0.0019200225050360498,-0.005764003485419839
828,-0.012162657442372783,0.013573265035012843,0.007441271767823272,-0.0010853799042763205,-0.001252242133937183
829,-0.0058379015127400435,0.016514671805330314,0.008282863550976892,-0.0001537925254828121,0.0027120698941757717
830,0.0002891351916827417,0.019044039549655053,0.007345536084950743,0.0006663163993786758,0.0062011178486871795
831,0.004346728013763481,0.02079223468174165,0.005329798876545679,0.0013068642295620053,0.009245650437809933
832,0.005312542544722241,0.022881207005405038,0.0027713781605061363,0.0018676647663309022,0.009463203155963816
833,0.003578874309092534,0.02352330358615015,-1.5903558915594552e-05,0.0016211334747943088,0.005789150036902729
834,0.0004447161337007938,0.024033186413925826,-0.002130071165434282,-6.748572378952631e-05,0.0006889576371728414
835,-0.0029931420396170374,0.027117524003838506,-0.0029182595344066143,-0.002330213330383157,-0.00375959857686928
836,-0.006154041979569063,0.027620937293128228,-0.0033825139929627886,-0.003864348342811612,-0.0070170418239339895
837,-0.008924236310788931,0.02666700767550965,-0.004855912952112645,-0.0041570162347897895,-0.008345870889236634
838,-0.010652686697263212,0.025390814037765292,-0.006923276637794766,-0.0035157182042205764,-0.00708943453911044
839,-0.009962132960038103,0.02258920847513852,-0.00811225035099237,-0.0022291839273118007,-0.004075081783881376
840,-0.007316769913715108,0.021143808112387787,-0.008162559465345491,-0.0005738926844724404,-0.001569774576061585
841,-0.005359032245092982,0.018309219181432076,-0.008672155441726179,0.0005209725607204879,-0.0017619656547460715
842,-0.0055703635081479925,0.01217004824154859,-0.010708450724369786,0.0005541815804357928,-0.004954563130718887
843,-0.006755650693231421,0.005390535606083933,-0.013325673691433075,-0.0003984304622362475,-0.009202780578778241
844,-0.006946316724994788,0.002369784249640429,-0.0148594759518332,-0.0016074227384238527,-0.01253624964826502
845,-0.005457770363855205,0.0015075970144465952,-0.014316478665346124,-0.0012933853215815515,-0.01434508672665941
846,-0.0029926992020695704,0.0010727879057632302,-0.01208952455488013,0.0007736333306893439,-0.014393960866535254
847,-0.00017435582735141308,0.0017904699117722819,-0.008926694503413641,0.0029846783000646256,-0.012013397520729715
848,0.0034594642634411645,0.002948889454541482,-0.0045675672516381684,0.005002079754149489,-0.006356536723286818
849,0.007453951528299791,0.0053859072945981155,0.0005881811675758343,0.006687607643450826,0.0015593249997886264
850,0.009851504685609068,0.00740930225469943,0.0044307908541081735,0.006844121718607634,0.008006048034464641
851,0.009909207042862207,0.006244613046631222,0.005068622245201497,0.004636649516879751,0.010026827650998224
852,0.008197913621212591,0.0027012476820298024,0.0025349202171657064,0.00015639111702789877,0.007355595699418783
853,0.006160164427024523,-0.0034061261448202606,-0.0007032227844887839,-0.004221579608250443,0.0008869803380666322
854,0.006074436556676271,-0.010288471357732934,-0.0016563965508452614,-0.00586017067238064,-0.007222623418573078
855,0.008403997573986006,-0.015157002675873539,-0.0001449250240529819,-0.005249566588792323,-0.014540648134751552
856,0.011412937035649783,-0.01886852640551594,0.0018742433678968838,-0.003580799888789442,-0.020102927916077908
857,0.014481731657998499,-0.021091191614322376,0.004136122721382038,-0.0002265887552002104,-0.02265072780909894
858,0.016882826205355788,-0.020947877385532828,0.006583578705430445,0.003982491343825045,-0.02220728102165691
859,0.01656791272123637,-0.02039136262178128,0.007034686352638744,0.006058892197965433,-0.021785738596143148
860,0.013776943331115834,-0.0216433325622209,0.004488935443304545,0.004742698912665453,-0.02283454753184033
861,0.010871287518853778,-0.02357298908471742,0.000584485373125732,0.001195689670523633,-0.023472473431715064
862,0.00920518117034006,-0.024990069037122573,-0.0028850733131897746,-0.002799819316058579,-0.022101781912256174
863,0.00808972705712285,-0.02682358413244687,-0.0056225643289716815,-0.006429230374325065,-0.0197725723201023
864,0.006409438916943813,-0.029729474959823234,-0.007899118928132807,-0.009630647139861002,-0.018396070760508792
865,0.00439916673218622,-0.032840039146087394,-0.009251403238222237,-0.012171447740238357,-0.018206012394611868
866,0.003097527715510656,-0.03442152536512209,-0.009104036038516818,-0.01354909428968758,-0.018161712259386027
867,0.002882558013738781,-0.033508279542195735,-0.007805798745952663,-0.013682106258404277,-0.01699680340212495
868,0.0035695760742527833,-0.029928001060716088,-0.0059847783515549246,-0.012906780359938128,-0.013651676026457529
869,0.0046541851840525665,-0.025607860480164682,-0.004296154091682499,-0.011730337920360967,-0.009422985824628905
870,0.0049598200195553775,-0.023860606331789463,-0.003746177563706919,-0.011318565383847594,-0.0071501530193806275
871,0.003613564078749087,-0.0247715643123133,-0.005214928580169291,-0.013372311631576324,-0.006412069908238767
872,0.0007274363491087605,-0.02651747003184503,-0.008960248062385545,-0.01845489224789141,-0.005633755318833323
873,-0.003187755191005347,-0.02917355543151073,-0.01402665926763597,-0.024285519138951002,-0.00624131430001946
874,-0.006984529582234806,-0.031745176714222674,-0.01792058673672896,-0.027142801795569337,-0.008327723044663803
875,-0.008565648321513021,-0.031195178312776174,-0.017476991996886366,-0.02470349487464403,-0.009062427021663783
876,-0.007454975459794837,-0.027765984441311904,-0.012407956577879362,-0.01878125898897993,-0.00808345094872464
877,-0.005307529458431441,-0.024886169140174642,-0.005952452734160081,-0.013215711926711657,-0.007649938251763802
878,-0.0026409321176357517,-0.02345300493502686,-0.00014522569747805369,-0.008659598277266697,-0.007805903759869893
879,0.0008479938923159782,-0.02202395140751323,0.005092963191855697,-0.004108939388517898,-0.0066711378969669345
880,0.004100858694723638,-0.020521556528143154,0.009375166896296482,-9.003039856980919e-05,-0.003806121241911191
881,0.005591432141464982,-0.019657257494968685,0.01184908420626087,0.002311654463818189,-0.0002124689997311229
882,0.00528973233241133,-0.018939817860960773,0.013125338828821338,0.0032547705989953036,0.003969699223237537
883,0.004210796092790378,-0.017717462382747056,0.014703238984573132,0.0038955288599320905,0.00884067797551935
884,0.003131620066569278,-0.01618049961181584,0.016512196695892267,0.0048238410310625646,0.012577293362822975
885,0.00230590218981786,-0.01430810968731502,0.01753239744278283,0.005644292650644092,0.013178744982064412
886,0.001836518556511999,-0.011313449310917505,0.017904900775731578,0.006118957760579753,0.011038861016512323
887,0.002820584514034438,-0.006287961196375668,0.01896643883410608,0.007255748049428021,0.008838020465371885
888,0.00556766134193712,-0.0004688921536351532,0.021008593462474506,0.009443619136363591,0.008180922655369011
889,0.008441397712721108,0.0035778167384994094,0.023083186579393847,0.011487880565726239,0.008060315708371714
890,0.01021105585278673,0.004962162087919029,0.02446208360927473,0.011999638744419058,0.007596206458452739
891,0.0108823742035407,0.004674268797701632,0.02473955095524457,0.01051239868652003,0.007681221993351536
892,0.011157828726465577,0.004371468137872097,0.024049390597426192,0.008348777941280631,0.010050394657718006
893,0.01113180526255169,0.003685078631679428,0.022003022809932143,0.006775704647449307,0.013333667969723425
894,0.010204148572929627,0.00121960621006282,0.017952323551845,0.005443772349653341,0.013295224871979077
895,0.009021360811914013,-0.001924809412639538,0.012809532561907953,0.004471740149079809,0.008832936908879955
896,0.0090510206279436,-0.0037865510734701453,0.007947634566087304,0.005145093546641319,0.0022717410846528605
897,0.010367859892929338,-0.003804485974503724,0.003965861751472508,0.006943972446934241,-0.004141296950317933
898,0.011991254504108506,-0.002269506096728996,0.0012360458888161186,0.007240891784520586,-0.008660093452849198
899,0.013639543669233737,-0.00022616005043788782,-5.233807689595891e-05,0.005703324983229012,-0.010256193635733076
900,0.016448159695238183,0.0016919946719642683,0.0003924448668050045,0.0062600295166438955,-0.009107828474109573
901,0.02045854576102496,0.003761683969389916,0.0016436365529495498,0.01039376975345646,-0.006461606548544253
902,0.02305903530444167,0.005596524938658761,0.0009268837548589328,0.013305419059059496,-0.004583186542358636
903,0.022643864739593185,0.006870662580280241,-0.002319256856199022,0.011431107599120006,-0.004981684673588048
904,0.020533327764921186,0.007722680670398809,-0.005924726636875052,0.0066200264388645924,-0.007537810544989842
905,0.01938097905718347,0.008369642124724425,-0.008381123288730318,0.0026264539111212444,-0.011177077389885845
906,0.020429571457621164,0.00952859022560308,-0.009262685670698182,0.0009610683746029632,-0.013810391139973196
907,0.022650345333476207,0.011248905269020082,-0.00839028743374975,0.0007851499637231313,-0.013961568286921144
908,0.02535844964693135,0.012943439606211565,-0.006180446430823216,0.0016266888081689107,-0.012376852209923316
909,0.02818832895194466,0.014143561340619464,-0.004225723083063181,0.002666801013903352,-0.011386330429479912
910,0.030003355128106386,0.013515968258357164,-0.003847968502539847,0.0026346493939985592,-0.012803057141067109
911,0.03053361679124771,0.010102382014104521,-0.004812099099220581,0.0012833215227786082,-0.01578340106473269
912,0.03089455140464431,0.005222247132579729,-0.005946731807725216,-0.0005286553302387756,-0.017915975736499307
913,0.03233995742680768,0.0009384059344722114,-0.005512361978491082,-0.0009213940081051304,-0.017699879563673544
914,0.033839436157560084,-0.0028316680500021637,-0.0035480690234850005,0.0003117345709528464,-0.016011586619348775
915,0.033103918046538554,-0.007181468897191701,-0.002104004333538258,0.002002083653484652,-0.015064964797846503
916,0.030714104363218316,-0.010347314753525105,-0.001715049177342208,0.004212392635366593,-0.014993815564323894
917,0.02836171758993419,-0.009870090958263711,-0.002113604296966309,0.0061561639956001606,-0.014091117683158029
918,0.025707592505272863,-0.007645378372717151,-0.00419953925056029,0.006160127265525192,-0.012147149955814866
919,0.022534815269613644,-0.006996837385489476,-0.007993245976580111,0.0042051179746279525,-0.010216219127775025
920,0.02015716301016519,-0.007107385070060625,-0.011233988074836845,0.0014638473498547499,-0.008472695714604548
921,0.01955532524194147,-0.006039748106499331,-0.012203912996994259,-0.00017179791346076648,-0.007805737201722343
922,0.020012436191985353,-0.0050740287582637135,-0.012064942483672481,0.0004082745899855871,-0.00999158551215109
923,0.020164325393890733,-0.0054101263321779175,-0.012336771521881992,0.0017327683587888428,-0.013628800313861439
924,0.019444397596863113,-0.005646509136607723,-0.012942510274330432,0.0024177996741920347,-0.0157692823795292
925,0.018436983990875837,-0.004524209302002237,-0.013174508430534904,0.0031376283162827382,-0.01641695556885565
926,0.018276112007229492,-0.0023625012365503417,-0.012034165012373867,0.0050174779165149015,-0.01640598582704119
927,0.019218968718452484,-0.0001145219124738023,-0.008884761284904197,0.007987741813639314,-0.014825629559967548
928,0.020809223142678163,0.0014283617313504198,-0.004151914053063492,0.010900353666288649,-0.010920345888084002
929,0.021911310080017215,0.0019064835957206497,0.00026767337918941995,0.012314765026870393,-0.005711586874158248
930,0.02123801130231398,0.0012268871730283196,0.002187656292987323,0.01196070292323901,-0.0007400836366398099
931,0.019431490247939335,0.00019658764168555012,0.0018511649513552482,0.011373458508689973,0.002823600239233298
932,0.018332222416917263,0.0002069000760495062,0.001313646930934554,0.012072653165245998,0.0033541902460235344
933,0.018853288837013236,0.0013063225572308946,0.0016771203343909306,0.013839918514944656,0.00020046107912391494
934,0.02023775060835073,0.0025259570410599962,0.0025259999947289304,0.015293139203370802,-0.004278786041836267
935,0.020803192862783315,0.0035045275489926694,0.003385438730673686,0.0165535390928141,-0.0071266113514667105
936,0.019988918921606254,0.004677444235280159,0.004006115545036641,0.019005224710775006,-0.0074816441251535125
937,0.01842351028750171,0.006023977080311935,0.0034931598413870464,0.0214938760316179,-0.006590460419214831
938,0.01697411951159119,0.007331884677521237,0.001881489612206849,0.021591650921891036,-0.006280386340685295
939,0.01716245658699268,0.009742485831837304,0.0012664053791016895,0.020175979021603802,-0.006040100727920692
940,0.019068435839803204,0.01307873979318242,0.001919571793574659,0.01859658358950874,-0.004795383244482353
941,0.0212680138622646,0.015513922193539292,0.0018717325034677526,0.01627985330253751,-0.003064971537302321
942,0.023162734598056088,0.016314264786326617,0.000767642881710842,0.013974935477089272,-0.0013922820050570853
943,0.023910038299851864,0.01503753932900902,-0.00072914102548864,0.013300241457646285,-0.00047596911341354247
944,0.022609760727259304,0.011379225907755896,-0.002173200439173083,0.014463952653240736,-0.0010006128110871297
945,0.019236038719092963,0.005334331628346502,-0.0034633577186123235,0.016176034762763258,-0.003637814693990603
946,0.014445044225504605,-0.0016435030060113337,-0.0043644915797417215,0.016921917781858666,-0.007717349700348622
947,0.009233099505856053,-0.006746765780551522,-0.004017156644487134,0.01623381510709507,-0.010835686526582167
948,0.004324364190599706,-0.00855448711986872,-0.002461079092953636,0.014580654240381281,-0.011629310721122124
949,0.0006198519612542889,-0.007492810769454011,-0.0005668637107601202,0.01319871996394593,-0.010148483988855822
950,-0.0014871492942164913,-0.006069282893920754,0.0008143483246600241,0.013518991534007081,-0.008051887812733936
951,-0.00215177256290408,-0.005789582037291413,0.0017287515530634763,0.015712744173328238,-0.00655754242374136
952,-0.0008384060535172984,-0.004917176107052675,0.003302631056788585,0.018668776598673678,-0.004904127794662067
953,0.0015015281618877606,-0.0036595169315488552,0.0046307234002663285,0.020711798360869355,-0.004081801335500915
954,0.002095355993208367,-0.0037216517654551037,0.0032858852368757357,0.020380428174273935,-0.005366960191515308
955,-0.00022745590531352442,-0.004202709858671128,-0.0009366257943850396,0.016996399554838844,-0.007137606048539028
956,-0.00413515079997634,-0.003903788717511442,-0.006221338871951119,0.010995087035986676,-0.007844336786647171
957,-0.0076247887294678025,-0.0029290298616988686,-0.010774803936039825,0.004270250791647709,-0.007237359313080157
958,-0.010036715870494272,-0.0016801182727486834,-0.013674981625836188,-0.001673810552465673,-0.00489232606472021
959,-0.011235660058787122,-0.0001404138498348198,-0.013837586980788925,-0.006124234856817067,-0.0008173030731591486
960,-0.009671756710122768,0.002036658931165837,-0.009405499242926503,-0.006903922551718568,0.0033027717317258313
961,-0.007560902482863965,0.005282221510688239,-0.0032826363023768755,-0.004262626463687862,0.006039150505231112
962,-0.005775211815136153,0.009020518212995059,0.003490954946433869,0.0010597820099937563,0.007408241536438917
963,-0.005409599938571201,0.011390915214911588,0.009183639471403354,0.0066486534665564576,0.008586032980369198
964,-0.005665232524736467,0.011748254334801537,0.013393261844661497,0.011075456834253573,0.010552305858193733
965,-0.00449510268685737,0.01150114584383847,0.016693583519252216,0.014109986734654207,0.01262680349707711
966,-0.002366265410090071,0.010788354950773888,0.018501931223855073,0.014839794659246293,0.012263614433575303
967,-0.002487933464312861,0.00857998391898636,0.017750451113606236,0.01240780857631094,0.00890289160990894
968,-0.005844007792770331,0.005281358718021271,0.01497852305592668,0.008144445661636008,0.00537738496812637
969,-0.009383771236295881,0.0033269356510442355,0.012185290650292207,0.004702852838919076,0.004671278920795922
970,-0.010289790601101844,0.004318618542921137,0.010691956663180822,0.0028805383876398336,0.006898463731592787
971,-0.009197736376957075,0.006284797433062136,0.01015114223816537,0.0009741299784792063,0.009676919995275406
972,-0.008561423612370946,0.00677488764111398,0.009674131515891048,-0.0028796413920386885,0.011380122091165843
973,-0.009708631264183308,0.005898075492761777,0.008636714789167044,-0.008518986808779522,0.01183123576327165
974,-0.011590532341897318,0.0053322057712434975,0.007379794772656484,-0.01344722665891873,0.011667126687301363
975,-0.012679143036074826,0.00599509030705653,0.0067370416518192765,-0.015367868943820827,0.01185849705196416
976,-0.013259074134878363,0.006596490986754946,0.006368042516910482,-0.01471629958980161,0.012069860142186306
977,-0.01457406063528474,0.005423454921267653,0.005037029425759842,-0.013645182723683263,0.011156032724956693
978,-0.01679431993392221,0.002353978763327951,0.0023861614330496256,-0.013172485797834534,0.008988006386685336
979,-0.019191638426667827,-0.001481459243820313,-0.0008086963929547095,-0.013336044765497107,0.006931038963237124
980,-0.02065783830776761,-0.0046201730861846705,-0.003594736469965466,-0.013982664100471854,0.006291947459091982
981,-0.019830496950485006,-0.005961959823330373,-0.005166516527145655,-0.01433742925005749,0.00704525218231195
982,-0.01706824219609407,-0.005981382195197815,-0.005606455135171943,-0.01459763497721818,0.008117838970353872
983,-0.013773808683129886,-0.005368839423521282,-0.005284401260305499,-0.015039350975658066,0.008850010127901143
984,-0.0101967830731018,-0.0033897086904882243,-0.0038198403322815145,-0.01463827787144652,0.01059971172132118
985,-0.00679619542966308,-0.0005460143346720885,-0.0016320846346873032,-0.01320460406793101,0.014457169244797213
986,-0.004926155394440323,0.0014021037131772818,1.6713460093902685e-05,-0.011566570281665979,0.019173342291260307
987,-0.0051903364686289675,0.001968493382510681,0.0007838119501992017,-0.010113234090219657,0.022146051047794827
988,-0.0064903969851530545,0.0022006657568018908,0.001328243802648532,-0.008375815597524133,0.021326457249209962
989,-0.007726711344813706,0.003231933388134947,0.0015627116088970095,-0.006296519201578559,0.016567958022136127
990,-0.008916266082001741,0.0048280037239770085,0.0006512885631799393,-0.004807420202303769,0.009966766140345874
991,-0.009425032568276284,0.0061451109655349286,-0.0008186356538506874,-0.004019978247054152,0.005724098935186966
992,-0.008366395201147132,0.006461667542039653,-0.0017097462091384414,-0.00349310034850411,0.0058220220901124475
993,-0.006110544188977456,0.005236036646448487,-0.0020644740069280707,-0.0032456552136675065,0.007165531349160656
994,-0.003122523915361339,0.0032159905533623917,-0.0018983269572850248,-0.002564088841981368,0.006822103146801119
995,0.00020761488902497084,0.0019819245637866323,-0.0009880653569797914,-0.0009892755690616409,0.005709546178594199
996,0.002433219982489792,0.0019061320751669558,0.00012851958825681588,0.0002640753614249279,0.005486954436967585
997,0.0021679498555680697,0.001856524367035013,0.0006580985882530995,0.00012859200226076728,0.005514289871990424
998,-0.00022621374236461944,0.0007880028103328287,0.00019747492930721638,-0.0011465146602907198,0.004149148990368476
999,-0.002960397200813283,-0.0008588673423954742,-0.00104617972432492,-0.0024550173811130815,0.0015391395933731053
