,AF3,AF4,Fp1,AF7,AF8
0,-0.011755070681020552,0.0053747493660562026,-0.00346539156215779,-0.008672931315405037,-0.011025313067967937
1,-0.013595975236675809,0.0028822089207778926,-0.001818838946109875,-0.007527855827002715,-0.014392150093379342
2,-0.016433974990890058,-0.00010939882909099768,0.0011561222226204343,-0.005127991871268679,-0.016060128055149496
3,-0.019167928226122958,-0.0041783895218099245,0.003373827383859356,-0.003425876006058482,-0.01706280093028421
4,-0.020561986623026333,-0.00554733627832433,0.003912714016846553,-0.004601206881463234,-0.017866523035702832
5,-0.0196327572310343,-0.0016587554631746792,0.003866330214221831,-0.008877983915291394,-0.018447961144560012
6,-0.01606120036655402,0.004129951862838087,0.004782508826050489,-0.013454165731973408,-0.016841246172091092
7,-0.011515623622116038,0.007776339998742175,0.007188313386162802,-0.014644180539337531,-0.009947707863908264
8,-0.009246850844858547,0.009274420446528974,0.011062947881604729,-0.01178277797289838,0.0006690193767999108
9,-0.010712136825881985,0.009891179170143845,0.015384851090677257,-0.007576102781819722,0.00725877830470018
10,-0.013606673615669734,0.009585702928305757,0.017696890476711462,-0.005175062532562799,0.0046095786059016635
11,-0.015289447576862163,0.008013800662059605,0.016522491643416036,-0.006247489413724794,-0.003409473538538577
12,-0.01626283933753979,0.0046540943278640615,0.013031453578743257,-0.0101755450676537,-0.009908376080673882
13,-0.01793086702479432,9.21264645162543e-05,0.009732976332494005,-0.014456502221896313,-0.01228617041160063
14,-0.02062414351988135,-0.0037350880018779484,0.007510719084546035,-0.018035364710145534,-0.012459794269288586
15,-0.02363709955952586,-0.005823487067630176,0.0055255399731809155,-0.021363289803010888,-0.013108003546718788
16,-0.02550403892357161,-0.006256440591508756,0.0038297424838475533,-0.0241084075641779,-0.014581182523121381
17,-0.025431151202261505,-0.005148684976412241,0.0036237435545081165,-0.025541383739715,-0.01531482687382228
18,-0.024010385451542205,-0.0029945856571184436,0.005113935464314627,-0.025357684459242545,-0.013878758809304774
19,-0.022259353476901965,-0.0009747862327455286,0.007073815435588123,-0.02392012057409365,-0.00994949676208286
20,-0.02143371303880724,-0.0007503838483442558,0.008033412675100769,-0.02243875682705487,-0.0052085737530218465
21,-0.022651375469311372,-0.002962765035135711,0.007006215968182769,-0.0225721456030267,-0.0026227544961019557
22,-0.025129389104502967,-0.00612328805819903,0.004455475447093164,-0.02429762503161403,-0.002916720066037163
23,-0.027188936926147652,-0.009282777747268916,0.001822044861507083,-0.02563762377164694,-0.003742356102497473
24,-0.028008867958889447,-0.012394885421856877,5.5118526683250476e-05,-0.02458182139833796,-0.0014824559516788895
25,-0.02737117426201978,-0.01445923656727944,-0.00034938090038630045,-0.020508439784531884,0.005303366910855881
26,-0.02590620816422254,-0.015609772695457987,0.00025590865366274015,-0.015616023036805177,0.012177812929865249
27,-0.024492333106392747,-0.017173772282099268,0.0001612371911177908,-0.013537460003884222,0.012644774543855654
28,-0.023411947949534682,-0.018933263905737407,-0.001707281531122042,-0.0152000784813589,0.005736610152950417
29,-0.022048561269755268,-0.019003258613883512,-0.003445532960736857,-0.017242279488372793,-0.0038617487163019396
30,-0.01952172983765557,-0.01715403319353005,-0.0028513383394261375,-0.01653529463208938,-0.011401088355727505
31,-0.016043924829968716,-0.016330465603788875,-0.0009817739917544802,-0.01431034954788775,-0.014400265909741397
32,-0.01221116391452891,-0.018754662341461274,-0.0002653329705936286,-0.013254360527675379,-0.013010669427496272
33,-0.008497968057547496,-0.022588305086009463,-0.0014396903329646881,-0.014168988009685378,-0.010626635084708692
34,-0.006578021638893532,-0.024705208247510532,-0.0036148598507615465,-0.017022751691264226,-0.011221388715504786
35,-0.007956122920927462,-0.02495362755553772,-0.005417084911079378,-0.021343148998008994,-0.013864742834864602
36,-0.011524654384057333,-0.024726827054853056,-0.005589686864820065,-0.02524455734446003,-0.013774300918762111
37,-0.014922291094533916,-0.024188017228579474,-0.004060777465715079,-0.026258422527975576,-0.010596125812915793
38,-0.017462132896810652,-0.02325931526306132,-0.0024863782578287844,-0.024331756066129615,-0.008280844960432628
39,-0.019989048147931496,-0.022593438592184285,-0.002704830228684096,-0.023007975853179857,-0.008575670696941434
40,-0.022737041338496522,-0.022772231040137914,-0.004849704238086819,-0.025291619724902917,-0.010883459481145764
41,-0.02462174596028716,-0.023308167673510582,-0.007475540743242756,-0.029839603069842516,-0.013854249974961185
42,-0.024129820802344337,-0.022609663034107195,-0.009342980040457595,-0.033179804291032663,-0.014845489900737443
43,-0.020861231311543816,-0.01990350812750858,-0.010089314520537946,-0.033261609187494795,-0.012383847569912865
44,-0.01626193596436541,-0.016463285829022057,-0.009241005481961719,-0.029643926355970695,-0.00807356355127978
45,-0.013238754581140868,-0.014184543269448149,-0.006889564414055193,-0.024320838181311942,-0.003724802729206816
46,-0.012877184545976075,-0.013918738635502319,-0.004354655603125431,-0.020714587813973284,0.0005624559780957274
47,-0.01269975308761878,-0.014953860263773077,-0.002900038859684011,-0.019561454246472758,0.005041099503514965
48,-0.011811470197299933,-0.01616393946680636,-0.003253165862129634,-0.01930463819249033,0.00887123667697123
49,-0.012806098791239276,-0.01778736721585547,-0.0054063628121897404,-0.019123070248913004,0.010331245465871594
50,-0.015832875540308076,-0.019187024232060187,-0.007128734355886378,-0.018473334300014292,0.009903138027373196
51,-0.018998667134882404,-0.01896499384927978,-0.0066283212250840065,-0.017465463627344382,0.010169461086484793
52,-0.022442163823356447,-0.017396714191227743,-0.00530538918994725,-0.017549774545165566,0.012404188370128697
53,-0.025489178823657963,-0.014129210701681997,-0.004114152695972815,-0.0186564264596403,0.01626547868577582
54,-0.02645711901265877,-0.009531843098866165,-0.0031106666501339343,-0.019278112138071516,0.01994905031301005
55,-0.025419828331787103,-0.006714329587716782,-0.0034830737793079547,-0.01871971395451307,0.021151483797404117
56,-0.02344203690673575,-0.007567476198698139,-0.005775732669650263,-0.01711944305007567,0.018673450920921885
57,-0.021425225136151388,-0.010861039834764406,-0.008571514603162177,-0.015005947020443272,0.013016362783103726
58,-0.019757237788680854,-0.014063288108623723,-0.0098882914920234,-0.012868342498090017,0.007326301085414316
59,-0.019430899274003925,-0.015833730778464037,-0.0099411021978223,-0.01238834933110138,0.003832439846755713
60,-0.02152926420664638,-0.016944215933672235,-0.011005982928274136,-0.016282869128939295,0.0010203323187628196
61,-0.023882892070824346,-0.017970017418220265,-0.013688099009087922,-0.024120538274539565,-0.0007201768592778267
62,-0.023113101895333377,-0.018538892673574173,-0.016075269522858992,-0.03146479753488469,0.0009291347851653727
63,-0.019695107431865002,-0.018741243882348983,-0.016507017499098296,-0.0337067314909643,0.0037450565351522403
64,-0.016496839092091486,-0.01873434778223479,-0.01492620581901661,-0.030377114410579026,0.003554100069215219
65,-0.014571642064218605,-0.01769954632723658,-0.012269678444548461,-0.026159523434706983,0.0012323717943131982
66,-0.013551825294793693,-0.01510274988151571,-0.009675112587853113,-0.02557871536243985,0.0007655351390261539
67,-0.012815906699386237,-0.010821404424599603,-0.007271875163762497,-0.027986836670001552,0.0030860746281036002
68,-0.011753516694540878,-0.004489123113863115,-0.0050033862127494754,-0.030392382886998845,0.006812834108823135
69,-0.010528158838451934,0.0014834834972526454,-0.003749947941219744,-0.03159986783658335,0.010780094855147969
70,-0.00879932163873032,0.00255892591499521,-0.0037251530016441997,-0.031076649931953693,0.012675385567116658
71,-0.005868433565156343,-0.001943489510973462,-0.0036257779046955972,-0.027978802291579327,0.010953861964406038
72,-0.003263210552588527,-0.008540681531592263,-0.0018377011671712584,-0.02234079350990701,0.00769056616393824
73,-0.0036372201494811983,-0.014409139687964277,0.0015801099845691867,-0.01546361634100874,0.005492091172465663
74,-0.006947681519128307,-0.01784256236969649,0.005724045734876427,-0.008856885348244197,0.005350826479556944
75,-0.011272263278816742,-0.016899755365502225,0.010190615954061127,-0.003514206474612568,0.007019511549116083
76,-0.01605110120264121,-0.011546203465509311,0.012838126051938004,-0.001148846522228522,0.008464679386819296
77,-0.021312967883745836,-0.004394853748926998,0.011109246301797413,-0.0032947339910117056,0.007767404889091359
78,-0.025799725043706048,0.0007748601877557815,0.006127009267340343,-0.008596370923240582,0.006083839841513712
79,-0.027172563055600684,0.000979361928686583,0.0014889879302725768,-0.013238301133688936,0.0074137091762821695
80,-0.02438822020330012,-0.0017327164105479383,-0.000846057750873798,-0.014641341381847334,0.014091878039295132
81,-0.01926801535211575,-0.0011739598435787746,-0.0014463921456944488,-0.013717021821839029,0.021986873086876253
82,-0.014014696097303636,0.0037734611178494378,-0.0009623703192166458,-0.011804592715126782,0.02518596635493056
83,-0.009857388633980132,0.006845551787888932,8.465856811481923e-05,-0.009042055566585022,0.023139805213559548
84,-0.007826122864674781,0.004188850525523837,0.0005341930233128016,-0.006043093239886977,0.018540833930052496
85,-0.008833904271500895,-0.0016500238893549105,-0.0003496673664804672,-0.00423482759413159,0.012632299159672046
86,-0.012336160753283113,-0.0063406680569415815,-0.0019028733271765315,-0.0040788871963259345,0.006217557746739797
87,-0.01541339175382081,-0.0070593144706295585,-0.0026644991176226745,-0.0037577512192981674,0.0018953448502543949
88,-0.015897009061527273,-0.004861696731471136,-0.0022750086151269167,-0.0019578160355906283,0.0013145348518989039
89,-0.014247482893215502,-0.0029853699144175784,-0.0013135553295347837,0.0008252593358782122,0.004273819735377816
90,-0.011748224301481964,-0.002897136582041776,-0.0004303263509656073,0.0039015875289226377,0.009572269887898806
91,-0.00918781961261012,-0.0037981149586171167,-0.00045539748748425215,0.006135866632597277,0.01407118485411747
92,-0.006810913406940543,-0.004352451509800516,-0.001785926534025756,0.006501213045467187,0.014821262830579923
93,-0.004140837204847615,-0.0041391475955920645,-0.003394266472055785,0.006218004070540257,0.01245048644273713
94,-0.0005859135029681026,-0.0032089455011454666,-0.0035801068791611514,0.00756013832421709,0.010202452092386328
95,0.0029698322281997117,-0.001656065803014115,-0.002370362518588361,0.009750479568905998,0.009745444448420097
96,0.006010852174106647,0.0007209244345806984,-0.0007627722667673954,0.010031679534129976,0.010597844876725717
97,0.008803521581103162,0.003970162724624542,0.0007861613801505056,0.007718176173337603,0.012443503668324057
98,0.009316137421067782,0.006522937028549825,0.000977033476763817,0.0037451355137341187,0.014676017826107812
99,0.005473991556214668,0.006885683187233615,-0.001685751929400796,-0.000740277581124823,0.015920150470325273
100,-0.000930368289052051,0.0059078502118722395,-0.006041943435322453,-0.004195155987457601,0.01666134655308352
101,-0.00549838177721003,0.005642444403018595,-0.008605314411454732,-0.00474875211968873,0.018749920002262912
102,-0.005872596094167618,0.006842171833382086,-0.007527730439812703,-0.0019124099270120918,0.021328583130634807
103,-0.003912303821003088,0.008271409660045853,-0.004231280136527907,0.002651868718057529,0.021449633174342255
104,-0.002207063419465858,0.009363286005875302,-0.0008982169252268672,0.006705994914008983,0.01866350969978059
105,-0.0012719724057282521,0.011213446389934044,0.0013402837404641393,0.008424716674017459,0.015944178133790034
106,0.0003448272892201592,0.014942712819949657,0.0031071287973088125,0.008234147709083199,0.016549120754958995
107,0.0036166431531308094,0.01939124272758737,0.005261748635169821,0.007773049040624701,0.02050356417179497
108,0.007260455457471751,0.020940619815393954,0.006883987099287492,0.007041096109500864,0.02495654070648798
109,0.010729084742604953,0.01920381635958735,0.00799167177436071,0.006993456156540946,0.028822969841553782
110,0.014253576073696594,0.01715602214709256,0.009303611480205004,0.008970555241733473,0.03189856184092298
111,0.01691456735714267,0.015292155752183161,0.009516582288375403,0.011444434842399147,0.03119900105040294
112,0.018189239767692822,0.01295341293912408,0.007902881176487572,0.012834434758988595,0.02521354941543137
113,0.01855909501732122,0.011972203381591828,0.006001697229518707,0.013753344792486105,0.0180654674499653
114,0.01819560122447662,0.013990889269870433,0.005057545218756445,0.015219677510525898,0.014058789011046813
115,0.017378835448278857,0.018334141637605945,0.0050109307905856085,0.017822375739568477,0.012937553186352464
116,0.016533680470099593,0.023619405245273294,0.004951653102112556,0.02105377512171337,0.012033012261938465
117,0.015456026117618184,0.028850205160229677,0.0043426586093338335,0.024180022848686516,0.009567864565283933
118,0.01448681592120776,0.03371182817133144,0.004011908921243456,0.027422485492590378,0.007283056306091806
119,0.01366389164364583,0.0374681628187476,0.004209451918313212,0.02930358304419548,0.00915802235536564
120,0.012336997564702624,0.03861591794980087,0.004606883446995518,0.028249468403126046,0.015815967975276568
121,0.011123749738709436,0.036100519289500234,0.005213783633275119,0.025825635716311576,0.022125479427450235
122,0.011495131789045683,0.031067066662668556,0.0066148707247014075,0.024288907324787657,0.023416920550526715
123,0.013392119831863596,0.025912597791601277,0.009093087310909489,0.023935693897299493,0.020429178692182012
124,0.016077710382503052,0.022368726084256694,0.011776059015492715,0.024329499934534638,0.016971169603558833
125,0.02010305220502292,0.021685236911321824,0.014507454960928904,0.0257909467553996,0.015951110114732294
126,0.024947397141153696,0.023343470127307333,0.016954502275710295,0.02762101391477146,0.01772002682527352
127,0.028955426290448626,0.025208215058484872,0.018172068455180778,0.028795407237252917,0.02109876276016473
128,0.03127555766660148,0.02504422775591906,0.01809968230558879,0.02894596233107153,0.022561131103410004
129,0.031415791009520605,0.021865085970675376,0.016719301686077544,0.026825128354986495,0.018255339670383168
130,0.030610334255108756,0.017542437729932456,0.014147806877998928,0.022419064433447176,0.010268592741978139
131,0.03064828471961198,0.014122644468300121,0.010954112195437592,0.01713047969757446,0.0042980977777190045
132,0.03012729090948939,0.011487202970058577,0.007326925887163651,0.011683654817699009,0.0017045019968696482
133,0.0276159384157891,0.010044700152195551,0.0036882067277945194,0.008415032203105893,0.0013898725688420621
134,0.025285036235757227,0.010018403682983127,0.0008337876721831849,0.010196163795409493,0.004094681718904153
135,0.025523058287428395,0.010285922647321723,-0.0006345791102792356,0.01550115802600543,0.008582834024014089
136,0.027823505038983582,0.01124699428561309,0.0004909570811886593,0.020236843227050317,0.010441877766176241
137,0.029568097363798354,0.013152003572627052,0.004466414639722265,0.02193188590793035,0.007824552143656472
138,0.028777696670828957,0.01362885565618187,0.009243066438079485,0.020893614464060205,0.0037219958492596614
139,0.02603689045422948,0.010456687665463314,0.01305381668124972,0.01883779919664341,0.001849883848202909
140,0.023862205409082037,0.004379494909408645,0.015361585309979095,0.016198631363224757,0.003189635034569949
141,0.024968225077305124,-0.00137544519879368,0.016741645171718205,0.014031072470127907,0.006269750345809644
142,0.029039348268540644,-0.0044157442737909605,0.018217681225241852,0.014012028669432141,0.008384960113596011
143,0.032434038262003834,-0.005244875693091794,0.019356637034551327,0.015394388566069997,0.007366185387654772
144,0.03292096131286379,-0.004887656864515438,0.019143202451480032,0.01684112239804415,0.003702606248035254
145,0.03195489874205022,-0.0025550696278782664,0.01815810261136314,0.018138953757171988,0.00014464888712256477
146,0.03177241376070905,0.002692362237649543,0.017939521708063767,0.018990967856876477,-0.001122106398115083
147,0.03185176584027132,0.009957397930047815,0.018616666348078074,0.018327396504627808,-0.00018497288131998608
148,0.030912370871897583,0.0174001674580129,0.019512040683184382,0.01656785185766934,0.0017348715882266926
149,0.02901625418637268,0.022696778626560242,0.0199832670225319,0.015325184469991064,0.002720512587339588
150,0.02594983846390373,0.024433941859990125,0.019383260616265423,0.01482049224628884,0.001438111956245747
151,0.0225399695860327,0.02432986813833463,0.017875295232735088,0.015089858384220214,-0.00022557791676864887
152,0.020415157191242386,0.025078475633371324,0.01590733861995705,0.015941312163531875,0.0013795613122748011
153,0.01911407698723656,0.027242075246012375,0.014357387255656153,0.016857183498676164,0.007421309496050949
154,0.017705001008610267,0.0289561506644602,0.013989303879794288,0.018300851887084718,0.014751923199483003
155,0.016697618459481953,0.02793495035384385,0.014005415553422721,0.020096219051593325,0.018279308499191117
156,0.01689837880083259,0.024646208820629022,0.013770049017284288,0.021198663191026475,0.015848194909166922
157,0.018209841862030233,0.021395413913289956,0.013859043688802947,0.021968578992038995,0.009372735157830972
158,0.019316326668438515,0.018316115756307216,0.013709544243623716,0.02264319835541572,0.0012144060133766246
159,0.019038015348239113,0.013970466597540305,0.011816731333394908,0.02170557541501274,-0.006809139309349528
160,0.018446592057954004,0.009407915043359012,0.009383657991669424,0.019358360135753042,-0.012063980000413923
161,0.019151423179550577,0.007973171070050397,0.008847946680771858,0.017559371110017968,-0.01265366451422355
162,0.01982167658814707,0.010554847843570012,0.009255393179490414,0.015914124932838166,-0.00966558006034078
163,0.019160574798799346,0.01560525212150263,0.008318641164284995,0.013504602629174491,-0.003973117892360611
164,0.017857219839151575,0.02125594736517295,0.00575392938611501,0.010687823069000157,0.0036427560346961054
165,0.015963640563656952,0.025614381668634268,0.0027653848331677306,0.00731418236889168,0.008852027004226954
166,0.01396521477296885,0.028700845174333238,0.0010502356449874622,0.0037642373970971288,0.008761485568275525
167,0.01280761330636373,0.0312631191681636,0.0011821371027171332,0.0009260429111765407,0.005883398512358945
168,0.012074124462479095,0.032705100092651644,0.002823098737542077,-0.00045144300517841536,0.004057638457306289
169,0.011258030625095415,0.032788174551756734,0.0062571844839217185,0.0009350697366209787,0.004807461466238758
170,0.0097458956786053,0.031559866032700085,0.010071116671807781,0.003996374504647898,0.0072495994921483
171,0.006778405686806494,0.02793813518645065,0.011218619706387649,0.00513231395892965,0.0098550090592158
172,0.0032677336033237955,0.022274566284097352,0.009554019198965454,0.004025771142064162,0.01167657420893309
173,0.00031138313493600013,0.017743855213454122,0.007137251808975722,0.0030334951187984778,0.011701325083991828
174,-0.0021696149930229953,0.016245613431595682,0.0051551586815828405,0.0027263963865133737,0.009436376267149858
175,-0.004509039325724043,0.015623540621270653,0.003532716014921375,0.002140891418028894,0.005249768958147918
176,-0.0068954206171533755,0.012781337591071973,0.0014070558989992632,0.000533644842280068,-0.0004188112869843095
177,-0.009008734990031192,0.007193721252753699,-0.0016027470654618695,-0.0015429863988954437,-0.0074096624945969546
178,-0.009529829886829117,0.0016814279620896073,-0.004231096468466636,-0.001996658856284184,-0.015142988532219554
179,-0.007281746963621341,9.92295589400491e-05,-0.004288012301639343,0.0011845714848358999,-0.020871167289939378
180,-0.003492895318957187,0.002818600251600334,-0.001608025123419478,0.0069466860167928645,-0.022277314703737228
181,-0.0002802499566377877,0.007174282532415671,0.001646437696300046,0.0119028683466066,-0.01974345953432983
182,0.0011650084782700145,0.010288323117308174,0.003530154010245128,0.013562519802303002,-0.014888571349557964
183,0.0009652810519963322,0.010298878577858675,0.004105236473696057,0.012348485502599697,-0.010028745470261545
184,0.0006638358752025542,0.007466830985920083,0.005113294891385017,0.010777036238188412,-0.006505974411661354
185,0.0002756920492769143,0.0026777425144804525,0.006871617939115348,0.009284597346090566,-0.00442081732544765
186,-0.0011811619703864468,-0.0012139941637788702,0.008490137796436665,0.00734348013851477,-0.0022791391018662575
187,-0.0026728037857036437,0.0005008539662874706,0.010243911075969338,0.0065256370123197805,0.0016016018566631788
188,-0.0029596739316774547,0.0067052181897605855,0.011919193308142076,0.007599552032217058,0.003948667438684772
189,-0.0020101358255217986,0.011937497668707253,0.01228809664113148,0.008961887661097302,0.0015719416311962896
190,0.0005380152839725783,0.013930332096528537,0.011491348846188727,0.00894351116620385,-0.0022309314181123813
191,0.0047087248424947555,0.011940006905689849,0.010137221963413193,0.006990497790678645,-0.004200602447282409
192,0.009599979898880766,0.006826376577630776,0.008458650913332914,0.004719345190824235,-0.005229460042198938
193,0.014217282389358259,0.0028483456023887855,0.008221351402729516,0.005492123285707978,-0.006381985548322744
194,0.017140091998864296,0.0020580977384282973,0.010595458200910707,0.009695690697181184,-0.007748434562414136
195,0.017419517512894653,0.002460272217463513,0.01365264973775261,0.014170846398170076,-0.008906719843251313
196,0.01508141401225991,0.002133448911159617,0.015159876478279917,0.016611730731647317,-0.008876611660465224
197,0.010219187140685364,1.9081929069072962e-05,0.014714259600792395,0.016388047386992257,-0.0072898049102349495
198,0.004248675302257157,-0.004245441815102093,0.012877604547052527,0.013561396771055457,-0.004443857592588058
199,-0.00021185171834014227,-0.009493028617596355,0.009611082468349571,0.008331894844206149,-0.0019763833712966674
200,-0.0012230241943619524,-0.0130816136745873,0.00528650870651735,0.002051456039319341,-0.001312331135171782
201,0.0012932993315323284,-0.013892298928415717,0.0016849701891209694,-0.0022390466530166245,-0.0018319325138825152
202,0.00495091732654605,-0.013835515874601328,-0.0005880701545036392,-0.003114595207641023,-0.0028358735344930727
203,0.007058755028421574,-0.014067656124668936,-0.001991128770517695,-0.002437855825992982,-0.0038609261274544717
204,0.006114398285584463,-0.014650523993221403,-0.002872652027815857,-0.0030482749606473404,-0.005355967359274536
205,0.0013727969084495841,-0.015842052728535273,-0.004259978685693096,-0.005971837580525278,-0.00836558598628297
206,-0.0061658987053693146,-0.017484954572007678,-0.006276203682299899,-0.009780282780879309,-0.011788140969942918
207,-0.012527498412243444,-0.018440625644169862,-0.006452502251920251,-0.011513175996682857,-0.012574042613120555
208,-0.014412943764497687,-0.01865287108814547,-0.003675202433685727,-0.010155221627321777,-0.010298175734050258
209,-0.013027503174708749,-0.02111509676562646,-0.000921823322545107,-0.008383133614155033,-0.009236662393709674
210,-0.011276235077755244,-0.027458112680106946,-0.0010374853847834066,-0.008606210647012107,-0.012652009531923601
211,-0.010449567350066226,-0.035711755047999456,-0.004186529563921481,-0.011113034043236021,-0.01759579721478645
212,-0.010701186862426654,-0.043369645374147774,-0.009180354391327961,-0.015368021508647522,-0.019866194379980003
213,-0.011412903725105512,-0.047753486590005195,-0.013760552949052741,-0.01929647128629561,-0.020044005728131645
214,-0.010721624170357451,-0.04685544432228775,-0.015669843491310703,-0.01972654177351465,-0.020832580686695867
215,-0.007855678237495781,-0.04207919686806528,-0.014779971792886053,-0.016310925155249144,-0.022709739322886176
216,-0.004646673892501555,-0.03603709281013992,-0.012512156793284946,-0.012795712944833986,-0.023198414518882063
217,-0.0017265295373844233,-0.029310601320578448,-0.009437969184495971,-0.011631689061610112,-0.01931929555894546
218,0.0014316367378719853,-0.022643453889349904,-0.006200167641544491,-0.011708363333699892,-0.011662206277438115
219,0.002898573692547791,-0.0185230002537203,-0.0048698714371835,-0.012698253238620285,-0.004979251832659258
220,0.0018010284511499033,-0.01769486032266661,-0.005301565515027764,-0.014427935691729796,-0.0018914385384252387
221,0.0008321234765822686,-0.018479203022011417,-0.005090065061735991,-0.014938737285407958,-0.0005323041161300407
222,0.0020849644264437873,-0.019704892966995104,-0.004083131182316282,-0.01428779978625221,0.00037358705906069176
223,0.004586584588578933,-0.021451694949707046,-0.003995879487878697,-0.015097917150735012,1.0202673993634824e-05
224,0.00625408317542254,-0.023600737407049772,-0.005051723783670463,-0.017912454288322412,-0.0015129556778218567
225,0.005939283500774625,-0.025559992053505648,-0.005978509973190268,-0.02073234004357187,-0.0030664267470024726
226,0.004029380626928682,-0.02768202251135594,-0.006508325312736936,-0.022627730552613638,-0.0050310385792754295
227,0.0022809205431065316,-0.029776129442700937,-0.0072089624935147666,-0.023757743968554318,-0.007650915589272753
228,0.0019599620227018265,-0.029678759221770344,-0.007536149512294069,-0.02379338116540385,-0.008589831721918057
229,0.0023766480029580764,-0.02729660992485568,-0.0071941005421295575,-0.02298058389089821,-0.006584550260108286
230,0.002690155766638709,-0.025332619629223996,-0.006853198869567424,-0.021114481670773056,-0.003341620571627144
231,0.0026410848240472668,-0.02522702048935604,-0.006793994542472571,-0.017478721730971144,-8.686987857874955e-05
232,0.001113429665555971,-0.02756370457887685,-0.007028604128888218,-0.013919537573739956,0.0021445980280043893
233,-0.0025095740584108257,-0.03279501264605881,-0.007222162387611394,-0.01250863036688175,0.0011915124650670717
234,-0.005898868567759129,-0.038354839023827934,-0.006491607696217477,-0.011432193752736294,-0.002270743891020231
235,-0.006115190630817312,-0.040790298618266385,-0.004400594107269679,-0.008052207472493132,-0.0048361001291564116
236,-0.003438279999433245,-0.04010603752048966,-0.0018381978630924198,-0.0028268802565288016,-0.005595199944501428
237,-0.00035206190248580465,-0.03836599744759558,-0.00021668753722520426,0.002251559509866559,-0.005957561488064652
238,0.0012363141183540343,-0.03751268295644284,0.0003565454164729402,0.006065046733511775,-0.0069984642939793
239,0.0014492807894212997,-0.037622242918887626,0.0010658139806294761,0.008756983843064541,-0.009037191934192853
240,0.0013267437061274595,-0.036919926751709416,0.0022387427910088996,0.010368398040992061,-0.01164008861800119
241,0.0014213608584843693,-0.03432831336641844,0.003971030054752021,0.010996134359197994,-0.01311651437499426
242,0.0014630304144785777,-0.03102912050095436,0.006347251095859969,0.011029439299916902,-0.01261829619719164
243,0.000794909407341647,-0.029377606698482897,0.007889116622621166,0.010036384254117197,-0.012188115230072072
244,0.0004427300748439234,-0.029245770471633604,0.00803421383857252,0.008462766912761861,-0.012635370129791062
245,0.001956025495120918,-0.027973396263272474,0.008069726243028555,0.00788361795500457,-0.011380960651261603
246,0.0035928358095230436,-0.02533483871572509,0.00770402941325279,0.00756191826748143,-0.008257917612952345
247,0.0021616388957446764,-0.023887311237276783,0.005737758281201716,0.0056909683578286,-0.005414048021708492
248,-0.002005193833673595,-0.02416865898255709,0.003110161879758507,0.0033256734697924154,-0.0019901013008649083
249,-0.005985965373455702,-0.024629063106165736,0.0011854595625588181,0.002292101356188731,0.0021718844879261884
250,-0.007980697971500795,-0.024981745671732895,3.3901258008364334e-05,0.0028273988834575927,0.004382895236649805
251,-0.007707243827719433,-0.025352646064972853,-0.00019996693000960062,0.004726506089381376,0.004724104751052417
252,-0.004609598167768938,-0.02430065644348977,0.0014310981693576416,0.00764923375432265,0.0067723281220590965
253,0.0007458542703836367,-0.02218655821661978,0.004993194404878979,0.01068945657042926,0.011061143822988471
254,0.004421609949077579,-0.022630456193797773,0.00816990734322675,0.0128269513320402,0.013270912466567931
255,0.0037636394825339295,-0.026209358535442755,0.009590853427111292,0.014472299706446373,0.011971029239769873
256,0.00011041926652974646,-0.029824305811413952,0.010339609503311493,0.016212114680885025,0.010695012813871991
257,-0.0041615193642103535,-0.031701278929592666,0.010722453761563219,0.01689106484088907,0.0119426398848065
258,-0.006851176325931083,-0.03125499879813055,0.010129912528435543,0.01539624791095828,0.014825941685304557
259,-0.007252433692610737,-0.029211451124234827,0.008244023478055598,0.011937372330373681,0.01615546697212131
260,-0.006506082240570257,-0.027736479710870322,0.005578560469195435,0.007841955694005838,0.013773708107838591
261,-0.005069539288056149,-0.02838952174962405,0.0038119897494234725,0.004950162985126629,0.008450795589798485
262,-0.0014555362089346833,-0.03129967791574131,0.004060511521908583,0.004368763793242457,0.0020085593200135044
263,0.0045539107044643605,-0.03439039005099317,0.00561883126698314,0.005721499831026644,-0.0030102297911473496
264,0.009859479816527957,-0.034982090853361535,0.007300186711225435,0.007950924334693518,-0.003991520416703797
265,0.011759144057836832,-0.03309748632178226,0.008747161070033578,0.01036865732565711,-0.0009178120689007053
266,0.010017361157946613,-0.03089696566067247,0.01004487731024813,0.011965796425198056,0.003767183534330155
267,0.005333280841736,-0.03086091293503875,0.010672661880842541,0.011031009639435768,0.0073881277828222285
268,-0.0005567519444246247,-0.033984397865265845,0.010334413784991916,0.007425329630866952,0.009600332427171508
269,-0.005974665675746872,-0.03758752097124942,0.00922748672249584,0.002693437220306055,0.011480430653521716
270,-0.010512591848718479,-0.0368919042737111,0.0075106440625904965,-0.00199823184494315,0.012968280423468976
271,-0.013676750346712157,-0.03129598005594796,0.0061247067710104115,-0.005989119992979272,0.013172505916971888
272,-0.01493433314869184,-0.02580131138796046,0.005946341613432906,-0.008684695583660017,0.010923378111224798
273,-0.013704307052088291,-0.022951380571375978,0.007157533422661793,-0.009245493846633318,0.00743660782408776
274,-0.010384451526984003,-0.02099981547205857,0.009061266118512136,-0.007711177593722021,0.005455586680948546
275,-0.007508358444619315,-0.02030854953183791,0.010038334488014214,-0.005563715429997881,0.0046957173862451716
276,-0.007480930782189575,-0.023012627599202775,0.009002897994696127,-0.0043592474708681024,0.002842149945178857
277,-0.0103646747295243,-0.02828989936472314,0.006373392015172136,-0.004036458025506206,-0.0007580350844960998
278,-0.014212720151563801,-0.033513545949497486,0.0032335975881817485,-0.003772740439297111,-0.004318533740238504
279,-0.016899268518076938,-0.03752332064738164,0.0003196171721165291,-0.003824792249384989,-0.005561353360759143
280,-0.017312500938115538,-0.03978973906956347,-0.0017202877807588636,-0.0044110560343982586,-0.00281835294284388
281,-0.015657921330116568,-0.04020734788598404,-0.002875624612725972,-0.005580743795070736,0.0022461803226871625
282,-0.013074179805112858,-0.04018366443373802,-0.0039068913694111085,-0.007171958171600641,0.003763634657541034
283,-0.01031212058163974,-0.040356147460093264,-0.004283036005383289,-0.0075530621376872055,-0.0004066574631685357
284,-0.007459848808429614,-0.039205528590689216,-0.002499173964361173,-0.00505049336452276,-0.0051493589182974465
285,-0.005366518107108597,-0.036188382865778954,0.0009471141017697315,-0.0005822301399875076,-0.005815742214421825
286,-0.004732465683036438,-0.03247478092411915,0.004356951532054305,0.002783089055217273,-0.003026970878603789
287,-0.004032107247327697,-0.02842662882539358,0.007442073556010513,0.003119136605848731,0.0007324433034575079
288,-0.001986292308024008,-0.024539179295130838,0.01042646259714478,0.0011430508484522122,0.004213092635813725
289,0.00015019757787729303,-0.022104744346786945,0.012930162127428698,-0.0012278154299323741,0.006492300473171761
290,0.0010242685593553542,-0.020748073023965242,0.014681609916401097,-0.0025356172915356697,0.006533323220574636
291,0.0018056596549066775,-0.01794009298441883,0.016556586572850564,-0.0011261120709480346,0.00535170932131067
292,0.004404003450165253,-0.01318439546413474,0.01898094983394031,0.0030373917724326373,0.004903757499654508
293,0.008584692147461674,-0.009661710664273055,0.020350876787414287,0.006554769579873298,0.005464825902806224
294,0.013240756867606273,-0.00843395023196594,0.020259645137589207,0.008068217208524325,0.006293531571522643
295,0.01660528463534933,-0.007338090341021566,0.019809997867605324,0.009027438930581564,0.005774084004546682
296,0.016803874741020984,-0.0048445852406242594,0.019957406062908644,0.009855356538194303,0.0037428714615466477
297,0.014981723786850898,-0.0008964665447540443,0.021836314936477592,0.01058789675344322,0.0039287002778430604
298,0.013173707723978955,0.0023496117756534127,0.02418135259995453,0.010146730045087513,0.008709505486404708
299,0.011868286005135124,0.0031742843797065465,0.02458397665413907,0.006615826227347407,0.015199943517873541
300,0.012047092436481482,0.0036964839210149353,0.024081361286487392,0.0014531926422118382,0.0194003038899309
301,0.01465196907186044,0.005980596503361304,0.02491609709463255,-0.0012550960137545988,0.019826156894733122
302,0.018884440110805343,0.008158234244173732,0.026563630921118325,7.198122023858165e-06,0.017176037579950464
303,0.02278958037370502,0.008375325164924856,0.02724365524507842,0.0033671376513001706,0.014063926599791774
304,0.023393625664189153,0.00796872550347828,0.026945721909466296,0.006210473025082494,0.012260587068260631
305,0.019024558542937633,0.009005919255860433,0.025909042421906215,0.006420006866364706,0.010440488964148165
306,0.012550465932652046,0.012489194023270818,0.02326231555089406,0.003367638086617452,0.007951940284083739
307,0.008144158022884235,0.01716597362829599,0.01953841562594012,-0.0008546054505071687,0.005652253821870913
308,0.006348298564843232,0.02019677679176702,0.016598927471381687,-0.0034464140466758074,0.003560838030093206
309,0.004878500161415395,0.020305564560462494,0.014777338625167526,-0.004733953574354909,0.001330194088184536
310,0.0032731203261094147,0.018695326365571942,0.0133932262596195,-0.00637972444425769,0.0007389441994812648
311,0.003394069488805353,0.018193985191352825,0.012345961518847027,-0.00771534462391788,0.004011565872918688
312,0.005579798700902599,0.02032083893992933,0.011066816093452402,-0.007765279132792856,0.009638122971865105
313,0.008907121420870957,0.024717930029667445,0.00924149997105986,-0.006728428040226542,0.013779847983478298
314,0.012517717213513732,0.0307590304957568,0.007954110544659082,-0.005182807719763632,0.013687736647434915
315,0.015289561612788851,0.037219790059171004,0.008292791380490532,-0.004055991601339173,0.010365503841949062
316,0.016373316703537418,0.0410688489614634,0.009867726523297912,-0.004310412547407836,0.007393406831830181
317,0.01664192260317556,0.04013627591130659,0.012130608519712045,-0.0052320240938525725,0.007351991030005107
318,0.017720209631866105,0.03646043414403297,0.015172361840198987,-0.00471124228589496,0.00992082057362824
319,0.01937186421468507,0.032124919639179385,0.018038689076991035,-0.0022286932085204257,0.011760534702717049
320,0.02123020806902415,0.029702277807587416,0.019533067980100325,0.0009831527217011697,0.010395441934723295
321,0.02337567780701395,0.024219043671632117,0.01869468385283117,0.0028650392562322743,0.00661446710154118
322,0.02546379594546387,0.01950569192387994,0.01565734738610932,0.0030252576271241603,0.002073193393865309
323,0.027805451077231553,0.016730406059568284,0.012683660392990634,0.0038645012129115484,-0.002620822531607747
324,0.030866494528119678,0.015100371568963284,0.01131848051534965,0.006500997375234752,-0.0070980555595550965
325,0.03317020447998809,0.012897429106927623,0.010841823997341201,0.008942950586751394,-0.010106926287277319
326,0.03206415746932341,0.011488343793303052,0.010457689804502403,0.009757878287893486,-0.0101427080246121
327,0.02598754437254918,0.014480368280856347,0.009431167538112885,0.008588057652872913,-0.009134141826286706
328,0.015825257551702835,0.02106097830266361,0.006831373314387471,0.004171876181786595,-0.011037149648086317
329,0.006232692561755868,0.02601557024418953,0.003918717885856228,-0.0022872383388871454,-0.014600122214833079
330,0.0015323143457103405,0.02609835330789083,0.0020706148300551085,-0.007552841963424754,-0.016200953893362294
331,0.0015333245903709218,0.02253820537929965,0.0003476650460369227,-0.010797612950726652,-0.015067264047403115
332,0.0033835291466299436,0.01869472747101246,-0.0020932829604846832,-0.012987601789842176,-0.011875595683756762
333,0.00456587865939079,0.017481934930544382,-0.004106139266567759,-0.01431816068582244,-0.007437991713759742
334,0.0047168419027810455,0.0203125893306155,-0.004461286575490033,-0.014473296406976898,-0.002124573093735626
335,0.00564497542251968,0.02636862923365153,-0.0037796231138673615,-0.013603902645570265,0.0026611244470172357
336,0.00810803007960881,0.033032283600982225,-0.0029579001158174284,-0.011863350427373551,0.0046096582025394305
337,0.009126013712282065,0.03729286201427608,-0.0026076372228637044,-0.009836662042458772,0.0022716074059357006
338,0.005975933545951986,0.038103800793873696,-0.0034661207222694396,-0.008467245760213654,-0.004155595371304217
339,0.0009090982377519585,0.03750596281946881,-0.0050663035453675795,-0.00732199367772408,-0.011585783080312658
340,-0.0016478121652667328,0.03805976046691694,-0.005759878782595796,-0.004972489744003087,-0.015812953562746302
341,-0.0007678781453105775,0.04031476520999933,-0.005003885218696889,-0.002002283880344963,-0.015730346102775086
342,0.0012097670043944384,0.042841696686699945,-0.003742078337367148,-0.001234403840061898,-0.01450344570172651
343,0.003718903605912887,0.04409463943854035,-0.002643411900759959,-0.0034260232400176852,-0.014631474693624552
344,0.006972230369363606,0.04214678944175293,-0.003353178557178506,-0.0066953656943824465,-0.015239941162716906
345,0.009186378421671346,0.03600210088019191,-0.00749103434030681,-0.008992769031323919,-0.015752579359066925
346,0.010029939658357013,0.028868745295226792,-0.012009869497936997,-0.008293917031410584,-0.01676341221725359
347,0.010058078039495018,0.023593301730879524,-0.013328589202424204,-0.004344956323838584,-0.018822105552917457
348,0.00865977309920048,0.019703892308293915,-0.01244453338528426,0.0004384350687209255,-0.02154594453681738
349,0.0063343252907776156,0.017239407190727536,-0.011757695627144977,0.0026813806609129044,-0.023750822351851643
350,0.0039528716689501715,0.016937732324994778,-0.01278780565661221,0.0005084132833562542,-0.026104656438793023
351,0.0015202875233370039,0.018843513460569165,-0.015296332442058132,-0.004408340287121654,-0.029160064551889405
352,0.00027651576807121217,0.02271918419056633,-0.01677269028945619,-0.008323267408088758,-0.030586395835596348
353,0.0016123978032314846,0.02739483573799249,-0.016092436661029295,-0.009732534093831843,-0.02919740479880941
354,0.004035498142740224,0.02982252593501097,-0.015690455659597174,-0.010288896171338017,-0.02656385497887574
355,0.005422411670692587,0.02736080697778727,-0.01772355139179096,-0.010596777389537147,-0.02408299511354783
356,0.006352865165200281,0.02229109788221578,-0.02072347579908073,-0.008974293985123703,-0.021600937475026397
357,0.007824422366643588,0.019396895851664864,-0.022115342244717884,-0.005627335359178345,-0.018842742798484368
358,0.008010288395282695,0.019889156796096954,-0.02190725919466403,-0.0037742674017896697,-0.015057789409125909
359,0.005203115637312988,0.022207052068264784,-0.02143697864699284,-0.00495187206886436,-0.009201601847368023
360,0.0009465917359724627,0.023843915776827332,-0.021519950014994557,-0.006921219212298115,-0.005438730488132358
361,-0.002186734610993981,0.022661761895561697,-0.022620715144492046,-0.007809847595770476,-0.00890208316178356
362,-0.0028472705258375344,0.019275134776886072,-0.023591471000711652,-0.008036919483151274,-0.016677631361960592
363,-0.001459835027830251,0.015601629429017877,-0.0224277485292772,-0.00790278738265537,-0.02236062375087859
364,0.000599727289557849,0.012816474775790171,-0.019634638985291688,-0.007166237858514907,-0.02337607403084434
365,0.0023346551864694485,0.011242990097106637,-0.01767587006302719,-0.006311580107421585,-0.020793523677896063
366,0.0035458779311466158,0.010898944717522263,-0.01748408619085702,-0.006192046269287368,-0.01715609549253982
367,0.005003435815010229,0.011921051341979762,-0.01766379100567947,-0.00624376991080949,-0.013761264512306312
368,0.006448017672654472,0.013035570939874957,-0.01723845092357974,-0.005230138141943057,-0.009128535284412943
369,0.006281390889268882,0.013513641718637266,-0.01700769103751308,-0.003411054233020129,-0.002634500045079926
370,0.004362201968712358,0.015529866348346506,-0.017708875529699766,-0.0021444488987524372,0.0017663350441052314
371,0.0019398149135428542,0.018922069265027125,-0.019295252581395122,-0.002316907695718135,-0.0011691242423989376
372,2.0843724438412972e-05,0.020698048210436408,-0.020872037703455103,-0.0030653050594494657,-0.009744474724493963
373,-0.0017882468217328676,0.019825784861562293,-0.02157484463817964,-0.0030542557071681874,-0.017094884482447135
374,-0.004295434581716054,0.017268437878144156,-0.021065117302948723,-0.0022797409434374026,-0.020132492519260334
375,-0.0068817388579782675,0.014496757185498638,-0.01886572240177926,-0.0011608875413076653,-0.019828173187772784
376,-0.009414965906595683,0.010992605359841989,-0.0168152712557468,-0.00042971870655555733,-0.01937882374889542
377,-0.01223212162214573,0.005734798190052709,-0.01744445202538173,3.3657586344260884e-05,-0.020534006482486357
378,-0.013736507718677383,0.001466169734712897,-0.0194264108992592,0.00182998143976549,-0.019600150159100896
379,-0.012738446420152708,0.002356168085200606,-0.02025474221665903,0.004390057472456291,-0.012444698970262812
380,-0.011042573733850721,0.00890526586600247,-0.019703903174281334,0.004669535266822748,-3.679360001640194e-05
381,-0.011100871170795607,0.016903722532133646,-0.018800877240758525,0.0018890250904015035,0.010882526698650617
382,-0.013494258675337273,0.02140900868759945,-0.01887708032422129,-0.0018757271788665696,0.01300023284835011
383,-0.01759433097812381,0.020663615892896624,-0.02102914176453308,-0.0055117606250023096,0.0057647526488006084
384,-0.022179158325739218,0.016643592156171644,-0.024734159911798736,-0.008741553969737553,-0.004654649497577945
385,-0.02552908511346148,0.01275279329249168,-0.027656925803181378,-0.009788985447859602,-0.010985748773605863
386,-0.0261388619654315,0.01142256941871783,-0.026764869020827052,-0.006153804827094051,-0.00952475558728961
387,-0.022801912731318787,0.014121673293301745,-0.02057100096309291,0.0019417759715532347,-0.001895379781075375
388,-0.015470241382076817,0.020174782634422458,-0.011226676762709773,0.01067031701417836,0.006392702172231208
389,-0.006738230501462291,0.026011113722351525,-0.002918730461831963,0.016318948294651667,0.010264241417136253
390,-0.0007124753051664121,0.0280627717564282,0.0011299792596974319,0.017509228547459482,0.00865201645248216
391,0.001158567647367167,0.026150809698664134,0.0004819189256196472,0.015789616115937228,0.004145261536955919
392,0.0011542333529572348,0.023296975384115508,-0.0028796431171006294,0.014114193923421302,-0.0003537318774094797
393,0.0008954898876519993,0.021401616677097553,-0.006943192284661034,0.012697695304595455,-0.004332670186300083
394,-0.0002987098941411295,0.01958641530041731,-0.010070142871099063,0.009802010518823906,-0.008323195928608645
395,-0.002677606927243081,0.017379473718010813,-0.011515121869708038,0.005654758672344107,-0.010451778054443663
396,-0.0048100807058129484,0.015899107151390444,-0.012126460453039951,0.0026657879704804705,-0.008317504454155026
397,-0.005406062190897757,0.015780456894644586,-0.01293532129692805,0.0023823105077598345,-0.0036781134491076866
398,-0.004517598731884253,0.017104059734684176,-0.014057270658480519,0.004199058861571083,-0.00039428035068189856
399,-0.0031621663747365787,0.020018318813493648,-0.01503799276591404,0.006262602000789324,0.0007961471270123774
400,-0.003070924288668631,0.023163181496373465,-0.015588695650665481,0.006783100792744433,0.002604176960580834
401,-0.004439960040286021,0.024651954530376653,-0.015189071569637017,0.006495516267277512,0.006526652444690861
402,-0.005876747857790503,0.02428626479735533,-0.013705732447281753,0.006419015140919751,0.010396759267879238
403,-0.00696075136388105,0.02283387453584434,-0.012224659520072798,0.005161780959914656,0.011714659022165598
404,-0.007110808431372427,0.02090058148145732,-0.011248207535224963,0.0028051295900514512,0.010336110839229343
405,-0.005833842272800595,0.018456587320156263,-0.010300527589937152,0.001131125618684345,0.0076964633857696755
406,-0.003985966734779526,0.015522206284739064,-0.009190829835156606,0.000947413673469472,0.005690946046188937
407,-0.0023440046400474133,0.012089399364481473,-0.007967961942068249,0.002287394568868696,0.005067084442606015
408,-0.000803045820800351,0.00816984405337743,-0.006717700224275999,0.004341926765759187,0.005522878674067585
409,0.0010450277552568356,0.00507805331633288,-0.005768072737725433,0.005749603320410919,0.008053400018588735
410,0.0030342229655341193,0.0034557360979954113,-0.005809403966463444,0.005308635769021287,0.013181621211540678
411,0.004809657092934591,0.0024685314849875353,-0.00656362436411002,0.003012635239889647,0.018558255136058785
412,0.005670042075463007,0.0016103034101006297,-0.006817484110752485,0.00032086689835192285,0.021608241275792747
413,0.004508842033350215,0.00018123330152914588,-0.0065776018855822575,-0.001394551166197411,0.021935153254355307
414,0.0014519101865342924,-0.002106281183186106,-0.0065672014306087465,-0.002205062924622051,0.02105834840502564
415,-0.001506758806603598,-0.0038504877952083016,-0.007103491593927524,-0.0030776716316958954,0.020111031732463286
416,-0.0013740234747248573,-0.0037739686508162875,-0.007839057608551579,-0.0035212860481265975,0.01813933213413148
417,0.0024221134643405947,-0.0029478944211257744,-0.008388916856665082,-0.0027652765618608,0.014723856238078228
418,0.005713225046142484,-0.0044852492960038804,-0.009171888722131,-0.00267802872612797,0.011211427234298592
419,0.005678010138803001,-0.008883271422229208,-0.008844814867375182,-0.00348783360950905,0.009335194041187279
420,0.0045027828994694775,-0.012775383796580135,-0.00587887391380434,-0.002254327611427019,0.010076121588189792
421,0.004025804753583982,-0.014078118905561782,-0.0023196650204998013,0.0019660758899219077,0.012907931748120077
422,0.0035105397334607106,-0.013633640895277337,-0.000670361799818038,0.007470496375734795,0.015878791967951927
423,0.00239312941565161,-0.012498237148916526,-0.0011603276081353032,0.011824096108488568,0.016313888720416354
424,0.0010626081755760568,-0.009812961910495516,-0.002848403108826553,0.013153579038793878,0.015826441678112892
425,-0.000310641006142798,-0.005009749474867763,-0.0044597275455114695,0.01183901195362408,0.02063758368065726
426,-0.0017256160864845761,-0.0011097113998487541,-0.004681783837089423,0.010571962637818138,0.03023983296930077
427,-0.0033456477254985273,-0.002436617400903971,-0.003614321609103614,0.0108706991247088,0.03560025529022646
428,-0.005710961789099599,-0.010643276285133044,-0.003084013839161345,0.011414884471360978,0.03227786202930595
429,-0.008149433254365021,-0.02148012285685858,-0.0034766590459918032,0.01153428538671982,0.024833295942414246
430,-0.009084265385408376,-0.026376610234550332,-0.0034040909770822365,0.011223906640511061,0.017957697715556147
431,-0.008148090813166817,-0.022913525178502668,-0.0028831467034087003,0.010082901780538198,0.011541103337184885
432,-0.0054068929829784495,-0.01774574457227788,-0.002597046793171498,0.009816318958795941,0.004404203835550182
433,-0.0019626256438410646,-0.01664257309002019,-0.002678808633070075,0.011286080950653093,-0.003050980791492473
434,-0.0015214261860702254,-0.019143998665614236,-0.004576668781974758,0.01077317860907408,-0.009863379835619515
435,-0.005757822484023183,-0.022110467601798908,-0.009652425732873107,0.0049736862643322294,-0.013958495669689304
436,-0.010643394579712114,-0.023502713119004752,-0.015396339147919654,-0.003538627705262059,-0.012856482211946173
437,-0.01192391557292517,-0.022892785090954566,-0.01777317985326859,-0.009474425154405337,-0.006921514961340128
438,-0.010480531674959076,-0.02070847921612877,-0.01716717755182591,-0.011191246296644964,0.0004681520607623197
439,-0.009149758017693427,-0.0182582368584875,-0.016806752018877522,-0.010395490787408937,0.004951241297883463
440,-0.009435533244966281,-0.01748364700494402,-0.01754259860277202,-0.008796564540133571,0.004446361369028526
441,-0.011989910483360806,-0.01866125600726242,-0.018026986447692232,-0.006794644355537912,0.001766663123742235
442,-0.015805490773741267,-0.019836193071861026,-0.017136184390318162,-0.0029238941705294038,0.00096669145215536
443,-0.019163714342989215,-0.019620559903558835,-0.015120255047398081,0.0033687943424784293,0.0028256418696394237
444,-0.021237615532008036,-0.018720230690156218,-0.012943741763640371,0.009566990940989485,0.00678462602389528
445,-0.022925631240016325,-0.020097666846543627,-0.01221098585526375,0.012346793396926044,0.010566492489643734
446,-0.026313066439618477,-0.024960828032755844,-0.013998184772328538,0.011003851525539727,0.010036778211950292
447,-0.03238010745792567,-0.029410647441557546,-0.017450464537001317,0.0072841992795385805,0.005291621566899229
448,-0.03692639240048777,-0.030288465380646192,-0.021272850817946987,0.0035051143058532097,0.0007438960783240642
449,-0.04367444887093808,-0.028568835549573627,-0.023615749782172298,0.0035732949072535547,0.0007125565762170307
450,-0.04533083176291964,-0.02524881806988088,-0.022619138502757707,0.0096423205341396,0.006482519718891315
451,-0.042035014289681434,-0.020689815684480983,-0.019334576499154318,0.017312462585761183,0.013548192944944273
452,-0.036576403493194486,-0.016677897711494256,-0.01644143158576687,0.021158922314079093,0.015623769502116885
453,-0.03465052898315941,-0.014831407942559207,-0.015319230106751854,0.02010989482510668,0.011853583698442218
454,-0.036420254402634085,-0.014289080217435116,-0.015374366594952633,0.015810608659604528,0.006938557964296832
455,-0.03664730917866724,-0.01360786428366045,-0.015264668161346258,0.01041417556105285,0.005254447122295662
456,-0.034743519464875805,-0.013414240979160167,-0.015016508637700916,0.005235825746798097,0.0069422082675148905
457,-0.030832060440797567,-0.013837943320266477,-0.014196706182735658,0.0026144901857283864,0.009471193344607151
458,-0.024313821218051552,-0.012912018358811799,-0.01151700362431727,0.004551578825048069,0.009712812433739193
459,-0.01685383411803535,-0.010021063915928458,-0.008048643810887745,0.008377594509324654,0.006092951652491057
460,-0.011004000953823553,-0.007060197593321332,-0.006002836228782966,0.010014766787823011,0.0011343816873736494
461,-0.005516665937565708,-0.005664901541669304,-0.005467333784096591,0.009850503506275943,-0.001097748969079273
462,0.00012502953099077438,-0.006408850956825011,-0.005976014953274797,0.010149246769305115,0.00016718884780851567
463,0.0038978252036420014,-0.008751757163542682,-0.008015959287815448,0.010114116828016363,0.0026015679351364105
464,0.0058067074216859695,-0.010878026515081686,-0.011631044698882423,0.007680754726569925,0.002080994026197781
465,0.00681351965573674,-0.011144333086262599,-0.015768380665970548,0.003172960731784927,-0.004472751957754041
466,0.008483956469931995,-0.00859757887476547,-0.018375715266278167,-0.0008230349126660299,-0.014192027938927966
467,0.011238452955923585,-0.004319270743311112,-0.01874060642171393,-0.003707607366785717,-0.021213764558503115
468,0.008404645810389471,-0.0011291454039370906,-0.017976032117086913,-0.007308817968190712,-0.023331052729103904
469,0.002482070433181673,-0.0008013847751998619,-0.01695982430396207,-0.011907183729911702,-0.02334726128077275
470,-0.0032628268449759698,-0.0028408986316680747,-0.01607063336419388,-0.015568943509001192,-0.02427710216703832
471,-0.008384399913041102,-0.004602824466112567,-0.014869017184738827,-0.0164708328676521,-0.024675658461421824
472,-0.00910176803859236,-0.0045736430437662325,-0.012294982127722584,-0.014649868758661075,-0.021568736822800774
473,-0.007960906396122373,-0.002864079943592039,-0.008104533202053722,-0.010971570772425143,-0.01353092213318092
474,-0.007593785262192276,0.003128192892742317,-0.003613046430704289,-0.005908639613562322,-0.0016990767177273434
475,-0.007868397738193703,0.014747753933632583,-0.00038213009900044955,-0.0002847411111400835,0.008646945406044581
476,-0.007770352166726703,0.025404161889153835,0.0004721313843333209,0.004061769984890855,0.01124459686349116
477,-0.009450458902060532,0.028190121751751982,-0.0013640007053630292,0.00596270008566107,0.005540611043833115
478,-0.013360270315462332,0.02365316213390497,-0.004927355610406234,0.005156209481684964,-0.0034946673007325802
479,-0.017987477261819262,0.015137107595913428,-0.00941353992646171,0.0011829240772171252,-0.012628233269669234
480,-0.022862429804687126,0.005863217770923433,-0.013364020121988817,-0.004209636522437075,-0.02065512065269329
481,-0.026026099005854522,-0.00120383740404048,-0.014682939897200386,-0.008096965805224425,-0.025636655639814734
482,-0.028199193748478544,-0.005607022069374382,-0.013991215108190165,-0.010549824705987835,-0.02683263591209033
483,-0.031238371811858876,-0.00836875365101221,-0.013635183728693602,-0.013414008799259828,-0.025503403339135446
484,-0.02968895352120061,-0.010020564312461705,-0.015014091904812244,-0.017346187894064356,-0.02460294711488642
485,-0.02579088360299378,-0.010782323797811296,-0.018648328236396464,-0.021961246853068748,-0.026254602349016123
486,-0.021087598721396456,-0.010019068299134374,-0.022858119189180442,-0.02618486383015691,-0.029271290091807962
487,-0.013358000445919588,-0.006924016512762741,-0.024734827761249852,-0.028112187657597744,-0.031175606291064945
488,-0.006462874857435905,-0.001596520774934604,-0.023448540020526647,-0.027120055093472043,-0.030306512572591534
489,-0.0016969060364114455,0.004676581552738599,-0.020364001728479388,-0.025366783382557167,-0.02755280136155021
490,0.0004107293305960039,0.008764692306306542,-0.017584249627252472,-0.024710874617010745,-0.025412178823846634
491,-0.0008199204004725426,0.00906407748658802,-0.016299020751362327,-0.024536232238291517,-0.02335881795238972
492,-0.0057648395896677945,0.00863196004106066,-0.015833439947065882,-0.02348906273763513,-0.01876544614823176
493,-0.010236496756295907,0.009898368305576668,-0.015102730834486577,-0.020742611712372294,-0.01310244807051793
494,-0.011320535522562321,0.011303267092057579,-0.014127788700003162,-0.017070876348975538,-0.010287448414098389
495,-0.00984493327293017,0.010776271262766916,-0.0143430887796944,-0.01497020262370148,-0.010450152908473674
496,-0.005756492716135291,0.007876892062229414,-0.017090987252408197,-0.015376151572317339,-0.011407509260471274
497,-0.0006132781217097084,0.004462259081886267,-0.020424468491147225,-0.01580594475009239,-0.011778291057505025
498,0.004449413609920576,0.002138786071578171,-0.02112845964113103,-0.014006892478216388,-0.011747617676312709
499,0.009212460325366876,0.00046750675057706726,-0.018512779642460966,-0.010804607382376461,-0.012855622290821355
500,0.011281191307815831,-0.0008668441822322312,-0.014047925050033435,-0.008234579455687525,-0.014937703313168722
501,0.011904679780746486,-0.0013920932816423159,-0.009593837922119826,-0.00652898431407747,-0.015396041083085628
502,0.012622987322587608,0.000594419488022,-0.005429222597698238,-0.0035137803518185493,-0.01307836733390533
503,0.012539777156733418,0.006109375403686854,-0.0011694246315437776,0.002007041042196041,-0.009924408463932456
504,0.011964880386927206,0.01270088536521742,0.002404779958586348,0.008024310935682281,-0.007436339686615735
505,0.010810470165572217,0.01666607511664308,0.004287766939411071,0.011486732474085552,-0.0047166853417865305
506,0.009884808367927758,0.016509080378067083,0.004765495430315703,0.011628381935996936,-0.0010186428563289864
507,0.01063582933265626,0.01374625064885586,0.005246502656511524,0.010490553731751328,0.0026210283367739673
508,0.013406342203719508,0.011003224357366436,0.0061719687159623796,0.009358619051224572,0.0044080156574132475
509,0.01602751937992256,0.010334975673559958,0.006907917582924387,0.008741291518156693,0.003437306312778719
510,0.018198455723560346,0.012638546708159505,0.007679020029361694,0.010543267130897406,0.0010523623718947316
511,0.020356839252463916,0.01619745552143496,0.008451923697074041,0.014125786029314552,-0.0002191219143168002
512,0.020212805182005772,0.018319149336872616,0.00799973157331934,0.016120921068882042,0.001026107649905058
513,0.017994425952026275,0.019057638707994096,0.006692969391597486,0.016390068476242754,0.004104195184551593
514,0.015625501686022763,0.019014205335780833,0.006239871545065047,0.016699613725367615,0.0060837008680708436
515,0.013497486915726418,0.015898715117029828,0.0070884582179237526,0.016755931089989604,0.005066248850042585
516,0.011396058370999005,0.00871598576076793,0.008901972414631771,0.016051110153888194,0.0036593866972844265
517,0.009372354467482111,0.003261540859193474,0.011267456540822679,0.015861420387554094,0.004771003253051497
518,0.007086521791419738,0.005397454380061204,0.013081552730419305,0.01708469211970314,0.005421582800151643
519,0.005695523325309548,0.011528700035745213,0.013569770732914639,0.018458897151794853,0.001958057391200191
520,0.008124484483128924,0.01461227736567768,0.013760125325609654,0.018722547512988276,-0.0020670589432732187
521,0.013019625975739512,0.012628053420177084,0.014101375218991947,0.017799453258774762,-0.002883346802592726
522,0.016081599786290316,0.007918562157527521,0.013954764004257358,0.0165520812445772,-0.0026718754250743683
523,0.015671909407556778,0.0036537682123847933,0.01382614750865343,0.015887174392081087,-0.0039596332889214846
524,0.01262837944395178,0.001309132908434024,0.014394980113447193,0.015163772162942029,-0.006905404827637889
525,0.008992593350184085,0.0008812647949069084,0.01471613854534452,0.013061374910607972,-0.009935904495106647
526,0.00593851476851519,0.0009981388797218422,0.012412530093198943,0.008653083948900608,-0.009756792450255476
527,0.004213337426387378,-2.1173764198397473e-05,0.007606538839844019,0.002849376922391581,-0.004863863110093339
528,0.0059331960532754075,-0.0018619622574692226,0.004549168682163991,-0.00011055208386887351,0.0012047924983473188
529,0.011851813379052022,-0.00286105849019104,0.006047685823138622,0.0029875942118478722,0.004304821606046839
530,0.01997896669899714,-0.0025156757825474793,0.010725060358455555,0.010283855593679322,0.005160999151770089
531,0.027302811956350724,-0.00239414550481324,0.015895900745960465,0.01796260695325016,0.006025897419965151
532,0.03087513356716453,-0.0045532568302912154,0.019384625156813252,0.023025454257799293,0.006594764668781269
533,0.029442347758042053,-0.008777342114875181,0.02004534616560671,0.023234435165011107,0.0060651377702858255
534,0.024650104054039453,-0.012684391208697203,0.01831901963575912,0.01903021890218525,0.004256557370843084
535,0.01995839133567733,-0.014810414056627145,0.01586057575501378,0.014038156044591434,0.0010839736880734036
536,0.01800423160954859,-0.014849346366261859,0.0142409142721907,0.010689937434879573,-0.0028547336791509537
537,0.019588916998727713,-0.012146852494004162,0.014828243754725846,0.009168813683091633,-0.00571790881551745
538,0.023674632765999258,-0.007478028205217144,0.01784802413772595,0.009585861911870955,-0.005915700901796154
539,0.02728456551603022,-0.0032121872748734556,0.021213748971642216,0.010970068227206723,-0.004230979172390991
540,0.027514450059355627,-0.0006570539392609178,0.022359709084801845,0.01085240886594531,-0.002686621177519587
541,0.02468636665032132,0.0003976922026356941,0.020935985861396732,0.008346427832169425,-0.0022049277910735016
542,0.02262490420636667,0.0017652870701078767,0.019557458107011347,0.006163157597888066,-0.0012901671964518223
543,0.023306464383929942,0.00490044178756302,0.020035634588273746,0.0060305461037825315,0.0014283707075541147
544,0.024641277750328292,0.009301276965963685,0.02164669951600753,0.006441440129262994,0.004658997126880637
545,0.02457622803845711,0.01390540504494914,0.023836727088501392,0.006566996209390733,0.007292660004055433
546,0.022456246446721746,0.01730420154067241,0.025510936147579565,0.006061914541295937,0.00973863765669706
547,0.019237726068530595,0.018709984471312887,0.025242096885890023,0.004603687628936632,0.012085486938283074
548,0.016900513688558133,0.018379153318725243,0.02352338338925491,0.002919375504814087,0.014299934157683266
549,0.015869255455122213,0.01628768441501636,0.02102635524811803,0.001271119226549983,0.016808783583379547
550,0.015302863111122425,0.012800761187373508,0.01769366496617843,-0.000691029976559926,0.018504877578933033
551,0.014398492257249668,0.009481573797863081,0.014407092079971281,-0.003113932902135565,0.017671040307660556
552,0.012531584395088226,0.0074149087072551,0.012232772334240576,-0.0060427983048459925,0.015624211649447078
553,0.009736216567289478,0.006415347535765813,0.01100804233303671,-0.00952129262320588,0.015579256010286887
554,0.0070097290543700164,0.006285249168529383,0.010202745747047904,-0.013280365550238376,0.01821041956021163
555,0.005376986234501244,0.00699866175015205,0.009547833674514441,-0.016871275494046063,0.020602906882274334
556,0.005330454507497791,0.007841967131182672,0.009259776127043599,-0.019515816144641228,0.02031317917581949
557,0.006705093075646124,0.007464971362364712,0.010181393367959939,-0.02057177100828757,0.01801388149624517
558,0.008721386633479817,0.005181111102995299,0.012639092377864697,-0.020442416957491633,0.015333255405819243
559,0.01095930458724867,0.0023291878551741883,0.015600896763081263,-0.01901227669798748,0.012951454162741932
560,0.013050701272736432,0.001708430484462732,0.01754577304740314,-0.015378128595474638,0.011387110758185083
561,0.014013605646504905,0.004979399294646383,0.017667054501997972,-0.010718515836818729,0.011782869391311535
562,0.013152678897970995,0.010735505686154534,0.01516700480597175,-0.008799966816175977,0.013855869513012568
563,0.010730636557323292,0.015675501643144747,0.00974224525665537,-0.011213529760986139,0.014945073611485733
564,0.007702751711478488,0.018139691991991665,0.00338079406254853,-0.015001418223209637,0.014065298545953776
565,0.004983084340080647,0.0182088408591576,-0.0013638525045434552,-0.017018117162844,0.012707221637168033
566,0.0032249286531316323,0.01590296028471878,-0.0028583561032947016,-0.016189765926733993,0.011327160690018684
567,0.002500339986134966,0.012388926402989919,-0.0007630066886286794,-0.013455131024529445,0.009774608796207439
568,0.002285662773814472,0.009962756374370907,0.0034584485172929847,-0.011563343355321627,0.00982374604227381
569,0.0015524599666904182,0.00863238096855589,0.007402048092500375,-0.012733654079097528,0.011730296178020351
570,-0.0001724141134886195,0.006756060601933814,0.009669396188894229,-0.016188823053343855,0.012535086224218754
571,-0.0011750050165488229,0.004913682801799172,0.011107281399237674,-0.0187728744107873,0.011788046284765957
572,0.0003175397452562596,0.003859892139068882,0.012398286872781163,-0.019310055013114284,0.011241305229700878
573,0.004016564183801305,0.002450137300527301,0.012835856364882641,-0.019321924894536862,0.011184896436418412
574,0.00845954167557201,-0.0003264389261970864,0.012103125475266095,-0.020049578127481107,0.011905233154887142
575,0.012855850831243363,-0.0034279927234054223,0.011152209831894572,-0.020899405144745403,0.014422837988994108
576,0.01689671490892172,-0.0031962934606515492,0.011031774276156547,-0.020177032671110016,0.017642104661741414
577,0.01922781509563273,0.0013284726234093706,0.011504166918367862,-0.017718462734348857,0.01669911220911441
578,0.01897904534428899,0.004051545386802167,0.011749899471419389,-0.01519810760761276,0.007649629476540267
579,0.017294284672962828,-3.7937001013370926e-05,0.01175950604312054,-0.013318851766909895,-0.006131030795742329
580,0.01584052760454568,-0.0075562113788712445,0.012639647444620148,-0.011137966200378562,-0.01663830254017882
581,0.015102386662481856,-0.01242110945127413,0.014871497927586352,-0.00820005689713571,-0.01976005360225704
582,0.014261121949250798,-0.013245400041625905,0.01647966069298209,-0.005910752607177788,-0.01798621149595369
583,0.013278837690580492,-0.01257019106893969,0.015903199762607772,-0.005615648072458688,-0.015530774224279268
584,0.013551883251673712,-0.01243591313962959,0.014343882305305044,-0.006743651939299302,-0.014135523613058896
585,0.01464221544183517,-0.013389732529000943,0.011972495732554305,-0.00884983910139665,-0.014132291840449368
586,0.014131503106920976,-0.014287570969919932,0.008005785186354341,-0.011482886245440152,-0.014608175268606381
587,0.01092130219916358,-0.012636384742975466,0.003997430401260736,-0.013294394988513397,-0.013709003111544297
588,0.005957877127710278,-0.007583756546671988,0.0020714280894777366,-0.013063133438202371,-0.011567264736346868
589,0.0009174418524930098,-0.0007629494214760884,0.0023980641349681444,-0.010216232245933671,-0.009737962877105651
590,-0.0033837068209921334,0.0044309664210555166,0.00309283144881855,-0.007053948463225641,-0.008835850126621053
591,-0.0069405152980396255,0.004905063132847438,0.0028384643104912674,-0.007488803788189763,-0.007833363987226567
592,-0.009623203088536007,0.0009191494128188817,0.002841219764325517,-0.012072979531746998,-0.0053054526482878865
593,-0.011809522919005506,-0.005775002217952688,0.003965970733835202,-0.018161760005112715,-0.0030075659101001084
594,-0.0134818797025613,-0.01395422848475372,0.0055044325551175475,-0.023131512786351015,-0.003778916285570776
595,-0.013632376999059205,-0.02085748878557331,0.0075364688485956245,-0.025446932237761413,-0.005901563638852267
596,-0.012397150380620814,-0.022499810421787145,0.010484196737302373,-0.0248784455859991,-0.005368452479233335
597,-0.010237756309812267,-0.017784332830715767,0.013731000544523921,-0.022841709803797714,-0.001650170773572394
598,-0.006456629986706459,-0.0109603594218742,0.016050110841875593,-0.021430030785835368,0.00114369359636359
599,-0.0007264036302284335,-0.0068644502692378016,0.017167885734721184,-0.020437675724646952,-0.00035914097902158963
600,0.005507696346638623,-0.005411018576685057,0.018465101416401314,-0.017902254889950328,-0.0039041615594678633
601,0.009547696367729201,-0.0037663728429580185,0.020804401049346832,-0.014241775715348765,-0.005036329119535795
602,0.009494466634743738,-0.0011673295709906106,0.022854185144610344,-0.011704475164223892,-0.0017481016014584503
603,0.005942453937764506,0.0005463999079111054,0.023004943731224338,-0.010526780696944373,0.005674462191964402
604,0.001792230052518642,0.0002359086297560145,0.02156855412606929,-0.009464817927828082,0.014801201348534694
605,-0.00048632199839769027,-0.002305883986620288,0.019062794063688722,-0.009776276568607767,0.02087528940697245
606,-0.0007354627847158548,-0.0074283814126005,0.015239458159955446,-0.013695218839231908,0.020243357680763192
607,0.0006923786604000413,-0.01334554001713804,0.011140850403699986,-0.019765566636813628,0.01344483996855614
608,0.004397752709417417,-0.016443635583403574,0.008760646765546469,-0.023727236339923324,0.004370996184896277
609,0.010271511054445652,-0.01496200000811651,0.00864877148803306,-0.023212940114406742,-0.0025554674396253948
610,0.01570594547185081,-0.010491411348621785,0.009257678952219354,-0.02025105386637699,-0.004820150347253603
611,0.018480983546851012,-0.005567736704465378,0.009063128847465326,-0.018171800903251087,-0.0024120928022737017
612,0.01836346505297426,-0.002202668555717454,0.0074056836142230445,-0.018876766882888255,0.00035972948521217663
613,0.015453615274561234,-0.0011452721083884505,0.004442855226703879,-0.022600587406271758,-0.001725240283460712
614,0.010981520453812165,-0.0016391890333205554,0.001520449870665453,-0.02771163381168326,-0.007420767981569332
615,0.0068828903339581,-0.004422979985901566,-0.00032397948298128556,-0.03178005949222162,-0.011475061500996583
616,0.004244899409557525,-0.010743883801636451,-0.0012005996572408797,-0.03267942411742807,-0.012184174949848225
617,0.00365234881663807,-0.01676988065124264,-0.0013892876108856011,-0.030116713200720617,-0.011719642463188828
618,0.006143822855973108,-0.016168459056958902,0.00019393484692590827,-0.025122228511908304,-0.01091656110212658
619,0.010789037716479329,-0.01060598268424898,0.0038765282749083393,-0.019520023161122942,-0.009880848097535646
620,0.014428058348040366,-0.007040983584865338,0.00796479803002793,-0.015563896034195675,-0.009240401017676005
621,0.015996098330129587,-0.007566734911780605,0.011157058392623178,-0.013115167742917343,-0.009160599468981095
622,0.016745946477577114,-0.010931995094640138,0.012919588513466904,-0.010357841368460659,-0.010182342676742125
623,0.01791450972396906,-0.015541979817169389,0.01358717974455955,-0.006520662770262264,-0.011843990098317353
624,0.01956296168179862,-0.0191943935343765,0.013834104369306446,-0.001753309632649994,-0.013185758279365403
625,0.021209112532735316,-0.020577650659293678,0.014052097361576529,0.0034927089409014607,-0.01395006247378245
626,0.022457415221211963,-0.02021079436119951,0.014274619370761854,0.007216296418228087,-0.012903993276966631
627,0.023110394474671267,-0.019663334047539366,0.014214093791772336,0.0069805631740177485,-0.008984755848628678
628,0.023471956213871898,-0.020005336472445397,0.014307675845069945,0.0034331279155545625,-0.003993300668080048
629,0.02323456510914965,-0.021703108760660256,0.01491972752795015,-5.9648432853247395e-05,-0.0011975423517093667
630,0.021358511646654695,-0.024327693975873563,0.015474646401068232,-0.0011743892206437308,-0.0014845779681107595
631,0.017898712533862274,-0.025919956390834942,0.015550024086425676,-0.0009037053517114331,-0.0024706104122842317
632,0.01444628425935426,-0.02482767207632477,0.015528325268718939,-0.0013077832872655786,-0.0017595580845099052
633,0.011998491948908088,-0.02107614515821437,0.01554280842310861,-0.0029635889068529266,0.00032456644589553505
634,0.010049489822241079,-0.016834838145789476,0.014443168229850022,-0.005745290681182139,0.0010210595296038874
635,0.008490785488931923,-0.015640056583244605,0.011517011778651222,-0.009010649916598149,-0.0017112893441303529
636,0.008568006255366049,-0.018220381756195884,0.008638005309451068,-0.01107273361356698,-0.0059412908228728845
637,0.010692776293054793,-0.022429779378975917,0.007839599159996635,-0.011067078394035661,-0.008503520079780422
638,0.013838526705904963,-0.02631719176867597,0.008800538770495754,-0.009613647580108318,-0.008248816884644194
639,0.01788344142593613,-0.027730214454746716,0.010640163103260374,-0.007400218778529821,-0.004701825556600455
640,0.02211918997883359,-0.026805397329738738,0.012056992892159816,-0.00525540143416715,0.00018858667234987104
641,0.02449550939158802,-0.02628531807636006,0.011996724553023728,-0.002815813643878203,0.002522254474796261
642,0.02486687291836509,-0.025644845241976095,0.01146452524033491,0.0010067431560195294,0.002211288290882081
643,0.023241468558131667,-0.022909998188246707,0.011031474395528974,0.004502105091674648,0.0014112618587200977
644,0.01826404664061726,-0.019563447540300007,0.010209563411573787,0.005671029101863578,0.0009747610104375309
645,0.011612347248776736,-0.017766027441000802,0.009318237435727818,0.006100719303783272,0.001440086587603165
646,0.006644865940627204,-0.018217427061035758,0.00794797202899741,0.007777364770262364,0.0017703014462544233
647,0.0022114448040527145,-0.02116951472919141,0.004435904097609297,0.009474543344027803,-0.00042133397907147306
648,-0.004761069904031704,-0.025615992297491872,-0.0013492798469838718,0.009221622504413697,-0.004967471428477781
649,-0.01210348006630683,-0.02801144894976006,-0.0068522024127702,0.008195123222805436,-0.007620422493756909
650,-0.014582357063446107,-0.025167075916707242,-0.009017175188285037,0.008450164853247753,-0.004452848995595422
651,-0.012092574703005255,-0.019100615861876096,-0.007452956717058259,0.00874832474835705,0.0025588272726146744
652,-0.00859477377163947,-0.014131267652691562,-0.003911886831844966,0.0076900944734996065,0.008881748635840424
653,-0.006011929298017618,-0.01170265718475934,8.902392164000779e-05,0.006588469439842799,0.012328237440260636
654,-0.005039966271381492,-0.012168100568172713,0.0030665487163669385,0.005964776470282197,0.011508706275468687
655,-0.006435406699051474,-0.014970065098189274,0.004160619886430679,0.004653709009503023,0.00768896292016651
656,-0.00963411531729901,-0.017555222926452663,0.0039935614883484065,0.0023806912185766944,0.005348597364754196
657,-0.013350424991690209,-0.019448003615467082,0.0031755518733908718,0.00021235823775897717,0.005785052318460346
658,-0.01660358644226564,-0.02159772793340177,0.0014901096567872189,-0.0002920065038820691,0.0059264025280424005
659,-0.01869698065814957,-0.02187922667883606,-0.0011603132263119079,0.0015009685494135352,0.0038551682007315173
660,-0.018490636291949112,-0.018923809548760807,-0.0030688728777595905,0.0054557406658411476,0.000980353283666814
661,-0.014922934214425065,-0.015019948925316991,-0.0015904959104800968,0.01208911940984114,-0.0006949352657610186
662,-0.00980445602915101,-0.012302393465752778,0.0023967858827168382,0.019756012616263217,-0.0009951099352665284
663,-0.006538562456258591,-0.010346075960112774,0.005425564234068851,0.024116981590218148,-0.0003612596191447834
664,-0.006234758382921699,-0.007874724900752583,0.006007088893083797,0.022529135192358815,0.0012489914422985286
665,-0.008324427470407047,-0.00622349559224164,0.004316244273492639,0.01592260035450618,0.0023771365102711888
666,-0.011951379645740763,-0.0077343174497567875,0.0013392477367383882,0.007714500421748364,0.001644521899918235
667,-0.015669267656891837,-0.011397777272615999,-0.0012818348279572721,0.0013678463427986038,0.00029120816362183623
668,-0.018584174119877853,-0.01469790839321391,-0.0031817508672388867,-0.001968870360993546,-0.0012042405131830075
669,-0.02058256296347442,-0.016833619863011306,-0.005042545096654878,-0.0033891287319997797,-0.003935432857027465
670,-0.021882238524588586,-0.01818528168080593,-0.007268940100906452,-0.004881623884810031,-0.007262742217314514
671,-0.02380897544323333,-0.019721123183206683,-0.010246781025468669,-0.008263284377268936,-0.009863532199594889
672,-0.0264126253067927,-0.020579280640333337,-0.01313394033934009,-0.012572993925825492,-0.011018106387093813
673,-0.027538452070016248,-0.01846841869986319,-0.014481324891527063,-0.014642661645204091,-0.010081133186268305
674,-0.025946211451118917,-0.013956238478216185,-0.014573197805338218,-0.013489184711453517,-0.007238303043064612
675,-0.02234671109464337,-0.009573108366240382,-0.014684574453217584,-0.011106055787262864,-0.0035834908460739517
676,-0.017601046219327416,-0.006024831437276702,-0.01492401860313887,-0.008796896920643872,-0.0002560245605702218
677,-0.012698003869738772,-0.0033304897922952093,-0.01513109465333344,-0.006665861253193768,0.0012029057717497817
678,-0.009564613441988891,-0.0024820613297246354,-0.016398481200861306,-0.005963196864603315,-0.0005388211215808489
679,-0.008264272962471036,-0.002426331135847202,-0.018385212515413297,-0.006766272188963691,-0.003296765271040396
680,-0.007164253040749044,-0.0009907002514992248,-0.01921279975011695,-0.007460296624828029,-0.0027517676512465003
681,-0.006075434397274892,0.001794372265652932,-0.018314378596044706,-0.007140465020055239,0.0018121450111228542
682,-0.005940396757168538,0.003987488911109209,-0.016765606329751763,-0.006283924605132513,0.006234547632754436
683,-0.0064459599258935634,0.003839996806529712,-0.015613955726820837,-0.006402549998276078,0.007183279071219587
684,-0.006591147135966244,0.0015498757925870498,-0.01445008206427479,-0.007384321797966514,0.006125747568563674
685,-0.007389459406578602,-0.0014457081686327271,-0.012472170223187673,-0.007012145736824738,0.004610468513851721
686,-0.010033933981183862,-0.00288259099841711,-0.009757813057194776,-0.0044110472658781385,0.0019773508506196976
687,-0.014320116719628597,-0.001923369222565502,-0.007909514327927955,-0.0024054234972568102,-0.0018694676063210757
688,-0.018466738730210246,0.0004594255159893785,-0.0076796857539117155,-0.0030478072961489335,-0.00522348617906046
689,-0.01907459149291058,0.005112096346569529,-0.006701269543581643,-0.0030776396872917496,-0.0058726233770999975
690,-0.01581715209837308,0.011829855243293273,-0.0038270403532591228,0.00032445117178994063,-0.004809267148898206
691,-0.012798155400917392,0.017046304849625573,-0.001551587989229846,0.004531203611232072,-0.004675329630160213
692,-0.012936443462365837,0.018211228739350035,-0.002139372208382811,0.005644632359649916,-0.005370183897905732
693,-0.014692339693701784,0.015832381119553367,-0.004760982751044842,0.003739384883324214,-0.004572587385059363
694,-0.015439128775889498,0.011786392711763991,-0.007259608204149423,0.0015366563174825975,-0.0012066528578028855
695,-0.015198876491133016,0.007805094033987706,-0.008634220799077948,0.000591677897925992,0.0028051427772217475
696,-0.014965869343070684,0.006529985827956042,-0.00860171836203876,0.0012389269043167196,0.005501520124376902
697,-0.014308695482825885,0.010077546877393234,-0.007199550274674598,0.003204929463310866,0.007000034379078175
698,-0.0132665506497945,0.014449122990704166,-0.005940935117067291,0.004652803796790467,0.00756517912824769
699,-0.012187892123262314,0.013350299505839635,-0.005737028780193143,0.00450044958450736,0.006712327258121969
700,-0.010218525929209523,0.006981020841335308,-0.00509355520374859,0.005055617853694902,0.004353105799924615
701,-0.007956915533676504,-0.0005283438113154336,-0.0033321375395279837,0.008290768062085037,0.0016350458632316978
702,-0.006928163401748961,-0.006393242118524104,-0.001055875735238285,0.012310421524457028,0.0009977232273546445
703,-0.006715647363507749,-0.00902375462463484,0.0016484963759724241,0.013579967091249038,0.003440796387429422
704,-0.006371826699637022,-0.007682653033058824,0.0044525212527692665,0.011476339338133561,0.00796026518480256
705,-0.006240693736326749,-0.0032524783405815886,0.0059994824375007435,0.00826845427244139,0.01486564263216854
706,-0.006025638993137432,0.002096521935504361,0.0056589048782392844,0.0059908681527504,0.023854536877568687
707,-0.004203752194381835,0.006410605734916336,0.005003220539237815,0.005267787073164815,0.030204699218140372
708,-0.0008941485914294318,0.008302706058956088,0.0051448591847029854,0.005320773424590132,0.029097868724424096
709,0.002091558650991331,0.007344675633531761,0.004800099061988699,0.005315678851500794,0.022212201717259333
710,0.003502672237599734,0.0045741440863352025,0.002242514838674776,0.00457284722022277,0.014537831223098598
711,0.003674431237047473,0.001545860199421034,-0.0021108290137052065,0.002877736687142574,0.008477714722253065
712,0.004450576092194592,0.00036580578939379336,-0.005318657042621674,0.0022634010825766373,0.005332513035069769
713,0.006515200655614798,0.002056045654743126,-0.0056111719552886345,0.004216945880378333,0.005817090064965019
714,0.007846776739547428,0.0048959861910454405,-0.004813656075491687,0.007038450462384914,0.007880165522221958
715,0.006605120918464897,0.007731383590633849,-0.004750605079642571,0.009003087772350352,0.008941178756177644
716,0.00387938192647968,0.011166300299301197,-0.004442227021185762,0.010592275879935623,0.008182687760004042
717,0.0024864887845074705,0.015266420706415046,-0.002371556681979362,0.012761242670412367,0.005763320862292157
718,0.0029146265481539606,0.01875901897624982,0.0008647902226527571,0.014940851025478551,0.002708492426937596
719,0.0025884453813269244,0.019718270901834804,0.0026635098554316037,0.015670166038037517,0.000406146511791839
720,0.00047582019797468136,0.018249415903252,0.0015397741593373108,0.015469812397611967,0.000268371406173904
721,-0.000794460977331853,0.017469449011901596,-0.00015359750502434908,0.01695387838565498,0.0038468953310804316
722,-0.00019659608360434892,0.019198994003658827,9.588011439111442e-05,0.020251243991812884,0.010274146059140484
723,0.0005106908684810896,0.022455574347380658,0.0023609697720980145,0.02364383769480066,0.017125199039063472
724,0.0012967354965825472,0.02584047561698358,0.006438586526519508,0.02542609324277502,0.023212300887492397
725,0.0027399288338878828,0.02734408230952838,0.010595253496969,0.02632805855577843,0.02742481899719542
726,0.004398444533586173,0.025771010000630035,0.012069593176425713,0.025175774992532235,0.029369854681686226
727,0.006231571665196406,0.022790659724273354,0.011000969279550334,0.021713886149231545,0.02967289831799757
728,0.007942239801860708,0.02023289190941825,0.009042057553041926,0.018904860016305244,0.028393691558091034
729,0.009190295499274059,0.018492527386011925,0.007130236956214018,0.016213360423440182,0.02591786252460453
730,0.01069819453377158,0.017551660175153555,0.005621672638894909,0.012595126245284945,0.022129356297680834
731,0.012908008207516067,0.01769272834365278,0.004208919971785542,0.008860600956622012,0.01693346008628844
732,0.015489782352791758,0.019679501645265142,0.003077589233923631,0.006893932241111927,0.013735491883146468
733,0.018159851363256194,0.022402044263640397,0.0023870730918087754,0.006689715695649537,0.014884757858228825
734,0.021273509529173177,0.024074643375112784,0.0022470021838404083,0.007846177458497383,0.017515628026403635
735,0.0240497565424652,0.02423828120667469,0.0024602277977784433,0.008995953209788162,0.017405047344538148
736,0.02438336498355641,0.022852154078865778,0.001432741016311284,0.0068360687997033156,0.01282420927871776
737,0.023438204238071535,0.02168817149911315,-0.0009766388483798752,0.0016544286027080108,0.0062898843913419735
738,0.02455869577096891,0.022215006173417377,-0.0030835158388732254,-0.004653518169742177,0.0015346145016362385
739,0.02716398409677388,0.022940985997547184,-0.004255330122613378,-0.011660064382245506,0.0002414603502417973
740,0.02825469749652942,0.02190563898922985,-0.004329909587717637,-0.012024270302804735,0.002146880614540858
741,0.02788858831524705,0.01888930825055748,-0.003226980591404828,-0.007991922266978688,0.004880553740518753
742,0.0275007231983973,0.01464129416996256,-0.002851231809221715,-0.0054103190852170385,0.005362970425471095
743,0.02683739036286242,0.010070560250665524,-0.004974182622291773,-0.005106545697333457,0.0027482401949420203
744,0.026615962458497087,0.0073757468374127414,-0.007515864698385975,-0.007329965108957624,0.00038419201030958164
745,0.02884300655782088,0.008307401423431815,-0.007080975411463043,-0.006975305507935336,0.002525812574438576
746,0.03368071338115742,0.011765419727761545,-0.0032294132684767057,-0.0017285680584099206,0.008260410088394893
747,0.040109643205067456,0.015672431787840304,0.001709377842000158,0.0073420266793351625,0.012499961273632239
748,0.045994110295555266,0.017813189026277744,0.004651035661849033,0.015179913529011107,0.011910868748801543
749,0.049158015081831555,0.01792668728258783,0.005571006574427296,0.02024675513876841,0.009105524728832443
750,0.0500645330128553,0.0186293328648182,0.0072562909215895385,0.023351835427152048,0.009495257028526851
751,0.049936981273779824,0.02108032700619419,0.009355437949339317,0.024210369123628773,0.01332173916778885
752,0.04881147543703506,0.024217707545232413,0.00860660543274569,0.024593849901224388,0.016394725909149067
753,0.045519472752529176,0.025994864045554185,0.0036221987870971484,0.023744131750979714,0.018732651997912898
754,0.03844285868936588,0.023633561375750085,-0.004592502513765599,0.02067377926393049,0.02453817749558656
755,0.028705246672886216,0.018751995520462663,-0.01333475302523436,0.01648429710773335,0.03350961428878436
756,0.02157323485510709,0.01861569763399684,-0.01777821817907234,0.009006703142850845,0.039775010640379735
757,0.01965956367430124,0.024336429047859428,-0.015291117406799748,0.005265888182585581,0.038061679891529074
758,0.020122098019804753,0.027638104025935945,-0.008424110102488058,0.008314625198595287,0.02834640397440932
759,0.02012195493980363,0.02301736291935838,-0.0011825375509941863,0.01348742601634559,0.01564512215004373
760,0.018628911568316864,0.013368720470499397,0.003920034316875993,0.020011693381280758,0.005572332587272499
761,0.016314200584176562,0.004906971387636531,0.00703215247509323,0.02528858830409337,0.001171153209630879
762,0.015237519702596096,0.0015614675676067394,0.010219820842549153,0.028945344965331996,0.0030823199570438995
763,0.016697595984177374,0.004077179702792559,0.014409618335067957,0.03189018793989155,0.010678047807682353
764,0.018938709000558475,0.010440994590212829,0.017553801425864723,0.03485610768836879,0.020509034321131176
765,0.019755058046414607,0.01720762604270639,0.0176328828887356,0.035422956447875006,0.027759550347216076
766,0.019432744029305168,0.02119567204116129,0.0158193997779246,0.034166024326123,0.031512082676065915
767,0.017819531558569246,0.019457550012225346,0.013684187849465741,0.032759903651626385,0.032908417592767296
768,0.01436811539871036,0.012085323315564904,0.011167631306798105,0.02945530358985977,0.031712384438515234
769,0.010594457233014979,0.0033926650752976483,0.0082483395360548,0.02625405614664096,0.02807714450575096
770,0.008659246341171357,-0.0027776189938577005,0.005621754835714063,0.02361389737172975,0.023396243853071964
771,0.008074630285928506,-0.006416291395116098,0.0029937732140928705,0.01921397216013551,0.018191212588881248
772,0.006736660027728595,-0.008517067116540857,-0.00018124175345613175,0.014882063956110766,0.013135424822854784
773,0.004510370075747887,-0.008366147357641946,-0.002313128928993129,0.012052153105185408,0.010058358802861574
774,0.00220831436595906,-0.005116279477423059,-0.0017982617780216191,0.01007354559156308,0.009437269275245498
775,-0.00017616904785106935,0.000832186739067353,0.0006523332351341896,0.008149120944339252,0.010435905825572902
776,-0.0020427008295812094,0.008567366036169862,0.0035308853254025978,0.005975095867707318,0.012676722067364926
777,-0.00232042269234739,0.0166517968359468,0.006075063831953398,0.005462176641416009,0.015486802483440473
778,-0.0017308854667726493,0.02178766297245898,0.007882555145029405,0.007260476563142856,0.016024891312095495
779,-0.001686338121353329,0.021224359521420967,0.008505322597980635,0.009952385804114658,0.0122455414578859
780,-0.0021934289418506347,0.01595881041709321,0.007707347488164119,0.011750829593183012,0.0057317413881402554
781,-0.0026080527220671283,0.008830984568032291,0.005598764383660554,0.012422156811050439,-0.0008787987584145407
782,-0.0029552697777031718,0.001962460346551258,0.002795746393231624,0.011686751527272218,-0.005411548599860888
783,-0.004050787313254142,-0.0027966772362479396,0.0001444993407251511,0.00971603504738788,-0.0057568055821069376
784,-0.005800821563247757,-0.003389904020165081,-0.00161922348048411,0.008202735268948286,-0.0010376169086725132
785,-0.006510432920935758,0.0005394548659695455,-0.001736657891819683,0.007725087314012583,0.006658889466489412
786,-0.005194969149330311,0.005699067497024946,-0.0005444424665404784,0.007742961819198507,0.012458931220791544
787,-0.002896412307349034,0.008030920191805081,0.00015535863074257603,0.008052048292376528,0.011925044401399488
788,-0.0012237831184747925,0.00674138452140318,-0.0008262053612809549,0.008922838137571058,0.004828341254143019
789,-0.0007030433067826628,0.003608654425505722,-0.0034173710591532958,0.009303169365872145,-0.005101013211445901
790,-0.0002746481152200675,0.0013608935111234358,-0.006767686955305598,0.007654779702182654,-0.013147083813750108
791,0.001673355257947565,0.002525905484785215,-0.009089291835691515,0.004887193210982923,-0.016812734301512696
792,0.0046835135166653635,0.007361546537376258,-0.009621198885615249,0.0028607776718563155,-0.0165596248378099
793,0.00582219804680579,0.013656807022547967,-0.009500933990235567,0.0017346764346480269,-0.012875934024634734
794,0.002911677373336556,0.01917095225040445,-0.009196878929438762,0.0012155894495758824,-0.007059424235186725
795,-0.0028383098327471688,0.02324831627375624,-0.007826027299268042,0.0020501215550403403,-0.0031839143273438113
796,-0.00814612879930186,0.025175609869300786,-0.0048127855000723195,0.004266303684277203,-0.003722496606303558
797,-0.010865480058749407,0.02370040394955991,-0.0005434335975503909,0.00625224182326564,-0.006549494902560747
798,-0.011504924871322958,0.01901878893569159,0.003351630678359863,0.0063637135904191745,-0.008947310446828328
799,-0.011574671472240628,0.013302039536507914,0.005179896103800697,0.004516823462346284,-0.01027329013783263
800,-0.011651066736309543,0.008379314216894636,0.004539941805093258,0.0019509617412520157,-0.010708635291384097
801,-0.01168237731847162,0.004355307652662189,0.0017520811784071716,-0.0007221726291325616,-0.010392717747861588
802,-0.010576045183491953,0.0017247333042223383,-0.0014194077551768116,-0.0028747471532856003,-0.008422666199446354
803,-0.00760386710617655,0.00011100042511331544,-0.002976774510967696,-0.0035016636809593535,-0.004951038040014565
804,-0.0038117055215838016,-0.0020668289857060586,-0.0026340899389819435,-0.0026964382660577277,-0.0029528353794670155
805,-0.0014662796557278377,-0.0043423198471331075,-0.0016251388810407837,-0.0017545351303696654,-0.0042283588901603835
806,-0.004186709250969054,-0.006510796479247014,-0.0022929951585244973,-0.003131431069465151,-0.008245221805125151
807,-0.012179460354664374,-0.008396585068011024,-0.004770191868825087,-0.007223862188122959,-0.012470900993479294
808,-0.02049221840258623,-0.007414359007347572,-0.006222780354545094,-0.011008881289501069,-0.01177101037470671
809,-0.025602851544677774,-0.002846132583134185,-0.005155332016261244,-0.01263782626533096,-0.003776966468681784
810,-0.0265554798307805,0.0032289831700620564,-0.0020930096283639844,-0.011831768041774873,0.008127003064076335
811,-0.02457477727928892,0.007759161241191244,0.0009800190104218094,-0.009951338350873255,0.017458675913630296
812,-0.02316932446826067,0.008157225059420799,0.0014687439974514944,-0.009395122354466703,0.018859015110410673
813,-0.023758153115004028,0.005429403400983606,-0.0006583977758723122,-0.009568263103320011,0.013117547687985964
814,-0.026236252593698082,0.001930901308926442,-0.004136526449781352,-0.009192042800741661,0.005000595179228027
815,-0.0299857534205245,-0.0018338733395419852,-0.008093875016975892,-0.00794092902671644,-0.002496104720296813
816,-0.032400403096134234,-0.005842143469982863,-0.010931421302779716,-0.005339002189232517,-0.008789532958820056
817,-0.031567112018628926,-0.009022042772812293,-0.011138705817487174,-0.0026167193702167587,-0.012882742923697548
818,-0.02882964425002468,-0.011607149580014166,-0.008797302574726312,-0.0021059588447943063,-0.0132440155150979
819,-0.02734422188448242,-0.014797805356770657,-0.005445138429781846,-0.004551170735201883,-0.010993681547748277
820,-0.028055911639891327,-0.014802075146944616,-0.0028027939737472053,-0.008272347120324678,-0.009033729091652011
821,-0.02871837990821071,-0.00755040791906727,-0.002176238449128954,-0.01055014643471849,-0.008752651953840104
822,-0.027154950415265507,0.003140659828652934,-0.0032821605016825415,-0.010246404224344419,-0.008834703473864699
823,-0.02356630607646649,0.010737210946014377,-0.004185767938587947,-0.008447625821652842,-0.007074708944168958
824,-0.019809649049180752,0.012998058052458586,-0.004042513842770816,-0.007074663301482379,-0.003141685255100806
825,-0.01712203240750786,0.011746060073373138,-0.003545621749039952,-0.007219118179181638,0.00117060260027423
826,-0.015277880153200757,0.010209001294435974,-0.0031786064464443464,-0.00796625491451868,0.0034575147545037573
827,-0.013312330558072072,0.01100100125366168,-0.002756060236155772,-0.00766840944259965,0.003507618354131329
828,-0.011183726121976535,0.013597938359230654,-0.0024619984387614954,-0.006715692458579874,0.002798939837063645
829,-0.009961261101642048,0.015265405966370752,-0.002775254867128943,-0.006648151224161406,0.002100694751606948
830,-0.009832444801853399,0.014642733265403858,-0.0035127639468619286,-0.007820409292660311,0.0013934035639649573
831,-0.010277623043938297,0.01187505345904727,-0.004700459081321994,-0.010364893399850344,-2.720626872772019e-05
832,-0.011936339291988694,0.007735721760531953,-0.007222333704678034,-0.014828714680116952,-0.0027069491730747244
833,-0.015783554689832027,0.004089854895805854,-0.011349437763465945,-0.020519291458096733,-0.006235472008002478
834,-0.020671766714625363,0.0028845306327225013,-0.015425639070531856,-0.025120453425610593,-0.009976884073851677
835,-0.024339462955728156,0.003623944807797045,-0.01753517406910048,-0.027340293234265803,-0.013005892596885562
836,-0.02560341999637232,0.004364284792733686,-0.01715831771477,-0.02733788545944267,-0.013429841803241705
837,-0.024767809206276498,0.0044385034439961045,-0.015021707829690669,-0.02556952694077816,-0.010658435439009774
838,-0.022745452914285175,0.00431953110022074,-0.012216730938170472,-0.022843003084769747,-0.007154463021813197
839,-0.020077147325228535,0.0035100970004081243,-0.009263366127032832,-0.01976902024070825,-0.005842469281552511
840,-0.017505405654664245,0.0007495881355007298,-0.006419285419342427,-0.017125192638709298,-0.007294975341572573
841,-0.015747118563138995,-0.0029993198605344374,-0.0042894612093264985,-0.015398057061911758,-0.01029242151432736
842,-0.014871834870369824,-0.0061183407705240715,-0.004861894753387019,-0.014932607860557121,-0.014685823789249052
843,-0.014103062021342844,-0.007749324080033502,-0.008821827150413004,-0.015821722884212422,-0.020485098438039157
844,-0.013187019698403015,-0.0067260489384743365,-0.01291798703963812,-0.017065873962401775,-0.025533376318744812
845,-0.013675315013074223,-0.003957459069203908,-0.01401345916320016,-0.018156900546263077,-0.027785768538170226
846,-0.016156617818053203,-0.0013641631692615018,-0.01180228060367276,-0.01902693038950615,-0.0248092760305559
847,-0.020040023900564457,0.0002172178353745005,-0.008245131946238307,-0.020174655712555008,-0.014386573432226093
848,-0.02507269168391735,0.0004730742254713391,-0.0050216484957143,-0.02201491986708177,-0.0005264567093458086
849,-0.030343111005933867,0.0002459494463356066,-0.0022684902943953403,-0.02339277726596006,0.007326093475017331
850,-0.03454722481946872,0.00043265698009731766,-0.0008414641190929908,-0.023350402296038287,0.0030888257920882946
851,-0.03675318472467973,-4.791394030413458e-05,-0.0016730664347976865,-0.022212033550370654,-0.009419877720056674
852,-0.036796106943575706,-0.002903740778748795,-0.0037447352413560345,-0.02139424106696945,-0.020357141065366995
853,-0.035093955435096594,-0.008525154635213155,-0.0053194489810180065,-0.021680710862927412,-0.025134828951524826
854,-0.03127486927783476,-0.01612830769385121,-0.005745262505817104,-0.021163895383611582,-0.027230121857016266
855,-0.02511568623096528,-0.02378550639868017,-0.005086436282125018,-0.017764472033971312,-0.03001032642337996
856,-0.01929454856008605,-0.030594743223060487,-0.004247190533705366,-0.012377710325089074,-0.033050075817002894
857,-0.01652495339176782,-0.036885613953018925,-0.004411355456275516,-0.006241267429962115,-0.034747873051054395
858,-0.016290654976440905,-0.042026235562684575,-0.005467158291198147,0.0009784603818576276,-0.03458195170074434
859,-0.01742964338626117,-0.045152758636996713,-0.006793973902249704,0.008195646521128664,-0.03333062682364915
860,-0.0189817989324867,-0.045465963808829876,-0.0077435419432816035,0.013092245051377013,-0.03181614197142531
861,-0.019733184854076442,-0.04278040680132153,-0.007592222605836457,0.014911065275347139,-0.030968740456865436
862,-0.019828788818069033,-0.03829925273235422,-0.006778160870069019,0.014171820796169708,-0.03160394142205755
863,-0.019969231122193173,-0.03341663626122686,-0.006464643365647873,0.011697656913762079,-0.03255600921062714
864,-0.02005027191432241,-0.029427025614874237,-0.007505226696122123,0.007896677867435805,-0.031687983875052936
865,-0.020258352014295638,-0.027490085649207904,-0.01002056122427705,0.002861574137896055,-0.028799795519843952
866,-0.020664165605277868,-0.026855673878883237,-0.01241945369903523,-0.0019786341249510616,-0.023910674505266013
867,-0.020876875063254408,-0.025657718465791148,-0.013239525740826841,-0.0052888263849926,-0.017478436934806912
868,-0.021190690118613836,-0.024024247021845472,-0.01327524494588463,-0.007307048396099377,-0.014116249626148776
869,-0.021614167100738647,-0.023817633291781815,-0.013497871794701103,-0.007734956208050779,-0.017734536774321807
870,-0.020375836674769568,-0.025403280347713858,-0.013110971737104031,-0.0052668491336865875,-0.02510530999251358
871,-0.016100153355841636,-0.026741171296392113,-0.011246031362551558,0.00019345842406929368,-0.030153531371964037
872,-0.01083994048568712,-0.026583703174332344,-0.008856947330379476,0.006162165070820423,-0.03094902702356021
873,-0.007757235903378933,-0.02570626209155126,-0.007380088809097926,0.009700591036049134,-0.029698259773675448
874,-0.007651109977289891,-0.02481477237385137,-0.007517242341486753,0.009522315522392334,-0.02918781686745527
875,-0.009302181383574642,-0.023203228598574127,-0.009383528220769167,0.005828047858813664,-0.029877871422238682
876,-0.011389724137286084,-0.019575334446407577,-0.012298966772719255,0.0004868500686801977,-0.029975727108158795
877,-0.013167722100243456,-0.014838982652101018,-0.015073976221841397,-0.0032194138530349725,-0.029264854055676748
878,-0.014371760007017537,-0.012373945051539931,-0.017106773363726704,-0.003498113540480138,-0.03047897708290144
879,-0.0151038160688728,-0.013578263815003083,-0.01881012605747295,-0.0017108137116217275,-0.034839196544077654
880,-0.014703268977055645,-0.0159570415504129,-0.020180819398981184,0.0004606084120129702,-0.03976849292877128
881,-0.012776300852114906,-0.017149444725173577,-0.020751349881316786,0.002004654700776103,-0.04258969588091951
882,-0.01026917386839751,-0.016649607106941616,-0.020435722754325394,0.001384371633591426,-0.04216596048489967
883,-0.008117074913796589,-0.014365957559190167,-0.019254626183131954,-0.0021606463066062946,-0.03818217366779709
884,-0.006763462803385497,-0.011005249041671179,-0.017406230389961103,-0.006857387375764308,-0.03086851158192887
885,-0.006398901297498121,-0.009025279251971441,-0.015139099375317258,-0.009593351100421752,-0.021297717770384465
886,-0.007015345895042388,-0.011216490069131913,-0.012754932731369104,-0.008829417488420064,-0.012694794163775263
887,-0.00834921301628173,-0.015493499488452902,-0.010890331698701182,-0.005877438595831684,-0.00848105417260038
888,-0.009602056805385189,-0.015832401423865383,-0.010210647358755433,-0.003667217729046647,-0.00855082169359254
889,-0.009755054412590777,-0.01152453023246177,-0.010643060707784872,-0.0036808507110020535,-0.010556050902824497
890,-0.008626898101141851,-0.007062520847548897,-0.011231603671438736,-0.004335012980633437,-0.013333833611349748
891,-0.007196586995504235,-0.005029033209522498,-0.011266031961047461,-0.003914872502909152,-0.016728844478850907
892,-0.006128340646164329,-0.004664627740039263,-0.010754130415978266,-0.002998503106664975,-0.020062786867940642
893,-0.005528912199646744,-0.00392612979243189,-0.010799448126486049,-0.0032461548926046337,-0.022823465378499927
894,-0.006202493414227986,-0.002039407179956586,-0.012646035280819541,-0.005524357294722373,-0.024725861982040163
895,-0.008127912843961355,0.00035184545548861475,-0.014853065656061476,-0.008308320884812818,-0.024025210953144843
896,-0.009524848053698264,0.0024754314788173327,-0.014767043404252748,-0.00898705278127071,-0.019884741229069407
897,-0.008918129114575537,0.00350355246811361,-0.011912905008621806,-0.006795721701116295,-0.014959044159772436
898,-0.006518673915833312,0.0026401765171849174,-0.007571978351578876,-0.003048319102582332,-0.012268044582739376
899,-0.003933610754341146,-0.0003287373181739979,-0.0035167865849219855,8.89988167670788e-05,-0.012400982326851558
900,-0.0031876427110546146,-0.005112434485244056,-0.0018463735347374799,0.0004386444138012073,-0.01501038400727694
901,-0.005012157324877994,-0.01106042773810532,-0.003487689263432073,-0.0025732677977040705,-0.019779157700244066
902,-0.00748682183758539,-0.016003465261707914,-0.0066088948679599874,-0.006822535165224071,-0.02382016150086969
903,-0.008566928631894757,-0.017847251770575792,-0.009039171359252304,-0.010218577569600658,-0.023716502178898247
904,-0.00798588329228228,-0.016481108443311347,-0.010000817600819448,-0.01200790951531057,-0.020118513604811386
905,-0.005984983524874061,-0.012587981090325988,-0.008862767243521285,-0.011557080804814199,-0.015639321633927648
906,-0.003699487755404823,-0.007877099433652474,-0.006040436322420578,-0.009593101350190016,-0.012434364674825458
907,-0.0026917910862025276,-0.004869959178811895,-0.0032484935167398153,-0.007606919750681453,-0.011456205244683637
908,-0.0026759327663985455,-0.004237832823633355,-0.0011612949547112853,-0.0053461520474085734,-0.010958315549891297
909,-0.0020149168593662898,-0.004049847750704584,0.0008624966958622591,-0.0020387604238463718,-0.008207209731583528
910,-0.0004953121828352354,-0.0030257364895116506,0.0029585675092546294,0.0014837934914836396,-0.003141813289881347
911,0.0011225532110534253,-0.0013034756227977766,0.005209112904225437,0.003845660065676668,0.00214208170288396
912,0.0025021382995581596,0.001406172736349566,0.00789239823894772,0.004636375206499822,0.006240999647203643
913,0.0031330359931955624,0.004625484680864463,0.010190081222024023,0.004243888660332811,0.00855337154041602
914,0.0026232360125460798,0.0065411666881120285,0.010836647110709278,0.002155441644790336,0.009202754415014787
915,0.0017557814783854715,0.006251716155322602,0.009648888706791973,-0.0023520309210002207,0.009929817175664874
916,0.0018601480593685978,0.004901847733068101,0.0072415910295042735,-0.008014680891855912,0.01120662130323765
917,0.0029928645184175433,0.0042603469904813705,0.004734096463218044,-0.012201557902438051,0.011157421950082812
918,0.0034073799211643933,0.003991544866544822,0.0036650046899026185,-0.012834805827841612,0.009378063261967957
919,0.001940094783912673,0.002305065109278656,0.004972849327903531,-0.008921310603668993,0.007985523505545518
920,-3.8057616540432593e-06,-0.00027764366776764077,0.0083433117621509,-0.0017382086710038872,0.009494457688263135
921,-0.001858428967309087,-0.002435746975235894,0.010986916551649711,0.0029944319861641313,0.012124761012737656
922,-0.004688512391953149,-0.00406633992463822,0.010321836607089414,0.0004563468184358984,0.012193637847215154
923,-0.008211380795285272,-0.005105700184892285,0.007630266404432093,-0.0074959867724783994,0.01136419812974309
924,-0.011398420334039986,-0.005990270304564788,0.005260911364306306,-0.016112274629896884,0.012171803280011462
925,-0.013538058484202174,-0.007468631134189506,0.004018904648068439,-0.02266749475359729,0.012433532011886584
926,-0.0139452021084498,-0.009431229818237347,0.004344466714515821,-0.026970475794193337,0.00940253909050918
927,-0.012390112433596747,-0.011108725426033585,0.006220805986274963,-0.029938953490741733,0.0041142182273854145
928,-0.009679974089430336,-0.012468717630854487,0.008477588371287972,-0.03214320568168591,-0.0005856439009444371
929,-0.006670863371708219,-0.014613607713362436,0.010053550776569393,-0.03375179717719148,-0.002911451327461276
930,-0.003334073612878724,-0.018854781965614655,0.011235181669053448,-0.03479076310663392,-0.0012246116323499936
931,-0.00042603709482898195,-0.024029408023223935,0.01266173340595855,-0.03517347084591222,0.004788746124780854
932,0.0005153858054246563,-0.02507911368148184,0.013019389135598025,-0.033581344041716234,0.011883880063792939
933,0.00045589554011164296,-0.019415878440936812,0.01110248891129176,-0.030609835324110907,0.016056632874473863
934,0.0017375573800254528,-0.01090665616426275,0.009121996908823756,-0.025871457553166305,0.015642245050663577
935,0.0037200987255700734,-0.004285394924653193,0.00898317762293857,-0.01984226216146022,0.010819036674962501
936,0.004434825872663651,-0.0011187692669326866,0.009285844969772033,-0.015826428269970806,0.0028714955786561538
937,0.004267053088708641,-0.0007401589137293883,0.008708648475080549,-0.013848846486630522,-0.005411725158195974
938,0.004323530933351037,-0.00178872264953805,0.007694053726352454,-0.012343488368899484,-0.01100010645833975
939,0.004186806639834037,-0.0028701735496325345,0.0067697959038885164,-0.010720400506423648,-0.01179792994932329
940,0.0029525797979185393,-0.0028578159633733443,0.005460741896559381,-0.00986968794197313,-0.007362110903995965
941,0.0012702350366132834,-0.0009110527559912828,0.003686814362646337,-0.009015847379863013,-3.3045501680085176e-05
942,0.0009112134897551656,0.002965519398547209,0.002603054281522897,-0.0062130489499105344,0.007192888490610919
943,0.0017612809003898918,0.00648085294348035,0.0019475308086187265,-0.0017255076280597837,0.012721832956260693
944,0.002080747529607024,0.007159957649312231,0.0004558138140477063,0.0025082494725263606,0.01622487224557546
945,0.0022172899079635753,0.006582107507431202,-0.00046840631706501084,0.005600659971101769,0.018405641882677605
946,0.003727049148564662,0.007320193444046983,0.001037588824675512,0.008735396111898261,0.018837813611672163
947,0.005870264099915261,0.008052890060601914,0.0038666785857904657,0.012174166142069993,0.01610596713196156
948,0.0069545595715900296,0.0066911166930342355,0.006348775476400497,0.012092761939927546,0.011517706183133162
949,0.0067906128787046625,0.004032211918850866,0.008119351853955787,0.010702092806979582,0.008118562466240873
950,0.0060328674477654835,0.0021239509025446357,0.00887044671047976,0.008821233878068576,0.006715573018892763
951,0.004575429478571953,0.0011628957018545616,0.007603577693055609,0.003680735654804137,0.00613477533562028
952,0.0026944279519573447,0.0008237734930791779,0.004855940170493642,-0.0023901461127312606,0.006321561460378634
953,0.0029523371041799387,0.0025310654632238576,0.0035123027340111528,-0.006734811318273797,0.007008170822387674
954,0.006323970036488155,0.0068339167403331175,0.00460076525954468,-0.008284735956078652,0.006188397596439581
955,0.00962650317965016,0.012081276014790766,0.0064854539388381595,-0.008119107044338051,0.004932653675531826
956,0.010397066722450008,0.016095916202623094,0.008269762137460591,-0.00584082296901487,0.006202364764369021
957,0.010051489967294125,0.017940194107689867,0.010259065791944546,-0.0019439434671108917,0.00900158777867002
958,0.010669230981691374,0.017936956285575414,0.012268348124708683,0.002214602223293235,0.010418792747358494
959,0.012758957255846165,0.016347877292266062,0.013555093835763676,0.0051172623502846815,0.010059245688481742
960,0.01595546462952648,0.013547912235254268,0.013583123614568428,0.0021174144150063676,0.009789096415035286
961,0.0181418671153474,0.010090495873413314,0.011899772715394597,-0.0008763279536576967,0.01051058077577886
962,0.017533366432313013,0.0068233828475260695,0.008911806993061083,-0.004406987161002801,0.011426871525803349
963,0.0152777877559738,0.0050373859494396355,0.006040823270827303,-0.006463236052800406,0.011954972152428533
964,0.013293320180481407,0.0050635603185695405,0.00420836504588478,-0.006321820542134701,0.01218267974178032
965,0.013289008445078354,0.0061909657963055715,0.004171851705669966,-0.0043723222918011125,0.013042571276587343
966,0.01579153667591391,0.007536948756829792,0.006103335680711985,-0.0008763917265266367,0.01582504262959876
967,0.01857823624455535,0.007832571905570514,0.00810200549484881,0.0024241082430822643,0.020215994668244086
968,0.019251218523217598,0.006674244764646029,0.00814577571227147,0.0031487285139509143,0.025248611397109245
969,0.01791742323112509,0.00574154435488108,0.006615566169596803,0.0009672292532182647,0.0307613936432623
970,0.01671795967012549,0.007446250776647997,0.006016520690754171,-0.002321264908418163,0.036437280260051746
971,0.0169473537065967,0.012464836919805383,0.007729582875393973,-0.00517554750568654,0.041372179881266014
972,0.01643087727730894,0.018498154945287757,0.009955766824633647,-0.008592750841436564,0.045153474126297125
973,0.012606333904272151,0.022674557989024683,0.011103358776137407,-0.013125546013139266,0.04815446361279073
974,0.007039439991741482,0.023913872382657374,0.012481429522331815,-0.016788378216713754,0.049174102253409575
975,0.004071711387370523,0.0222372475647056,0.015598699756079278,-0.01758802568532688,0.04588185465823205
976,0.005313046824627953,0.018307567089583584,0.019082287853747992,-0.015321689669088392,0.03847324154700179
977,0.008163017710934592,0.01375165329325952,0.020899084647125424,-0.010977484096063615,0.02975550652357536
978,0.010827910986156077,0.010697081228895414,0.02197433278070109,-0.005890494060679437,0.021879022152402654
979,0.01318733944659105,0.008354205129643624,0.02314652319837693,-0.0027476377215887885,0.014253987016081096
980,0.015378017689974178,0.004643425354453848,0.023242661511563314,-0.0012517249454930654,0.0072102893211030954
981,0.01788614232996694,0.003303249497185342,0.021907447166331383,-0.001195571246685361,0.004382049733374704
982,0.019349190391992788,0.008331378813356218,0.019302826917595273,-0.0016536314415997572,0.006184142367873449
983,0.018299693708712164,0.016065728247914104,0.015924689125403478,-0.0016899630353780384,0.008348487942101085
984,0.01588177648506738,0.020840187545271015,0.01270152480825327,-0.002723492748902473,0.007501368980073688
985,0.013684796544312233,0.021506072536644397,0.009371839734416184,-0.0039612627850772976,0.0020538739457136826
986,0.012434970289888433,0.02074561479080113,0.00549049497111021,-0.0036143384865028076,-0.007946831757667869
987,0.012475248769287305,0.020729912836225956,0.0015511208436946708,-0.001034670255553565,-0.019642981282208573
988,0.013952796168063017,0.021232586016885747,-0.0013466414776557665,0.0029091020035276827,-0.027951878600530496
989,0.016759454548717505,0.02052845002001746,-0.0022647294089102126,0.008054803080503018,-0.0286963744393525
990,0.01977553972257947,0.015938802635054407,-0.002283774199641926,0.013384337474641083,-0.02452662918313248
991,0.021826824555477905,0.00828009197034333,-0.0034351453629102233,0.01789703599650987,-0.022538177159750726
992,0.022079180855314358,0.003477570416937584,-0.006276479129943731,0.02173714999204055,-0.024809950054102112
993,0.019340392449435497,0.004328431231405607,-0.009972080459981459,0.02316745428611202,-0.028225235732432425
994,0.01460383369204856,0.006906960674512295,-0.012312324352803428,0.02155746753501739,-0.02966639067395297
995,0.012101238365434594,0.007336629158134597,-0.010754813020521212,0.020122141695839438,-0.028998950238193502
996,0.01423557285473539,0.006737022510911721,-0.005686502706541826,0.021710362858585814,-0.026975534475314283
997,0.018342366551594755,0.009069083778550615,-0.0003647775099560785,0.026586187356159204,-0.02328493781258092
998,0.0202341169571592,0.015057849254250355,0.0025886038528951925,0.03159234746899509,-0.019066340516710006
999,0.018971285731410204,0.020632256622356588,0.0032553670994948532,0.033905656210673964,-0.014982765504195233
1000,0.029783476475585272,0.030834872060857176,0.011513591988199755,0.021873643808754787,0.030930756473026157
1001,0.028947140269278835,0.03337975502319981,0.010732889194638733,0.015401943799046847,0.03432667622535695
1002,0.027123871935186238,0.033976526978648475,0.009087149817929654,0.009157985986412643,0.03850221818914952
1003,0.026635623713165336,0.033502525181689655,0.008466080486587662,0.006131176700255705,0.04008060302801066
1004,0.027965719604997018,0.03192499761334555,0.00998583274540188,0.007324516536428508,0.034259997531648656
1005,0.02926804465265501,0.027803520612962495,0.01284504370385259,0.010953208498750443,0.022660423258286974
1006,0.02969887007584264,0.022117722785857167,0.015305653049760524,0.014956590033539604,0.012248418892293042
1007,0.029792252638429134,0.017233261064954267,0.01623170149441647,0.017536556901591446,0.007861970053059672
1008,0.029513056377872045,0.013919787294493682,0.015396534973689665,0.017262133167135346,0.008677992057840927
1009,0.028302553884208045,0.01250599264819194,0.013270281958061446,0.014494149994947667,0.011689142890205704
1010,0.026700423284401174,0.013551916590504141,0.011294573122325102,0.011286913410163656,0.015737978712685775
1011,0.026250112830724516,0.016124282522256735,0.011030225192561045,0.009514064169211066,0.02083574681569161
1012,0.026878935503958912,0.017451922398205616,0.011740196696983523,0.008781353678928992,0.02535750472295626
1013,0.027478739325950765,0.01650932624922486,0.0117409076843201,0.008246080197360289,0.028037407452602275
1014,0.028938865495147043,0.015920296724450212,0.011669513029930016,0.008654872151738054,0.029122764800037594
1015,0.03173446622842917,0.017171816722408806,0.012190202548422535,0.009399079294254327,0.027903552095939633
1016,0.03363889525899792,0.01912329554881986,0.012197757511923805,0.008997099573726635,0.024083981877065
1017,0.031877905380806634,0.020361483355820487,0.010449651551836527,0.008326167208387542,0.019176752666962286
1018,0.02591904151651052,0.01949072841645235,0.006914648121320706,0.007952097920781472,0.01541946591707834
1019,0.018375860874443546,0.01622714191741999,0.003130086567816474,0.005243897682572642,0.015492642595677841
1020,0.011833340674066002,0.011966087263046692,0.00028150103703823156,-0.0025430399463401135,0.02120812754031118
1021,0.00764058146826973,0.007977798583031544,-0.0008057861109943491,-0.01237313359048995,0.02971191355596371
1022,0.007364783436425353,0.003376973537771788,0.001370590626834391,-0.016447934011952634,0.03348104294179692
1023,0.011254187213224812,-0.0033357562710361406,0.007259041150793769,-0.011570640532222518,0.02912560421092341
1024,0.01708071752145091,-0.01108489345124725,0.01500002906825772,-0.001494106654418981,0.023992554055873538
1025,0.022065029379125797,-0.017275627444141156,0.020836543270141453,0.008921243929377577,0.01949383143024461
1026,0.024487831458014735,-0.021124966757275702,0.021375716548063004,0.015802860915106114,0.016110570514036967
1027,0.023751867027781533,-0.0238598499022733,0.016062556420328243,0.017168645260417666,0.01001648249053092
1028,0.021918090962347866,-0.02553164034709753,0.00811732106968406,0.014102616699292725,0.0011502641534409175
1029,0.0209887447454651,-0.02559422451487024,0.0009284755789269723,0.010631084429144637,-0.00834032965800949
1030,0.01961712792581828,-0.024582463679309212,-0.005504736554651618,0.005853080492536178,-0.01689283469533136
1031,0.01761918730221455,-0.022378577970003397,-0.011046340145818385,-0.000985365481570714,-0.02196155034132658
1032,0.01653986535787548,-0.019514925092999662,-0.014594679518928198,-0.006258391606654372,-0.022440648632589235
1033,0.01664420843289255,-0.017150877453656677,-0.016209668001034558,-0.009666212756801804,-0.019882855018998245
1034,0.017852033679033746,-0.016184746476842607,-0.016740407671604892,-0.012461285682477109,-0.016527199587431405
1035,0.019857285499101707,-0.018025629228908286,-0.01748360911393346,-0.014672019439488005,-0.014844220585074673
1036,0.020616741153055933,-0.020282278966635897,-0.019015996029420446,-0.014555408714519946,-0.015187336525763807
1037,0.01815755886459702,-0.017036835742831668,-0.020700111952654664,-0.011837159536368427,-0.015816529724515263
1038,0.014025216532498228,-0.008624518102248733,-0.021357040624878393,-0.007412974938789875,-0.01640713762645803
1039,0.012058527316623347,-0.001835340100428541,-0.019507715399150447,-0.0015587498748805427,-0.018315184747151075
1040,0.013464804001621786,0.00010287020884241952,-0.015108856091447232,0.00363891013496238,-0.02082664864283473
1041,0.01573507308938737,-0.0008942142750549658,-0.010566033738445967,0.005447001525029713,-0.022050778937516117
1042,0.016647201905523632,-0.002619424048578229,-0.007979369765571636,0.0035631116943558006,-0.022630341175363458
1043,0.015699040129848914,-0.003973958377770791,-0.007375566297530253,-0.0002609946214199758,-0.022847157529857956
1044,0.012846431142619616,-0.004813188082011867,-0.008088309685235193,0.0003020556938555502,-0.023288194298536555
1045,0.00899303717549681,-0.0055199272554056576,-0.00988726629768418,0.002418124242264997,-0.027935699520231498
1046,0.006429493995207473,-0.005841703109199747,-0.012141180224728073,0.004298472997845504,-0.03742534768299432
1047,0.006767424102200335,-0.0061483916246020285,-0.01353387018403487,0.008675188219881894,-0.04590241695123775
1048,0.009188735682772134,-0.007945394917649397,-0.013437771063291656,0.013250769826522953,-0.048179340291858316
1049,0.011564144281824815,-0.010907729016153712,-0.012499249670058993,0.018412676130396845,-0.0445931468860844
1050,0.01229337342831852,-0.01226952328540461,-0.011706002520745338,0.023787871652992145,-0.038935856616492716
1051,0.010994471468303332,-0.011121528354810364,-0.011402842526464323,0.02745651011133417,-0.034758854256611224
1052,0.009388410792958603,-0.009007726946957562,-0.010504717448455145,0.0278588759061518,-0.03301940752395922
1053,0.010006084979028959,-0.006357960497376782,-0.007848914840106323,0.02856718630830003,-0.0321972463160576
1054,0.0124501289869971,-0.0033411640564033683,-0.00472812301196374,0.030373972316298233,-0.030904001906038637
1055,0.01381351420051505,-0.0014014208257202157,-0.0038390544588017468,0.03051305871834383,-0.02844931137102791
1056,0.013370439908495298,-0.0006727019606857664,-0.005641441651960657,0.030896099989337563,-0.02413038610717374
1057,0.013072289701959726,0.0005780159006579929,-0.00788858340732941,0.03318305585562557,-0.018961237570876643
1058,0.012111662958749768,0.0027910786158593113,-0.009973010106331762,0.0366915219377923,-0.016617954792250856
1059,0.00805784900285921,0.0062760558184734834,-0.013303145004851344,0.039524840201758525,-0.019428509463954514
1060,0.002708995094916619,0.012212113611133458,-0.017322270428290536,0.03629239212161826,-0.024156781581862654
1061,-0.0011140586666660492,0.018373771542423083,-0.020647536212464353,0.031169770565874014,-0.0265281911126225
1062,-0.0029377155402215077,0.02027709113666612,-0.022544246134001637,0.02761005653717969,-0.026139502085878313
1063,-0.002606500781034027,0.017036648954905944,-0.022012992287331803,0.0247923140434937,-0.022743339123880442
1064,-0.0005268340144181097,0.011176893831473718,-0.019600099604425998,0.0242278907842548,-0.01581858044636377
1065,0.00230112232735974,0.004704788797175201,-0.016938915960005393,0.02322868540128408,-0.008544959963954334
1066,0.004899455589584672,-0.0012263588261168935,-0.013925446079677824,0.020928140330986285,-0.005680372653061046
1067,0.0049350896140989454,-0.006798373326706974,-0.010867583272648702,0.017225759260634067,-0.00862817017556753
1068,0.00022430865292949502,-0.014338901060004182,-0.009659666455290183,0.013428414430373214,-0.014467494358165793
1069,-0.006722028510224292,-0.021904479631388748,-0.009945906119058105,0.010751730631011765,-0.019264897753221988
1070,-0.011719054049964999,-0.023399512492414894,-0.009965261544550269,0.01072703921301327,-0.021509572591368938
1071,-0.013780967784631757,-0.0193129653628591,-0.00911996047656771,0.01312203675560358,-0.021686607603254745
1072,-0.013159378233511824,-0.015456632758328379,-0.0073583982677346395,0.01439579021296094,-0.020317976596512726
1073,-0.01071573602099831,-0.013760258587109211,-0.004962419612324315,0.01453600908487649,-0.017093214957554722
1074,-0.009004671577230129,-0.012881276765029528,-0.002627089818051866,0.01463898725238016,-0.012322818379739333
1075,-0.010941917007817313,-0.012409995272791368,-0.0013468538934931784,0.014226366329527305,-0.007287516769809083
1076,-0.016945186766739107,-0.012785765948371455,-0.0015888073201817678,0.013906454747200753,-0.0028220863993353583
1077,-0.024540274772179568,-0.013502361275988639,-0.003214640278633092,0.011927883504478343,0.0002133034316382664
