,AF3,AF4,Fp1,Fp2,AF7,AF8
0,-0.0178989358246326,-0.0195168796926737,-0.0850545540452003,-0.5,-0.0790864154696465,-0.114703118801117
1,-0.0190860833972692,-0.0233628004789352,-0.0822955369949341,-0.5,-0.0749566107988358,-0.116245239973068
2,-0.0209082588553429,-0.0281651373952627,-0.0784074515104294,-0.5,-0.0694442614912987,-0.118139088153839
3,-0.0203124526888132,-0.0313061513006687,-0.0713890567421913,-0.5,-0.0611960478127003,-0.118408180773258
4,-0.0159852225333452,-0.0311114080250263,-0.0608119256794453,-0.5,-0.050290759652853,-0.114759065210819
5,-0.0100263236090541,-0.0285701937973499,-0.0502942092716694,-0.5,-0.0393736734986305,-0.107558555901051
6,-0.00546888308599591,-0.0255847945809364,-0.0439049787819386,-0.5,-0.031000018119812,-0.0992997586727142
7,-0.00315451831556857,-0.0230623204261065,-0.041856050491333,-0.5,-0.0250556245446205,-0.0913571789860725
8,-0.00126494711730629,-0.0202726237475872,-0.0409680083394051,-0.5,-0.0194432809948921,-0.0830749273300171
9,0.000933891977183521,-0.0172924809157848,-0.0396925956010818,-0.5,-0.0140547212213278,-0.0742274299263954
10,0.00266714976169169,-0.0149860056117177,-0.0387360602617264,-0.5,-0.0106677236035466,-0.0657235532999039
11,0.00458499835804105,-0.0127119682729244,-0.0368477739393711,-0.5,-0.00882074702531099,-0.0573239959776402
12,0.00697448384016752,-0.0104296905919909,-0.0319347530603409,-0.5,-0.00661931373178959,-0.0477166920900345
13,0.00697232969105244,-0.0113653587177396,-0.026051739230752,-0.5,-0.00480204168707132,-0.0393217764794827
14,0.00278708897531033,-0.0173360612243414,-0.0229181032627821,-0.5,-0.00467382185161114,-0.0358695723116398
15,-0.00253658997826278,-0.0244137402623892,-0.0221461486071348,-0.5,-0.00471171643584967,-0.0341424085199833
16,-0.00511576887220144,-0.027356406673789,-0.0204084683209658,-0.5,-0.00217993231490254,-0.0282495152205229
17,-0.00493611954152584,-0.0253851413726807,-0.0167860947549343,-0.5,0.00314566516317427,-0.0192100442945957
18,-0.00374533864669502,-0.0208595283329487,-0.0132216792553663,-0.5,0.00895008444786072,-0.0115239946171641
19,-0.00257193460129201,-0.016396775841713,-0.011287153698504,-0.5,0.0130597297102213,-0.00720870355144143
20,-0.00108876044396311,-0.0129463160410523,-0.00957911182194948,-0.5,0.0161716528236866,-0.00485816411674023
21,0.00109636387787759,-0.00967362616211176,-0.00560761941596866,-0.5,0.0203232411295176,-0.00225776573643088
22,0.00240880623459816,-0.00672476831823587,0.000284751586150378,-0.5,0.0246930886059999,0.000631283677648753
23,0.00180573668330908,-0.00546832242980599,0.00671228533610702,-0.5,0.0273956097662449,0.0035687789786607
24,-0.000938520126510412,-0.00723676895722747,0.0118776066228747,-0.5,0.0276659596711397,0.00571375247091055
25,-0.00540362158790231,-0.0114162899553776,0.0136614646762609,-0.5,0.0262296032160521,0.00626328401267529
26,-0.00982253532856703,-0.0153990648686886,0.0128088667988777,-0.5,0.0254563204944134,0.00647725537419319
27,-0.0134142693132162,-0.0173675697296858,0.0118942484259605,-0.5,0.0261485278606415,0.00786353461444378
28,-0.0164623539894819,-0.0175180844962597,0.0124226110056043,-0.5,0.0267343036830425,0.0106807546690106
29,-0.0185708776116371,-0.016944857314229,0.0153668522834778,-0.5,0.0271194037050009,0.0145527916029096
30,-0.0182143561542034,-0.015433331951499,0.0221031215041876,-0.5,0.0295341685414314,0.0197821296751499
31,-0.0154051827266812,-0.0126651367172599,0.0317959785461426,-0.5,0.034082043915987,0.0255235712975264
32,-0.0126233268529177,-0.00972121208906174,0.0412541441619396,-0.5,0.0380463004112244,0.0295029319822788
33,-0.0103920726105571,-0.00638006487861276,0.0493647269904613,-0.5,0.0408098250627518,0.0324280634522438
34,-0.00759663851931691,-0.00171265413518995,0.0567287616431713,-0.5,0.0439436994493008,0.0369672738015652
35,-0.00473262835294008,0.00361892161890864,0.0624544508755207,-0.5,0.0477558113634586,0.0433114059269428
36,-0.00346293626353145,0.00776345701888204,0.0648810938000679,-0.5,0.0506632402539253,0.0496463663876057
37,-0.00536602782085538,0.00854060240089893,0.0638828501105309,-0.5,0.0509216338396072,0.0540739111602306
38,-0.0100941844284534,0.00578214460983872,0.0613430291414261,-0.5,0.0490172915160656,0.0563327334821224
39,-0.0160880200564861,0.00108753785025328,0.0596379823982716,-0.5,0.046770554035902,0.0574622042477131
40,-0.0222374852746725,-0.00436698738485575,0.0598594099283218,-0.5,0.0453574657440186,0.0578260309994221
41,-0.0267136674374342,-0.00878993701189756,0.0615815408527851,-0.5,0.0455793403089046,0.0581352300941944
42,-0.0276879649609327,-0.0103051345795393,0.0640002712607384,-0.5,0.0474364198744297,0.0595806166529655
43,-0.0263452045619488,-0.00960003677755594,0.0656850263476372,-0.5,0.0492429658770561,0.061950296163559
44,-0.0256977025419474,-0.00894326623529196,0.0645400285720825,-0.5,0.0491923615336418,0.0644329562783241
45,-0.0273623764514923,-0.0102867353707552,0.0596608221530914,-0.5,0.0466313622891903,0.0663857385516167
46,-0.0311006288975477,-0.0141127305105329,0.0526695288717747,-0.5,0.0418892800807953,0.0669964328408241
47,-0.0342877618968487,-0.0172455906867981,0.0475351922214031,-0.5,0.0375223346054554,0.0673411563038826
48,-0.034175019711256,-0.0160893313586712,0.0468924529850483,-0.5,0.0362258367240429,0.0694100186228752
49,-0.0306295827031136,-0.0114830527454615,0.0494303368031979,0.0513361059129238,0.0375963747501373,0.0725462213158607
50,-0.0253361351788044,-0.00578348757699132,0.0531990230083466,0.5,0.0399137251079082,0.0752786546945572
51,-0.019994106143713,0.00054930814076215,0.0585199855268002,0.5,0.0431242622435093,0.078591987490654
52,-0.0111821303144097,0.0110315792262554,0.0683368816971779,0.5,0.0518725253641605,0.0885897949337959
53,0.00313856033608317,0.026379669085145,0.0821903273463249,-0.473219960927963,0.0675977617502213,0.107629686594009
54,0.0149396462365985,0.0379590801894665,0.0924373045563698,-0.5,0.0808204635977745,0.124598056077957
55,0.0200045760720968,0.0421501770615578,0.0952278822660446,-0.5,0.0861649364233017,0.131592363119125
56,0.0226786471903324,0.0444039702415466,0.0939868241548538,-0.5,0.0884703248739243,0.133083507418633
57,0.0239754915237427,0.0464934967458248,0.0908068716526031,-0.5,0.0904945582151413,0.133031919598579
58,0.0216927509754896,0.0468532890081406,0.0857345312833786,-0.5,0.0904262363910675,0.131558194756508
59,0.0151442661881447,0.0446407981216908,0.0794614106416702,-0.5,0.0857871100306511,0.127190113067627
60,0.00506911380216479,0.0380994863808155,0.0727253407239914,-0.5,0.0755083113908768,0.117461085319519
61,-0.00440882053226233,0.0285341572016478,0.0677159130573273,-0.5,0.063109003007412,0.104740843176842
62,-0.00489374715834856,0.0240519475191832,0.069509468972683,-0.5,0.0573466010391712,0.0991883128881454
63,0.00628726556897163,0.029249457642436,0.078838512301445,-0.5,0.0624305568635464,0.106680519878864
64,0.0202064402401447,0.0380939953029156,0.0881122425198555,-0.5,0.0714805647730827,0.11951407045126
65,0.0295490603893995,0.0453890487551689,0.0927111059427261,-0.5,0.0781501084566116,0.129750594496727
66,0.0320496931672096,0.0485061965882778,0.0922628119587898,-0.5,0.0795962437987328,0.13396380841732
67,0.0264704432338476,0.0442662388086319,0.0856555849313736,-0.5,0.0730496793985367,0.129394635558128
68,0.0163900889456272,0.0350951999425888,0.075053907930851,-0.5,0.0611564666032791,0.119376510381699
69,0.00614182185381651,0.0258828867226839,0.0641765147447586,-0.5,0.0490424074232578,0.109695069491863
70,-0.00211282935924828,0.0196729712188244,0.0559987351298332,-0.5,0.0406142473220825,0.103568613529205
71,-0.00745287770405412,0.0166054107248783,0.0518221035599709,-0.5,0.0375024974346161,0.101249165832996
72,-0.00944940932095051,0.0156388785690069,0.0511909201741219,-0.5,0.0388984568417072,0.10197639465332
73,-0.0086656715720892,0.0160907302051783,0.0527374669909477,-0.5,0.0428173616528511,0.104816563427448
74,-0.00860204920172691,0.0153468083590269,0.0531022734940052,-0.5,0.0451891683042049,0.106058321893215
75,-0.0107459099963307,0.012595497071743,0.0508215390145779,-0.5,0.0438005365431309,0.103622436523438
76,-0.0126107623800635,0.00982039514929056,0.0478843972086906,-0.5,0.0402427911758423,0.0996846556663513
77,-0.0116026420146227,0.00900808442384005,0.0470728538930416,-0.5,0.0374895296990871,0.0976109802722931
78,-0.00668719410896301,0.0121455686166883,0.0500316545367241,-0.5,0.0380129963159561,0.0997285768389702
79,-0.000384366285288706,0.0174810476601124,0.0542724505066872,-0.5,0.040634348988533,0.103726617991924
80,0.00294478097930551,0.0197200458496809,0.0555346384644508,-0.5,0.0419295281171799,0.104171797633171
81,0.00375269539654255,0.0176764857023954,0.0540721900761127,-0.5,0.0417345650494099,0.100424617528915
82,0.00645280862227082,0.0148099539801478,0.0531643740832806,-0.5,0.042380053550005,0.0966377407312393
83,0.0136472256854177,0.0151168871670961,0.0547562912106514,-0.5,0.0453053340315819,0.0965481400489807
84,0.0233308970928192,0.0196550711989403,0.0575224049389362,-0.5,0.0490511730313301,0.100266739726067
85,0.0277692452073097,0.0223068427294493,0.0553484335541725,-0.5,0.0475261211395264,0.101351730525494
86,0.0207318570464849,0.0163793805986643,0.0445139482617378,-0.5,0.0367921143770218,0.0935840234160423
87,0.00521795032545924,0.00424135709181428,0.0301318038254976,-0.5,0.0214438140392303,0.0795774534344673
88,-0.00908187311142683,-0.00569874653592706,0.0205021351575851,-0.5,0.0102994069457054,0.0676211342215538
89,-0.0152248730883002,-0.00894751492887735,0.0189563799649477,-0.5,0.00796522200107574,0.0623697936534882
90,-0.0153892831876874,-0.008486601524055,0.0216423366218805,-0.5,0.0112855890765786,0.0610072389245033
91,-0.0146072870120406,-0.00810038112103939,0.023658812046051,-0.5,0.015519174747169,0.0593214929103851
92,-0.0139186671003699,-0.00821306090801954,0.0247917398810387,-0.5,0.0197649598121643,0.0567952618002892
93,-0.0129044931381941,-0.00837286934256554,0.0263668522238731,-0.5,0.0239287577569485,0.0552214905619621
94,-0.0122344335541129,-0.00879773963242769,0.0273258294910192,-0.5,0.0267261527478695,0.0556884333491325
95,-0.0126982489600778,-0.0108575541526079,0.0265729743987322,-0.5,0.0274967662990093,0.0570958033204079
96,-0.0152159864082932,-0.0164838396012783,0.0247236527502537,-0.5,0.0260478276759386,0.0565513893961906
97,-0.0200562290847301,-0.0244886390864849,0.0232590734958649,-0.5,0.0228635612875223,0.0530922114849091
98,-0.0257325023412704,-0.0309888366609812,0.023120604455471,-0.5,0.0190350003540516,0.0493999011814594
99,-0.0292381625622511,-0.033073503524065,0.024449560791254,-0.5,0.0159870106726885,0.0482501424849033
100,-0.0282466486096382,-0.0298582073301077,0.027334863319993,-0.5,0.0156568605452776,0.0503006316721439
101,-0.0232963263988495,-0.02276561409235,0.0310764387249947,-0.5,0.0190234482288361,0.0541148521006107
102,-0.0158733744174242,-0.0136819621548057,0.0350326299667358,-0.5,0.0255955383181572,0.0584003925323486
103,-0.00772245461121202,-0.00463885022327304,0.0389312990009785,-0.5,0.0328761003911495,0.0626582950353622
104,-0.00172363058663905,0.00109955493826419,0.0413539931178093,-0.5,0.0373252592980862,0.0652157589793205
105,0.000879616942256689,0.00227529951371253,0.0414868220686913,-0.5,0.0383282043039799,0.0654279738664627
106,0.0012146431254223,0.000709131942130625,0.0408253334462643,-0.5,0.0377759337425232,0.0648486539721489
107,0.000533534213900566,-0.00145524530671537,0.0413794592022896,-0.5,0.0368480868637562,0.064900666475296
108,0.000501623202580959,-0.00208370201289654,0.044770285487175,-0.5,0.0367076061666012,0.0667881742119789
109,0.0025047198869288,0.000429313367931172,0.051242470741272,-0.5,0.0385095663368702,0.0716373175382614
110,0.00568120507523417,0.00550339883193374,0.0581315830349922,-0.5,0.0414987318217754,0.0792500004172325
111,0.00818001944571733,0.0112920114770532,0.0625061094760895,-0.5,0.0442322939634323,0.0876844674348831
112,0.00849684420973063,0.0152241010218859,0.0627485662698746,-0.5,0.0454152710735798,0.0934600308537483
113,0.00645850924775004,0.015103361569345,0.0581379979848862,-0.5,0.0443698950111866,0.0938187912106514
114,0.0033018309623003,0.0114054325968027,0.0501888282597065,-0.5,0.04171546921134,0.0888742357492447
115,-0.00110968656372279,0.00585398729890585,0.0409340932965279,-0.5,0.0372153297066689,0.0795546770095825
116,-0.00732367858290672,0.000435426598414779,0.0312297381460667,-0.5,0.030574407428503,0.0676149502396584
117,-0.0132052917033434,-0.00219395291060209,0.0227682944387197,-0.5,0.0242138598114252,0.0568959042429924
118,-0.0150804435834289,-0.000451404805062339,0.0182936564087868,-0.5,0.0217413380742073,0.0505550280213356
119,-0.0124845467507839,0.00374673213809729,0.0179126616567373,-0.5,0.0231726504862309,0.0480561517179012
120,-0.00721841817721725,0.00802583061158657,0.0201645940542221,-0.5,0.0269227512180805,0.0480544082820416
121,0.0022987260017544,0.0143312839791179,0.0267258156090975,-0.5,0.0357716642320156,0.0529713071882725
122,0.0160240959376097,0.0227448791265488,0.0374473370611668,-0.5,0.0501844137907028,0.0630491375923157
123,0.0269528608769178,0.0272836182266474,0.0453463904559612,-0.5,0.0620302185416222,0.0719175636768341
124,0.0275944378226995,0.0228088293224573,0.0436859503388405,-0.5,0.0630074962973595,0.0730292424559593
125,0.0180175565183163,0.0109471706673503,0.0341411344707012,-0.5,0.0540296137332916,0.066422812640667
126,0.00548156024888158,-0.00154711131472141,0.0239660739898682,-0.5,0.0428467653691769,0.0584798492491245
127,-0.00336364004760981,-0.00972610525786877,0.0173852629959583,-0.5,0.0352690070867538,0.053791455924511
128,-0.00624262588098645,-0.0119704455137253,0.01523248385638,-0.5,0.0333797000348568,0.0523335114121437
129,-0.00431481190025806,-0.00819035898894072,0.0177100375294685,-0.5,0.0368726998567581,0.0530240498483181
130,-0.00117731478530914,-0.000583515560720116,0.022640772163868,-0.5,0.0423603728413582,0.0542976334691048
131,-0.000229795332415961,0.0072465087287128,0.025841549038887,-0.5,0.0457854382693768,0.0539458803832531
132,-0.0009266008855775,0.0138252135366201,0.0261092334985733,-0.5,0.0474075265228748,0.0520349331200123
133,9.84803118626587E-05,0.0195468235760927,0.0267014969140291,-0.5,0.0503618791699409,0.0512488223612309
134,0.00257478700950742,0.0228321980684996,0.0294109079986811,-0.5,0.0533120930194855,0.0517861321568489
135,0.002567965304479,0.0219801217317581,0.0314430706202984,-0.5,0.0520911104977131,0.0511593818664551
136,-0.0026868658605963,0.0168082341551781,0.0285099092870951,-0.5,0.0453310087323189,0.0465775206685066
137,-0.0117906471714377,0.00897165574133396,0.0204998441040516,-0.5,0.035490158945322,0.0383926369249821
138,-0.0195732172578573,0.00274921278469265,0.0126274731010199,-0.5,0.0281961858272552,0.0320138148963451
139,-0.0220587402582169,0.00131640920881182,0.00994318537414074,-0.5,0.0275566820055246,0.0315543860197067
140,-0.0192120764404535,0.00395338097587228,0.0131745403632522,-0.5,0.0319331549108028,0.0359188988804817
141,-0.014756228774786,0.00615992536768317,0.0174351055175066,-0.5,0.0353668890893459,0.04019895195961
142,-0.0126636363565922,0.00400750664994121,0.0175703149288893,-0.5,0.0337059684097767,0.0400429405272007
143,-0.0127805350348353,-0.00143312430009246,0.0147814098745584,-0.5,0.0285541210323572,0.035036139190197
144,-0.0130786607041955,-0.0067135151475668,0.0137759000062943,-0.5,0.0235912781208754,0.027335774153471
145,-0.0126426350325346,-0.00956443231552839,0.0167759470641613,-0.5,0.020621670410037,0.0197889804840088
146,-0.011269822716713,-0.00986287463456392,0.0216423608362675,-0.5,0.0197852812707424,0.01389588881284
147,-0.00889775063842535,-0.00919559597969055,0.0253411885350943,-0.5,0.0202786009758711,0.010068828240037
148,-0.00646888976916671,-0.00950770545750856,0.0269180294126272,-0.5,0.0203967858105898,0.00828367378562689
149,-0.0043668788857758,-0.0100341448560357,0.0269316732883453,-0.5,0.0204584337770939,0.00900354515761137
150,-0.000570221454836428,-0.00714192306622863,0.0269100125879049,-0.5,0.023568157106638,0.0140614379197359
151,0.00592248886823654,0.000458363152574748,0.0281860083341599,-0.5,0.030721003189683,0.0231298077851534
152,0.0120813306421041,0.00959932059049606,0.0302742905914783,-0.5,0.0386320650577545,0.0324032232165337
153,0.013641013763845,0.0159030985087156,0.031099759042263,-0.5,0.0428116582334042,0.0377343706786633
154,0.010975606739521,0.0180743001401424,0.0297571551054716,-0.5,0.04206782579422,0.0378671698272228
155,0.00790482759475708,0.0178477503359318,0.026785247027874,-0.5,0.0388590879738331,0.0353183001279831
156,0.00499705132097006,0.0162811186164618,0.0220358464866877,-0.5,0.0353841707110405,0.0325267873704433
157,-0.000651720736641437,0.0123763810843229,0.0154068358242512,-0.5,0.0309195928275585,0.0281853377819061
158,-0.00878021493554115,0.00669210869818926,0.00899309851229191,-0.5,0.0255814474076033,0.0220133140683174
159,-0.0154644409194589,0.00228857784532011,0.00476491823792458,-0.5,0.0221864096820354,0.0171408709138632
160,-0.0192674770951271,0.000380914454581216,0.0014058327069506,-0.5,0.0214577484875917,0.0148040391504765
161,-0.0201026480644941,0.00137744273524731,-0.0016822008183226,-0.5,0.0230181720107794,0.0146361645311117
162,-0.0169387590140104,0.00637996615841985,-0.00269170687533915,-0.5,0.0269963908940554,0.0172471534460783
163,-0.0121517945080996,0.012566240504384,-0.00204122695140541,-0.5,0.0301177278161049,0.0211882181465626
164,-0.0104488311335444,0.0157474521547556,-0.0014250559033826,-0.5,0.0285992156714201,0.0239367801696062
165,-0.012846365571022,0.0158883444964886,-0.0017375301104039,-0.5,0.0231181550770998,0.0251434165984392
166,-0.0169519279152155,0.0137395011261106,-0.00422227988019586,-0.5,0.0160240139812231,0.0244855117052794
167,-0.0200077909976244,0.00969654507935047,-0.00776897044852376,-0.5,0.0098533732816577,0.0228901989758015
168,-0.0193091239780188,0.00634175352752209,-0.00846256501972675,-0.5,0.00856366194784641,0.0235603172332048
169,-0.01512988563627,0.00434469571337104,-0.006348283495754,-0.5,0.0123455747961998,0.0256386492401361
170,-0.0115101207047701,0.000725797901395708,-0.00565563421696424,-0.5,0.0157833527773619,0.0241405460983515
171,-0.0097004733979702,-0.00447432324290276,-0.00660172803327441,-0.5,0.0160410702228546,0.0185141935944557
172,-0.00773258786648512,-0.00734061375260353,-0.00601802952587605,-0.5,0.0151225244626403,0.0131528386846185
173,-0.00588460313156247,-0.00606559449806809,-0.00389159703627229,-0.5,0.0149105284363031,0.0111873187124729
174,-0.00540587585419416,-0.00221998756751418,-0.00217217253521085,-0.5,0.0155787356197834,0.0132471928372979
175,-0.00403662025928497,0.00321771786548197,0.000511811522301286,-0.5,0.0179333686828613,0.0201077163219452
176,0.000914043746888638,0.010366334579885,0.00642354274168611,-0.5,0.0226239431649446,0.0322962738573551
177,0.00688312062993646,0.0170696526765823,0.0132814394310117,-0.5,0.0268851909786463,0.0468046702444553
178,0.00908888131380081,0.0197450015693903,0.0170476771891117,-0.5,0.0271697267889977,0.057329460978508
179,0.00564452260732651,0.0174534283578396,0.0166945923119783,-0.5,0.0230312794446945,0.0589036867022514
180,-0.00217136787250638,0.0124813532456756,0.0137784834951162,-0.5,0.0166162569075823,0.0515475869178772
181,-0.0109783532097936,0.00793960597366095,0.0104798972606659,-0.5,0.0107010519132018,0.0393988005816936
182,-0.0177977290004492,0.00584019208326936,0.00808470416814089,-0.5,0.00662448350340128,0.0272095836699009
183,-0.0226186122745276,0.00569477071985602,0.00547559792175889,-0.5,0.00351170194335282,0.0171439610421658
184,-0.0263563916087151,0.00592603115364909,0.00168441899586469,-0.5,0.000838854117318988,0.0090081300586462
185,-0.0274712964892387,0.00747484480962157,-0.000613483309280127,-0.5,0.000779913098085672,0.00375294266268611
186,-0.0243642833083868,0.0118556832894683,0.00127340946346521,-0.5,0.00473262509331107,0.00239240401424468
187,-0.0182642973959446,0.0177814029157162,0.00642867153510451,-0.5,0.0105715999379754,0.00371165806427598
188,-0.0114767719060183,0.0230108182877302,0.0127198901027441,-0.5,0.0155724044889212,0.00643275445327163
189,-0.00529137998819351,0.0262902490794659,0.0187163483351469,-0.5,0.0188954398036003,0.0101960962638259
190,0.000642564205918461,0.0280687846243382,0.0236462336033583,-0.5,0.0213271491229534,0.0156086385250092
191,0.00659521063789725,0.0298469010740519,0.0267355442047119,-0.5,0.0233411155641079,0.0225553680211306
192,0.0105563476681709,0.0315475352108479,0.0267332028597593,-0.5,0.0238212551921606,0.028441684320569
193,0.0101850721985102,0.031434990465641,0.0234401598572731,-0.5,0.0220047011971474,0.0309588871896267
194,0.00620993133634329,0.0287416484206915,0.0187691524624825,-0.47105398774147,0.0190787985920906,0.0298533607274294
195,0.00151759514119476,0.0246305912733078,0.0153832416981459,-0.255248218774796,0.0165460519492626,0.0261467080563307
196,-0.00251449993811548,0.0204964708536863,0.0143645368516445,-0.0637158825993538,0.0141665348783135,0.021257296204567
197,-0.00709962472319603,0.0163078233599663,0.0139931226149201,0.176395907998085,0.0101532880216837,0.0156992059201002
198,-0.01302102021873,0.0120094986632466,0.0126768471673131,0.5,0.00454437080770731,0.00976609531790018
199,-0.0177909918129444,0.00982018653303385,0.0120748672634363,0.5,0.00120866904035211,0.00588031904771924
200,-0.017846679314971,0.0117714311927557,0.0142467208206654,0.5,0.00344885885715485,0.00653259735554457
201,-0.0137236565351486,0.0155081702396274,0.0178764350712299,0.5,0.00897426903247833,0.00943968817591667
202,-0.0089868251234293,0.0180991161614656,0.0203704219311476,0.5,0.0133828548714519,0.0106324637308717
203,-0.00506453821435571,0.0201055780053139,0.0203772187232971,0.5,0.0157361291348934,0.00955591630190611
204,-0.00201555015519261,0.0213971361517906,0.016565814614296,0.5,0.0167749263346195,0.00681450963020325
205,-0.00161396933253855,0.0195857137441635,0.00802145805209875,0.5,0.0150847351178527,0.00217719911597669
206,-0.00498176459223032,0.0140453418716788,-0.00315630226396024,0.5,0.00968214683234692,-0.00361840426921844
207,-0.00821739621460438,0.00894487276673317,-0.0118704689666629,0.5,0.00474591599777341,-0.00593780307099223
208,-0.00602319836616516,0.00916990451514721,-0.0148566523566842,0.5,0.00576730165630579,0.000415932008763775
209,0.000637417891994119,0.0132012953981757,-0.0142333945259452,0.5,0.0123207401484251,0.0124924797564745
210,0.0057850475423038,0.0156756658107042,-0.0147173572331667,0.5,0.0189340077340603,0.021949389949441
211,0.00638242671266198,0.015317770652473,-0.0182776916772127,0.5,0.0219010654836893,0.0257521644234657
212,0.00334262032993138,0.0139437271282077,-0.023933332413435,0.5,0.0209848079830408,0.0251661539077759
213,-0.0019587513525039,0.0121734663844109,-0.0310278441756964,0.5,0.0166261792182922,0.0206939987838268
214,-0.00632075360044837,0.0117719797417521,-0.0378998965024948,0.369615793228149,0.0107463048771024,0.0149595169350505
215,-0.00496847648173571,0.0162161979824305,-0.0405795499682426,0.173749938607216,0.00797450076788664,0.0127510344609618
216,0.00113993149716407,0.0243434924632311,-0.0384479574859142,-0.376610815525055,0.0093330591917038,0.0141686517745256
217,0.00366856600157917,0.0289745200425386,-0.0371095798909664,-0.5,0.0083600552752614,0.0131093179807067
218,-0.000986504135653377,0.026997946202755,-0.040104866027832,-0.5,0.00183109135832638,0.00585056515410542
219,-0.00746356882154942,0.0226421505212784,-0.0443000458180904,-0.5,-0.0051927356980741,-0.00410275906324387
220,-0.0109858866780996,0.0193137843161821,-0.0459946542978287,-0.5,-0.00838771462440491,-0.0112648783251643
221,-0.0126031069085002,0.0156111037358642,-0.046236339956522,-0.5,-0.00915082450956106,-0.0149942012503743
222,-0.0150986844673753,0.00954231340438128,-0.0476514250040054,-0.5,-0.0100526949390769,-0.0179846789687872
223,-0.0174625553190708,0.00313395913690329,-0.0493875704705715,-0.5,-0.0105674220249057,-0.0204057991504669
224,-0.0165432840585709,-1.07449768620427E-05,-0.0490797311067581,-0.5,-0.00929079297930002,-0.020583825185895
225,-0.0121073620393872,0.000755701679736376,-0.0463253147900105,0.124261632561684,-0.00660461792722344,-0.0181728675961494
226,-0.00534413056448102,0.00437566498294473,-0.0413447692990303,0.391169905662537,-0.0024961088784039,-0.013383325189352
227,0.0044090966694057,0.0108318151906133,-0.0335309877991676,-0.0378218851983547,0.00453308736905456,-0.00595802813768387
228,0.0141105791553855,0.017161825671792,-0.0258455183357,-0.5,0.0116058336570859,0.000393359514418989
229,0.0179156754165888,0.0185268558561802,-0.0233460310846567,-0.5,0.0136072905734181,0.000442943681264296
230,0.0150590082630515,0.0142953796312213,-0.026359086856246,-0.5,0.0105715608224273,-0.00533447694033384
231,0.0088938819244504,0.00683218706399202,-0.0319438390433788,-0.5,0.00554462568834424,-0.0133724119514227
232,0.00430441414937377,8.37710249470547E-05,-0.036442793905735,-0.5,0.00202744407579303,-0.0200568195432425
233,0.00246106158010662,-0.00434954185038805,-0.0385759212076664,-0.5,0.00036574131809175,-0.0254524517804384
234,-0.000813668128103018,-0.00891678780317307,-0.0406350530683994,-0.5,-0.00286376778967679,-0.0334983617067337
235,-0.00598538760095835,-0.013055213727057,-0.0427321903407574,-0.5,-0.00764746312052011,-0.0430780537426472
236,-0.00942543521523476,-0.0135726789012551,-0.043017566204071,-0.1940046697855,-0.0109149320051074,-0.0490484312176704
237,-0.0106623461470008,-0.0105915563181043,-0.0421770513057709,0.5,-0.0118494443595409,-0.050269041210413
238,-0.0110125979408622,-0.00596414692699909,-0.0413531437516212,0.5,-0.0105738528072834,-0.0482277534902096
239,-0.00873221457004547,0.000876257545314729,-0.0388532914221287,0.5,-0.00510022370144725,-0.0422568693757057
240,-0.00161251716781408,0.0110260918736458,-0.0330474637448788,0.5,0.00600501382723451,-0.0309112872928381
241,0.00711061898618937,0.0216123107820749,-0.0264304243028164,0.5,0.0190708432346582,-0.0170853417366743
242,0.0115495827049017,0.0276225749403238,-0.0231977812945843,0.5,0.0278828665614128,-0.00728116370737553
243,0.0113833602517843,0.028319213539362,-0.0229697711765766,0.5,0.030854694545269,-0.00365980411879718
244,0.0110292779281735,0.0274149589240551,-0.0214067455381155,0.5,0.03131203353405,-0.00196766736917198
245,0.0141543056815863,0.0284948460757732,-0.015421056188643,0.5,0.0333770699799061,0.00240507605485618
246,0.0224150363355875,0.0328958779573441,-0.00527068926021457,0.5,0.0399247035384178,0.0105953104794025
247,0.0329655520617962,0.0377359837293625,0.00376053340733051,0.5,0.0482743084430695,0.0193811431527138
248,0.0394707433879375,0.0386898182332516,0.00599711900576949,0.5,0.0523569770157337,0.0238276645541191
249,0.0390547476708889,0.0357616543769836,0.0023885378614068,0.5,0.0517433285713196,0.0221397876739502
250,0.0325185023248196,0.0304088685661554,-0.00345176365226507,0.5,0.0487400554120541,0.0152857778593898
251,0.0196048859506845,0.0204721540212631,-0.0116257611662149,0.5,0.040135633200407,0.00301494146697223
252,0.00279607647098601,0.00656379107385874,-0.0212006643414497,0.5,0.0248421858996153,-0.012456813827157
253,-0.00735194841399789,-0.00136883719824255,-0.0246231108903885,0.5,0.0137620298191905,-0.0208249408751726
254,-0.00374977244064212,0.00293806637637317,-0.0184153709560633,0.5,0.0157039873301983,-0.015713470056653
255,0.00560286268591881,0.011083927936852,-0.0110704926773906,0.5,0.0236649569123983,-0.00539569370448589
256,0.00982059165835381,0.0131474528461695,-0.0105027165263891,0.5,0.0274709369987249,-0.000425139558501542
257,0.00927959941327572,0.0100107016041875,-0.0145896142348647,0.5,0.0264696478843689,-0.00149000505916774
258,0.010651052929461,0.00802777614444494,-0.0171653255820274,0.5,0.0251511130481958,-0.00338843138888478
259,0.0158434193581343,0.00942803919315338,-0.0160526372492313,0.5,0.0254711341112852,-0.00418203976005316
260,0.0210297740995884,0.0119139710441232,-0.0138776488602161,0.5,0.0265399347990751,-0.00553210638463497
261,0.0231107585132122,0.0140434885397553,-0.0131271295249462,0.5,0.027662493288517,-0.00756969815120101
262,0.0228438824415207,0.0165805444121361,-0.0130638126283884,0.5,0.029020382091403,-0.00877410545945168
263,0.0219463240355253,0.0191270299255848,-0.0127652492374182,0.5,0.0301117021590471,-0.00880459137260914
264,0.0212931428104639,0.0202512945979834,-0.012181113474071,0.5,0.0305649191141129,-0.00786294508725405
265,0.0214167889207602,0.0202854387462139,-0.0105473548173904,0.5,0.0315034985542297,-0.00501354411244392
266,0.0209490247070789,0.0185399521142244,-0.00911763031035662,0.5,0.0319803953170776,-0.00101104041095823
267,0.0193570666015148,0.0144581906497478,-0.00943460129201412,0.5,0.03067696839571,0.00257980730384588
268,0.0189415719360113,0.0110321911051869,-0.00972374062985182,0.5,0.0294162537902594,0.00606838520616293
269,0.0196679551154375,0.00960472691804171,-0.00913809612393379,0.5,0.0286322683095932,0.0084556033834815
270,0.0192449726164341,0.00817735213786364,-0.00881733186542988,0.5,0.0269343052059412,0.00787398591637611
271,0.0184903685003519,0.00671615172177553,-0.00800668075680733,0.5,0.0248326938599348,0.0057478453963995
272,0.0201774127781391,0.0072242571040988,-0.0052145691588521,0.5,0.0238320324569941,0.00490715354681015
273,0.0245805531740189,0.0103765456005931,-0.000836640247143805,0.5,0.0243513602763414,0.00636331178247929
274,0.0298465806990862,0.0155869256705046,0.00413983734324574,0.5,0.0256354473531246,0.00971022434532642
275,0.0344802364706993,0.021700294688344,0.00924049969762564,0.5,0.0268255956470966,0.0133376540616155
276,0.0373947024345398,0.0257014706730843,0.0127680450677872,0.5,0.0267755854874849,0.014684634283185
277,0.0378599353134632,0.0245862528681755,0.0126267578452826,0.5,0.0243261586874723,0.0129489051178098
278,0.035945001989603,0.0187785606831312,0.00890341121703386,0.5,0.0193550679832697,0.00958009902387857
279,0.0332471691071987,0.0119407493621111,0.00402368558570743,0.5,0.0135064907371998,0.00671245250850916
280,0.0329605638980865,0.00832554697990417,0.00123269576579332,0.5,0.0100713456049562,0.00611225981265306
281,0.0371356979012489,0.00889268517494202,0.0020582783035934,0.5,0.0111479321494699,0.00662037543952465
282,0.0468117818236351,0.0138784106820822,0.00757649447768927,0.5,0.0178869236260653,0.00871464889496565
283,0.0612564869225025,0.0240669790655375,0.0187537278980017,0.5,0.0298401545733213,0.0161364804953337
284,0.0754216536879539,0.035568755120039,0.0324488282203674,0.5,0.0423058532178402,0.0273933168500662
285,0.0837972313165665,0.0428125709295273,0.0428972914814949,0.5,0.0499661639332771,0.03694037348032
286,0.0839080512523651,0.0432995818555355,0.0460688509047031,0.5,0.0497801750898361,0.0414719469845295
287,0.0762732028961182,0.0376363880932331,0.0418407283723354,-0.340129107236862,0.0418503470718861,0.0408563800156116
288,0.0640108957886696,0.0293516889214516,0.0336633659899235,-0.5,0.0297300294041634,0.037572119385004
289,0.0512710958719254,0.0224625021219254,0.0252627935260534,-0.5,0.0176572035998106,0.0339919999241829
290,0.0404513962566853,0.0180656816810369,0.0176255609840155,-0.5,0.00775244692340493,0.0297733452171087
291,0.0319807231426239,0.0150620331987739,0.00996277388185263,-0.5,2.34420076594688E-06,0.0246551707386971
292,0.0270454548299313,0.0142871951684356,0.00397650711238384,-0.5,-0.00489463796839118,0.0213372465223074
293,0.0262449141591787,0.016869131475687,0.00208380888216197,-0.5,-0.00598352262750268,0.0208688639104366
294,0.0265907347202301,0.0198623705655336,0.00161793373990804,-0.5,-0.00573375821113586,0.0194736402481794
295,0.0243044067174196,0.0194940734654665,-0.00185240688733757,-0.5,-0.00766233075410128,0.0140244979411364
296,0.0191778484731913,0.015838785097003,-0.00782465282827616,-0.5,-0.0117364944890141,0.00622006272897124
297,0.0141389137133956,0.0117232380434871,-0.0119770197197795,-0.5,-0.0160654243081808,0.000147964354255237
298,0.0120039293542504,0.00886317063122988,-0.0112339062616229,-0.5,-0.0192095711827278,-0.0022281666751951
299,0.0131702004000545,0.00631750700995326,-0.00658863317221403,-0.38035836815834,-0.020571218803525,-0.0021973941475153
300,0.0156508628278971,0.00300740543752909,-0.0011095330119133,-0.212470814585686,-0.0207775086164474,-0.000830476346891373
301,0.0170445013791323,-0.000775827909819782,0.00394479092210531,-0.088670089840889,-0.0203329008072615,0.00157984159886837
302,0.0166486073285341,-0.00421930383890867,0.00890709646046162,-0.0180761963129044,-0.0191835891455412,0.00446991994976997
303,0.0154320523142815,-0.00634970655664802,0.0134508330374956,-0.00338518107309937,-0.0178954545408487,0.00806613825261593
304,0.0149341318756342,-0.00636527175083756,0.017239099368453,-0.0691897198557854,-0.0167537834495306,0.0125768734142184
305,0.0154071282595396,-0.00477744080126286,0.0200479738414288,-0.206830427050591,-0.0160728991031647,0.016960620880127
306,0.0147922541946173,-0.0038070569280535,0.0207791142165661,-0.34443736076355,-0.0175164602696896,0.0188890267163515
307,0.0115771358832717,-0.00520856538787484,0.0186589974910021,-0.385661959648132,-0.0220052022486925,0.0167984645813704
308,0.00694776186719537,-0.00878618843853474,0.0140645895153284,-0.269957363605499,-0.0280514266341925,0.0119936987757683
309,0.00354685029014945,-0.0132327852770686,0.0087615167722106,-0.0375244095921516,-0.0320588499307632,0.00708022993057966
310,0.00286701880395412,-0.0163602270185947,0.00521929794922471,0.182302266359329,-0.0309689771384001,0.00442153867334127
311,0.00381977413780987,-0.0164327342063189,0.00375559134408832,0.292940825223923,-0.0259528812021017,0.00491464091464877
312,0.00401341216638684,-0.0144193479791284,0.00250971806235611,0.322208195924759,-0.0206999722868204,0.00650064181536436
313,0.00232191570103168,-0.0125401513651013,0.000908349524252117,0.326429665088654,-0.0170320961624384,0.00710768764838576
314,-2.14188276004279E-05,-0.0119245555251837,-9.09270238480531E-05,0.307948768138886,-0.0146153215318918,0.00707635981962085
315,-0.00135917321313173,-0.0125638972967863,-1.47727541843778E-06,0.292297810316086,-0.0129164401441813,0.0065535195171833
316,-0.00183811457827687,-0.0140098808333278,0.00096446496900171,0.336386024951935,-0.0123767238110304,0.0044310986995697
317,-0.00193450588267297,-0.0153984278440475,0.0024369468446821,0.489460855722427,-0.0137351583689451,0.00103611312806606
318,-0.00104070699308068,-0.0159049723297358,0.00375290494412184,0.5,-0.0173050370067358,-0.00258876173757017
319,0.00208802288398147,-0.0139878587797284,0.004908069036901,0.5,-0.0212900917977095,-0.00556538393720984
320,0.00816687848418951,-0.00793092884123325,0.00724894134327769,0.5,-0.0218046866357327,-0.00575559260323644
321,0.0144904749467969,-0.000762623734772205,0.0101427836343646,0.5,-0.0188205577433109,-0.00372499204240739
322,0.0182257257401943,0.00309830135665834,0.011852391064167,0.5,-0.015453914180398,-0.00196209060959518
323,0.0193600356578827,0.00378909870050848,0.0126439956948161,0.5,-0.0133068142458797,-0.000867303577251732
324,0.0181742794811726,0.00355460587888956,0.0129185914993286,0.5,-0.0130397360771894,-0.000687310006469488
325,0.016069870442152,0.00441763969138265,0.0126936174929142,0.5,-0.0139799118041992,-0.00161322136409581
326,0.0143951801583171,0.00705647701397538,0.0116580817848444,0.5,-0.0149302054196596,-0.00270498846657574
327,0.0125100445002317,0.010445867665112,0.00920901820063591,0.5,-0.016113955527544,-0.00268980977125466
328,0.00988151971250772,0.0131611879914999,0.00500182621181011,0.5,-0.0184543188661337,-0.00219682743772864
329,0.00780385872349143,0.0152313495054841,-0.000435284076957032,0.5,-0.0215443074703217,-0.00266380305401981
330,0.00753065245226026,0.0176154319196939,-0.00511025777086616,0.5,-0.0243862867355347,-0.00417708791792393
331,0.00749055342748761,0.0196142084896564,-0.0081080486997962,0.5,-0.0272101890295744,-0.0068983375094831
332,0.00655838288366795,0.0211845617741346,-0.00922320690006018,0.5,-0.029116565361619,-0.00936054065823555
333,0.00641169957816601,0.0241656117141247,-0.00754414545372128,0.5,-0.0283029526472092,-0.00858061853796244
334,0.0065056923776865,0.0275788027793169,-0.00503164855763316,0.5,-0.0259861312806606,-0.00590453157201409
335,0.00426549045369029,0.0281791761517525,-0.00496563035994768,0.5,-0.0244525577872992,-0.00571898790076375
336,0.00103658810257912,0.0261676777154207,-0.00616508815437555,0.5,-0.0229591708630323,-0.0071668210439384
337,-0.000487531069666147,0.0238219443708658,-0.0059384573251009,0.5,-0.0204959493130445,-0.00677486741915345
338,-0.00138046534266323,0.0211768783628941,-0.00505520729348063,0.5,-0.0186356939375401,-0.00560438586398959
339,-0.0037743654102087,0.0185943003743887,-0.00510310800746083,0.5,-0.018846457824111,-0.00544207636266947
340,-0.00820213835686445,0.0175154134631157,-0.0063979048281908,0.5,-0.0210013445466757,-0.00597081379964948
341,-0.0140634113922715,0.0176141075789928,-0.00863312371075153,0.5,-0.0237642452120781,-0.00669217947870493
342,-0.0202706567943096,0.0177633110433817,-0.0104974936693907,0.5,-0.0253602787852287,-0.00703217694535851
343,-0.0257491674274206,0.0168782323598862,-0.0107942121103406,0.5,-0.025226067751646,-0.00713877566158772
344,-0.0287793576717377,0.0144458087161183,-0.00890650693327188,0.5,-0.0228741429746151,-0.00728683220222592
345,-0.0288020577281713,0.0105760395526886,-0.00540541624650359,0.5,-0.0181594118475914,-0.00757190678268671
346,-0.0279385894536972,0.00543177546933293,-0.0030784560367465,0.5,-0.0132539151236415,-0.00919059105217457
347,-0.027319997549057,0.000599627266637981,-0.0039608865045011,0.5,-0.00974572729319334,-0.0124273533001542
348,-0.0264566522091627,-0.00224044313654304,-0.00829027686268091,0.5,-0.00780469225719571,-0.0156615637242794
349,-0.0256327278912067,-0.0035012608859688,-0.0153783513233066,0.5,-0.00758074037730694,-0.0179896336048841
350,-0.0246039927005768,-0.00414203200489283,-0.0226079300045967,0.5,-0.00772984512150288,-0.0196137186139822
351,-0.0222992058843374,-0.00428466452285647,-0.0276056844741106,0.5,-0.0063435360789299,-0.0200279653072357
352,-0.0182809941470623,-0.0033265664242208,-0.0302161872386932,0.5,-0.00254807923920453,-0.0180475786328316
353,-0.0138811310753226,-0.00119691074360162,-0.031417440623045,0.5,0.00248390785418451,-0.013640352524817
354,-0.0111471367999911,0.000973794318269938,-0.031909167766571,0.5,0.00617931084707379,-0.00824740901589394
355,-0.00945499446243048,0.00264069205150008,-0.0310735683888197,0.5,0.00833265297114849,-0.00327779329381883
356,-0.00765493558719754,0.00374364573508501,-0.0292241331189871,0.5,0.00974233727902174,-0.000435211433796212
357,-0.00628273701295257,0.00392961222678423,-0.0283720474690199,0.5,0.0101301362738013,-0.00081102893454954
358,-0.00575432647019625,0.00322543038055301,-0.029538132250309,0.5,0.00962694641202688,-0.00288922712206841
359,-0.00698547763749957,0.00238307029940188,-0.0328722894191742,0.5,0.00791422370821238,-0.00449497671797872
360,-0.0112160788848996,0.00205481564626098,-0.0384001396596432,0.5,0.00418519135564566,-0.00571448681876063
361,-0.0172662623226643,0.00236182124353945,-0.044697605073452,0.5,-0.000467955658677965,-0.00770244421437383
362,-0.0211617276072502,0.00429646344855428,-0.0491314753890038,0.5,-0.00290305493399501,-0.00946881715208292
363,-0.0200385469943285,0.0086472611874342,-0.0498543195426464,0.5,-0.00133986747823656,-0.00881563685834408
364,-0.015684999525547,0.0134416418150067,-0.047583419829607,0.5,0.00172907393425703,-0.00643743993714452
365,-0.0113303204998374,0.0164126697927713,-0.0448801517486572,0.5,0.00327234040014446,-0.00495331920683384
366,-0.00756074534729123,0.0179776847362518,-0.0429931581020355,0.5,0.00386004522442818,-0.00419524172320962
367,-0.00387058919295669,0.0193014927208424,-0.0415231622755528,0.5,0.00475053209811449,-0.00202498189173639
368,-7.44738426874392E-05,0.020885843783617,-0.0401704758405685,0.5,0.00574317062273622,0.00171488802880049
369,0.00315345404669642,0.0223053656518459,-0.0395010113716125,0.5,0.00593164004385471,0.00429566763341427
370,0.00536831934005022,0.0232733711600304,-0.0395941808819771,0.5,0.00540981255471706,0.00402182713150978
371,0.00738612050190568,0.0243456568568945,-0.0396298095583916,0.5,0.00538188219070435,0.00225252448581159
372,0.00798662845045328,0.0237985383719206,-0.0409163199365139,0.5,0.00454612448811531,-0.0013457597233355
373,0.00581349898129702,0.0194316022098064,-0.0449088662862778,0.5,0.00120017665904015,-0.00810486450791359
374,0.00296247494406998,0.0125371590256691,-0.0494322143495083,0.5,-0.00264390395022929,-0.0163840483874083
375,0.000551486038602889,0.00536066619679332,-0.052328135818243,0.5,-0.00538925221189857,-0.024227837100625
376,-0.00203568814322352,6.50270085316151E-05,-0.0535665079951286,0.5,-0.00732161290943623,-0.0300882011651993
377,-0.00431068707257509,-0.00118147884495556,-0.0536769144237041,0.5,-0.00763074401766062,-0.0325816534459591
378,-0.00573575124144554,0.00183049007318914,-0.0533607378602028,0.5,-0.00581182073801756,-0.0312093328684568
379,-0.00713494699448347,0.00671836407855153,-0.0530705973505974,0.5,-0.00386962620541453,-0.0260126627981663
380,-0.0100400485098362,0.00944799091666937,-0.0529724434018135,0.5,-0.00420344341546297,-0.0195865333080292
381,-0.013957311399281,0.00843385513871908,-0.0522898957133293,0.5,-0.00605576997622848,-0.0147742247208953
382,-0.0177221838384867,0.00483878003433347,-0.0512064173817635,0.5,-0.00808886159211397,-0.0123045267537236
383,-0.0219113323837519,-0.000376793032046407,-0.0516692101955414,0.5,-0.0102533344179392,-0.0133076878264546
384,-0.025546045973897,-0.00464488938450813,-0.0526363514363766,0.5,-0.00990011356770992,-0.0168296732008457
385,-0.025630809366703,-0.00454941019415855,-0.0506695918738842,0.5,-0.00424078712239861,-0.0187035854905844
386,-0.0215087328106165,-0.000464818178443238,-0.0455990619957447,0.5,0.0044732540845871,-0.0174168050289154
387,-0.0157652385532856,0.00439246091991663,-0.0408060625195503,0.5,0.0114685436710715,-0.0150049990043044
388,-0.0111313052475452,0.00813197903335094,-0.0388016141951084,0.5,0.0138666769489646,-0.0128691578283906
389,-0.0074396301060915,0.0114300204440951,-0.037644375115633,0.5,0.0130167761817575,-0.0101844612509012
390,-0.00331117841415107,0.0154186245054007,-0.0338842980563641,0.5,0.012142569757998,-0.0056361760944128
391,0.000844484369736165,0.0186901520937681,-0.0285416953265667,0.5,0.0113811334595084,0.000167418154887855
392,0.0048434492200613,0.0190388094633818,-0.0251892823725939,0.5,0.00931129604578018,0.00540544046089053
393,0.00919279083609581,0.0167236477136612,-0.0246566068381071,0.5,0.00638403370976448,0.00847570598125458
394,0.012936937622726,0.0133256698027253,-0.0253594499081373,0.5,0.00432603759691119,0.00802328903228045
395,0.0145097421482205,0.0101609248667955,-0.0263796709477901,0.5,0.00398242985829711,0.00398773653432727
396,0.0132541470229626,0.0083139156922698,-0.0282242819666862,0.5,0.00394249334931374,-0.00128874159418046
397,0.00907433778047562,0.0074355797842145,-0.0314781293272972,0.5,0.00215426320210099,-0.00565834483131766
398,0.00198020180687308,0.00534488959237933,-0.0358637534081936,0.5,-0.00174217845778912,-0.00938907451927662
399,-0.00703017972409725,0.000505814736243337,-0.0402232632040977,0.5,-0.00663999421522021,-0.0121155651286244
400,-0.0155669758096337,-0.00573582341894507,-0.0432681068778038,0.5,-0.0108473608270288,-0.0121191572397947
401,-0.0213327724486589,-0.0106376064941287,-0.0449527353048325,0.5,-0.013404387049377,-0.00949389766901731
402,-0.0239638406783342,-0.0139071010053158,-0.0467953570187092,0.5,-0.0151886865496635,-0.00676587829366326
403,-0.02503577247262,-0.0176939740777016,-0.0502170771360397,0.5,-0.0175105426460505,-0.00711381668224931
404,-0.0266504362225533,-0.0228066556155682,-0.0551523044705391,0.5,-0.0213130041956902,-0.0118560185655952
405,-0.0282392017543316,-0.0268561895936728,-0.0589962899684906,0.5,-0.0259748417884111,-0.0181102622300386
406,-0.0265339016914368,-0.0264117084443569,-0.0581169798970222,0.5,-0.0285273976624012,-0.0205731522291899
407,-0.0219463501125574,-0.0217510145157576,-0.0532792657613754,0.5,-0.0284021459519863,-0.0183167159557343
408,-0.0177681595087051,-0.0166403856128454,-0.0486100241541862,0.5,-0.0279623940587044,-0.014985459856689
409,-0.0141789084300399,-0.0129304192960262,-0.0453740917146206,0.5,-0.0275708734989166,-0.0123648699373007
410,-0.00984697975218296,-0.0104024615138769,-0.042453084141016,0.5,-0.0261299293488264,-0.0106975184753537
411,-0.00624500447884202,-0.0104983765631914,-0.0405031368136406,0.5,-0.0245488490909338,-0.0117728188633919
412,-0.00614758254960179,-0.0146209122613072,-0.0411305092275143,0.5,-0.0246600247919559,-0.0167200397700071
413,-0.00920884776860476,-0.0200513135641813,-0.0435395091772079,0.5,-0.0260659698396921,-0.0235833097249269
414,-0.0129451798275113,-0.0225857216864824,-0.0454015582799912,0.5,-0.0273945387452841,-0.0289539154618979
415,-0.015881584957242,-0.0217895768582821,-0.0452091433107853,0.5,-0.0287362094968557,-0.0306860115379095
416,-0.017771003767848,-0.0204925984144211,-0.042921707034111,0.5,-0.0309126824140549,-0.0290120840072632
417,-0.0175996106117964,-0.0193285718560219,-0.0394493006169796,0.5,-0.0330801568925381,-0.0244488287717104
418,-0.01363530382514,-0.01552505325526,-0.035145927220583,0.5,-0.032610222697258,-0.0167165417224169
419,-0.00699449051171541,-0.00876440480351448,-0.0301657635718584,0.5,-0.028319925069809,-0.0081156799569726
420,-0.000981688965111971,-0.00223734369501472,-0.0251563284546137,0.5,-0.0214939173310995,-0.00287372758612037
421,0.00276762968860567,0.00175831629894674,-0.0200945716351271,0.5,-0.0138520104810596,-0.00274551240727305
422,0.00386880640871823,0.00237324018962681,-0.0151523239910603,0.5,-0.00739295594394207,-0.00718960491940379
423,0.00323251495137811,0.0013070572167635,-0.00997753161936998,0.5,-0.00270977639593184,-0.0132393147796392
424,0.00228083995170891,0.00165990903042257,-0.00353205460123718,0.5,0.00119112990796566,-0.017460772767663
425,0.00026982233976014,0.0033336563501507,0.00271010282449424,0.5,0.00345265935175121,-0.0194198247045279
426,-0.00334341288544238,0.00507041858509183,0.00695406692102551,0.5,0.00375481601804495,-0.01813755184412
427,-0.00737486639991403,0.00698212115094066,0.00993424467742443,0.5,0.00440298253670335,-0.0114315701648593
428,-0.0109559511765838,0.00809885933995247,0.0118596563115716,0.5,0.00566331716254354,-0.00211255415342748
429,-0.0131331626325846,0.0073618576861918,0.0114569598808885,0.5,0.00577215990051627,0.00312045426107943
430,-0.0123739251866937,0.00614083744585514,0.00828026048839092,0.5,0.0044666244648397,0.00106579111889005
431,-0.00842578057199717,0.00566632114350796,0.002946721855551,0.5,0.00226568430662155,-0.00644652685150504
432,-0.00292029255069792,0.00547141535207629,-0.00264520035125315,0.5,0.000256109633482993,-0.014594960026443
433,0.00272448058240116,0.00552469585090876,-0.00526874884963036,0.5,-2.45679439103697E-05,-0.0177738983184099
434,0.00888112280517817,0.00768686411902308,-0.00256085838191211,0.5,0.00265316921286285,-0.0129870008677244
435,0.0145829003304243,0.0129115330055356,0.00409034639596939,0.5,0.00800827983766794,-0.00367664289660752
436,0.0173170808702707,0.0192156136035919,0.0103075848892331,0.5,0.0138598615303636,0.00260204123333097
437,0.0169300548732281,0.0245491713285446,0.0128804035484791,0.5,0.0180500186979771,0.00231525907292962
438,0.0147700784727931,0.0281145256012678,0.0114660635590553,0.5,0.0192465409636498,-0.00129258737433702
439,0.0109056439250708,0.0279514286667109,0.0063368552364409,0.5,0.0164087396115065,-0.00502940593287349
440,0.00549990963190794,0.0223618820309639,-0.00191478163469583,0.5,0.0102128218859434,-0.010056858882308
441,-4.25095349783078E-05,0.0130167519673705,-0.0120825618505478,0.5,0.00263008149340749,-0.0182818993926048
442,-0.00465421937406063,0.0029583836439997,-0.0233626496046782,0.5,-0.00606307573616505,-0.0292887929826975
443,-0.00677483715116978,-0.00476081902161241,-0.033095583319664,0.5,-0.0149187948554754,-0.0390627309679985
444,-0.00550571829080582,-0.00852622836828232,-0.0381467230618,0.5,-0.0214795768260956,-0.0437206514179707
445,-0.00168441119603813,-0.00875269062817097,-0.037674181163311,0.5,-0.0241764672100544,-0.0429528020322323
446,0.00392350507900119,-0.00585127295926213,-0.0316977389156818,0.5,-0.0229107402265072,-0.037866473197937
447,0.00978003535419703,-0.00150329933967441,-0.0225373636931181,0.5,-0.0198097992688417,-0.0306589584797621
448,0.0143779767677188,0.00152246514335275,-0.0145336864516139,0.5,-0.0162529684603214,-0.0243419874459505
449,0.0172122251242399,0.0025445744395256,-0.0102440193295479,0.5,-0.0119807599112391,-0.0206287056207657
450,0.0177607629448175,0.0020878070499748,-0.0102004762738943,0.5,-0.00838115811347961,-0.0195625852793455
451,0.0162034798413515,-0.00013802781177219,-0.0138661609962583,0.5,-0.00750336982309818,-0.0208734553307295
452,0.0137812467291951,-0.00359314191155136,-0.01936792768538,0.5,-0.0092049790546298,-0.0240056831389666
453,0.0114159332588315,-0.0066639855504036,-0.0244925729930401,0.5,-0.011226911097765,-0.0268966220319271
454,0.00792599283158779,-0.00966272875666618,-0.0293885208666325,0.5,-0.012854571454227,-0.0282472465187311
455,0.00300185359083116,-0.0129439374431968,-0.0349126979708672,0.5,-0.0143546629697084,-0.0282671190798283
456,-0.0013449884718284,-0.0146866198629141,-0.0400275848805904,0.5,-0.0146583812311292,-0.0276336017996073
457,-0.00406061392277479,-0.0134891103953123,-0.0429221428930759,0.5,-0.0132181840017438,-0.0274914652109146
458,-0.00522303488105536,-0.00930237956345081,-0.0426516011357307,0.5,-0.0104003474116325,-0.0276993457227945
459,-0.00475570326671004,-0.00289056496694684,-0.0406603589653969,0.5,-0.00680793263018131,-0.0272119510918856
460,-0.00204331893473864,0.00406272383406758,-0.0389500893652439,0.5,-0.00356574263423681,-0.0261836219578981
461,0.00229627592489123,0.00925701018422842,-0.0374286994338036,0.5,-0.00217286241240799,-0.0258642286062241
462,0.00579001987352967,0.0116800824180245,-0.0349363163113594,0.5,-0.00288009038195014,-0.0260134246200323
463,0.00700108194723725,0.0127903018146753,-0.0306686945259571,0.5,-0.00385754322633147,-0.0241845976561308
464,0.00582171278074384,0.014036956243217,-0.024926733225584,0.5,-0.00289189256727695,-0.0197770539671183
465,0.0019211609615013,0.0150544187054038,-0.019498573616147,0.5,0.000162318989168853,-0.0153289185836911
466,-0.00323546072468162,0.0160286165773869,-0.0155124831944704,0.5,0.00427918927744031,-0.0116397654637694
467,-0.00661504687741399,0.0176878180354834,-0.0124423028901219,0.5,0.00898863561451435,-0.0079453969374299
468,-0.0065539344213903,0.019602220505476,-0.00903682131320238,0.5,0.0139483129605651,-0.00364336837083101
469,-0.00404809135943651,0.0206799358129501,-0.00451150070875883,0.5,0.0180628038942814,0.00257403054274619
470,-0.00176855700556189,0.0211455561220646,0.000570459582377225,0.5,0.0206212941557169,0.00994560401886702
471,-0.00160869711544365,0.02227583527565,0.00432111322879791,0.5,0.0216836538165808,0.015434579923749
472,-0.0031014010310173,0.024371026083827,0.00612564105540514,0.5,0.0217965487390757,0.0180534608662128
473,-0.00415715668350458,0.0273547321557999,0.00822331104427576,0.5,0.0231310240924358,0.0196150466799736
474,-0.00425975723192096,0.0303718186914921,0.0114140622317791,0.5,0.0264882780611515,0.0202474445104599
475,-0.00450965575873852,0.0316475890576839,0.0140274707227945,0.5,0.0297580901533365,0.0174098014831543
476,-0.00564312422648072,0.0298465006053448,0.0144585818052292,0.5,0.0308810509741306,0.0101100541651249
477,-0.00812674965709448,0.0248375106602907,0.01151208486408,0.5,0.0290758293122053,0.000641763617750257
478,-0.0130733978003263,0.0171000175178051,0.00480059674009681,0.5,0.0237011350691319,-0.00853540282696486
479,-0.0204887297004461,0.00803457200527191,-0.00398519262671471,0.5,0.0155416270717978,-0.016364635899663
480,-0.0278481300920248,-9.37851800699718E-05,-0.011971459724009,0.5,0.00779282161965966,-0.0231506954878569
481,-0.0331954583525658,-0.00611403025686741,-0.0175784919410944,0.5,0.00228611100465059,-0.0294964201748371
482,-0.037652499973774,-0.00999745819717646,-0.021657221019268,0.5,-0.00267873774282634,-0.034935187548399
483,-0.0438909642398357,-0.0131826614961028,-0.0266249272972345,0.5,-0.00994658842682838,-0.0406293645501137
484,-0.0518825016915798,-0.0170740075409412,-0.0326732471585274,0.5,-0.0194091815501451,-0.0480017177760601
485,-0.0582124888896942,-0.0203548166900873,-0.036848459392786,0.5,-0.0276055634021759,-0.0547233484685421
486,-0.0594191700220108,-0.0207535419613123,-0.0363062433898449,0.5,-0.03113928809762,-0.0567181333899498
487,-0.0558133311569691,-0.0197557806968689,-0.0318133533000946,0.5,-0.0307867247611284,-0.0542106553912163
488,-0.0506386682391167,-0.0205890443176031,-0.0260218735784292,0.5,-0.0299164392054081,-0.050918735563755
489,-0.0453254878520966,-0.0217350907623768,-0.0192777961492538,0.5,-0.0284328181296587,-0.0478628873825073
490,-0.0397665835916996,-0.0197081863880157,-0.0118339098989964,0.5,-0.0246448162943125,-0.0450247377157211
491,-0.0339418426156044,-0.0142202191054821,-0.00456605153158307,0.5,-0.0191194228827953,-0.0436045378446579
492,-0.0274834204465151,-0.00683641713112593,0.00326399877667427,0.5,-0.0126087972894311,-0.0431928895413876
493,-0.0206355676054955,0.00121179327834398,0.0129280555993319,0.5,-0.00521631119772792,-0.0412236973643303
494,-0.0155772585421801,0.00836566463112831,0.023312458768487,0.5,0.0013562225503847,-0.0365948639810085
495,-0.0139282187446952,0.0134316263720393,0.0312159899622202,0.5,0.00536182709038258,-0.0307853184640408
496,-0.0153920128941536,0.0161789264529943,0.0346349254250526,0.5,0.00645838957279921,-0.0254827756434679
497,-0.0186466611921787,0.0163231734186411,0.0338537245988846,0.5,0.00477166334167123,-0.0217562634497881
498,-0.0206688437610865,0.0148012395948172,0.0306613836437464,0.5,0.00274564861319959,-0.0193472821265459
499,-0.0193570256233215,0.0133968601003289,0.0267850290983915,0.5,0.00314929219894111,-0.0170773901045322
500,-0.0155685180798173,0.0126180909574032,0.0240438915789127,0.5,0.00550381187349558,-0.0145727470517159
501,-0.0109152980148792,0.0133089367300272,0.0243631061166525,0.5,0.00849821139127016,-0.0109211876988411
502,-0.00650578271597624,0.0171999391168356,0.0270510111004114,0.5,0.0120208654552698,-0.00490672932937741
503,-0.00371360662393272,0.0225833598524332,0.0289763119071722,0.5,0.0153809720650315,0.000445687299361452
504,-0.00314495922066271,0.0253508538007736,0.0284885037690401,0.5,0.0174642372876406,0.000624811160378158
505,-0.00373005936853588,0.0244924761354923,0.0267821475863457,0.5,0.0185093134641647,-0.00385086727328599
506,-0.00417686533182859,0.0217556711286306,0.0259045362472534,0.5,0.0196030233055353,-0.00930944457650185
507,-0.00361421005800366,0.0192926879972219,0.0270187854766846,0.5,0.021795017644763,-0.0125171076506376
508,-0.00296323699876666,0.0171633269637823,0.0282101538032293,0.5,0.0238458011299372,-0.0129654444754124
509,-0.00392758287489414,0.0133294956758618,0.0260457657277584,0.5,0.0228794552385807,-0.0129132317379117
510,-0.0050714029930532,0.00840599648654461,0.0211385525763035,0.5,0.0196701977401972,-0.0130740562453866
511,-0.00344062177464366,0.00511476816609502,0.0172385144978762,0.5,0.0182300172746181,-0.0120709119364619
512,0.000497703673318028,0.00371379358693957,0.0162324644625187,0.5,0.0202471446245909,-0.00925826467573643
513,0.00418896460905671,0.00312566477805376,0.0177582260221243,0.5,0.0240690410137177,-0.0040729665197432
514,0.0064516463316977,0.00288842292502522,0.0200900752097368,0.5,0.0272720158100128,0.00343130552209914
515,0.00809496641159058,0.00294618075713515,0.0219853352755308,0.5,0.0290342383086681,0.0116046192124486
516,0.00964426901191473,0.00334369507618248,0.0235798042267561,0.5,0.0300673507153988,0.0184562131762505
517,0.00802376121282578,0.00254168384708464,0.023470800369978,0.36199888586998,0.0291536375880241,0.0206645075231791
518,0.00085982185555622,-0.000831920304335654,0.020130779594183,0.166815459728241,0.0240394659340382,0.0157682336866856
519,-0.00937585439532995,-0.00565870013087988,0.0145040079951286,0.158444032073021,0.015154249034822,0.00619188975542784
520,-0.0183085519820452,-0.00933675561100245,0.008954256772995,0.219261646270752,0.00555566512048244,-0.00177587522193789
521,-0.0232068859040737,-0.0099416971206665,0.00531724747270346,0.216458469629288,-0.00170950614847243,-0.0034169489517808
522,-0.0239934176206589,-0.00811101496219635,0.00328832678496838,0.191865518689156,-0.00515536777675152,-0.000320663180900738
523,-0.0236382428556681,-0.00712094735354185,0.000655162148177624,0.296781808137894,-0.00599477114155889,0.00138777354732156
524,-0.0261169951409101,-0.0101301744580269,-0.00400361092761159,0.5,-0.00713916309177876,-0.00208754977211356
525,-0.0301048681139946,-0.0156973004341125,-0.0079823937267065,0.5,-0.00819736625999212,-0.00784251559525728
526,-0.0305760707706213,-0.0199939031153917,-0.00756536377593875,0.5,-0.00667823432013392,-0.0110884616151452
527,-0.0259153433144093,-0.0214607696980238,-0.00274359807372093,0.5,-0.00216886075213552,-0.0108034899458289
528,-0.0196158420294523,-0.0210789684206247,0.0034985663369298,0.5,0.00288108736276627,-0.00908341631293297
529,-0.0159410983324051,-0.0200134292244911,0.00842622853815556,0.5,0.00587796280160546,-0.00685947388410568
530,-0.0148582626134157,-0.0177750214934349,0.0117999259382486,0.5,0.00770991295576096,-0.00193948613014072
531,-0.0145457116886973,-0.0146292988210917,0.0136173600330949,0.290168404579163,0.00910762324929237,0.00597054464742541
532,-0.0150551572442055,-0.011898685246706,0.0130027756094933,-0.0520627684891224,0.00801129080355167,0.013055962510407
533,-0.0167570076882839,-0.00959561485797167,0.0106485998257995,-0.262376993894577,0.00393268140032887,0.0162201542407274
534,-0.0186717864125967,-0.00689161522313952,0.00873295124620199,-0.328831970691681,-0.000888045935425907,0.0156349781900644
535,-0.0196218173950911,-0.00348291452974081,0.00911375507712364,-0.310007721185684,-0.00457059079781175,0.012908055447042
536,-0.0192193780094385,0.000231351252296008,0.0126598421484232,-0.274266302585602,-0.00627951323986053,0.00987233687192202
537,-0.0172038320451975,0.00278097484260798,0.0179127249866724,-0.233166724443436,-0.00644822791218758,0.00723053934052587
538,-0.0138339912518859,0.00295438012108207,0.0219690259546041,-0.178787484765053,-0.00639906944707036,0.00431206030771136
539,-0.0113091645762324,0.000799110683146864,0.0228240955621004,-0.0995272919535637,-0.00721889175474644,0.000482687377370894
540,-0.0116079840809107,-0.00354787101969123,0.0200139191001654,0.0556188374757767,-0.00973711162805557,-0.00438343035057187
541,-0.0135951563715935,-0.00881005916744471,0.0155582027509809,0.311317712068558,-0.0131598543375731,-0.00920272432267666
542,-0.015230524353683,-0.0129206562414765,0.0122728366404772,0.5,-0.0154453115537763,-0.0127328243106604
543,-0.0143715962767601,-0.0141950203105807,0.0119382040575147,0.5,-0.0149576496332884,-0.0142333609983325
544,-0.0104274665936828,-0.0126887690275908,0.014809712767601,0.5,-0.0123482150956988,-0.0145997889339924
545,-0.00541371200233698,-0.0096359234303236,0.0199571195989847,0.5,-0.00968632288277149,-0.0149348042905331
546,-0.000398429314373061,-0.00537080364301801,0.0259951278567314,0.5,-0.00751725118607283,-0.0136225437745452
547,0.00417326483875513,-0.0012482499005273,0.0306431334465742,0.5,-0.00614228518679738,-0.0102880969643593
548,0.00868710968643427,0.00260072364471853,0.0339890196919441,0.5,-0.00449802400544286,-0.00570024875923991
549,0.013507635332644,0.00740134809166193,0.0377453528344631,0.5,-0.000537645944859833,-0.000440071278717369
550,0.0167871043086052,0.0120454700663686,0.0404176041483879,0.5,0.00475079705938697,0.00328658451326191
551,0.0170491989701986,0.0144466385245323,0.0388260819017887,0.404232710599899,0.0080428272485733,0.004336210899055
552,0.0147320097312331,0.0131822358816862,0.0321371033787727,0.1998051404953,0.00765672139823437,0.00402592867612839
553,0.0116147538647056,0.00853839330375195,0.0228862948715687,0.0231747273355722,0.00534409796819091,0.00415309844538569
554,0.0107033876702189,0.00321777304634452,0.0151059636846185,-0.161976248025894,0.00415655039250851,0.00597751373425126
555,0.0131805036216974,-0.000505764619447291,0.0111025078222156,-0.369278222322464,0.00453910836949945,0.00926794670522213
556,0.014592326246202,-0.00470067327842116,0.00853604171425104,-0.3959059715271,0.00229026260785759,0.0100346319377422
557,0.00939844734966755,-0.0131776435300708,0.00266198604367673,0.0739662870764732,-0.00636122282594442,0.00317859416827559
558,-0.000349367794115096,-0.0246223509311676,-0.00635787798091769,0.5,-0.017370318993926,-0.0096046170219779
559,-0.00622716313228011,-0.0316634215414524,-0.0121703809127212,0.5,-0.0221322886645794,-0.0191692393273115
560,-0.00296583399176598,-0.0283470544964075,-0.0102605000138283,0.5,-0.0173279196023941,-0.0182283166795969
561,0.007087049074471,-0.0164291057735682,-0.00274819531477988,0.5,-0.00694418745115399,-0.00796279311180115
562,0.0176432393491268,-0.00276061007753015,0.00523262796923518,0.5,0.0028362232260406,0.00489653367549181
563,0.0254559833556414,0.00832623336464167,0.0120204845443368,0.5,0.00996792688965797,0.0154211474582553
564,0.0314294695854187,0.0164310354739428,0.0192968957126141,0.0562518276274204,0.0165837462991476,0.022248487919569
565,0.0356644280254841,0.0213235504925251,0.0265942048281431,-0.5,0.0228736605495214,0.0250948537141085
566,0.0380006246268749,0.0237761829048395,0.0325621291995049,-0.5,0.0272237211465836,0.0263644363731146
567,0.0391837954521179,0.0254693888127804,0.0368289165198803,-0.5,0.0281850900501013,0.0293771810829639
568,0.0382897779345512,0.026461036875844,0.0372507832944393,-0.5,0.0229603629559278,0.0325145237147808
569,0.0346758104860783,0.0262472294270992,0.0317574255168438,-0.5,0.0112190572544932,0.0320093482732773
570,0.0289528332650661,0.0244366284459829,0.0215256810188293,-0.5,-0.00312318629585207,0.0275468043982983
571,0.021035224199295,0.0198656655848026,0.00954689830541611,-0.5,-0.0165700558573008,0.0209194049239159
572,0.0130128534510732,0.0130244670435786,-2.85250553133665E-05,-0.411131978034973,-0.0257146209478378,0.0151987299323082
573,0.00925725325942039,0.00723814638331532,-0.00318479910492897,-0.102413073182106,-0.027008444070816,0.0141613967716694
574,0.0102707501500845,0.00491776550188661,-0.00013790771481581,-0.308823674917221,-0.0216092355549335,0.0181910507380962
575,0.0115647166967392,0.00517185544595122,0.00448464415967464,-0.5,-0.0155599303543568,0.0227267313748598
576,0.00860557425767183,0.00457566929981112,0.00604196125641465,-0.5,-0.0147419823333621,0.0213007684797049
577,0.00262950523756444,0.00194171292241663,0.00511721707880497,-0.5,-0.0188066326081753,0.0138232074677944
578,-0.00160948862321675,-0.000605316541623324,0.00533397542312741,0.0897127389907837,-0.0231530163437128,0.00680528115481138
579,-0.00340422918088734,-0.00292127835564315,0.0066849566064775,0.5,-0.0269002988934517,0.00369686353951693
580,-0.00492384750396013,-0.00679886294528842,0.00668424181640148,0.5,-0.0321890041232109,0.00365935894660652
581,-0.00670454930514097,-0.0122994314879179,0.00472391117364168,0.5,-0.0394429229199886,0.00477522006258368
582,-0.00884212087839842,-0.0185267869383097,0.00118987367022783,0.5,-0.0474119931459427,0.00364581658504903
583,-0.0126103181391954,-0.0253388918936253,-0.00430207187309861,0.5,-0.0545877553522587,-0.00245108897797763
584,-0.0169896669685841,-0.031632773578167,-0.0101331751793623,0.5,-0.0581051707267761,-0.010947766713798
585,-0.019821023568511,-0.0369259789586067,-0.014380369335413,0.5,-0.0565727017819881,-0.0177314560860395
586,-0.0218982808291912,-0.0423884317278862,-0.0179562419652939,0.5,-0.0527657866477966,-0.0222618337720633
587,-0.0231846570968628,-0.0465110577642918,-0.0201624501496553,0.5,-0.0484455712139606,-0.0241090096533298
588,-0.0205248706042767,-0.0452665761113167,-0.017827358096838,0.5,-0.0419102869927883,-0.0218054968863726
589,-0.0114136580377817,-0.0361685529351234,-0.00992496777325869,0.5,-0.0315718986093998,-0.01519316714257
590,0.00440674088895321,-0.0195424854755402,0.0023020775988698,0.5,-0.0169506650418043,-0.00457571865990758
591,0.0232736635953188,0.000323422165820375,0.0158306267112494,0.5,-5.83013425057288E-05,0.00804521609097719
592,0.0385753586888313,0.0174049194902182,0.0263814758509398,0.5,0.0141296936199069,0.0191677454859018
593,0.0475990101695061,0.0287990421056747,0.0321402065455914,0.5,0.0227526444941759,0.0271893870085478
594,0.0502377860248089,0.0324711464345455,0.0319319441914558,0.5,0.0246303547173738,0.0300617106258869
595,0.0461270026862621,0.0278941988945007,0.0251565780490637,0.5,0.0194333847612143,0.0266650188714266
596,0.0381428189575672,0.0201025735586882,0.0163864027708769,0.5,0.0112481648102403,0.0207935310900211
597,0.0289238188415766,0.0128518203273416,0.00998221803456545,0.5,0.00352863222360611,0.0150845563039184
598,0.0196690820157528,0.00588562292978168,0.00671441107988358,0.5,-0.00333779072389007,0.00930370762944222
599,0.0133095318451524,0.000455366709502414,0.00719400309026241,0.5,-0.00797389261424541,0.00518012978136539
600,0.0111743556335568,-0.00199250830337405,0.0105022871866822,0.5,-0.00998066179454327,0.00442185765132308
601,0.010831082239747,-0.00351338763721287,0.0130749465897679,0.5,-0.0116490311920643,0.00483005214482546
602,0.00864280294626951,-0.00790715031325817,0.0118418922647834,0.5,-0.0149396844208241,0.00222348957322538
603,0.00557246385142207,-0.0142684290185571,0.00912660360336304,0.5,-0.0169151201844215,-0.00251974537968636
604,0.00548401242122054,-0.0171386506408453,0.00902935490012169,0.5,-0.0138929821550846,-0.00445432821288705
605,0.00739441998302937,-0.0143314637243748,0.00990383513271809,0.5,-0.00883979164063931,-0.00303998752497137
606,0.00838428735733032,-0.00880919396877289,0.00789462029933929,0.5,-0.0061925146728754,-0.000665092724375427
607,0.00752590829506516,-0.00499176140874624,0.00212291860952973,0.5,-0.00713415164500475,0.00111169600859284
608,0.00356729398481548,-0.00600846251472831,-0.00619997968897223,0.5,-0.0120549611747265,-0.000177077614353038
609,-0.00390210258774459,-0.0119043346494436,-0.0154745010659099,0.5,-0.0205017421394587,-0.00607454497367144
610,-0.012702657841146,-0.0203997548669577,-0.0241227969527245,0.5,-0.0302986614406109,-0.0151652675122023
611,-0.0193958412855864,-0.0278383251279593,-0.0294620543718338,0.5,-0.0376002304255962,-0.0233014151453972
612,-0.0211491994559765,-0.0308760181069374,-0.0294436253607273,0.5,-0.0389494746923447,-0.0260979980230331
613,-0.0181512851268053,-0.0298609957098961,-0.0262326020747423,0.5,-0.0354224294424057,-0.0232375636696815
614,-0.0135845486074686,-0.0274826921522617,-0.023634547367692,0.5,-0.0312448721379042,-0.0177012272179127
615,-0.0103391008451581,-0.0256076846271753,-0.0226335059851408,0.5,-0.0283548068255186,-0.0124162416905165
616,-0.00881057977676392,-0.0246054623275995,-0.0214923769235611,0.5,-0.0256513338536024,-0.00842923391610384
617,-0.00733115430921316,-0.0232190284878016,-0.0181156862527132,0.5,-0.022052651271224,-0.00468913605436683
618,-0.00402999762445688,-0.0196247231215239,-0.0122200343757868,0.5,-0.0174476895481348,0.00021381804253906
619,0.000267719471594319,-0.0149970650672913,-0.00622005015611649,0.5,-0.0130338398739696,0.00457571586593986
620,0.00212306994944811,-0.0133803766220808,-0.00317401299253106,0.274171233177185,-0.0117971487343311,0.00427349749952555
621,-0.00114144233521074,-0.0174205750226974,-0.0046379710547626,0.00460210302844644,-0.0161856152117252,-0.00267899711616337
622,-0.00800879206508398,-0.0255219899117947,-0.00993247516453266,0.0638978779315948,-0.0243936162441969,-0.0135272927582264
623,-0.0146374199539423,-0.0342348180711269,-0.0168431829661131,0.339999198913574,-0.0327110178768635,-0.0233330838382244
624,-0.0189783498644829,-0.0416816025972366,-0.0225683636963367,0.5,-0.0389342792332172,-0.0294352918863297
625,-0.0193243883550167,-0.0454424098134041,-0.0240745339542627,0.5,-0.0403354242444038,-0.0301869083195925
626,-0.0174875669181347,-0.0449110604822636,-0.023139288648963,0.5,-0.0384018570184708,-0.0270898304879665
627,-0.0174569636583328,-0.0421653315424919,-0.0238222070038319,0.5,-0.0380739122629166,-0.0252040363848209
628,-0.0181756429374218,-0.0382200926542282,-0.0250999145209789,0.5,-0.0389975793659687,-0.0266084875911474
629,-0.0166329964995384,-0.0337255448102951,-0.0245121736079454,0.5,-0.0381479598581791,-0.0291204452514648
630,-0.0120226060971618,-0.0287844687700272,-0.0217359606176615,0.5,-0.0351789072155952,-0.0299925059080124
631,-0.00694676581770182,-0.0243736654520035,-0.0187739860266447,0.5,-0.0333463847637177,-0.0298133976757526
632,-0.00384692964144051,-0.021779241040349,-0.0173833630979061,0.5,-0.0348682962357998,-0.0296801384538412
633,-0.00251216697506607,-0.0208962988108397,-0.0172395724803209,0.5,-0.0384094193577766,-0.0288448836654425
634,-0.00269343913532794,-0.0223272573202848,-0.0177167393267155,0.5,-0.0423974841833115,-0.0278236567974091
635,-0.00264783948659897,-0.025762103497982,-0.0167078599333763,0.5,-0.044148426502943,-0.0273852255195379
636,-0.00122538965661079,-0.0295410379767418,-0.0132822208106518,0.5,-0.0425570048391819,-0.0279543735086918
637,-0.000929813191760331,-0.0330301634967327,-0.0107027562335134,0.5,-0.0410158671438694,-0.0309326071292162
638,-0.00325290183536708,-0.0350048132240772,-0.0107873184606433,0.5,-0.0417345985770226,-0.0355460047721863
639,-0.00611736671999097,-0.0337874367833138,-0.0113504184409976,0.5,-0.043250598013401,-0.0381659716367722
640,-0.00686135748401284,-0.0305002387613058,-0.0106176408007741,0.5,-0.0430741235613823,-0.0372178256511688
641,-0.00577870197594166,-0.0279508139938116,-0.00960977654904127,0.5,-0.0411588475108147,-0.0349769778549671
642,-0.00545115908607841,-0.0268939509987831,-0.00961028598248959,0.5,-0.0405643843114376,-0.0340973101556301
643,-0.00649700360372663,-0.0256432108581066,-0.00936350226402283,0.5,-0.042152002453804,-0.0342325828969479
644,-0.00862346775829792,-0.024212334305048,-0.00878459773957729,0.383686363697052,-0.0445080772042274,-0.0349944159388542
645,-0.0108292223885655,-0.0239576585590839,-0.00904381647706032,0.0335466712713242,-0.0458446405827999,-0.0364555977284908
646,-0.0108395256102085,-0.0238668099045753,-0.00897682085633278,-0.111740499734879,-0.0440234579145908,-0.0367792956531048
647,-0.00870221760123968,-0.0220354348421097,-0.00827090907841921,-0.22116032242775,-0.0399504043161869,-0.0352925285696983
648,-0.00597896752879024,-0.0188588425517082,-0.0086335577070713,-0.5,-0.0364974774420261,-0.0340860411524773
649,-0.00386841199360788,-0.0174733735620975,-0.0113281020894647,-0.5,-0.0357994250953197,-0.035553976893425
650,-0.00285758194513619,-0.0202096551656723,-0.0156023567542434,-0.5,-0.0378095954656601,-0.0391011089086533
651,-0.00409423373639584,-0.0279551260173321,-0.0208993460983038,-0.5,-0.0415430180728436,-0.0433404259383678
652,-0.00793420989066362,-0.0389976762235165,-0.0273035280406475,-0.5,-0.0464626774191856,-0.0472258366644382
653,-0.0113301491364837,-0.0476517863571644,-0.0322984494268894,-0.242666378617287,-0.0500363297760487,-0.0478724204003811
654,-0.0130922766402364,-0.0513151846826077,-0.0342842265963554,0.141298308968544,-0.0512640997767448,-0.045199703425169
655,-0.0156550500541925,-0.052967082709074,-0.0350930690765381,0.470945060253143,-0.0528258942067623,-0.0432744659483433
656,-0.019822183996439,-0.054999765008688,-0.0362490639090538,0.5,-0.0555566474795341,-0.043908029794693
657,-0.023590836673975,-0.0567320734262466,-0.0376539789140224,0.5,-0.0574728138744831,-0.0452785789966583
658,-0.0252161808311939,-0.0564613826572895,-0.0384075790643692,0.5,-0.0572750084102154,-0.045441135764122
659,-0.0233614835888147,-0.0522541031241417,-0.0367189235985279,0.5,-0.0545435808598995,-0.0422469489276409
660,-0.017672261223197,-0.0440989471971989,-0.0318409167230129,0.5,-0.0500363409519196,-0.0344740264117718
661,-0.00916126556694508,-0.0338475964963436,-0.0244732033461332,0.5,-0.0449783839285374,-0.0237075574696064
662,0.00101565732620656,-0.0230443421751261,-0.0155397839844227,0.225240126252174,-0.0398339107632637,-0.0136882429942489
663,0.00933027733117342,-0.0149004831910133,-0.00782532710582018,-0.5,-0.0367801189422607,-0.00966472551226616
664,0.0139700062572956,-0.0107233291491866,-0.00310068367980421,-0.5,-0.0360347926616669,-0.011606658808887
665,0.0161413494497538,-0.00988726876676083,-0.00200598640367389,-0.5,-0.0359054133296013,-0.0157187189906836
666,0.0151562327519059,-0.0135880624875426,-0.00604191888123751,-0.5,-0.037128783762455,-0.0221554562449455
667,0.0111430203542113,-0.0203988403081894,-0.0134457340463996,-0.5,-0.0397087261080742,-0.0301848575472832
668,0.0057509527541697,-0.0273216515779495,-0.0209529083222151,-0.5,-0.0432220511138439,-0.0371953956782818
669,0.000748311693314463,-0.0326763354241848,-0.0269058626145124,-0.5,-0.0469009280204773,-0.0413361974060535
670,-0.00155082554556429,-0.0346363671123981,-0.0299897268414497,-0.5,-0.048433031886816,-0.0408642962574959
671,-0.000820156827103347,-0.0332763604819775,-0.0302470102906227,-0.5,-0.0471278764307499,-0.0377200581133366
672,3.52892311639152E-05,-0.0316731035709381,-0.0302585978060961,-0.5,-0.045216578990221,-0.0366589911282063
673,-0.000429734063800424,-0.0307798944413662,-0.031853049993515,-0.5,-0.0441198125481606,-0.0375855974853039
674,-0.000697477196808904,-0.028891384601593,-0.0336893238127232,-0.5,-0.042883887887001,-0.0376219749450684
675,-0.000410163251217455,-0.0261195693165064,-0.0337680801749229,-0.486191004514694,-0.0414486154913902,-0.0375926233828068
676,-0.000293056335067376,-0.0228597614914179,-0.0306069031357765,-0.154489606618881,-0.0397708155214787,-0.0376691743731499
677,-0.000447366881417111,-0.0187332835048437,-0.023566722869873,0.148883566260338,-0.0363642126321793,-0.0352456383407116
678,-3.86210194847081E-05,-0.0137288859114051,-0.013950833119452,0.143610298633575,-0.030614672228694,-0.0289089232683182
679,0.0029950519092381,-0.007194091565907,-0.00358940102159977,-0.327921092510223,-0.0227213371545076,-0.018984891474247
680,0.00877262279391289,7.26415091776289E-05,0.00519579509273171,-0.5,-0.014660376124084,-0.00908481795340776
681,0.0150372050702572,0.00597349973395467,0.0106445727869868,-0.5,-0.00916864909231663,-0.00375894620083272
682,0.0214670449495316,0.0110300183296204,0.0142430188134313,-0.5,-0.00524272304028273,-0.00226287054829299
683,0.0283646956086159,0.0159297045320272,0.017677690833807,-0.5,-0.000816343352198601,-0.00164744188077748
684,0.0343097820878029,0.018958916887641,0.0205728858709335,-0.5,0.00371765019372106,-0.00117576401680708
685,0.0383896380662918,0.0193450376391411,0.0225995536893606,-0.5,0.00712280999869108,-0.000566094648092985
686,0.041140902787447,0.0185050796717405,0.0240770243108273,-0.5,0.00905842706561089,0.00100937217939645
687,0.0407003797590733,0.0150664774700999,0.0228911805897951,-0.5,0.00798808503895998,0.00138849625363946
688,0.0347499810159206,0.00667852256447077,0.0166452676057816,-0.5,0.00244048563763499,-0.00255839666351676
689,0.0270513594150543,-0.00268904934637249,0.00922808796167374,-0.5,-0.00390639714896679,-0.00770130986347795
690,0.0230794083327055,-0.00741942226886749,0.00670331437140703,-0.5,-0.00620126537978649,-0.00863470323383808
691,0.0237849578261375,-0.00718726636841893,0.00960097555071115,-0.5,-0.00399885047227144,-0.00481915520504117
692,0.0272283647209406,-0.00487670442089438,0.0143616814166307,-0.5,0.000545909628272057,0.000632390147075057
693,0.030920373275876,-0.00326167512685061,0.0174862649291754,-0.5,0.00501026958227158,0.00450565619394183
694,0.0324423760175705,-0.00326353567652404,0.0173401422798634,-0.5,0.00738604087382555,0.00597819732502103
695,0.0307567678391933,-0.00398401683196425,0.0147739863023162,-0.5,0.00685074692592025,0.00622340058907866
696,0.0277951769530773,-0.0034821939188987,0.0124285463243723,-0.5,0.00444242032244802,0.00712800864130259
697,0.0284945443272591,0.0020894194021821,0.014360474422574,-0.5,0.00383343873545527,0.0123868398368359
698,0.0346030592918396,0.0130045432597399,0.0217114128172398,-0.5,0.0070446440950036,0.0218316297978163
699,0.0416642315685749,0.0236718375235796,0.03046565502882,-0.5,0.0119090192019939,0.0290762688964605
700,0.0453865490853786,0.030308349058032,0.0366374216973782,-0.5,0.016118485480547,0.0303467288613319
701,0.0452530607581139,0.0327199585735798,0.0392615348100662,-0.5,0.0183165650814772,0.0270809102803469
702,0.0429099500179291,0.0311196427792311,0.0392402522265911,-0.5,0.0177028477191925,0.0214522462338209
703,0.0397333055734634,0.0261586606502533,0.0371052734553814,-0.5,0.0145179880782962,0.014045043848455
704,0.0380504950881004,0.0216181538999081,0.0345178544521332,-0.5,0.0116025572642684,0.00743785733357072
705,0.0391923449933529,0.0203648637980223,0.0332296751439571,-0.5,0.0116562806069851,0.00509467767551541
706,0.0409291200339794,0.0207019094377756,0.0325571857392788,-0.5,0.0136883249506354,0.00762586109340191
707,0.0416390113532543,0.0207606870681047,0.0319604426622391,-0.5,0.015473828651011,0.01405428070575
708,0.0412447564303875,0.0195192191749811,0.0313198268413544,-0.5,0.015076651237905,0.0209754090756178
709,0.0394320897758007,0.0166812930256128,0.0303089637309313,-0.5,0.0121379671618342,0.0241046603769064
710,0.0358082465827465,0.013142348267138,0.0285657960921526,-0.5,0.00820754747837782,0.0215083453804255
711,0.0316256582736969,0.01035101339221,0.0261718221008778,-0.5,0.0053213108330965,0.0153911653906107
712,0.0289583411067724,0.00920253619551659,0.0241759307682514,-0.5,0.00435067247599363,0.0103301675990224
713,0.027494452893734,0.00844382774084806,0.0230720825493336,-0.5,0.00380178936757147,0.00751923304051161
714,0.0248621720820665,0.00578460283577442,0.0215747263282537,-0.5,0.00164418539498001,0.00495248939841986
715,0.0201713666319847,0.00105417659506202,0.0184672903269529,-0.5,-0.00212202593684196,0.00192441791296005
716,0.0147601794451475,-0.00402188347652555,0.0147313652560115,-0.5,-0.00603442592546344,-0.000647298700641841
717,0.00957100186496973,-0.00847669877111912,0.0117152268067002,-0.5,-0.00903159845620394,-0.00178964284714311
718,0.00559448404237628,-0.0113819539546967,0.0100367506965995,-0.5,-0.00996030680835247,-0.000392176036257297
719,0.00546662835404277,-0.010933518409729,0.0113928904756904,-0.5,-0.00702083809301257,0.00463239755481482
720,0.0108591374009848,-0.00720293493941426,0.0165160000324249,-0.5,-8.52938173920847E-05,0.0124993305653334
721,0.0198680870234966,-0.00289859552867711,0.0226624142378569,-0.5,0.00781351421028376,0.0202359184622765
722,0.0289007276296616,0.000197682718862779,0.0265658423304558,-0.5,0.012853448279202,0.0253639444708824
723,0.0346581786870956,0.001813217648305,0.026776347309351,-0.5,0.0126172015443444,0.0267340242862701
724,0.0360590144991875,0.00210448587313294,0.0240813456475735,-0.5,0.0082447612658143,0.0245463419705629
725,0.0356993451714516,0.00311763701029122,0.0219584703445435,-0.5,0.00446355156600475,0.0216598175466061
726,0.0360837057232857,0.00621135951951146,0.0229961406439543,-0.5,0.00377461384050548,0.0206243451684713
727,0.0357774533331394,0.00880686286836863,0.0244737230241299,-0.5,0.00329463952220976,0.0197753757238388
728,0.0320324562489986,0.00809445511549711,0.0221547074615955,-0.5,2.8225515052327E-05,0.01655856333673
729,0.0258546452969313,0.00494440924376249,0.0166093092411757,-0.5,-0.00375128164887428,0.0124211106449366
730,0.0211598109453917,0.00240327999927104,0.011573757044971,-0.5,-0.00366715062409639,0.0103488741442561
731,0.0197766870260239,0.00155716901645064,0.00904686097055674,-0.5,0.000365917541785166,0.0102798705920577
732,0.0209120940417051,0.000647757726255804,0.00825980957597494,-0.5,0.00468675326555967,0.0111145172268152
733,0.0225688721984625,-0.00227485853247344,0.00687984703108668,-0.5,0.00636046752333641,0.0119970738887787
734,0.0233477503061295,-0.00627501308917999,0.00353685393929482,-0.5,0.00563343707472086,0.0117112249135971
735,0.0246247258037329,-0.00874647870659828,-0.00034990519634448,-0.5,0.00545187387615442,0.0101239094510674
736,0.0279442984610796,-0.00972271710634232,-0.00285205035470426,-0.5,0.00749744195491076,0.00758087914437056
737,0.0321919545531273,-0.0105760525912046,-0.00395549507811666,-0.5,0.0100448448210955,0.00498861819505692
738,0.0343131646513939,-0.012159176170826,-0.00563511438667774,-0.5,0.0103205051273108,0.00243157846853137
739,0.0334119573235512,-0.0140329906716943,-0.00858081504702568,-0.5,0.00847375672310591,-0.000345996086252853
740,0.0326045416295528,-0.0135428570210934,-0.0102984663099051,-0.5,0.00749855814501643,-0.000797786400653422
741,0.034129623323679,-0.00931220967322588,-0.00914490502327681,-0.277084738016129,0.00874633621424437,0.00299257412552834
742,0.0372250452637672,-0.00310993380844593,-0.00572801101952791,0.203586891293526,0.0113238524645567,0.00930637959390879
743,0.0389424562454224,0.00103179959114641,-0.00221497472375631,0.391752332448959,0.0127688366919756,0.0143647789955139
744,0.0356056392192841,-0.00156141968909651,-0.00198853318579495,0.5,0.00954535976052284,0.0143429441377521
745,0.0286497846245766,-0.0104130795225501,-0.00465539377182722,0.5,0.00256410334259272,0.0099550886079669
746,0.0239422749727964,-0.0192231610417366,-0.00585559522733092,0.5,-0.00263953860849142,0.00686682900413871
747,0.0229561273008585,-0.0245115794241428,-0.0046239048242569,0.5,-0.00423361686989665,0.00770368287339807
748,0.0231163911521435,-0.0269643142819405,-0.00323831429705024,0.5,-0.00418389635160565,0.00992891471832991
749,0.0257693715393543,-0.0246081855148077,-0.000246485869865865,0.5,-0.000659841054584831,0.0132076619192958
750,0.0342789702117443,-0.0144942458719015,0.00781507324427366,0.5,0.00923545658588409,0.0201833862811327
751,0.0463013052940369,0.00121722905896604,0.0190989710390568,0.5,0.0217684041708708,0.0302577409893274
752,0.0548011660575867,0.015862338244915,0.0273351091891527,0.255854427814484,0.0293962452560663,0.0385429076850414
753,0.055471632629633,0.0236902050673962,0.0284365937113762,-0.5,0.0286457613110542,0.0407128781080246
754,0.0496141836047173,0.023775901645422,0.0233268924057484,-0.5,0.0219121314585209,0.0366096198558807
755,0.0398172251880169,0.0179218780249357,0.0153514174744487,-0.5,0.0129946824163198,0.0279490388929844
756,0.0287158899009228,0.00937910284847021,0.00802355725318193,-0.5,0.00508548365905881,0.0179988108575344
757,0.0200000200420618,0.00216839136555791,0.00350183271802962,-0.5,0.000286240625428036,0.0113886296749115
758,0.014481944963336,-0.00285885157063603,0.000786673743277788,-0.5,-0.00272981077432632,0.00851096585392952
759,0.0106161711737514,-0.00651319278404117,-0.00148703658487648,-0.5,-0.00572529435157776,0.00621827552095056
760,0.00928495917469263,-0.00744083896279335,-0.00246919272467494,-0.5,-0.00661105010658503,0.00441098166629672
761,0.0122180618345737,-0.00382094294764102,-0.000952002475969493,-0.5,-0.00260494789108634,0.00585110066458583
762,0.0170182436704636,0.00208237580955029,0.00252805557101965,-0.5,0.00453767972066998,0.00978594832122326
763,0.0192502327263355,0.00531792687252164,0.00576616590842605,-0.5,0.0109700644388795,0.0119210733100772
764,0.0180053748190403,0.00422176718711853,0.00725706154480577,-0.5,0.0155763980001211,0.0102560240775347
765,0.0145100308582187,-0.000165586316143163,0.00697872042655945,-0.5,0.0180012471973896,0.00516014127060771
766,0.0102398013696074,-0.00549114169552922,0.00572950392961502,-0.5,0.0180571712553501,-0.00161980604752898
767,0.0063924714922905,-0.00894915405660868,0.00424959976226091,-0.5,0.0168840419501066,-0.00744933448731899
768,0.00335715152323246,-0.00993345677852631,0.00269335578195751,-0.5,0.0157714281231165,-0.0113396206870675
769,0.00242610857822001,-0.00851339567452669,0.00188329233787954,-0.5,0.0162665769457817,-0.012455933727324
770,0.00373498210683465,-0.00526075949892402,0.00179330247920007,-0.5,0.0183304846286774,-0.0100096315145493
771,0.00498050730675459,-0.00198756437748671,0.000855601974762976,-0.5,0.019779197871685,-0.00571494083851576
772,0.00463024945929646,0.000299953302601352,-0.001621920382604,-0.0177867207676172,0.0191392358392477,-0.00260257278569043
773,0.00264640501700342,0.00102363515179604,-0.00591712724417448,0.5,0.0161836892366409,-0.00277273985557258
774,-9.40470272325911E-05,7.16390277375467E-05,-0.0111554833129048,0.5,0.0124576548114419,-0.00477644242346287
775,-0.00147567724343389,-0.000508007185999304,-0.014202618971467,0.5,0.0109577169641852,-0.00383213558234274
776,0.000246517796767876,0.00135660218074918,-0.0130428047850728,0.5,0.0125550534576178,0.00269939820282161
777,0.00352269876748323,0.00431050825864077,-0.00979040190577507,0.5,0.0146259516477585,0.0114089194685221
778,0.0052131051197648,0.00549083342775702,-0.00805811583995819,0.5,0.0145085575059056,0.0167344007641077
779,0.00429382035508752,0.00402553612366319,-0.00893596652895212,0.5,0.0119259972125292,0.0170972216874361
780,0.00107159919571131,5.40282708243467E-05,-0.0111959585919976,0.5,0.00758948503062129,0.0137709900736809
781,-0.00286155333742499,-0.00575590319931507,-0.0125751718878746,0.5,0.00345134153030813,0.00829044077545404
782,-0.00534525373950601,-0.011544824577868,-0.0116661367937922,0.5,0.00149001076351851,0.00231741042807698
783,-0.00562866777181625,-0.0153812132775784,-0.00898290053009987,0.5,0.00154341489542276,-0.0029190294444561
784,-0.00384397013112903,-0.0160857271403074,-0.00602927012369037,0.5,0.00300225871615112,-0.00669565191492438
785,-0.000277553539490327,-0.0132602006196976,-0.00393822230398655,0.5,0.00615191180258989,-0.00806356873363256
786,0.00474659400060773,-0.00746130058541894,-0.00195152894593775,0.5,0.0115004954859614,-0.0058219856582582
787,0.010987363755703,0.000672864785883576,0.00215318240225315,0.5,0.0192018058151007,0.000335685181198642
788,0.0198119040578604,0.011666034348309,0.0108252642676234,0.5,0.0301958788186312,0.0103933438658714
789,0.0313358046114445,0.0242224987596273,0.0233872383832932,0.5,0.043515507131815,0.0232399813830853
790,0.0407079644501209,0.0336691550910473,0.0345255322754383,0.5,0.0529941283166409,0.0344106256961823
791,0.0421387478709221,0.0355503484606743,0.0391795635223389,0.5,0.0526362918317318,0.0385632626712322
792,0.0342881493270397,0.0286553893238306,0.0361719653010368,0.5,0.0425240397453308,0.0341428890824318
793,0.0205906759947538,0.0159741584211588,0.0275193974375725,0.5,0.0269614458084106,0.0238919332623482
794,0.00513737974688411,0.00191202806308866,0.0156873427331448,0.5,0.00978709850460291,0.0111439675092697
795,-0.0081200385466218,-0.00960950087755919,0.0031373065430671,0.5,-0.00534743070602417,-0.00100985926110297
796,-0.0147358449175954,-0.0154388165101409,-0.00624858541414142,0.5,-0.0137841589748859,-0.00859947875142097
797,-0.0147144198417664,-0.0162700638175011,-0.0107455309480429,0.5,-0.0150453336536884,-0.010499787516892
798,-0.0118696540594101,-0.0143228471279144,-0.0118345888331532,0.5,-0.0131948972120881,-0.00883909873664379
799,-0.00657240999862552,-0.00863740686327219,-0.00918106362223625,0.5,-0.00931653659790754,-0.00348628289066255
800,0.00195110216736794,0.000451878062449396,-0.00234533520415425,0.5,-0.0024948469363153,0.00643184827640653
801,0.00797157362103462,0.00591790676116943,0.00366431567817926,0.5,0.00250242208130658,0.0151268895715475
802,0.00555140292271972,0.00165715219918638,0.00418550614267588,0.5,6.58557255519554E-05,0.0146993864327669
803,-0.000912639079615474,-0.00756258005276322,0.00317952875047922,0.5,-0.00623774435371161,0.00703356368467212
804,-0.00206805788911879,-0.0112596163526177,0.00694545404985547,0.5,-0.00843763444572687,0.00182359584141523
805,0.00490747671574354,-0.00538880378007889,0.0152165293693542,0.5,-0.0037519431207329,0.0045226332731545
806,0.0142377195879817,0.00378485303372145,0.0230207517743111,0.5,0.00430064322426915,0.0102855870500207
807,0.0182913821190596,0.00744316074997187,0.0256507005542517,0.5,0.00984494574368,0.0107111856341362
808,0.014469102025032,0.00374630838632584,0.0218123756349087,0.5,0.0100200297310948,0.00459672836586833
809,0.00714488886296749,-0.00215234700590372,0.0151403835043311,0.5,0.00772062921896577,-0.00213203532621264
810,0.0020837988704443,-0.00579226016998291,0.010162896476686,0.5,0.0067966403439641,-0.0051401648670435
811,-2.4629793188069E-05,-0.0077935173176229,0.00765262264758348,0.5,0.00726504856720567,-0.00599391059949994
812,-0.000287564907921478,-0.00951594673097134,0.00660356739535928,0.5,0.00837394408881664,-0.00690564606338739
813,0.00187976402230561,-0.0098063861951232,0.00716121215373278,0.5,0.0114508699625731,-0.0056115803308785
814,0.00654776906594634,-0.0068818130530417,0.0106139788404107,0.5,0.0176527723670006,0.000517492415383458
815,0.0138061288744211,0.000981913413852453,0.0188312325626612,0.5,0.027145953848958,0.0107477670535445
816,0.0221841484308243,0.0127517525106668,0.0309589132666588,0.5,0.0380689725279808,0.0221833027899265
817,0.0259072743356228,0.021931542083621,0.0409459471702576,0.5,0.0448203906416893,0.0302373562008142
818,0.0203942414373159,0.0213399864733219,0.0425028614699841,0.5,0.0423856377601624,0.0304996091872454
819,0.00689751654863358,0.00966980122029781,0.0351310521364212,0.5,0.0309796687215567,0.0219039861112833
820,-0.00909163244068623,-0.00707409484311938,0.0243377480655909,0.5,0.0159441810101271,0.00818382762372494
821,-0.0219433885067701,-0.0212258920073509,0.0162826478481293,0.5,0.0034654401242733,-0.0055319108068943
822,-0.028974037617445,-0.0282285157591105,0.0137943914160132,0.5,-0.00314953085035086,-0.0155090764164925
823,-0.0293235089629889,-0.0257577020674944,0.0170386172831059,0.5,-0.00222340901382267,-0.0180186480283737
824,-0.0236177071928978,-0.0158570259809494,0.0239734835922718,0.5,0.00629879487678409,-0.0124891586601734
825,-0.0143660018220544,-0.00482879020273685,0.0312898643314838,0.5,0.0197448823601007,-0.0035298028960824
826,-0.00483326800167561,0.00311736646108329,0.0365760065615177,0.5,0.033347599208355,0.00385533552616835
827,0.00115595175884664,0.00715327216312289,0.0387624278664589,0.5,0.0414025969803333,0.00628547556698322
828,0.00165855407249182,0.00739486794918776,0.0381234399974346,0.5,0.0412700399756432,0.00263608270324767
829,-0.00200231187045574,0.00417547393590212,0.0358257442712784,0.5,0.0350672453641891,-0.00466413795948029
830,-0.0076818410307169,-0.000829808879643679,0.033198393881321,0.5,0.0267449859529734,-0.0113604394719005
831,-0.0123904421925545,-0.00277291284874082,0.0323550775647163,0.5,0.0206810534000397,-0.0133034428581595
832,-0.0145927742123604,-0.000219925030251034,0.0332944393157959,0.5,0.0181924644857645,-0.0105942795053124
833,-0.0153320906683803,0.00201115314848721,0.0338555946946144,0.5,0.017131220549345,-0.00760959601029754
834,-0.0142226899042726,0.00188996188808233,0.0345947295427322,0.5,0.0166910346597433,-0.00607608584687114
835,-0.0109932031482458,0.0011153791565448,0.0369820557534695,0.5,0.0170004107058048,-0.00494133634492755
836,-0.00857031624764204,-0.000491013925056905,0.0396443866193295,0.5,0.0169669613242149,-0.00522360298782587
837,-0.00937724579125643,-0.00368188857100904,0.0404626056551933,0.5,0.015811862424016,-0.00774258421733975
838,-0.0118683520704508,-0.00651599001139402,0.0399048998951912,0.5,0.0144629254937172,-0.00935445167124271
839,-0.0137494374066591,-0.00736525841057301,0.039037711918354,0.5,0.0128213241696358,-0.0077699045650661
840,-0.014809112995863,-0.00770155480131507,0.0366683192551136,0.5,0.00910450145602226,-0.00590638583526015
841,-0.0145110385492444,-0.00818669144064188,0.0327158011496067,0.5,0.00430484628304839,-0.006404266692698
842,-0.0113882068544626,-0.00650543859228492,0.029468210414052,0.5,0.00166846113279462,-0.00786914210766554
843,-0.00614975579082966,-0.0012271162122488,0.0282406602054834,0.5,0.00161126791499555,-0.00882649421691895
844,-0.0015974062262103,0.00600197073072195,0.0287701040506363,0.5,0.00193586538080126,-0.00924788229167461
845,0.000492199847940356,0.0126572418957949,0.0292744226753712,0.5,0.000774426735006273,-0.00942510087043047
846,0.00014964904403314,0.0169264134019613,0.0268959868699312,0.5,-0.00287755881436169,-0.0103174243122339
847,-0.00100120285060257,0.0176060982048512,0.0209595672786236,0.5,-0.00800385326147079,-0.0133520076051354
848,-0.00137896521482617,0.0141097577288747,0.0134314615279436,0.5,-0.012536239810288,-0.0197272915393114
849,-0.00211259908974171,0.00675259903073311,0.00546161318197846,0.5,-0.0165105015039444,-0.0294026844203472
850,-0.00470008701086044,-0.00206673541106284,-0.00249200034886599,0.5,-0.0207029301673174,-0.0395518913865089
851,-0.00854771863669157,-0.00869470648467541,-0.00970423128455877,0.5,-0.0246268846094608,-0.0463616251945496
852,-0.0121143870055676,-0.0113546214997768,-0.016343554481864,0.5,-0.026862533763051,-0.0482695251703262
853,-0.0142646972090006,-0.0114381825551391,-0.0231843236833811,0.5,-0.026697775349021,-0.0468988418579102
854,-0.0153753375634551,-0.0118475630879402,-0.0308425892144442,0.5,-0.0260032322257757,-0.0459963157773018
855,-0.0155707262456417,-0.0127951726317406,-0.0380001291632652,0.5,-0.0263930950313807,-0.0469768457114697
856,-0.0135188112035394,-0.0118839908391237,-0.0414549000561237,0.5,-0.0266320165246725,-0.047885712236166
857,-0.0099481139332056,-0.00954628549516201,-0.0411003679037094,0.5,-0.0268328431993723,-0.0491076372563839
858,-0.00664210924878716,-0.00757950684055686,-0.0401570796966553,0.5,-0.0285781379789114,-0.052453838288784
859,-0.00243771472014487,-0.00437599560245872,-0.0396331772208214,0.5,-0.0303217992186546,-0.0554545745253563
860,0.00368599640205503,0.0015477369306609,-0.0383149832487106,0.5,-0.0296912863850594,-0.0548554696142673
861,0.0102058053016663,0.00861065648496151,-0.0361944288015366,0.5,-0.0269616767764091,-0.0507875420153141
862,0.015856672078371,0.015834478661418,-0.0341117903590202,0.5,-0.0227044839411974,-0.0440864637494087
863,0.0204648692160845,0.0231920480728149,-0.0321706682443619,0.5,-0.0163422636687756,-0.0358048416674137
864,0.023943230509758,0.0294681414961815,-0.030714662745595,0.5,-0.00931463669985533,-0.0285478942096233
865,0.0257214345037937,0.0331278033554554,-0.0313558503985405,0.5,-0.00574977975338697,-0.0253182556480169
866,0.0251716692000628,0.0331727042794228,-0.0350244492292404,0.5,-0.00829719658941031,-0.0283367466181517
867,0.0232602450996637,0.0299511849880219,-0.0404168963432312,0.5,-0.0151176620274782,-0.0369038656353951
868,0.0220938492566347,0.0253967754542828,-0.045645248144865,0.261561632156372,-0.0217828266322613,-0.0469383522868156
869,0.0227497722953558,0.0213161520659924,-0.0501731783151627,-0.173195347189903,-0.0253462176769972,-0.0552152954041958
870,0.0249301791191101,0.0186063759028912,-0.0543675385415554,-0.5,-0.0257263425737619,-0.0611013472080231
871,0.0281671304255724,0.0180950276553631,-0.0579208582639694,-0.5,-0.0244558453559875,-0.0645129233598709
872,0.0336416997015476,0.0224498696625233,-0.0587624944746494,-0.5,-0.021672198548913,-0.0632741302251816
873,0.0402223393321037,0.0312270428985357,-0.057418018579483,-0.5,-0.0190694388002157,-0.0578378811478615
874,0.0414020791649818,0.0362158454954624,-0.0592251904308796,-0.5,-0.0225718561559916,-0.0563408061861992
875,0.0348282419145107,0.0327584408223629,-0.0660887658596039,-0.5,-0.0328928865492344,-0.0633057281374931
876,0.0247384924441576,0.0249653290957212,-0.0761607959866524,-0.5,-0.0448208637535572,-0.0739822015166283
877,0.015607145614922,0.0184125546365976,-0.0878027305006981,-0.5,-0.0539066269993782,-0.0823233649134636
878,0.0101332189515233,0.0155209675431252,-0.0991430953145027,-0.5,-0.0583365298807621,-0.0865439921617508
879,0.00760328909382224,0.0142497150227427,-0.110099956393242,-0.39133432507515,-0.0607814155519009,-0.089726023375988
880,0.00616943975910544,0.0129920644685626,-0.120488584041595,0.17051212489605,-0.0641279444098473,-0.0942841917276382
881,0.00526331691071391,0.0130257867276669,-0.128899291157722,0.5,-0.0679203718900681,-0.0993100106716156
882,0.00517936237156391,0.0146951470524073,-0.134755417704582,0.5,-0.07035031914711,-0.103247664868832
883,0.00700630294159055,0.0165884960442781,-0.13754777610302,0.5,-0.0705390721559525,-0.104707762598991
884,0.0101465107873082,0.0170179642736912,-0.137208089232445,0.5,-0.0700976476073265,-0.103186145424843
885,0.0126734310761094,0.015938825905323,-0.134999826550484,0.5,-0.0706203877925873,-0.100330211222172
886,0.0143987601622939,0.0146605176851153,-0.132641285657883,0.274327576160431,-0.071474514901638,-0.0990242511034012
887,0.0152625311166048,0.0125005291774869,-0.131916746497154,-0.139831975102425,-0.0727206021547318,-0.101560905575752
888,0.0144226318225265,0.00797411985695362,-0.132779315114021,-0.445855587720871,-0.0756784379482269,-0.107825875282288
889,0.0112652163952589,0.00151493202429265,-0.134292677044868,-0.491557538509369,-0.0809336751699448,-0.115631096065044
890,0.00643087597563863,-0.00495152873918414,-0.13644315302372,-0.247884422540665,-0.0873319059610367,-0.123238243162632
891,0.00326737738214433,-0.00822603702545166,-0.13799175620079,0.187677890062332,-0.0915561392903328,-0.12868420779705
892,0.0038918973878026,-0.00633469549939036,-0.138477101922035,0.5,-0.0918037071824074,-0.12942199409008
893,0.00739150727167726,-0.000489946105517447,-0.138529479503632,0.5,-0.0887081176042557,-0.124848134815693
894,0.0123241748660803,0.00581537140533328,-0.137604206800461,0.5,-0.0833793133497238,-0.118280991911888
895,0.0158299077302217,0.00823022611439228,-0.135438546538353,0.5,-0.0785969719290733,-0.115723393857479
896,0.0153122711926699,0.00526165263727307,-0.13172610104084,0.5,-0.0761459618806839,-0.119407042860985
897,0.0117157036438584,-0.000378570781322196,-0.126031994819641,0.5,-0.0747584402561188,-0.125135973095894
898,0.00811367854475975,-0.00507837301120162,-0.119413338601589,0.478861182928085,-0.0730616450309753,-0.12833446264267
899,0.0066768042743206,-0.00710854260250926,-0.113698944449425,0.5,-0.0704264268279076,-0.12836366891861
900,0.00730571383610368,-0.0069836019538343,-0.11007684469223,0.5,-0.066883385181427,-0.127270609140396
901,0.00894197355955839,-0.00603443197906017,-0.108243651688099,0.404568076133728,-0.062873862683773,-0.126438826322556
902,0.0117699420079589,-0.00468506617471576,-0.105887658894062,0.16573728621006,-0.0585391633212566,-0.125075191259384
903,0.0161539409309626,-0.00274222157895565,-0.100925207138062,-0.21145986020565,-0.0543376468122005,-0.122107535600662
904,0.02044428139925,-0.000356524717062712,-0.0947468131780624,-0.5,-0.0516858696937561,-0.117313787341118
905,0.0221571829169989,0.00180405599530786,-0.0906984582543373,-0.5,-0.052297193557024,-0.112062737345696
906,0.0195876248180866,0.00172006653156132,-0.0908482223749161,-0.5,-0.0572165623307228,-0.110202558338642
907,0.01333196926862,-0.00160459580365568,-0.0942565947771072,-0.5,-0.0656205639243126,-0.113755203783512
908,0.00609221355989575,-0.00608320022001863,-0.097595252096653,-0.5,-0.0744651108980179,-0.11955389380455
909,0.000538019579835236,-0.00917812157422304,-0.0990237519145012,-0.46327531337738,-0.0800897404551506,-0.123058713972569
910,-0.00160508137196302,-0.0098754670470953,-0.0999274104833603,-0.0265562776476145,-0.080775611102581,-0.122636795043945
911,-0.00163988571148366,-0.0100658154115081,-0.103221192955971,0.275924831628799,-0.0785559639334679,-0.121606141328812
912,-0.00118497188668698,-0.0115971425548196,-0.108789652585983,0.401031106710434,-0.076031781733036,-0.123944215476513
913,0.000823478621896356,-0.0132158417254686,-0.113079927861691,0.384934902191162,-0.0739824250340462,-0.12885844707489
914,0.00341897620819509,-0.0147115150466561,-0.115156106650829,0.332097291946411,-0.0733232647180557,-0.134040266275406
915,0.00388831365853548,-0.0173650104552507,-0.116386741399765,0.335777461528778,-0.0740546584129334,-0.13789176940918
916,0.00273665250279009,-0.0198999047279358,-0.115735195577145,0.322092920541763,-0.073790155351162,-0.137803718447685
917,0.00591917289420962,-0.016031539067626,-0.108404137194157,-0.202409639954567,-0.0668869242072105,-0.128551870584488
918,0.0176280196756125,-0.00159379176329821,-0.0923693478107452,-0.5,-0.0499683134257793,-0.108101770281792
919,0.0307913031429052,0.0157555807381868,-0.0748860314488411,-0.5,-0.030835572630167,-0.0859429091215134
920,0.0368294902145863,0.0257817804813385,-0.0637679249048233,-0.5,-0.0197012592107058,-0.0731501951813698
921,0.03519057482481,0.0262830145657063,-0.0607305057346821,-0.5,-0.0187511183321476,-0.0714871063828468
922,0.0283471066504717,0.0195744298398495,-0.0648426562547684,-0.5,-0.0253413170576096,-0.0780486613512039
923,0.0188923254609108,0.00898802187293768,-0.0735505893826485,-0.5,-0.0350872166454792,-0.0891620665788651
924,0.00844251457601786,-0.00274295709095895,-0.0846482366323471,-0.5,-0.0446214601397514,-0.101186983287334
925,-0.00285603385418653,-0.0154488086700439,-0.0975909605622292,-0.5,-0.0535592697560787,-0.113451197743416
926,-0.0114744240418077,-0.0267691072076559,-0.108283326029778,-0.5,-0.0594271831214428,-0.125122010707855
927,-0.0121171828359365,-0.0306187607347965,-0.109474457800388,-0.5,-0.0573678202927113,-0.130987942218781
928,-0.00695316353812814,-0.0264303050935268,-0.100831001996994,-0.5,-0.0494518838822842,-0.128052040934563
929,-0.00307152257300913,-0.0203252248466015,-0.0899799317121506,-0.5,-0.0440891273319721,-0.120192527770996
930,-0.00349410437047482,-0.0163231883198023,-0.0825601071119308,-0.5,-0.0449378713965416,-0.110650613903999
931,-0.00722404196858406,-0.0141191771253943,-0.0789213925600052,-0.5,-0.0485994927585125,-0.0987467542290688
932,-0.012212990783155,-0.0126569699496031,-0.0777099505066872,-0.5,-0.0510007031261921,-0.0864982828497887
933,-0.0166202839463949,-0.011518974788487,-0.0778911933302879,-0.5,-0.0516251847147942,-0.079189732670784
934,-0.0203682761639357,-0.011336256749928,-0.0797549933195114,-0.5,-0.0531254559755325,-0.0802807956933975
935,-0.0228050127625465,-0.011398640461266,-0.0820938050746918,-0.5,-0.0560710877180099,-0.0871657952666283
936,-0.0203774720430374,-0.00731004308909178,-0.0802675560116768,-0.5,-0.055814690887928,-0.0911049023270607
937,-0.0119591681286693,0.0025808394420892,-0.0731474235653877,-0.5,-0.0492496266961098,-0.0866110399365425
938,-0.00205241306684911,0.0130336191505194,-0.0659538507461548,-0.5,-0.0400578305125237,-0.0778127014636993
939,0.00474821822717786,0.0183618515729904,-0.0622124969959259,-0.5,-0.0334283225238323,-0.0716455057263374
940,0.00626921001821756,0.015914561226964,-0.06244982406497,-0.5,-0.0323907695710659,-0.0719288289546967
941,0.00346262007951736,0.00818838458508253,-0.0664460584521294,-0.5,-0.0361312031745911,-0.0759541764855385
942,0.00216172356158495,0.00319427973590791,-0.0696545168757439,-0.5,-0.0379279106855392,-0.0755692645907402
943,0.00467164209112525,0.00311509263701737,-0.0690281614661217,-0.5,-0.0340474247932434,-0.070782370865345
944,0.00588158378377557,0.0016907510580495,-0.067718431353569,-0.5,-0.0289302356541157,-0.0702793374657631
945,0.00284362630918622,-0.00407495070248842,-0.0675034821033478,-0.5,-0.026162875816226,-0.0768973901867867
946,-0.00268859183415771,-0.0115809226408601,-0.0672205314040184,-0.5,-0.0252041406929493,-0.0863625109195709
947,-0.00770244048908353,-0.017368758097291,-0.0655795112252235,-0.5,-0.0241240505129099,-0.0935448929667473
948,-0.0106530142948031,-0.0196180045604706,-0.0618193708360195,-0.5,-0.0211301818490028,-0.0957021564245224
949,-0.0147517491132021,-0.020666990429163,-0.0580434910953045,-0.5,-0.0182148013263941,-0.0953119620680809
950,-0.0227049868553877,-0.0229451358318329,-0.0564387030899525,-0.5,-0.0184052567929029,-0.0952521786093712
951,-0.0303095672279596,-0.023287758231163,-0.0548116527497768,-0.5,-0.0195630211383104,-0.0920261442661285
952,-0.032209113240242,-0.0181147344410419,-0.0507410503923893,-0.5,-0.0177885107696056,-0.0811598151922226
953,-0.0288740638643503,-0.00977127626538277,-0.0451479591429234,-0.5,-0.0129589010030031,-0.0649443492293358
954,-0.0254937913268805,-0.0041963760741055,-0.0405376590788364,-0.5,-0.00886039435863495,-0.0505562014877796
955,-0.0271800477057695,-0.00594031857326627,-0.0409034825861454,-0.5,-0.0101639712229371,-0.0447781383991241
956,-0.034267719835043,-0.0139308255165815,-0.0485894531011581,-0.5,-0.0176383275538683,-0.0485651046037674
957,-0.0438954681158066,-0.0231663640588522,-0.0608894713222981,-0.5,-0.0288071110844612,-0.0571684762835503
958,-0.0538100190460682,-0.0301735606044531,-0.0726420283317566,-0.5,-0.0402903445065022,-0.0665529295802116
959,-0.0611633285880089,-0.0325528383255005,-0.0786572322249413,-0.5,-0.0468416474759579,-0.0731329023838043
960,-0.0645211189985275,-0.0302968919277191,-0.0774547532200813,-0.5,-0.0463577099144459,-0.0740239769220352
961,-0.0652552247047424,-0.0271999314427376,-0.0718840062618256,-0.5,-0.0419568195939064,-0.0706910490989685
962,-0.0629804357886314,-0.024934833869338,-0.0635125562548637,-0.5,-0.0353166796267033,-0.0652976930141449
963,-0.0566168837249279,-0.0218295957893133,-0.0530197210609913,-0.5,-0.026220416650176,-0.0585521273314953
964,-0.049781933426857,-0.0190987847745419,-0.043935090303421,-0.5,-0.0184307564049959,-0.053757306188345
965,-0.0457048825919628,-0.0185424778610468,-0.0387449376285076,-0.5,-0.0159590728580952,-0.0529454983770847
966,-0.0414948165416718,-0.0176136791706085,-0.035894799977541,-0.5,-0.0166851673275232,-0.0520706214010715
967,-0.035260371863842,-0.0149723654612899,-0.0343109741806984,-0.5,-0.0171810705214739,-0.0485562868416309
968,-0.0296468511223793,-0.0118204336613417,-0.0342859849333763,-0.5,-0.0163444876670837,-0.0434104986488819
969,-0.0276127848774195,-0.00931126158684492,-0.0348308421671391,-0.5,-0.0149040743708611,-0.037777490913868
970,-0.0286618433892727,-0.00782569870352745,-0.033969983458519,-0.5,-0.013930881395936,-0.033066526055336
971,-0.0289812479168177,-0.00549706071615219,-0.0304990820586681,-0.5,-0.0123254647478461,-0.0294201914221048
972,-0.0271558947861195,-0.00156946177594364,-0.0252612307667732,-0.5,-0.00894469302147627,-0.0272137373685837
973,-0.0251804124563932,0.00259522232227027,-0.0199971050024033,-0.5,-0.00535503448918462,-0.026731114834547
974,-0.0252092555165291,0.00559591362252831,-0.0168028250336647,-0.5,-0.00492395041510463,-0.0264869891107082
975,-0.0277538169175386,0.00654511852189898,-0.0169769115746021,-0.5,-0.00815363135188818,-0.0255826283246279
976,-0.0307595692574978,0.00633715931326151,-0.0187147539108992,-0.5,-0.0106982029974461,-0.0239318385720253
977,-0.0318338051438332,0.00652106618508697,-0.0190990269184113,-0.5,-0.00882135331630707,-0.0215042755007744
978,-0.0320586301386356,0.00583645282313228,-0.0187651477754116,-0.5,-0.00417792610824108,-0.0200245063751936
979,-0.0330429188907146,0.00318286661058664,-0.020099338144064,-0.5,2.79360938293394E-05,-0.0201745089143515
980,-0.031596377491951,0.00175554153975099,-0.0220089796930552,-0.5,0.00449809106066823,-0.0186168197542429
981,-0.0258637983351946,0.0024086250923574,-0.0229425877332687,-0.5,0.00992306601256132,-0.0142177827656269
982,-0.0184700954705477,0.00242699892260134,-0.021579023450613,-0.5,0.0158414412289858,-0.00867676176130772
983,-0.00982979778200388,0.00214853999204934,-0.0146424090489745,-0.5,0.0244383849203587,-0.00186895916704088
984,5.63793291803449E-05,0.00291714421473444,-0.0024702581577003,-0.5,0.035305067896843,0.0057712378911674
985,0.00744282826781273,0.00417047878727317,0.0104818288236856,-0.5,0.0432192571461201,0.0121678551658988
986,0.00906796101480722,0.0053302114829421,0.0211452208459377,-0.5,0.0452081263065338,0.0156869981437922
987,0.0051621301099658,0.00625476893037558,0.0283849947154522,-0.5,0.0428469330072403,0.0162893030792475
988,-0.00269287591800094,0.00615114904940128,0.0319239422678947,-0.5,0.0387932769954205,0.0151445269584656
989,-0.0121430922299623,0.00400566635653377,0.0328226052224636,-0.5,0.0351826511323452,0.0133599163964391
990,-0.0199025049805641,0.00047587399603799,0.0329228676855564,-0.5,0.0336806178092957,0.0118880905210972
991,-0.0249896384775639,-0.00311796739697456,0.0322909913957119,-0.5,0.0331948921084404,0.0104509349912405
992,-0.0288857091218233,-0.00672331359237432,0.0298224855214357,-0.5,0.0304689425975084,0.00840836670249701
993,-0.0322029255330563,-0.0107133314013481,0.0262541640549898,-0.5,0.0250023286789656,0.00677527161315084
994,-0.0338167808949947,-0.0142679829150438,0.0236133206635714,-0.5,0.0196430683135986,0.0072672157548368
995,-0.0320540592074394,-0.0152767840772867,0.0240874346345663,-0.5,0.0179512891918421,0.0106941601261497
996,-0.027729507535696,-0.0130757344886661,0.0286767538636923,-0.5,0.0213323030620813,0.0157838743180037
997,-0.0245936326682568,-0.00994712673127651,0.035159956663847,-0.5,0.0268526487052441,0.0197810344398022
998,-0.0242765247821808,-0.00799331907182932,0.0407055504620075,-0.5,0.0309726987034082,0.0212539248168468
999,-0.0244414005428553,-0.00696552032604814,0.0446817241609097,-0.5,0.0336134731769562,0.0213668253272772
1000,-0.0227730069309473,-0.00552218686789274,0.0473342910408974,-0.5,0.0360753163695335,0.0217269957065582
1001,-0.0191973894834518,-0.00245344312861562,0.0492439344525337,-0.5,0.038113959133625,0.0226788632571697
1002,-0.0145500842481852,0.00329302158206701,0.0514515973627567,-0.5,0.0392321981489658,0.0241671912372112
1003,-0.00985999871045351,0.0112901460379362,0.0543269440531731,-0.5,0.040018655359745,0.0256908573210239
1004,-0.00697970343753695,0.0185996200889349,0.0573351122438908,-0.5,0.0403272770345211,0.0256572458893061
1005,-0.00629029748961329,0.0238731727004051,0.0604181401431561,-0.5,0.0401469171047211,0.0247534476220608
1006,-0.00580385886132717,0.0281365662813187,0.063541404902935,-0.5,0.0406517572700977,0.0265466254204512
1007,-0.00444955052807927,0.0313472561538219,0.0656556263566017,-0.5,0.0421104691922665,0.0324092097580433
1008,-0.00298179453238845,0.0323741585016251,0.0659452527761459,-0.5,0.0431532599031925,0.0396989770233631
1009,-0.00287532643415034,0.0296297203749418,0.0645781010389328,-0.5,0.0423963330686092,0.0431135781109333
1010,-0.00418472336605191,0.024253822863102,0.0630234107375145,-0.5,0.0400724746286869,0.0401903763413429
1011,-0.00549526512622833,0.0197413507848978,0.0627899616956711,-0.5,0.0365324914455414,0.0341238118708134
1012,-0.00589232798665762,0.0165640842169523,0.063578225672245,-0.5,0.0322686657309532,0.0276918429881334
1013,-0.00495264120399952,0.0142770074307919,0.0643552765250206,-0.5,0.0290382746607065,0.0225934684276581
1014,-0.00316580780781806,0.0144566092640162,0.0646742135286331,-0.5,0.0276848562061787,0.0216864235699177
1015,-0.00167722755577415,0.0173647999763489,0.0653350055217743,-0.5,0.028764808550477,0.0249990746378899
1016,-0.00103198178112507,0.0209091138094664,0.067689947783947,-0.5,0.0335005037486553,0.0295152924954891
1017,-0.00143750745337456,0.023097014054656,0.0707103759050369,-0.5,0.0408641770482063,0.0333563201129436
1018,-0.00387457013130188,0.022176381200552,0.071052186191082,-0.5,0.0466915741562843,0.0355010256171227
1019,-0.00795197673141956,0.018345057964325,0.0687408298254013,-0.5,0.0489861965179443,0.0361251384019852
1020,-0.0113872913643718,0.0146666904911399,0.0669857561588287,-0.5,0.0495784990489483,0.0377350524067879
1021,-0.014360336586833,0.0120321987196803,0.0660564377903938,-0.5,0.048324603587389,0.0414250791072845
1022,-0.0179843213409185,0.00897013116627932,0.0648405104875565,-0.5,0.0444372706115246,0.0459726303815842
1023,-0.0214629005640745,0.00477433437481523,0.0633925050497055,-0.5,0.0399269573390484,0.049639955163002
1024,-0.023567421361804,8.73477183631621E-05,0.0617101676762104,-0.5,0.0371773689985275,0.0517334155738354
1025,-0.0233530905097723,-0.0026640088763088,0.0607394613325596,-0.5,0.0375638902187347,0.053650937974453
1026,-0.0203898511826992,-0.00155980384442955,0.0631623938679695,-0.5,0.0415833294391632,0.0570314042270184
1027,-0.0149494362995029,0.00271453801542521,0.0703436732292175,-0.5,0.0481451638042927,0.0627297088503838
1028,-0.00880831107497215,0.00807513855397701,0.0790495201945305,-0.5,0.0537987053394318,0.0700302943587303
1029,-0.00432864530012012,0.0127087030559778,0.0845488160848618,-0.5,0.0551465414464474,0.0756000801920891
1030,-0.00126500625628978,0.016156455501914,0.0860627591609955,-0.5,0.0524800717830658,0.0762445032596588
1031,0.00335743906907737,0.0199982635676861,0.0871129557490349,-0.5,0.0503386817872524,0.073994591832161
1032,0.010070682503283,0.0243490934371948,0.0903774499893188,-0.5,0.0516673810780048,0.072912685573101
1033,0.0163348186761141,0.0262271035462618,0.0948155671358109,-0.5,0.0546223931014538,0.0726314410567284
1034,0.0202310178428888,0.0239982157945633,0.097161129117012,-0.5,0.0564690344035625,0.0709559172391891
1035,0.020407909527421,0.0187761820852757,0.094936266541481,-0.5,0.0558660663664341,0.06729656457901
1036,0.0182443168014288,0.013542621396482,0.0904975011944771,-0.5,0.0548563413321972,0.0628015846014023
1037,0.0176209136843681,0.0119318384677172,0.0884673148393631,-0.377429187297821,0.0570668317377567,0.0602833926677704
1038,0.0196446813642979,0.0145639767870307,0.089835450053215,0.136836960911751,0.0628079473972321,0.061058983206749
1039,0.0229480285197496,0.0182149559259415,0.0927387401461601,0.417412787675858,0.0701541304588318,0.0630814209580421
1040,0.027464697137475,0.0209653861820698,0.0959009230136871,0.410190016031265,0.0770182088017464,0.0652898699045181
1041,0.0338713526725769,0.0240903925150633,0.0988694727420807,0.266474574804306,0.0807817354798317,0.0690669938921928
1042,0.0395734533667564,0.0267471745610237,0.09980408847332,0.140476375818253,0.0794620588421822,0.0737267732620239
1043,0.0405794121325016,0.0260419044643641,0.0964341685175896,0.133627474308014,0.0737670809030533,0.0774214118719101
1044,0.037981204688549,0.0231434609740973,0.0907038152217865,0.282768487930298,0.0681053772568703,0.0810648426413536
1045,0.0362117290496826,0.0214138478040695,0.0875783413648605,0.5,0.0671706050634384,0.0846525579690933
1046,0.0363218076527119,0.0207462068647146,0.0885518938302994,0.5,0.0704213082790375,0.0851392298936844
1047,0.0358210802078247,0.0197419654577971,0.0910045802593231,0.5,0.0734613984823227,0.0820618942379951
1048,0.033978596329689,0.0191973857581615,0.0934349820017815,0.5,0.0751562640070915,0.0783492624759674
1049,0.0324779339134693,0.0196339376270771,0.0960098952054977,0.5,0.077627956867218,0.0752920210361481
1050,0.0321050100028515,0.0193216633051634,0.0976448431611061,0.5,0.0803369134664536,0.0719795748591423
1051,0.0319338925182819,0.0157563220709562,0.0966714024543762,0.5,0.0808383449912071,0.0671490579843521
1052,0.0313500091433525,0.00853339955210686,0.0928145498037338,0.5,0.0792523324489594,0.06172164529562
1053,0.030917901545763,-0.000299518927931786,0.0865572914481163,0.5,0.0777630507946014,0.058230746537447
1054,0.0292186066508293,-0.0101433368399739,0.0778920575976372,0.5,0.0772660076618195,0.0559648498892784
1055,0.024693887680769,-0.0204899497330189,0.0690470933914185,0.5,0.0783599987626076,0.0536222793161869
1056,0.0200426615774632,-0.0280525051057339,0.0645222291350365,0.5,0.0827759951353073,0.0527794547379017
1057,0.0172840189188719,-0.0319521613419056,0.0647886395454407,0.5,0.0889282152056694,0.0531089380383492
1058,0.0154319806024432,-0.0340062491595745,0.0669204220175743,0.5,0.0929735898971558,0.0531095825135708
1059,0.0130231948569417,-0.0353139378130436,0.0686647742986679,0.5,0.0928440913558006,0.0531358532607555
1060,0.00787107832729816,-0.0377500206232071,0.067452147603035,0.5,0.0869616195559502,0.052480909973383
1061,4.79414593428373E-05,-0.0422162972390652,0.0625904127955437,0.5,0.0764661207795143,0.0499092862010002
1062,-0.0070998203009367,-0.0466721877455711,0.056847121566534,0.5,0.0663285553455353,0.0463147722184658
1063,-0.0105425557121634,-0.0478554740548134,0.0531021729111671,0.5,0.0609285831451416,0.0442799739539623
1064,-0.00950419530272484,-0.0439584217965603,0.0526016242802143,0.5,0.0615485496819019,0.0456383489072323
1065,-0.00480023724958301,-0.036190077662468,0.0564228296279907,0.5,0.0675683468580246,0.0505298227071762
1066,0.0017523622373119,-0.0285403374582529,0.0646838471293449,0.5,0.07625762373209,0.0573368482291698
1067,0.00815245695412159,-0.024330360814929,0.0750209987163544,0.5,0.0840291008353233,0.0636293441057205
1068,0.0133498171344399,-0.0227944441139698,0.0845292881131172,0.459948986768723,0.0900279581546783,0.0686791390180588
1069,0.0161853432655334,-0.022722952067852,0.0904651507735252,0.129037708044052,0.0939401984214783,0.0723558813333511
1070,0.0145941535010934,-0.0259377099573612,0.0900890752673149,0.0660096779465675,0.0937461405992508,0.0732496827840805
1071,0.00825783517211676,-0.0329274982213974,0.0844579488039017,0.247190818190575,0.0903699919581413,0.0716785043478012
1072,0.000468707672553137,-0.0397037267684937,0.0796097591519356,0.5,0.0884591713547707,0.0701873674988747
1073,-0.00469012465327978,-0.0415943823754787,0.0804024860262871,0.5,0.0901177152991295,0.0706614106893539
1074,-0.00614417158067226,-0.0385375916957855,0.0857946947216988,0.5,0.0926299020648003,0.0727720335125923
1075,-0.00580739742144942,-0.0347416698932648,0.0906231626868248,0.5,0.0923058390617371,0.0742332935333252
1076,-0.00517432764172554,-0.0317324884235859,0.0925849750638008,0.5,0.089125320315361,0.0752243846654892
1077,-0.00387592031620443,-0.0266409143805504,0.0950708314776421,0.5,0.08680659532547,0.0787663608789444
1078,-0.00232684565708041,-0.018952488899231,0.0997699871659279,0.5,0.0873379409313202,0.085059829056263
1079,-0.00319080357439816,-0.0124561479315162,0.103415608406067,0.5,0.0881185382604599,0.0905621200799942
1080,-0.00696727074682713,-0.00952542666345835,0.104194454848766,0.5,0.0869708061218262,0.0924191027879715
1081,-0.00968984048813581,-0.00862940680235624,0.104500591754913,0.5,0.0859943851828575,0.0915514677762985
1082,-0.00835903082042933,-0.00801333598792553,0.106410339474678,0.5,0.0875958278775215,0.0904942229390144
1083,-0.00521099660545588,-0.00854510441422462,0.108322478830814,0.5,0.0898525267839432,0.0894856154918671
1084,-0.00517831509932876,-0.0119047937914729,0.107124544680119,0.5,0.0880315378308296,0.0876044183969498
1085,-0.0112393507733941,-0.0187861602753401,0.101678520441055,0.5,0.0792384296655655,0.084346666932106
1086,-0.0217027757316828,-0.0277793146669865,0.0940695852041245,0.5,0.0655133053660393,0.0800976008176804
1087,-0.0306171346455812,-0.0345274545252323,0.088750883936882,0.5,0.0535051785409451,0.0781744420528412
1088,-0.0337464772164822,-0.0364339277148247,0.0882671475410461,0.5,0.0485215000808239,0.0807762965559959
1089,-0.0333886742591858,-0.0360500477254391,0.0899889841675758,0.5,0.049031525850296,0.0843968018889427
1090,-0.0346350371837616,-0.0367864556610584,0.0898984372615814,0.5,0.0490808598697186,0.084490954875946
1091,-0.0390825383365154,-0.038124967366457,0.0877161771059036,0.5,0.0453576482832432,0.0814856812357903
1092,-0.0444104596972466,-0.0377110652625561,0.0860076770186424,0.5,0.0402002856135368,0.0788291469216347
1093,-0.0483646281063557,-0.0355292223393917,0.0863044336438179,0.5,0.0372406207025051,0.0783911049365997
1094,-0.0507545173168182,-0.032905712723732,0.088297925889492,0.5,0.036620981991291,0.080591969192028
1095,-0.0528166405856609,-0.0312450379133224,0.0906223431229591,0.5,0.0359387509524822,0.0849484577775002
1096,-0.055103100836277,-0.0310764815658331,0.0916141197085381,0.5,0.0341953597962856,0.0908463150262833
1097,-0.0567946769297123,-0.0310384258627892,0.0911268070340157,0.5,0.0322047993540764,0.0983165949583054
1098,-0.0572610795497894,-0.0292458459734917,0.0910155400633812,0.5,0.0307804569602013,0.10676196962595
1099,-0.0575017370283604,-0.0257514957338572,0.0928229913115501,0.5,0.0298607032746077,0.113776542246342
1100,-0.0586493462324142,-0.0222653932869434,0.0970371142029762,0.5,0.0297533944249153,0.117719627916813
1101,-0.0595595501363277,-0.0189015194773674,0.103558979928494,0.5,0.0318015813827515,0.121170215308666
1102,-0.0591940805315971,-0.0149646233767271,0.109780713915825,0.5,0.0350638553500175,0.126526609063149
1103,-0.057059109210968,-0.0100803384557366,0.113308981060982,0.5,0.038145799189806,0.133499503135681
1104,-0.0508768409490585,-0.00335085741244257,0.116003051400185,0.5,0.0427083782851696,0.142357259988785
1105,-0.0405861549079418,0.00453701475635171,0.120118975639343,0.5,0.0488745905458927,0.152349263429642
