,AF3,AF4,Fp1,Fp2,AF7,AF8
0,-0.0031294459477067,0.0328826904296875,0.000494304695166647,0.0170185957103968,-0.000641494756564498,0.0148520972579718
1,-0.00325970887206495,0.0318825095891953,-0.000379114848328754,0.0158355943858624,-0.0017169798957184,0.0112790316343308
2,-0.00387988495640457,0.0315661877393723,-0.00235838210210204,0.0154805779457092,-0.00507200602442026,0.0116402329877019
3,-0.00400241045281291,0.032032921910286,-0.00615678867325187,0.0150478584691882,-0.0085086552426219,0.0143417008221149
4,-0.00338886771351099,0.0323043204843998,-0.0116401826962829,0.0129316216334701,-0.0102719124406576,0.014823186211288
5,-0.00308501697145402,0.0318505465984344,-0.0172206033021212,0.0101318657398224,-0.0105304969474673,0.0116492295637727
6,-0.00448454450815916,0.0308768711984158,-0.0210805479437113,0.00943290069699287,-0.0105757471174002,0.00770672410726547
7,-0.00720636453479528,0.0298205632716417,-0.0216582603752613,0.0125173097476363,-0.0105073340237141,0.00626368122175336
8,-0.00938770826905966,0.0292681511491537,-0.0177769884467125,0.0189020279794931,-0.00920001417398453,0.00797825586050749
9,-0.00993002112954855,0.0292718764394522,-0.0112111493945122,0.0242364555597305,-0.00660889456048608,0.00889334082603455
10,-0.00893521774560213,0.0286153890192509,-0.00750249484553933,0.0219302512705326,-0.00467611150816083,0.00277560856193304
11,-0.00711881415918469,0.0264627449214458,-0.011164260096848,0.00995851773768663,-0.00580898439511657,-0.0116778668016195
12,-0.00541560910642147,0.0235584788024426,-0.0207995213568211,-0.00650166720151901,-0.0104128168895841,-0.0284273438155651
13,-0.00418985076248646,0.0213138051331043,-0.0311102028936148,-0.020259004086256,-0.0162801053375006,-0.0402913652360439
14,-0.00292610167525709,0.0206064358353615,-0.0382393896579742,-0.027507470920682,-0.0203871708363295,-0.0453696586191654
15,-0.00100435747299343,0.0213223192840815,-0.0416754148900509,-0.0288539230823517,-0.0212501734495163,-0.0465539880096912
16,0.00149732118006796,0.0227493438869715,-0.0430197529494762,-0.0274603869765997,-0.019562529399991,-0.0474088750779629
17,0.00379881984554231,0.0238639954477549,-0.0439630933105946,-0.0263248141855001,-0.0168930664658546,-0.0496646426618099
18,0.00473244115710258,0.0236988756805658,-0.0456538088619709,-0.0269321165978909,-0.0154608692973852,-0.0530896410346031
19,0.00406561559066176,0.0230557974427938,-0.0482906810939312,-0.0284485202282667,-0.0167173631489277,-0.0556544549763203
20,0.00320425326935947,0.0241552218794823,-0.0507773086428642,-0.0287606958299875,-0.0193889755755663,-0.0555689968168736
21,0.0026352743152529,0.0266421623528004,-0.0531680211424828,-0.0279694572091103,-0.0221642460674047,-0.0548505149781704
22,0.00124750286340714,0.0278947278857231,-0.0568841546773911,-0.0278052296489477,-0.0255119241774082,-0.0565611757338047
23,6.14430100540631E-05,0.0278981868177652,-0.0607989020645618,-0.0282897092401981,-0.0284320116043091,-0.0599984489381313
24,0.00094551796792075,0.0283143166452646,-0.0624752938747406,-0.0286952685564756,-0.0289340075105429,-0.0631516650319099
25,0.0023992252536118,0.0285826232284307,-0.0625244379043579,-0.0295838750898838,-0.0282604396343231,-0.0655263587832451
26,0.00220157229341567,0.0274865441024303,-0.0627889186143875,-0.0315412245690823,-0.0287800952792168,-0.0667295828461647
27,0.000921799393836409,0.0249334573745728,-0.063293419778347,-0.0341468527913094,-0.0297695435583591,-0.0667407810688019
28,0.00027227948885411,0.0212236382067204,-0.0635000914335251,-0.0367141589522362,-0.0290969219058752,-0.0670087262988091
29,0.00031653989572078,0.017018273472786,-0.0639562904834747,-0.0393092706799507,-0.0271204169839621,-0.0690280869603157
30,0.000522874586749822,0.0135172447189689,-0.0656135901808739,-0.042713288217783,-0.0258047413080931,-0.0727380439639091
31,0.00163361348677427,0.0116404527798295,-0.0688017085194588,-0.0468452572822571,-0.0254630725830793,-0.0769269689917564
32,0.00384254101663828,0.0108738886192441,-0.0731770917773247,-0.0505912192165852,-0.0257390141487122,-0.0806649923324585
33,0.00600833538919687,0.0104385055601597,-0.0776204243302345,-0.0525856092572212,-0.0272585321217775,-0.0831112563610077
34,0.00719532649964094,0.0107038570567966,-0.0803380385041237,-0.0514152012765408,-0.0297040976583958,-0.0824565663933754
35,0.00710114929825068,0.0122964223846793,-0.0803874731063843,-0.0469278171658516,-0.0313673429191113,-0.0774513259530067
36,0.00629656994715333,0.015387418679893,-0.0784260407090187,-0.0409870333969593,-0.0317413099110127,-0.0694752782583237
37,0.00539786741137505,0.0193119961768389,-0.0758340507745743,-0.0364429652690887,-0.0320873335003853,-0.0622154474258423
38,0.00410238094627857,0.0225602872669697,-0.0741162225604057,-0.035564374178648,-0.0335858352482319,-0.0594168305397034
39,0.00293964822776616,0.024099737405777,-0.0735679194331169,-0.0383689291775227,-0.0355386845767498,-0.0614344701170921
40,0.00288337981328368,0.0236172471195459,-0.0731236189603806,-0.0434701628983021,-0.0366739556193352,-0.0657731518149376
41,0.00322826928459108,0.0210352465510368,-0.072757713496685,-0.0499013550579548,-0.0374730043113232,-0.0710213258862495
42,0.00322653050534427,0.0174552816897631,-0.0732865929603577,-0.0565381124615669,-0.0385673642158508,-0.0767175108194351
43,0.00336341769434512,0.014801356010139,-0.0746311247348785,-0.0620595067739487,-0.0394178479909897,-0.0817341580986977
44,0.00365521013736725,0.013421013019979,-0.0764928311109543,-0.0660484060645103,-0.0399945601820946,-0.0856946855783463
45,0.00341911916621029,0.0121942684054375,-0.0785123556852341,-0.0688210278749466,-0.0406940951943398,-0.0890872403979301
46,0.00284899049438536,0.0105937626212835,-0.0800736099481583,-0.0703149139881134,-0.0410819686949253,-0.0913210958242416
47,0.00302206259220839,0.00894209928810596,-0.0809378027915955,-0.0704992562532425,-0.0407039113342762,-0.0920420661568642
48,0.00475667603313923,0.00808030739426613,-0.0808300822973251,-0.0705708265304565,-0.039691623300314,-0.0920427665114403
49,0.00752311572432518,0.00892623979598284,-0.0796245411038399,-0.0717111751437187,-0.0385530889034271,-0.0911419913172722
50,0.00997467990964651,0.011696670204401,-0.0777605473995209,-0.0732106119394302,-0.0377267561852932,-0.0882460549473763
51,0.0116713028401136,0.0154702691361308,-0.0759330168366432,-0.0735265612602234,-0.0370544865727425,-0.0835585817694664
52,0.012571201659739,0.0186148229986429,-0.0752658024430275,-0.0724291354417801,-0.0365686118602753,-0.0785394385457039
53,0.0128331743180752,0.0208345782011747,-0.0762913525104523,-0.0707944929599762,-0.0368622802197933,-0.0737453326582909
54,0.0128714293241501,0.0231218282133341,-0.0786390155553818,-0.0696793869137764,-0.0385724864900112,-0.0693562999367714
55,0.012223357334733,0.0253332275897264,-0.0818560868501663,-0.069609522819519,-0.0419419184327126,-0.0664525404572487
56,0.0107907364144921,0.0264696776866913,-0.0845761746168137,-0.0700714811682701,-0.0456510595977306,-0.0661454647779465
57,0.0096445893868804,0.0260673388838768,-0.0852950513362885,-0.0705093070864677,-0.0475765690207481,-0.0689082965254784
58,0.00946066807955503,0.0242352411150932,-0.0844508036971092,-0.0708280876278877,-0.0471903905272484,-0.0739922970533371
59,0.0104285841807723,0.0215576943010092,-0.0835803672671318,-0.0710617005825043,-0.0453344322741032,-0.079642653465271
60,0.0127889579162002,0.0188130885362625,-0.0830103233456612,-0.0708485618233681,-0.042749922722578,-0.0845075398683548
61,0.0155571233481169,0.0164740029722452,-0.0821995586156845,-0.0696091651916504,-0.0401839576661587,-0.087851271033287
62,0.0170672629028559,0.0149871520698071,-0.0815996751189232,-0.0676182955503464,-0.0383602455258369,-0.089047335088253
63,0.0170088894665241,0.0145199364051223,-0.0825819298624992,-0.0663024187088013,-0.0378156751394272,-0.0884601920843124
64,0.0159963648766279,0.0144270630553365,-0.085546500980854,-0.0669466108083725,-0.0389523692429066,-0.0873887687921524
65,0.0148975215852261,0.0145531287416816,-0.0888552516698837,-0.0689745917916298,-0.0413696318864822,-0.0860846042633057
66,0.0144583992660046,0.0157688949257135,-0.0909955129027367,-0.0709615796804428,-0.0441901385784149,-0.0840368345379829
67,0.0145642189309001,0.0180019233375788,-0.0924999192357063,-0.0722293183207512,-0.0469486899673939,-0.0816062539815903
68,0.0144911082461476,0.0194659382104874,-0.094273254275322,-0.0728436335921288,-0.0493346937000752,-0.0795258209109306
69,0.0136141162365675,0.0185805428773165,-0.0960469469428062,-0.0736171528697014,-0.0510664209723473,-0.0782901868224144
70,0.0122363567352295,0.015850655734539,-0.0969202071428299,-0.0749564096331596,-0.0520555786788464,-0.0780458077788353
71,0.011597553268075,0.0132671482861042,-0.0963960215449333,-0.0756681859493256,-0.051580898463726,-0.0784467756748199
72,0.0117037761956453,0.0116341831162572,-0.0949626490473747,-0.074948213994503,-0.0493783950805664,-0.0798236057162285
73,0.0113870454952121,0.0106112165376544,-0.0938451290130615,-0.0738375782966614,-0.0469798780977726,-0.0825680270791054
74,0.0106826359406114,0.0103877373039722,-0.0946319103240967,-0.0735978856682777,-0.0460664331912994,-0.0856382846832275
75,0.00976945459842682,0.0104327602311969,-0.0978569835424423,-0.0751205161213875,-0.0476822406053543,-0.0885797142982483
76,0.00850609689950943,0.0100967306643724,-0.102012977004051,-0.0781238824129105,-0.0517051331698895,-0.0914654731750488
77,0.00765617098659277,0.0103185875341296,-0.105130344629288,-0.0806476846337318,-0.0558936074376106,-0.0929781049489975
78,0.0075752823613584,0.0114107159897685,-0.106533065438271,-0.0816275179386139,-0.0581885650753975,-0.0923220589756966
79,0.00761813065037131,0.0118571929633617,-0.107528939843178,-0.0820193365216255,-0.0591551102697849,-0.0904424414038658
80,0.00721695646643639,0.0105696879327297,-0.109556168317795,-0.0832975581288338,-0.0604607127606869,-0.0884309560060501
81,0.00652214279398322,0.00850922428071499,-0.1119439676404,-0.0861899703741074,-0.0625244528055191,-0.0865778103470802
82,0.00598160177469254,0.00726244132965803,-0.113805383443832,-0.0903128385543823,-0.0650660991668701,-0.0847981199622154
83,0.00585210975259542,0.00740896118804812,-0.115280099213123,-0.0941134691238403,-0.0678940862417221,-0.0830399245023727
84,0.00648620631545782,0.00901266746222973,-0.115923970937729,-0.0956015363335609,-0.0700350403785706,-0.0812107548117638
85,0.00787693355232477,0.011624994687736,-0.115077093243599,-0.0941422283649445,-0.070896789431572,-0.0793607905507088
86,0.00913191772997379,0.0138196246698499,-0.113143570721149,-0.0909720361232758,-0.0715215131640434,-0.0780436173081398
87,0.00952887814491987,0.0145486043766141,-0.111187376081944,-0.0875508412718773,-0.0726968571543694,-0.0778548941016197
88,0.00886511709541082,0.0136294905096293,-0.110720366239548,-0.0847373828291893,-0.0746563896536827,-0.0792637467384338
89,0.00746883498504758,0.0112855918705463,-0.112312562763691,-0.0827290266752243,-0.077207937836647,-0.0821650773286819
90,0.00616384390741587,0.00849272310733795,-0.114784419536591,-0.0808730721473694,-0.0793381929397583,-0.0851496681571007
91,0.00492646358907223,0.00592343462631106,-0.117400348186493,-0.0788818448781967,-0.0808213874697685,-0.0867570638656616
92,0.0035999147221446,0.00363481556996703,-0.119451135396957,-0.0771405771374702,-0.0817506089806557,-0.0861202627420425
93,0.00260638352483511,0.00194124563131481,-0.119955778121948,-0.0758982971310616,-0.0821131095290184,-0.082900308072567
94,0.00239488063380122,0.00093731505330652,-0.119089767336845,-0.075473390519619,-0.0820003971457481,-0.0782104060053825
95,0.00330021954141557,0.000313205440761521,-0.117358669638634,-0.0763955786824226,-0.0810259729623795,-0.0745077207684517
96,0.00525080133229494,-4.91060382046271E-05,-0.115024827420712,-0.0786540284752846,-0.0790839344263077,-0.0733217298984528
97,0.00790921691805124,-4.47409474872984E-05,-0.112112231552601,-0.0814557746052742,-0.0765557810664177,-0.0739287659525871
98,0.0100634833797812,4.23071942350362E-05,-0.108344279229641,-0.0839121416211128,-0.0744438767433167,-0.0755546689033508
99,0.0105169052258134,1.51710974023445E-05,-0.104249313473701,-0.0855923742055893,-0.0740404352545738,-0.0785244032740593
100,0.00994339864701033,0.000569136987905949,-0.101411417126656,-0.086955189704895,-0.0752628371119499,-0.0828674957156181
101,0.00979842990636826,0.00229488592594862,-0.100358188152313,-0.0885601192712784,-0.0764759033918381,-0.0877680405974388
102,0.010211793705821,0.00439973035827279,-0.0998129919171333,-0.0903267413377762,-0.0765915811061859,-0.092274971306324
103,0.0104528041556478,0.00553343165665865,-0.0979244783520699,-0.0919678509235382,-0.0758653655648232,-0.0956153199076653
104,0.0108296647667885,0.0054890513420105,-0.0936166793107986,-0.0930699855089188,-0.0747025683522224,-0.0971836969256401
105,0.0118193896487355,0.00497628003358841,-0.0882624387741089,-0.0932177007198334,-0.0736162140965462,-0.0970175936818123
106,0.0129739558324218,0.00475171860307455,-0.084616631269455,-0.0920453518629074,-0.0727469623088837,-0.0954799950122833
107,0.0138409435749054,0.00503864185884595,-0.0837380141019821,-0.089863047003746,-0.0715319663286209,-0.0932415202260017
108,0.0145550156012177,0.00501534296199679,-0.0849666297435761,-0.0880255475640297,-0.0702425688505173,-0.0914380475878716
109,0.0154854655265808,0.00391040276736021,-0.087341420352459,-0.0873102694749832,-0.0697693154215813,-0.0903803482651711
110,0.0164766330271959,0.00197482365183532,-0.0897358357906342,-0.0875131636857986,-0.0702599883079529,-0.0895577892661095
111,0.0170369204133749,-0.000348012108588591,-0.0915746837854385,-0.0888103172183037,-0.0717119127511978,-0.0891439914703369
112,0.0174088515341282,-0.00267534516751766,-0.092938095331192,-0.0912883281707764,-0.0737249180674553,-0.0894265845417976
113,0.0181392729282379,-0.00445494661107659,-0.0937398001551628,-0.0941007733345032,-0.0748155936598778,-0.0898556634783745
114,0.0191374979913235,-0.00476887822151184,-0.0933168232440948,-0.0956658720970154,-0.0739351436495781,-0.0894516184926033
115,0.0202336739748716,-0.00274198944680393,-0.0906570553779602,-0.0945842117071152,-0.0715620219707489,-0.0874777585268021
116,0.0209098272025585,0.000582477834541351,-0.0864390656352043,-0.0917099863290787,-0.0694117024540901,-0.0848024487495422
117,0.0198063738644123,0.00287466938607395,-0.0832391753792763,-0.0894714668393135,-0.069262258708477,-0.0830689817667007
118,0.0167265757918358,0.00346036162227392,-0.0826698988676071,-0.0884528160095215,-0.0715690329670906,-0.0820753648877144
119,0.0136453760787845,0.00303995842114091,-0.0839139744639397,-0.087487667798996,-0.0745254531502724,-0.0806702002882957
120,0.0120740821585059,0.00217119045555592,-0.0846908763051033,-0.0859237983822823,-0.0752635076642036,-0.078670509159565
121,0.0115899443626404,0.00137241848278791,-0.0837001577019691,-0.084089994430542,-0.0734658241271973,-0.0765655115246773
122,0.011117909103632,0.000641946215182543,-0.0819977521896362,-0.0829563811421394,-0.0716888681054115,-0.0755961313843727
123,0.0105092534795403,0.000176492816535756,-0.0804097950458527,-0.0822416543960571,-0.0713817775249481,-0.0762739479541779
124,0.0105042364448309,0.000525464070960879,-0.0781252607703209,-0.080679789185524,-0.0715638399124146,-0.0772153288125992
125,0.0108193354681134,0.000636845477856696,-0.0753933265805244,-0.0788357481360435,-0.0715516209602356,-0.078209288418293
126,0.010618326254189,-0.000606788846198469,-0.0729788020253181,-0.0774692893028259,-0.0715462043881416,-0.0800815746188164
127,0.0101047921925783,-0.00256674201227725,-0.0703688338398933,-0.0762983486056328,-0.0712459534406662,-0.0824325084686279
128,0.00955065991729498,-0.00435948697850108,-0.0674629509449005,-0.0759982764720917,-0.0703495889902115,-0.0848940536379814
129,0.00895474571734667,-0.00521265482529998,-0.0645883828401566,-0.0772010982036591,-0.0690110474824905,-0.0870306417346001
130,0.00818766001611948,-0.00466373842209578,-0.0617953985929489,-0.078789085149765,-0.0678240656852722,-0.087486669421196
131,0.00675634061917663,-0.00330176576972008,-0.0595421940088272,-0.0791832804679871,-0.0678204819560051,-0.0854699239134789
132,0.00472019845619798,-0.00190410017967224,-0.0580102801322937,-0.0782615467905998,-0.069389671087265,-0.0821463540196419
133,0.00268506375141442,-0.000536535982973874,-0.0568741858005524,-0.0768431946635246,-0.0719779282808304,-0.0790400132536888
134,0.00104210828430951,0.00121636805124581,-0.0558378808200359,-0.0751051008701324,-0.0745706260204315,-0.0758931264281273
135,-0.000308555376250297,0.00285170064307749,-0.0550310462713242,-0.0737455561757088,-0.0760793834924698,-0.0729178711771965
136,-0.00165219325572252,0.00324887409806252,-0.0555104501545429,-0.0740041583776474,-0.0762907192111015,-0.0717072486877441
137,-0.00302359601482749,0.00248313718475401,-0.0579620189964771,-0.0752831399440765,-0.0759280025959015,-0.0722396001219749
138,-0.00452373828738928,0.0010265507735312,-0.0619426891207695,-0.0762794986367226,-0.0760725662112236,-0.0732482895255089
139,-0.00611544353887439,-0.00109937728848308,-0.0663064941763878,-0.0766671150922775,-0.0772467404603958,-0.0740119069814682
140,-0.00738593097776175,-0.00396384997293353,-0.0693748816847801,-0.0765404552221298,-0.0782156139612198,-0.0742000043392181
141,-0.00790827069431543,-0.00714248092845082,-0.0699784755706787,-0.0759863629937172,-0.0774107798933983,-0.0736359804868698
142,-0.00765709159895778,-0.00901979673653841,-0.0683116838335991,-0.0750641152262688,-0.0754031464457512,-0.0722898915410042
143,-0.00676575629040599,-0.00809198338538408,-0.0651555433869362,-0.0741482749581337,-0.0740549936890602,-0.0703942030668259
144,-0.00517280027270317,-0.00473150052130222,-0.061531413346529,-0.073645681142807,-0.0738518461585045,-0.0685044080018997
145,-0.00315448641777039,-0.00106437155045569,-0.0593869537115097,-0.0735422223806381,-0.073798730969429,-0.0671501830220222
146,-0.00133252504747361,0.00121461227536201,-0.0598836280405521,-0.0733997225761414,-0.0737727433443069,-0.066008135676384
147,-0.000167854741448537,0.00202090828679502,-0.0615933127701283,-0.0726951882243156,-0.0749781206250191,-0.0642918720841408
148,0.000595653138589114,0.00173781078774482,-0.0623895451426506,-0.0713606923818588,-0.0773625746369362,-0.0618662871420383
149,0.00176239071879536,0.000787656754255295,-0.0618449971079826,-0.0695858672261238,-0.078850045800209,-0.0592634417116642
150,0.00408767070621252,0.000159440372954123,-0.0601276382803917,-0.0668486878275871,-0.0774060115218163,-0.0565461739897728
151,0.00741511723026633,0.000643351697362959,-0.0573502369225025,-0.0628690049052238,-0.0731716379523277,-0.0534215047955513
152,0.0102989319711924,0.00164880428928882,-0.0549160353839397,-0.0589788667857647,-0.0688102245330811,-0.0505417585372925
153,0.0113902054727077,0.00229359185323119,-0.054106991738081,-0.0566111989319324,-0.0670237988233566,-0.0489063411951065
154,0.0106759071350098,0.0026548879686743,-0.0547921061515808,-0.0559882484376431,-0.0680794417858124,-0.0483760312199593
155,0.00927774794399738,0.00306565663777292,-0.0564221926033497,-0.0565918050706387,-0.0698311924934387,-0.0478019192814827
156,0.00811147224158049,0.00291055603884161,-0.058525949716568,-0.0581612102687359,-0.0702037885785103,-0.0472696274518967
157,0.00725647294893861,0.00150681473314762,-0.0606237575411797,-0.0603075809776783,-0.0690239518880844,-0.048035029321909
158,0.00601873034611344,-0.000672472699079663,-0.0623828880488873,-0.0621906630694866,-0.0671368166804314,-0.0502659752964973
159,0.00382194947451353,-0.00263275019824505,-0.0637151971459389,-0.0633058249950409,-0.0654067695140839,-0.0528133474290371
160,0.00145063374657184,-0.00333974347449839,-0.0643640011548996,-0.0631920620799065,-0.0645592138171196,-0.0543361715972424
161,-0.000209262725547887,-0.00237292516976595,-0.0641491040587425,-0.0618947669863701,-0.0651844218373299,-0.054510697722435
162,-0.00138556747697294,-8.56609840411693E-05,-0.0632540360093117,-0.0602259896695614,-0.0670595988631248,-0.0538883022964001
163,-0.00266738957725465,0.00263499468564987,-0.0617320835590363,-0.0589902214705944,-0.0691595748066902,-0.0531503111124039
164,-0.00418826099485159,0.00453858356922865,-0.0596841536462307,-0.0588251911103725,-0.0708078145980835,-0.0528453551232815
165,-0.00537407817319036,0.00516152335330844,-0.0575526170432568,-0.0593913644552231,-0.0712752342224121,-0.0528029799461365
166,-0.00554799987003207,0.00505782105028629,-0.0557327792048454,-0.0594257488846779,-0.0702044367790222,-0.0516136512160301
167,-0.00444039842113853,0.00483823614194989,-0.0540204681456089,-0.0582331009209156,-0.0684316381812096,-0.0477737262845039
168,-0.00240149232558906,0.00438533863052726,-0.0522795803844929,-0.0562493391335011,-0.0666864216327667,-0.0422156900167465
169,-0.000187888828804716,0.00335608911700547,-0.051261942833662,-0.054018035531044,-0.0650624930858612,-0.0378757230937481
170,0.00156053353566676,0.00189550523646176,-0.0516309328377247,-0.0513988435268402,-0.0635635703802109,-0.0367691703140736
171,0.00261037796735764,0.000477006775327027,-0.052723977714777,-0.0486151017248631,-0.0623083896934986,-0.0385870933532715
172,0.00329688470810652,-0.000434745219536126,-0.0533344373106956,-0.0467108823359013,-0.0613911300897598,-0.0412842743098736
173,0.00372123485431075,-0.0010163716506213,-0.0536871664226055,-0.0464829206466675,-0.0607958994805813,-0.0430562123656273
174,0.00377753376960754,-0.00151243316940963,-0.0545381829142571,-0.047711506485939,-0.060053862631321,-0.0435757078230381
175,0.00415696995332837,-0.0018032310763374,-0.0551243312656879,-0.0493336729705334,-0.0581102222204208,-0.0434415563941002
176,0.00506794871762395,-0.00219996832311153,-0.0546335875988007,-0.0506374724209309,-0.0552141144871712,-0.0434755980968475
177,0.00525872316211462,-0.00245232088491321,-0.053388386964798,-0.0511134825646877,-0.0532868877053261,-0.0436953045427799
178,0.00403494806960225,-0.00113048311322927,-0.0512100011110306,-0.0494474768638611,-0.053286787122488,-0.0421392656862736
179,0.00175740080885589,0.00214560446329415,-0.0475286096334457,-0.0450237281620502,-0.0549772866070271,-0.0368163771927357
180,-0.00122666440438479,0.00544846663251519,-0.0427083671092987,-0.0394660197198391,-0.057756096124649,-0.029241107404232
181,-0.00394555972889066,0.00675219809636474,-0.0376788601279259,-0.0357239171862602,-0.0598687566816807,-0.0238425619900227
182,-0.00515113305300474,0.00565977906808257,-0.0335497744381428,-0.0361160859465599,-0.05962885171175,-0.024482287466526
183,-0.00452881259843707,0.00278056785464287,-0.0314188376069069,-0.0403645597398281,-0.0573342256247997,-0.0319143086671829
184,-0.00243188953027129,-0.000271728204097599,-0.0317780748009682,-0.0456536561250687,-0.0544216260313988,-0.0430030226707459
185,0.000631451373919845,-0.00195438251830637,-0.0344196334481239,-0.0494588874280453,-0.0518234521150589,-0.053534772247076
186,0.00435153441503644,-0.00200882833451033,-0.037902444601059,-0.0508696734905243,-0.0495336391031742,-0.0606938749551773
187,0.00791592337191105,-0.000901489634998143,-0.0404225215315819,-0.0499822795391083,-0.0474428124725819,-0.0629842132329941
188,0.00984314829111099,0.000298967439448461,-0.0420567914843559,-0.048096165060997,-0.0460490137338638,-0.0610914416611195
189,0.0100106289610267,0.00139746489003301,-0.0432850532233715,-0.0462026000022888,-0.0456928461790085,-0.0566093027591705
190,0.00952998083084822,0.00336256460286677,-0.0433268621563911,-0.0438152402639389,-0.0461957156658173,-0.0503136366605759
191,0.00891626346856356,0.00604204880073667,-0.041601400822401,-0.0409662760794163,-0.0469442456960678,-0.0432765297591686
192,0.00823318120092154,0.00842482410371304,-0.0383191108703613,-0.0384484864771366,-0.0466935858130455,-0.0370789542794228
193,0.00763435382395983,0.00980967190116644,-0.0344200916588306,-0.0371681377291679,-0.0445937141776085,-0.0333087109029293
194,0.00706379069015384,0.00970862805843353,-0.0314941667020321,-0.0375623293220997,-0.0413001962006092,-0.0329058729112148
195,0.0061321179382503,0.00822595506906509,-0.0305443126708269,-0.0382071807980537,-0.0385508090257645,-0.0349244549870491
196,0.0047852979041636,0.00646084174513817,-0.0306973811239004,-0.0375822857022285,-0.0371848940849304,-0.0373134836554527
197,0.00339935510419309,0.00546442437916994,-0.0298787634819746,-0.0354807488620281,-0.0361039750277996,-0.0389695502817631
198,0.00238840584643185,0.00510698044672608,-0.0272894445806742,-0.0320796258747578,-0.0336802899837494,-0.0399024784564972
199,0.00248025800101459,0.0050625167787075,-0.0241949241608381,-0.0281094051897526,-0.0295672938227654,-0.0402104817330837
200,0.00361649831756949,0.00584509363397956,-0.0222936198115349,-0.0243237111717463,-0.0254224892705679,-0.0393824428319931
201,0.00428559584543109,0.00779351545497775,-0.0222145970910788,-0.0209746472537518,-0.0237110778689384,-0.0368131063878536
202,0.00372121529653668,0.00999056175351143,-0.0233822707086802,-0.0188467726111412,-0.0252705607563257,-0.0332823693752289
203,0.00264308322221041,0.0110938381403685,-0.025191318243742,-0.0188832189887762,-0.0286451149731874,-0.0304911788553
204,0.00207840325310826,0.0107077797874808,-0.0269844457507133,-0.0203991532325745,-0.0312514565885067,-0.0293005853891373
205,0.0025908462703228,0.00944706611335278,-0.0277594905346632,-0.021480493247509,-0.0314123742282391,-0.0291014425456524
206,0.00369260972365737,0.00823584105819464,-0.0275939386337996,-0.0212350599467754,-0.0302746873348951,-0.028294900432229
207,0.0045839655213058,0.00769193237647414,-0.0277245286852121,-0.0203038211911917,-0.0297911670058966,-0.0261914599686861
208,0.0050758570432663,0.00787370838224888,-0.0290731508284807,-0.0195374805480242,-0.0301694478839636,-0.0243269894272089
209,0.00526143098250031,0.00843927357345819,-0.0314039587974548,-0.0189138855785131,-0.031151058152318,-0.0245217308402061
210,0.00506605347618461,0.00879992265254259,-0.0335844643414021,-0.0178699120879173,-0.0328820906579494,-0.0264284480363131
211,0.00405598897486925,0.00802400521934032,-0.0343464985489845,-0.0162117127329111,-0.0352660156786442,-0.0283475536853075
212,0.00190909474622458,0.00558433961123228,-0.0336353369057179,-0.0137901669368148,-0.0374352224171162,-0.0290312319993973
213,-0.00103164161555469,0.00271096429787576,-0.0331175737082958,-0.0109678087756038,-0.0380587615072727,-0.0283667203038931
214,-0.00407769903540611,0.00120939046610147,-0.0334825702011585,-0.00964987371116877,-0.0374485142529011,-0.0276565626263618
215,-0.00690162228420377,0.000787198718171567,-0.0337738506495953,-0.0116808013990521,-0.0380804762244225,-0.0286984462291002
216,-0.00935937743633986,5.91681637160946E-05,-0.0335195027291775,-0.0160498712211847,-0.0411155596375465,-0.0314540863037109
217,-0.0109690567478538,-0.000907640671357512,-0.0319159366190434,-0.0189080946147442,-0.0444142669439316,-0.0334472507238388
218,-0.0115106888115406,-0.0015558087034151,-0.0284390971064568,-0.017778929322958,-0.0456731989979744,-0.0327102243900299
219,-0.0113999638706446,-0.00245689414441586,-0.0245784260332584,-0.0144866099581122,-0.0449362322688103,-0.0298745315521955
220,-0.0113356057554483,-0.00445493450388312,-0.0220751445740461,-0.0125348726287484,-0.0435353927314281,-0.027181601151824
221,-0.0113464994356036,-0.00696974899619818,-0.0217368081212044,-0.0129083236679435,-0.0424166135489941,-0.0259890500456095
222,-0.0104940831661224,-0.00850390549749136,-0.0238744784146547,-0.0136218154802918,-0.041673555970192,-0.0257564093917608
223,-0.00853221397846937,-0.00880393851548433,-0.0279256328940392,-0.0128452470526099,-0.0409718044102192,-0.0259742364287376
224,-0.00653026159852743,-0.00857270415872335,-0.0326480753719807,-0.011308440938592,-0.0404259636998177,-0.0265760291367769
225,-0.00541624939069152,-0.00789045356214046,-0.0372262112796307,-0.0108427936211228,-0.0409260727465153,-0.02689253911376
226,-0.00542878592386842,-0.00670146243646741,-0.0412833876907825,-0.0115522835403681,-0.0431596450507641,-0.026606498286128
227,-0.00633927853778005,-0.00547114759683609,-0.0444269105792046,-0.0119102792814374,-0.0465259253978729,-0.0264621675014496
228,-0.00722639774903655,-0.00434399535879493,-0.0457235723733902,-0.0103677036240697,-0.0490640699863434,-0.0262487791478634
229,-0.00768719054758549,-0.00321166566573083,-0.0448701456189156,-0.00652393884956837,-0.0500442571938038,-0.0242428295314312
230,-0.00826847273856401,-0.00243304925970733,-0.0426834672689438,-0.00163427530787885,-0.0503417626023293,-0.0202215444296598
231,-0.00865200348198414,-0.00212099682539701,-0.0389130935072899,0.00247719138860703,-0.0489905253052711,-0.0156991835683584
232,-0.00846636667847633,-0.00198654853738844,-0.0338714048266411,0.00480426754802465,-0.0452033542096615,-0.01149507984519
233,-0.00861956086009741,-0.00207187957130373,-0.0298481415957212,0.00548068201169372,-0.0413082130253315,-0.00791654828935862
234,-0.00933432020246983,-0.00276651652529836,-0.0276356060057878,0.0050261546857655,-0.0383918024599552,-0.0063566192984581
235,-0.00941099133342505,-0.00405240664258599,-0.0256932787597179,0.00380587065592408,-0.0347680486738682,-0.00795255973935127
236,-0.00791121181100607,-0.00444212695583701,-0.022817550227046,0.00251413276419044,-0.0303466953337193,-0.0109334466978908
237,-0.00522532686591148,-0.00247805053368211,-0.0195905491709709,0.00124922476243228,-0.0272084791213274,-0.0131153939291835
238,-0.00237418944016099,0.000952344329562038,-0.0173700600862503,-0.000846656912472099,-0.0263805352151394,-0.0148899089545012
239,-0.000234830338740721,0.00440759584307671,-0.0168763678520918,-0.00373430200852454,-0.0271626077592373,-0.0164541378617287
240,0.00032400427153334,0.00755921751260757,-0.0177480131387711,-0.00573869328945875,-0.02850042283535,-0.0163022559136152
241,-0.000503892195411026,0.00983747094869614,-0.0181002877652645,-0.00514105148613453,-0.0286915060132742,-0.0141087537631392
242,-0.00120801269076765,0.0102618588134646,-0.0160412862896919,-0.00225524581037462,-0.0261047836393118,-0.0115366447716951
243,-0.00147019140422344,0.00819722935557365,-0.012494427151978,0.000809884862974286,-0.0218013301491737,-0.0103041799739003
244,-0.00254940474405885,0.00467053521424532,-0.0106183616444469,0.00238325679674745,-0.0187751371413469,-0.0103574953973293
245,-0.00418542418628931,0.00222232518717647,-0.0115138962864876,0.00276412325911224,-0.0178513824939728,-0.0105635561048985
246,-0.00482231192290783,0.0014153029769659,-0.0129479896277189,0.00302682095207274,-0.0175270028412342,-0.011448442004621
247,-0.00466975197196007,0.00113160477485508,-0.0127716213464737,0.00378941069357097,-0.0176897756755352,-0.0133588537573814
248,-0.00483813602477312,0.00103954877704382,-0.0106053045019507,0.00523812556639314,-0.0189525093883276,-0.0144474096596241
249,-0.0049161990173161,0.000938515353482217,-0.00705705210566521,0.00697470409795642,-0.0200935229659081,-0.0138917956501246
250,-0.00425695860758424,0.000539061788003892,-0.00357103510759771,0.00802374817430973,-0.0200917031615973,-0.0129719171673059
251,-0.00368602084927261,2.43255599343684E-05,-0.00178505817893893,0.00713403197005391,-0.0199832171201706,-0.0124046020209789
252,-0.00368571560829878,-0.000197653949726373,-0.00162840401753783,0.0045264819636941,-0.0203137788921595,-0.0119543289765716
253,-0.00340219773352146,0.000105886429082602,-0.00194456393364817,0.00206877640448511,-0.0198241136968136,-0.0120523627847433
254,-0.00225918577052653,0.000671872461680323,-0.00247293757274747,0.000555567909032106,-0.0179294645786285,-0.0134007511660457
255,-0.000488840974867344,0.00029342804918997,-0.00360179389826953,-0.00113682763185352,-0.0157390516251326,-0.0161870699375868
256,0.00109437468927354,-0.00215914496220648,-0.00566171389073133,-0.00394610501825809,-0.0146015016362071,-0.019944429397583
257,0.00136126903817058,-0.00588557682931423,-0.00810264889150858,-0.00684514502063394,-0.0145866060629487,-0.0228773411363363
258,0.000226224496145733,-0.00919580273330212,-0.00923403911292553,-0.00810830760747194,-0.0141762178391218,-0.022911611944437
259,-0.000988022075034678,-0.0112790130078793,-0.00774406455457211,-0.00732252560555935,-0.0119918268173933,-0.0198993999511003
260,-0.00131290219724178,-0.0118873063474894,-0.00374838477000594,-0.00505273975431919,-0.00853438954800367,-0.0153433326631784
261,-0.00135106698144227,-0.011388492770493,0.000806693453341722,-0.00225905934348702,-0.0060606230981648,-0.0111555363982916
262,-0.00219795014709234,-0.0105906967073679,0.0031948967371136,4.94103187520523E-05,-0.00637756055220962,-0.00888310000300407
263,-0.00391974346712232,-0.00962923280894756,0.00268509075976908,0.00145830656401813,-0.00867534335702658,-0.00837239250540733
264,-0.00560403103008866,-0.00810749921947718,0.000549229444004595,0.00191965559497476,-0.0107811456546187,-0.00799269508570433
265,-0.00668191537261009,-0.00610563158988953,-0.00226430804468691,0.00179751613177359,-0.0123048033565283,-0.00678129959851503
266,-0.00742384232580662,-0.00432945741340518,-0.00495414715260267,0.0023061609826982,-0.0139262033626437,-0.00532516231760383
267,-0.00789253320544958,-0.00281049939803779,-0.00584787921980023,0.00523794163018465,-0.0148827265948057,-0.00360592640936375
268,-0.00790663156658411,-0.000768703815992922,-0.00492680864408612,0.0108030876144767,-0.0148541647940874,-0.00028516270685941
269,-0.00756085058674216,0.00189582689199597,-0.00452431803569198,0.0164797082543373,-0.0152342431247234,0.00416195346042514
270,-0.00695995939895511,0.0042085088789463,-0.00553286448121071,0.0196612048894167,-0.0165153704583645,0.00660207122564316
271,-0.00618150271475315,0.0047408496029675,-0.0065372078679502,0.0200384445488453,-0.0173729788511992,0.00476898299530149
272,-0.00494242133572698,0.00320288771763444,-0.00604193797335029,0.0193596184253693,-0.0166362449526787,0.000508197816088796
273,-0.00293176458217204,0.00048005988355726,-0.00428958470001817,0.0183838792145252,-0.0150707839056849,-0.00287514110095799
274,-0.00141936913132668,-0.00278637418523431,-0.0040213237516582,0.0159284099936485,-0.0148922707885504,-0.00471879029646516
275,-0.00199272530153394,-0.00551157677546144,-0.00702985562384129,0.0123240575194359,-0.0167970582842827,-0.00510025955736637
276,-0.00407164776697755,-0.00654647452756763,-0.0110538825392723,0.00915231183171272,-0.0193336773663759,-0.00390254915691912
277,-0.00602035922929645,-0.00614234898239374,-0.0139399776235223,0.00654076598584652,-0.021551389247179,-0.00252943928353488
278,-0.00700407242402434,-0.00510137667879462,-0.0164316035807133,0.0039291325956583,-0.0234228260815144,-0.00196728226728737
279,-0.00716966670006514,-0.0035894988104701,-0.0189804080873728,0.0013356605777517,-0.0248572807759047,-0.00130849762354046
280,-0.00708577455952764,-0.00134592980612069,-0.0205226875841618,-0.000412021792726591,-0.0256033018231392,0.000772475439589471
281,-0.00741872424259782,0.00146656145807356,-0.0203295052051544,-0.000462604133645073,-0.0255781356245279,0.00440997304394841
282,-0.00809896551072598,0.0041936538182199,-0.0187027100473642,0.000786391261499375,-0.0246939025819302,0.00779262511059642
283,-0.00858198944479227,0.00616160687059164,-0.0168801490217447,0.00206005061045289,-0.0235254243016243,0.00859400816261768
284,-0.00944387260824442,0.00714286463335156,-0.0166432708501816,0.00225232099182904,-0.024169160053134,0.00675933202728629
285,-0.0112290643155575,0.00702735269442201,-0.0180860552936792,0.00113978737499565,-0.0273762978613377,0.00386018585413694
286,-0.0124840475618839,0.00553438300266862,-0.0188715122640133,-0.000544501061085612,-0.0305108744651079,0.000672046036925167
287,-0.0113163571804762,0.00346012669615448,-0.0178071800619364,-0.0022374102845788,-0.0310917627066374,-0.00188567105215043
288,-0.00808777380734682,0.00199230015277863,-0.0168439820408821,-0.00387659505940974,-0.0298559907823801,-0.00242604990489781
289,-0.00452281022444367,0.00103117106482387,-0.0178767926990986,-0.00528313126415014,-0.0282945819199085,-0.000885497371200472
290,-0.00150056811980903,0.00046916410792619,-0.0199393834918737,-0.00594882667064667,-0.0262227244675159,0.00191613286733627
291,0.000701515527907759,0.00126475153956562,-0.0208727288991213,-0.00522124581038952,-0.0235039554536343,0.00563295185565948
292,0.00138380017597228,0.00327505567111075,-0.0204135067760944,-0.00371339288540185,-0.0211764350533485,0.00928072445094585
293,0.000447623868240044,0.00466134399175644,-0.019370224326849,-0.00300167268142104,-0.0197851173579693,0.0110794138163328
294,-0.000898221507668495,0.00455165235325694,-0.0173070915043354,-0.00293629779480398,-0.0194740239530802,0.0108233541250229
295,-0.00134526914916933,0.00356371304951608,-0.0134099898859859,-0.0021817097440362,-0.0203046407550573,0.00961013790220022
296,-0.000754852313548326,0.00218307017348707,-0.00829769205302,-0.000732203829102218,-0.0214393977075815,0.0081213591620326
297,-0.000305420951917768,0.00035418217885308,-0.00365230557508767,0.00039372785249725,-0.0225574765354395,0.00680212769657373
298,-0.00108203117270023,-0.00158393755555153,-0.00073902471922338,0.000661881291307509,-0.0240583792328835,0.00593449454754591
299,-0.00320119434036314,-0.00310359592549503,-0.000327132147504017,9.09071532078087E-05,-0.0257561411708593,0.0049351598136127
300,-0.0059639485552907,-0.00431682635098696,-0.002721763914451,-0.00117783341556787,-0.0271507911384106,0.00270027597434819
301,-0.00795886479318142,-0.00437820516526699,-0.00651104236021638,-0.00246107368730009,-0.0276506207883358,-4.77872999908868E-05
302,-0.00850877538323402,-0.00257289572618902,-0.00925179291516542,-0.00272738328203559,-0.0272961780428886,-0.00181027560029179
303,-0.0090125547721982,-0.0010989437578246,-0.0102921035140753,-0.00198012730106711,-0.0276939161121845,-0.00353202619589865
304,-0.010825383476913,-0.0015050764195621,-0.0111292405053973,-0.001138563035056,-0.0300457719713449,-0.00511738425120711
305,-0.0133052710443735,-0.00234168232418597,-0.0126885650679469,-0.000239183340454474,-0.0330887772142887,-0.00409905472770333
306,-0.0150815565139055,-0.0026691232342273,-0.0138634219765663,0.00110254751052707,-0.0342820361256599,-0.00133514846675098
307,-0.0151837319135666,-0.00286206067539752,-0.0129334516823292,0.00239763781428337,-0.0318983159959316,-2.85641749542265E-06
308,-0.0131024653092027,-0.0030039856210351,-0.00879921298474073,0.00344966305419803,-0.0261436831206083,-0.000671550165861845
309,-0.00990818627178669,-0.00327049545012414,-0.00230147945694625,0.00461245840415359,-0.0195714123547077,-0.00202628038823605
310,-0.00769765162840486,-0.00396131165325642,0.00346977356821299,0.00560034345835447,-0.0149084655568004,-0.00277786399237812
311,-0.00677661225199699,-0.00454782275483012,0.00665911799296737,0.00641911430284381,-0.0121700735762715,-0.00165309687145054
312,-0.00636498816311359,-0.00413519376888871,0.00803505443036556,0.0080402996391058,-0.0107602616772056,0.00192647869698703
313,-0.00727042136713862,-0.00263354950584471,0.00788998790085316,0.0109663913026452,-0.0121333627030253,0.00730338366702199
314,-0.0101951221004128,-0.000518799584824592,0.00580883258953691,0.0143078081309795,-0.0165066830813885,0.0131465326994658
315,-0.0129380347207189,0.00146475480869412,0.00283671845681965,0.0158454105257988,-0.0202340520918369,0.0167154464870691
316,-0.0125697227194905,0.00268204393796623,0.000922486011404544,0.0144105665385723,-0.0200284030288458,0.0158604420721531
317,-0.0091098640114069,0.00282627600245178,0.00107732636388391,0.0113639459013939,-0.0166597869247198,0.0116502484306693
318,-0.00512182619422674,0.00184531463310122,0.00247681909240782,0.00844133179634809,-0.0132448691874743,0.00675335340201855
319,-0.00277794362045825,0.000406134553486481,0.00323875597678125,0.00611633202061057,-0.0120493099093437,0.00345100089907646
320,-0.00281777931377292,-0.000915387528948486,0.00230706576257944,0.00406387774273753,-0.0135536231100559,0.00225690705701709
321,-0.0048587080091238,-0.00186224875506014,0.000310835574055091,0.00266680284403265,-0.0170024521648884,0.00263879308477044
322,-0.00801289360970259,-0.00193001760635525,-0.00188832392450422,0.00328752747736871,-0.021035622805357,0.00509032281115651
323,-0.0115182343870401,-0.000579490093514323,-0.00389078631997108,0.00705040572211146,-0.0247803255915642,0.0106814792379737
324,-0.0142641179263592,0.00177463877480477,-0.00504755601286888,0.0131766926497221,-0.0276241060346365,0.0184332076460123
325,-0.0157201588153839,0.00356804416514933,-0.00563354510813951,0.019013425335288,-0.0297039952129126,0.0253597646951675
326,-0.0164090190082788,0.00449815485626459,-0.00674588466063142,0.0227853618562222,-0.0315719358623028,0.0304161198437214
327,-0.0164552703499794,0.00536236073821783,-0.00794367585331202,0.0247106309980154,-0.0319699943065643,0.0342837050557137
328,-0.0157819241285324,0.00577431591227651,-0.00808168202638626,0.0250021070241928,-0.0297772102057934,0.0355520248413086
329,-0.0146160498261452,0.00554435886442661,-0.00766204297542572,0.0230549536645412,-0.0262237414717674,0.032793901860714
330,-0.0129725197330117,0.0057255937717855,-0.00752397766336799,0.0199692714959383,-0.0228204987943172,0.0284426491707563
331,-0.0114443209022284,0.00660464819520712,-0.00761162349954247,0.0179920047521591,-0.0205097328871489,0.0255024004727602
332,-0.0108365649357438,0.00734643498435616,-0.00782076921314001,0.0173709932714701,-0.0196974407881498,0.0235740374773741
333,-0.0106026884168386,0.00739965494722128,-0.00798411201685667,0.0169595777988434,-0.0193412490189075,0.0207313299179077
334,-0.0102393012493849,0.00636998657137156,-0.00801629107445478,0.0155267911031842,-0.0177279356867075,0.015761312097311
335,-0.00986040197312832,0.0040932004339993,-0.00825113151222467,0.012841334566474,-0.0140846259891987,0.00913889240473509
336,-0.00948414113372564,0.00146589917130768,-0.00911494065076113,0.010302210226655,-0.00994418188929558,0.00340483291074634
337,-0.00937734544277191,0.000126274302601814,-0.0104423174634576,0.00975132640451193,-0.00783328805118799,0.0011471442412585
338,-0.0102156298235059,0.00048667038208805,-0.0114826709032059,0.0116630205884576,-0.00869607552886009,0.00247524050064385
339,-0.012080792337656,0.000768903875723481,-0.0113009698688984,0.0143722025677562,-0.0107885068282485,0.00475557195022702
340,-0.0132731441408396,-0.00015763369447086,-0.00987381301820278,0.0158706363290548,-0.0110651683062315,0.00507858349010348
341,-0.0126262400299311,-0.0011068235617131,-0.00888631865382195,0.0155776524916291,-0.00998044665902853,0.00334910792298615
342,-0.0114147597923875,-0.000679756340105087,-0.0093012610450387,0.014941418543458,-0.0110246334224939,0.00178729160688818
343,-0.0111498506739736,0.000879645987879485,-0.0102135548368096,0.0161252878606319,-0.0151921063661575,0.00126607087440789
344,-0.0110694859176874,0.00245318235829473,-0.0103151453658938,0.0189768802374601,-0.0179874617606401,0.000583173939958215
345,-0.00902248360216618,0.00399030186235905,-0.00911520142108202,0.0215010512620211,-0.0142908664420247,-0.00091743643861264
346,-0.00523966085165739,0.00571488635614514,-0.00829945411533117,0.021917350590229,-0.00700471037998796,-0.00326718506403267
347,-0.00202024495229125,0.00663733156397939,-0.00942359771579504,0.0200971625745296,-0.00206021941266954,-0.00640855729579926
348,-0.000126649654703215,0.00598808517679572,-0.0104476232081652,0.0181749984622002,0.00034042279003188,-0.00874364748597145
349,0.000216922955587506,0.0043904222548008,-0.00904200505465269,0.0179192870855331,0.00152782024815679,-0.00875018909573555
350,-0.00137062883004546,0.00325908069498837,-0.00666594412177801,0.0195322036743164,0.000506727956235409,-0.0069795660674572
351,-0.00366766680963337,0.00317263882607222,-0.0055675283074379,0.022494912147522,-0.00238753412850201,-0.00485224043950439
352,-0.00561107648536563,0.0035366287920624,-0.00509152933955193,0.0260224211961031,-0.00514983804896474,-0.00190207152627409
353,-0.00705826701596379,0.00447616446763277,-0.00327338743954897,0.0296645313501358,-0.00627037556841969,0.00415112636983395
354,-0.00795381888747215,0.00640513654798269,0.000416512048104778,0.0327646434307098,-0.00519082183018327,0.0122402282431722
355,-0.00839361548423767,0.00846511591225863,0.00528895249590278,0.0344562120735645,-0.00241618906147778,0.0175467282533646
356,-0.00791500601917505,0.00928890611976385,0.0104088271036744,0.0346370935440063,0.00167956459335983,0.0174899268895388
357,-0.00583539763465524,0.00869578123092651,0.0146424835547805,0.0340983420610428,0.00677883392199874,0.0144391981884837
358,-0.00278508476912975,0.00768485153093934,0.0163214411586523,0.0333930402994156,0.0105944536626339,0.0120603069663048
359,-0.000568063231185079,0.00719593744724989,0.0143568525090814,0.032029427587986,0.0104453079402447,0.0113039510324597
360,0.000609785784035921,0.00781541224569082,0.0106170820072293,0.0296828355640173,0.00777819287031889,0.011050021275878
361,0.00145480304490775,0.00926774740219116,0.00844552740454674,0.0269516408443451,0.00533658871427178,0.00996745936572552
362,0.000317577068926767,0.0105956941843033,0.00914794206619263,0.0252163372933865,0.00134226272348315,0.00845467206090689
363,-0.00440633296966553,0.0109970346093178,0.0122369108721614,0.0256938263773918,-0.00550412107259035,0.00792068615555763
364,-0.0102424258366227,0.0103007778525352,0.0163692310452461,0.0275769922882319,-0.010166497901082,0.00858283694833517
365,-0.0135341286659241,0.00895841605961323,0.0186958089470863,0.0286429915577173,-0.0095350481569767,0.0102353906258941
366,-0.0147646805271506,0.00757213309407234,0.017231959849596,0.0282832495868206,-0.00893961265683174,0.0128077371045947
367,-0.0162361841648817,0.00722856586799026,0.0128206331282854,0.0280028712004423,-0.0123383514583111,0.0168648231774569
368,-0.0168739464133978,0.00867283903062344,0.00867886655032635,0.0286026410758495,-0.0137708811089396,0.0218997150659561
369,-0.0152015751227736,0.0113538606092334,0.00742986472323537,0.0289403051137924,-0.00882125739008188,0.0251852087676525
370,-0.0130744455382228,0.0141222728416324,0.00760899670422077,0.0280001945793629,-0.00340553047135472,0.0252231992781162
371,-0.0125748766586185,0.0158165823668242,0.00706994812935591,0.0262126233428717,-0.00247125141322613,0.0227690227329731
372,-0.0137323271483183,0.0161199104040861,0.00638693058863282,0.0243166591972113,-0.00449024187400937,0.0191863495856524
373,-0.01537218503654,0.0160787999629974,0.0073179486207664,0.0232141613960266,-0.00671962788328528,0.0162412244826555
374,-0.0168701484799385,0.0163166876882315,0.0101470686495304,0.0235294345766306,-0.00857853889465332,0.01512904278934
375,-0.0188675709068775,0.015492370352149,0.0130659155547619,0.0243586674332619,-0.0108816400170326,0.0148856658488512
376,-0.0213843248784542,0.0125621212646365,0.0148049835115671,0.0247199516743422,-0.0130161494016647,0.0141190299764276
377,-0.0232147797942162,0.00856482516974211,0.0153863271698356,0.0248490534722805,-0.0134604927152395,0.0125763276591897
378,-0.0240922290831804,0.00527922483161092,0.0147980023175478,0.0252553354948759,-0.0125816166400909,0.0108738588169217
379,-0.025296887382865,0.00393647328019142,0.0135593740269542,0.0261330399662256,-0.0118207447230816,0.0107376975938678
380,-0.0274948608130217,0.00412855530157685,0.0122139835730195,0.0270242057740688,-0.0118479402735829,0.0125083699822426
381,-0.0284321550279856,0.00406833551824093,0.00983764510601759,0.0258653052151203,-0.0124807320535183,0.0124940117821097
382,-0.0258927326649427,0.00286058033816516,0.00701854703947902,0.0219514239579439,-0.0126816313713789,0.00822903774678707
383,-0.0216161403805017,0.00114340672735125,0.00661907019093633,0.0184074863791466,-0.0114778857678175,0.00233358051627874
384,-0.0184975434094667,2.42750938923564E-05,0.00798827782273293,0.017533840611577,-0.00946583319455385,-0.00160414713900536
385,-0.0186257250607014,0.00066132063511759,0.00694182189181447,0.018467653542757,-0.0109127005562186,-0.000907772104255855
386,-0.0222250316292048,0.00261843902990222,0.00258034141734242,0.0194736290723085,-0.0180717427283525,0.00423405598849058
387,-0.0260622221976519,0.00380501267500222,-0.00161918788217008,0.0194385908544064,-0.0237185228615999,0.0105230547487736
388,-0.0265051070600748,0.00285317306406796,-0.00271146395243704,0.017923740670085,-0.0194544903934002,0.0145833557471633
389,-0.0237951651215553,0.000396832736441866,-0.00213870801962912,0.014892490580678,-0.00921747088432312,0.0144926505163312
390,-0.0221749506890774,-0.000320594728691503,-0.00428999355062842,0.0113589502871037,-0.00742401322349906,0.0122737996280193
391,-0.0250309985131025,0.00249665579758585,-0.00913334172219038,0.00862065330147743,-0.0194716826081276,0.0109350625425577
392,-0.0327069126069546,0.00630687829107046,-0.0123281767591834,0.00713482918217778,-0.0379059538245201,0.010455921292305
393,-0.0413071513175964,0.00725298747420311,-0.0122315818443894,0.00586681114509702,-0.0527619495987892,0.00783479958772659
394,-0.0434659831225872,0.00293705845251679,-0.00958893727511168,0.00300374254584312,-0.052225649356842,-0.000817980675492436
395,-0.0382431037724018,-0.00518535729497671,-0.00496718240901828,-0.000547969597391784,-0.0352852642536163,-0.0141013525426388
396,-0.0323883108794689,-0.0131868356838822,0.000479980546515435,-0.00288409437052906,-0.015880860388279,-0.026085190474987
397,-0.0297696515917778,-0.0180715620517731,0.00347921950742602,-0.0052432925440371,-0.00569317257031798,-0.0329655855894089
398,-0.0291011221706867,-0.0195271316915751,0.00204525771550834,-0.00874955765902996,-0.00552488630637527,-0.0349213033914566
399,-0.0288885273039341,-0.0191375333815813,-0.000947939523030072,-0.0114482035860419,-0.00857558101415634,-0.0338608101010323
400,-0.0290157347917557,-0.0172915384173393,-0.00233170809224248,-0.0112579027190804,-0.0102638276293874,-0.0308116562664509
401,-0.0294977929443121,-0.0135967535898089,-0.00151184119749814,-0.00791853293776512,-0.00994288921356201,-0.0253387317061424
402,-0.0289066173136234,-0.00966771598905325,0.00144081993494183,-0.00340666458941996,-0.0051807314157486,-0.0186533872038126
403,-0.0267606265842915,-0.00744715472683311,0.00708018429577351,0.000371935951989144,0.00323674245737493,-0.0134842088446021
404,-0.0260734856128693,-0.00637710001319647,0.0142773455008864,0.0034185245167464,0.00787539500743151,-0.0106883142143488
405,-0.0274202954024076,-0.00676928553730249,0.0183934811502695,0.0040918574668467,0.00715959211811423,-0.012331610545516
406,-0.0276409666985273,-0.00920337252318859,0.016642939299345,0.00117628346197307,0.00596447754651308,-0.0187570378184319
407,-0.0264256149530411,-0.0116424271836877,0.0105651905760169,-0.0031960909254849,0.00324032013304532,-0.0251335371285677
408,-0.0250561609864235,-0.0130661865696311,0.00290443957783282,-0.00774810928851366,-0.00206059566698968,-0.028712946921587
409,-0.0236313808709383,-0.0139583237469196,-0.00346924690529704,-0.0119969509541988,-0.00699091935530305,-0.0295173395425081
410,-0.0236691571772099,-0.0139568839222193,-0.00729231862351298,-0.0145381186157465,-0.0129770040512085,-0.0266966428607702
411,-0.0269052367657423,-0.0128488028421998,-0.00941198877990246,-0.015120436437428,-0.0226653926074505,-0.0210355371236801
412,-0.0324170477688313,-0.0116077205166221,-0.0108758062124252,-0.0145503710955381,-0.0349526107311249,-0.0158569868654013
413,-0.0372218750417233,-0.0108701949939132,-0.0113515332341194,-0.013043980114162,-0.0442439876496792,-0.0124136609956622
414,-0.0388236679136753,-0.0102359810844064,-0.00962811056524515,-0.0106416828930378,-0.0436579659581184,-0.0092462720349431
415,-0.0367446653544903,-0.00992830283939838,-0.00651448778808117,-0.00918928626924753,-0.0336135551333427,-0.0073733483441174
416,-0.0327139310538769,-0.0110143031924963,-0.00398913817480206,-0.0106903677806258,-0.0214596670120955,-0.0095771849155426
417,-0.0298309251666069,-0.0135265849530697,-0.00318261468783021,-0.0142968995496631,-0.014621602371335,-0.0151308430358768
418,-0.0291934479027987,-0.0164837073534727,-0.00395514955744147,-0.0180231854319572,-0.013288963586092,-0.0210539102554321
419,-0.0297341700643301,-0.0187553688883781,-0.00576242292299867,-0.0209296718239784,-0.0141950901597738,-0.0254495274275541
420,-0.0306965131312609,-0.0191872119903564,-0.009376285597682,-0.0232201479375362,-0.0180925186723471,-0.0275124553591013
421,-0.0322262123227119,-0.0172887705266476,-0.0144548332318664,-0.024664519354701,-0.0246703345328569,-0.0272261444479227
422,-0.0327036082744598,-0.0152547582983971,-0.0179535541683435,-0.0248745027929544,-0.0282778032124043,-0.0274239629507065
423,-0.0297977179288864,-0.0159379746764898,-0.018423680216074,-0.0245448611676693,-0.0261244177818298,-0.0312468595802784
424,-0.0253538750112057,-0.0179232098162174,-0.0170888658612967,-0.0233267042785883,-0.0228356812149286,-0.0360539816319942
425,-0.0216554626822472,-0.0184173546731472,-0.0150410663336515,-0.0208731554448605,-0.0205856263637543,-0.0379444397985935
426,-0.0186716560274363,-0.0176092628389597,-0.0129561079666018,-0.0184909123927355,-0.018646327778697,-0.0366982147097588
427,-0.0169758144766092,-0.0167525429278612,-0.0111158257350326,-0.0168204829096794,-0.0185150746256113,-0.0332755073904991
428,-0.0164543632417917,-0.0160798244178295,-0.00937970634549856,-0.0159444343298674,-0.0191412921994925,-0.0298922918736935
429,-0.0159730054438114,-0.0158256646245718,-0.0078699728474021,-0.0165716074407101,-0.0181831549853086,-0.0292939338833094
430,-0.0163760092109442,-0.0166354365646839,-0.00684313476085663,-0.018089909106493,-0.0180499404668808,-0.0312593467533588
431,-0.0184100028127432,-0.0182917527854443,-0.00536571955308318,-0.0181592889130116,-0.0201370511204004,-0.0324035510420799
432,-0.0208215806633234,-0.0195623990148306,-0.0023749265819788,-0.0162843950092793,-0.0218380317091942,-0.0288970824331045
433,-0.0228742454200983,-0.0201046448200941,0.00154920190107077,-0.01418596226722,-0.0223121028393507,-0.0212347600609064
434,-0.0238042138516903,-0.0202360451221466,0.00549388723447919,-0.0122561128810048,-0.0216866452246904,-0.0135517930611968
435,-0.0229410473257303,-0.0196689777076244,0.00859679188579321,-0.00989521201699972,-0.0193625707179308,-0.0079675605520606
436,-0.0214031152427197,-0.0195088181644678,0.0101290112361312,-0.00800631009042263,-0.0158456806093454,-0.00664132693782449
437,-0.0209579616785049,-0.0210068747401237,0.0102543439716101,-0.0070860618725419,-0.0149236023426056,-0.0107519282028079
438,-0.0214921776205301,-0.0225578211247921,0.00978304445743561,-0.00624062307178974,-0.0168923940509558,-0.0152869187295437
439,-0.0218059737235308,-0.0214554481208324,0.00969070103019476,-0.00497410306707025,-0.0169898755848408,-0.0142443859949708
440,-0.0229802317917347,-0.0168256778270006,0.010297629982233,-0.00263828248716891,-0.0168627984821796,-0.00753807369619608
441,-0.0259637888520956,-0.0110179577022791,0.011317920871079,0.000410184060456231,-0.017496382817626,-0.00111347553320229
442,-0.0279681757092476,-0.00692805927246809,0.0121951373293996,0.0022189007140696,-0.0133116552606225,-0.000696330331265926
443,-0.0265657268464565,-0.00472454959526658,0.0120277926325798,0.00195349985733628,-0.00481306063011289,-0.00594599451869726
444,-0.0242043025791645,-0.00345952459610999,0.0101284710690379,-0.000165319579537027,0.000489710248075426,-0.0135563127696514
445,-0.0240308102220297,-0.00277798622846603,0.00741301104426384,-0.00313153909519315,-0.00142323726322502,-0.0209075603634119
446,-0.0249987002462149,-0.00270562502555549,0.00542249251157045,-0.00524317054077983,-0.00685185892507434,-0.0260501187294722
447,-0.0249590650200844,-0.00348185817711055,0.00376285286620259,-0.00639100046828389,-0.0107189994305372,-0.0290382523089647
448,-0.0246427040547132,-0.00490945484489203,0.0019272988429293,-0.00719192298129201,-0.0127350362017751,-0.0308136269450188
449,-0.0262509379535913,-0.00631956942379475,0.000719216070137918,-0.00742443185299635,-0.014542181044817,-0.030729116871953
450,-0.0301163867115974,-0.00720569118857384,0.00171296496409923,-0.00601634662598372,-0.0162455253303051,-0.0272305738180876
451,-0.0331343412399292,-0.00767727475613356,0.00623984122648835,-0.00229997374117374,-0.0159165188670158,-0.0204808320850134
452,-0.0318449400365353,-0.00816345866769552,0.0114006530493498,0.00121188233606517,-0.0144960023462772,-0.0133566493168473
453,-0.0258860662579536,-0.00921399146318436,0.0143363820388913,0.00173567899037153,-0.0129207260906696,-0.0097143966704607
454,-0.0170596279203892,-0.0117861041799188,0.0180587917566299,0.000514906307216734,-0.00543038686737418,-0.0110102882608771
455,-0.00945987273007631,-0.0140167372301221,0.0229746531695127,0.000238740380154923,0.0044608311727643,-0.0122194234281778
456,-0.00686663994565606,-0.0123092755675316,0.0250744763761759,0.00104980240575969,0.00669946009293199,-0.00847290083765984
457,-0.00750241009518504,-0.00745739880949259,0.0247892718762159,0.00200004316866398,0.00578755885362625,-0.00359604181721807
458,-0.00786040909588337,-0.00248267408460379,0.0249161217361689,0.00349868717603385,0.00888960901647806,-0.00202048919163644
459,-0.00790852308273315,0.00109992432408035,0.0252363961189985,0.00514691229909658,0.0140911927446723,-0.00349199771881104
460,-0.00947887543588877,0.00311699463054538,0.0245646797120571,0.00584747130051255,0.017350235953927,-0.00615016324445605
461,-0.01249142549932,0.0038096287753433,0.0229361485689878,0.00556332571431994,0.0172840226441622,-0.00768852047622204
462,-0.0145152825862169,0.00303446198813617,0.0200512707233429,0.00382412900216877,0.0139020476490259,-0.00772535335272551
463,-0.015185265801847,0.00143230392131954,0.0158969257026911,0.000889964576344937,0.00641243020072579,-0.00669713644310832
464,-0.0158913750201464,0.000209078716579825,0.0132722249254584,-0.000103487938758917,-0.00161295861471444,-0.00312262983061373
465,-0.0161115601658821,-0.000642609549686313,0.0143850594758987,0.00269044167362154,-0.00486317835748196,0.0023237238638103
466,-0.0147493351250887,-0.00249043549410999,0.0176122523844242,0.00660344120115042,-0.00407657353207469,0.00492614228278399
467,-0.012373966164887,-0.00572347035631537,0.0208521243184805,0.00941392965614796,-0.00169792538508773,0.00369707681238651
468,-0.0100659467279911,-0.0088934414088726,0.024195009842515,0.0114711234346032,0.00323176733218133,0.00215010158717632
469,-0.00870830751955509,-0.0101859793066978,0.0260515250265598,0.0114833498373628,0.00820669252425432,0.0018714991165325
470,-0.00887291599065065,-0.00898764654994011,0.0240094717592001,0.00833921041339636,0.00736384326592088,0.00205136556178331
471,-0.0093761095777154,-0.00670335441827774,0.0207706559449434,0.00480721751227975,0.0029658277053386,0.0015452733496204
472,-0.00944410730153322,-0.00487968372181058,0.0191305559128523,0.00332146603614092,-0.000243341986788437,0.000718863680958748
473,-0.00993192009627819,-0.00386822270229459,0.0179506409913301,0.00311543163843453,-0.00307151931338012,0.000971039175055921
474,-0.010958350263536,-0.00359883229248226,0.0162236746400595,0.00252835685387254,-0.00665354449301958,0.00206463458016515
475,-0.0114632388576865,-0.00375872431322932,0.0145380133762956,0.00130122876726091,-0.00808479823172092,0.00276580057106912
476,-0.0110168103128672,-0.0035612927749753,0.0134217012673616,0.000392375339288265,-0.00660714274272323,0.00339152151718736
477,-0.0105102108791471,-0.00302956299856305,0.0127643356099725,-0.000433582055848092,-0.00507934903725982,0.0044182175770402
478,-0.00995310582220554,-0.00327719445340335,0.0125171560794115,-0.00229305913671851,-0.00175043568015099,0.00425001187250018
479,-0.00923516694456339,-0.00456377863883972,0.0117828110232949,-0.00532959029078484,0.00258828443475068,0.00148895941674709
480,-0.00978427287191153,-0.00640473980456591,0.0105258589610457,-0.00841004122048616,0.00267257587984204,-0.003488605376333
481,-0.0111642582342029,-0.00863965414464474,0.010616640560329,-0.0100687220692635,0.00107086007483304,-0.0092390039935708
482,-0.0109431259334087,-0.010784019716084,0.0126922884956002,-0.00986835639923811,0.00364281446672976,-0.0131734786555171
483,-0.00897765532135963,-0.0124245854094625,0.0155455050989985,-0.00805484410375357,0.00896919798105955,-0.0143822990357876
484,-0.00693212170153856,-0.0140564627945423,0.0174817573279142,-0.00538388034328818,0.0126925883814693,-0.0152566581964493
485,-0.00611373363062739,-0.0152739360928535,0.0176507979631424,-0.00287720770575106,0.0126809999346733,-0.0166284088045359
486,-0.00630058767274022,-0.0156061826273799,0.0179937575012445,-0.000886976078618318,0.0114503856748343,-0.0173049680888653
487,-0.00608313223347068,-0.0157456547021866,0.0197760742157698,-0.000113992064143531,0.0126289548352361,-0.0167973209172487
488,-0.00559418695047498,-0.0146940378472209,0.0202808696776628,-0.0010151332244277,0.0131468418985605,-0.0136595964431763
489,-0.0052356468513608,-0.011919304728508,0.018933642655611,-0.00235199322924018,0.0111029101535678,-0.00828392338007689
490,-0.00398624502122402,-0.00966932903975248,0.0185650438070297,-0.00239867880009115,0.0103915128856897,-0.00406916625797749
491,-0.00171983439940959,-0.00899394787847996,0.0197147279977798,-0.000533045211341232,0.0121299065649509,-0.00233780965209007
492,-0.000502641487400979,-0.00862216204404831,0.0204954519867897,0.00197495031170547,0.0118014570325613,-0.00154297088738531
493,-0.00261770025826991,-0.00754620833322406,0.0198726374655962,0.00389050296507776,0.0046311286278069,0.000654263189062476
494,-0.00591319054365158,-0.00664293766021729,0.0191573444753885,0.00524459546431899,-0.00384852755814791,0.00347165716812015
495,-0.00638769986107945,-0.00692335423082113,0.0187801234424114,0.00599874695762992,-0.00467051193118095,0.00371527182869613
496,-0.00506428768858314,-0.00756027968600392,0.0169645585119724,0.00612655188888311,-0.000683057878632098,0.00109743047505617
497,-0.0053889537230134,-0.00818470492959023,0.013716846704483,0.00622406601905823,0.000389504275517538,-0.00336891482584178
498,-0.0084599070250988,-0.00918947625905275,0.010796825401485,0.00707110296934843,-0.00610770797356963,-0.00877462234348059
499,-0.0114408042281866,-0.0107912542298436,0.0099595058709383,0.00777395907789469,-0.0138855502009392,-0.0145603138953447
500,-0.010178797878325,-0.0138297528028488,0.0117387427017093,0.00613265763968229,-0.00955421570688486,-0.0211568456143141
501,-0.00518401013687253,-0.0179547630250454,0.0141169466078281,0.00203542923554778,0.00484379520639777,-0.027121989056468
502,-0.000365272193448618,-0.0207516439259052,0.0148392412811518,-0.00221894751302898,0.016674742102623,-0.0298285782337189
503,0.00190678937360644,-0.0204838756471872,0.0132612492889166,-0.00424474664032459,0.0190135855227709,-0.0282911062240601
504,0.00109375058673322,-0.0178224574774504,0.011785457842052,-0.00166975660249591,0.0134352529421449,-0.0223853718489408
505,-0.000977627816610038,-0.0152707053348422,0.0145689994096756,0.00574835203588009,0.0110734198242426,-0.014133577235043
506,-0.00150188826955855,-0.014395484700799,0.0186416935175657,0.0122106466442347,0.0164769422262907,-0.00803118944168091
507,-0.00227654376067221,-0.0130979269742966,0.016021404415369,0.0123749542981386,0.0158261079341173,-0.00568935554474592
508,-0.00626203790307045,-0.0101585071533918,0.00640600034967065,0.00785733759403229,0.00195362977683544,-0.00601148419082165
509,-0.010563962161541,-0.00777759775519371,-0.00400204351171851,0.0025094177108258,-0.0126960491761565,-0.00823022425174713
510,-0.011318483389914,-0.00725127756595612,-0.0101934131234884,-0.00112210621591657,-0.017399063333869,-0.0115298051387072
511,-0.00888693239539862,-0.00796943623572588,-0.0112972725182772,-0.00216938392259181,-0.0137978075072169,-0.0143027575686574
512,-0.00538904126733541,-0.00889420043677092,-0.0094686821103096,-0.00141745712608099,-0.00592725584283471,-0.0143847353756428
513,-0.00144353799987584,-0.00986602250486612,-0.00677852425724268,-0.000624892534688115,0.00353937456384301,-0.0119579769670963
514,0.00325405993498862,-0.0109786856919527,-0.00466178823262453,-0.00146039901301265,0.00980414729565382,-0.00972809921950102
515,0.00782217457890511,-0.012441704981029,-0.00351295061409473,-0.00405357545241714,0.0104279099032283,-0.0102882077917457
516,0.0106065226718783,-0.0148160448297858,-0.00283266813494265,-0.00706563517451286,0.00723336776718497,-0.0131731415167451
517,0.0104394387453794,-0.0176029801368713,-0.00188215670641512,-0.00905408430844545,0.00329537875950336,-0.0155101707205176
518,0.00781792495399714,-0.0194375943392515,-0.000392114801798016,-0.00966817699372768,0.00109937810339034,-0.0163414925336838
519,0.00387039943598211,-0.0192241445183754,-0.000319594604661688,-0.00959856156259775,-0.00108102604281157,-0.0164703838527203
520,-0.000712996697984636,-0.0168214030563831,-0.00350672914646566,-0.00947095733135939,-0.00697591388598084,-0.0159292295575142
521,-0.00579437566921115,-0.0124171869829297,-0.00844923499971628,-0.0085650933906436,-0.0180865954607725,-0.0126661919057369
522,-0.0106099871918559,-0.00728882709518075,-0.0125003820285201,-0.00657153083011508,-0.0293523017317057,-0.0063878376968205
523,-0.0124860508367419,-0.00455037364736199,-0.0155104082077742,-0.00582845835015178,-0.0313836745917797,-0.00167410238645971
524,-0.010841597802937,-0.00542276771739125,-0.0186014883220196,-0.00750453770160675,-0.0245593227446079,-0.00155198748689145
525,-0.00806183274835348,-0.00799425411969423,-0.0201265700161457,-0.00912895984947681,-0.015466621145606,-0.00403307331725955
526,-0.0058096693828702,-0.0102383075281978,-0.0186950135976076,-0.00926840305328369,-0.00740193575620651,-0.00700377440080047
527,-0.00484793679788709,-0.010899418964982,-0.0164291579276323,-0.00871383212506771,-0.00343821058049798,-0.0102260028943419
528,-0.00471872882917523,-0.00968462135642767,-0.0150244645774364,-0.00771826552227139,-0.00345412804745138,-0.0134296277537942
529,-0.00384506047703326,-0.00788585841655731,-0.014216111972928,-0.006923106033355,-0.00373317790217698,-0.0168069452047348
530,-0.00232264585793018,-0.00695918826386333,-0.013202422298491,-0.00718181161209941,-0.0029898404609412,-0.0209099035710096
531,-0.00145415181759745,-0.00654610432684422,-0.0114656891673803,-0.00756372325122356,-0.00175845285411924,-0.0243235174566507
532,-0.00144139083568007,-0.00594674190506339,-0.00887184962630272,-0.00633231643587351,0.000347920518834144,-0.0254932623356581
533,-0.00189813738688827,-0.00560010364279151,-0.00552139012143016,-0.00280062481760979,0.00222749984823167,-0.025022242218256
534,-0.00282037374563515,-0.00567255448549986,-0.00237859250046313,0.00205801916308701,0.0016533297020942,-0.0229289140552282
535,-0.00362969469279051,-0.00510013988241553,-0.000359721365384758,0.00670842174440622,-0.000726847967598587,-0.0177718698978424
536,-0.00293109705671668,-0.00368766905739903,0.00103566772304475,0.00972562562674284,-0.00163307460024953,-0.0112103680148721
537,-0.000198280220502056,-0.00319800712168217,0.0035420733038336,0.0105406576767564,0.00178534758742899,-0.00729680201038718
538,0.00334798311814666,-0.00426420476287603,0.00742116663604975,0.00997318606823683,0.00783450622111559,-0.00689054327085614
539,0.00492971204221249,-0.00578989228233695,0.00991012994199991,0.0086841881275177,0.0100727453827858,-0.0080600967630744
540,0.00336060160771012,-0.00704954750835896,0.0100570917129517,0.00779945962131023,0.00731002492830157,-0.0085671404376626
541,0.00017642327293288,-0.00744775915518403,0.00981312617659569,0.00871572084724903,0.004381796810776,-0.00664804223924875
542,-0.00379453669302166,-0.00564511539414525,0.00899461656808853,0.0105017758905888,0.000522555666975677,-0.00193672312889248
543,-0.00806768517941237,-0.00233363499864936,0.0057354299351573,0.0109652541577816,-0.00694273272529244,0.00317790638655424
544,-0.0118571743369102,-0.000220687361434102,-0.000148010192788206,0.00963083002716303,-0.0158030334860086,0.00557996006682515
545,-0.0157388150691986,0.000295149860903621,-0.00695142708718777,0.00813122559338808,-0.0243660695850849,0.00523936189711094
546,-0.0193610172718763,-1.71628362295451E-05,-0.013147059828043,0.00727995811030269,-0.0332357622683048,0.00331909745000303
547,-0.0196235403418541,-0.00119836337398738,-0.0175929293036461,0.0059827477671206,-0.0363466180860996,-0.000190525286598131
548,-0.0151782762259245,-0.00244206422939897,-0.0188365764915943,0.00423313304781914,-0.0265621934086084,-0.00469237426295877
549,-0.00895346608012915,-0.00282743154093623,-0.0165614690631628,0.0036038460675627,-0.0112982857972384,-0.00805287063121796
550,-0.00465094204992056,-0.00195821444503963,-0.0112822083756328,0.00608365843072534,-0.00167614826932549,-0.00649530533701181
551,-0.00232955627143383,0.000303054403048009,-0.00456775119528174,0.0111347651109099,0.00193451275117695,4.59757939097472E-05
552,-0.000341105362167582,0.00328425248153508,0.000422485696617514,0.0149822924286127,0.00239513767883182,0.00554940989241004
553,-0.000302711821859702,0.00623738067224622,0.00188063469249755,0.0161519460380077,-0.000630708935204893,0.00799470953643322
554,-0.00280289957299829,0.00848935544490814,0.000103433580079582,0.0155229866504669,-0.00467965565621853,0.00990554969757795
555,-0.00545566854998469,0.00986361410468817,-0.00296893599443138,0.0149427866563201,-0.00544556882232428,0.012056770734489
556,-0.00705859297886491,0.00984185468405485,-0.00400886917486787,0.01680813357234,-0.0031303281430155,0.0137306563556194
557,-0.00790920108556747,0.00771625805646181,-0.00311524537391961,0.0198392141610384,-0.00307910423725843,0.013874638825655
558,-0.00787759851664305,0.00451780762523413,-0.00276242685504258,0.0206676423549652,-0.0050829597748816,0.0122982859611511
559,-0.0059830448590219,0.00187831989023834,-0.00277661415748298,0.0184426121413708,-0.0023714869748801,0.00960556883364916
560,-0.00274337385781109,0.000579630606807768,-0.00184238364454359,0.0144844120368361,0.00440032640472054,0.00614357460290194
561,0.000780468282755464,-7.59417089284398E-05,-0.000517261389177293,0.00963432248681784,0.00994903687387705,0.00114133092574775
562,0.00465366570279002,-0.000411506451200694,-0.000928704626858234,0.00461619254201651,0.0113754216581583,-0.00482668913900852
563,0.00831465888768435,0.000287185568595305,-0.00344772893004119,0.00106973887886852,0.00914586149156094,-0.00951226335018873
564,0.0100225247442722,0.00147419748827815,-0.00723508885130286,-0.00102954206522554,0.00499381683766842,-0.0129203824326396
565,0.00934100244194269,0.00224807416088879,-0.0109200179576874,-0.00265153287909925,0.000657506752759218,-0.0157162752002478
566,0.0079776318743825,0.00242332345806062,-0.012227475643158,-0.00333778327330947,-0.00148092687595636,-0.017201466485858
567,0.00719283660873771,0.00238536600954831,-0.0109265325590968,-0.00277010444551706,-0.00256325677037239,-0.0167687125504017
568,0.00642564613372087,0.00319815869443119,-0.00819954741746187,-0.000812607409898192,-0.00496257608756423,-0.0136647168546915
569,0.00519329868257046,0.00490349950268865,-0.00413667922839522,0.00293983775191009,-0.00629062810912728,-0.00781982950866222
570,0.00457820668816566,0.00604062667116523,0.000800906505901366,0.00712343817576766,-0.00482676085084677,-0.00169445620849729
571,0.00388005608692765,0.00628553470596671,0.0041647139005363,0.00977107137441635,-0.00702701369300485,0.00216428120620549
572,0.000976352253928781,0.00659318268299103,0.00443285517394543,0.0110120810568333,-0.0160217322409153,0.00372815527953207
573,-0.00202265405096114,0.00650966074317694,0.0038272098172456,0.0114020500332117,-0.0209659170359373,0.00311690452508628
574,-0.00188096426427364,0.00509418919682503,0.00347777246497571,0.010236538015306,-0.0160563047975302,0.000354221992893144
575,0.000392752146581188,0.00289071933366358,0.00109229725785553,0.00708506442606449,-0.0100030386820436,-0.00297088990919292
576,0.00259347562678158,0.000538881809916347,-0.00265679368749261,0.00354324257932603,-0.00850479025393724,-0.00582168623805046
577,0.00423639360815287,-0.0019297965336591,-0.00359729118645191,0.0018855658126995,-0.00845826789736748,-0.0080623421818018
578,0.0059538371860981,-0.00376115064136684,-0.000398702220991254,0.00248373346403241,-0.00465035531669855,-0.00908339954912663
579,0.00828035641461611,-0.00430500460788608,0.00343309924937785,0.00331411533989012,0.00356828840449452,-0.00929730292409658
580,0.0105987144634128,-0.00410962291061878,0.00440569967031479,0.00224644434638321,0.0111165018752217,-0.0102723408490419
581,0.0112804248929024,-0.00344759435392916,0.00307911797426641,-1.00803918030579E-05,0.0149209778755903,-0.0120832175016403
582,0.00888543855398893,-0.00202088966034353,0.00161553616635501,-0.00109228782821447,0.0161887165158987,-0.0125927403569222
583,0.00429605972021818,6.12336734775454E-05,0.000450833089416847,-0.000447973259724677,0.0144957052543759,-0.0103067699819803
584,-0.000266614835709333,0.00211128988303244,-0.00127825525123626,0.000277852464932948,0.00678866077214479,-0.00667919917032123
585,-0.00416045589372516,0.00277913315221667,-0.00482564745470881,-0.000898037746082991,-0.00703036459162831,-0.00426098704338074
586,-0.00638346653431654,0.00102871388662606,-0.00951682217419147,-0.00435298029333353,-0.0186569690704346,-0.00417173188179731
587,-0.00559630244970322,-0.00198732549324632,-0.0126714073121548,-0.0079047754406929,-0.0202629156410694,-0.0054122619330883
588,-0.00323214125819504,-0.00438883667811751,-0.0140590397641063,-0.00984895136207342,-0.0161958150565624,-0.00680356519296765
589,-0.00173600995913148,-0.0055654258467257,-0.0145184928551316,-0.0106017831712961,-0.0132156377658248,-0.00828394573181868
590,-0.00171146984212101,-0.00526162516325712,-0.0138410413637757,-0.0104952547699213,-0.0121288197115064,-0.00951137021183968
591,-0.00287706172093749,-0.00366994179785252,-0.0123933115974069,-0.00955347716808319,-0.0129796639084816,-0.00998135097324848
592,-0.00547992065548897,-0.0013498297194019,-0.0104104746133089,-0.00743125192821026,-0.0167879406362772,-0.00884067919105291
593,-0.00740109058097005,0.000181500377948396,-0.00708275334909558,-0.00501269800588489,-0.0177341122180223,-0.00745285023003817
594,-0.00512715382501483,-0.001367999590002,-0.00343337818048894,-0.00559160811826587,-0.00991640519350767,-0.0102523844689131
595,-0.000143227327498607,-0.00532472133636475,-0.00239121820777655,-0.0100531857460737,-0.000989652355201542,-0.0171003267168999
596,0.00326761766336858,-0.00872246641665697,-0.00394542515277863,-0.0152905778959394,0.0017097539966926,-0.0227143708616495
597,0.00381363835185766,-0.00991367921233177,-0.00639180839061737,-0.0181564595550299,-7.40478426450863E-05,-0.0239434652030468
598,0.00227167713455856,-0.00941126048564911,-0.00924041587859392,-0.0177679900079966,-0.00346455117687583,-0.0218538343906403
599,-0.000915731827262789,-0.00858722999691963,-0.0113598611205816,-0.0146162789314985,-0.00619923369958997,-0.0182778667658567
600,-0.00458833202719688,-0.00837128050625324,-0.0118688568472862,-0.0104808351024985,-0.00716266920790076,-0.014948739670217
601,-0.00641842884942889,-0.00874845031648874,-0.0120333191007376,-0.00845413655042648,-0.00773341068997979,-0.0139873567968607
602,-0.00580904819071293,-0.00841038394719362,-0.0121438130736351,-0.00909188576042652,-0.00889254920184612,-0.0144161712378263
603,-0.0047469912096858,-0.00639154529199004,-0.0105458116158843,-0.00931018218398094,-0.0096206609159708,-0.0132177667692304
604,-0.00439505930989981,-0.00343897985294461,-0.00633473740890622,-0.0060651539824903,-0.00839660409837961,-0.00988394673913717
605,-0.00360378460027277,-0.000890588737092912,-0.000399741373257712,-0.00020964551367797,-0.00301595986820757,-0.00639247847720981
606,-0.00237161968834698,0.000698416610248387,0.00363318179734051,0.00393316335976124,0.00469011859968305,-0.00459200888872147
607,-0.0021822084672749,0.00146569369826466,0.00226249871775508,0.00398471718654037,0.00871108379215002,-0.00466874334961176
608,-0.00315009220503271,0.00150523812044412,-0.0032914076000452,0.00124697724822909,0.00811269320547581,-0.00580012751743197
609,-0.00429305760189891,0.00129577203188092,-0.00868847407400608,-0.00164373696316034,0.00657447194680572,-0.00698265759274364
610,-0.00468544149771333,0.00171846896409988,-0.0110736582428217,-0.00221488694660366,0.00657741399481893,-0.00704714888706803
611,-0.00379601423628628,0.00242951093241572,-0.0112067349255085,-0.0003398040717002,0.00904618110507727,-0.00600736122578382
612,-0.00188620563130826,0.00289009883999825,-0.0116306152194738,0.00195996509864926,0.0119462925940752,-0.00480071548372507
613,0.000138584829983301,0.00387016823515296,-0.0133214481174946,0.00329617387615144,0.0119921946898103,-0.00380222173407674
614,0.00189066433813423,0.00583907635882497,-0.015119981020689,0.0036976202391088,0.00979380495846272,-0.00288966414518654
615,0.00330679723992944,0.00796645693480968,-0.0157070886343718,0.00399950938299298,0.00777184450998902,-0.00159764534328133
616,0.0041405288502574,0.00874379277229309,-0.0146443182602525,0.00444767717272043,0.00697819795459509,-0.000378262135200202
617,0.00493131065741181,0.00742638111114502,-0.0124034937471151,0.0041907518170774,0.00787922646850348,-0.000319133803714067
618,0.006405895575881,0.0045815808698535,-0.00882247649133205,0.00349952676333487,0.011007497087121,-0.000789443554822356
619,0.00819277949631214,0.00163320254068822,-0.00251300330273807,0.00455977208912373,0.0167009700089693,-5.49154719919898E-05
620,0.00882189441472292,-0.000417453440604731,0.00584405241534114,0.00807189662009478,0.0235728621482849,0.00145687581971288
621,0.00752339931204915,-0.00152057141531259,0.0126350559294224,0.0119386604055762,0.0283518135547638,0.00196443474851549
622,0.00578413857147098,-0.000956416013650596,0.0138825085014105,0.0137533359229565,0.0270907860249281,0.00200262409634888
623,0.00497661950066686,0.00164106301963329,0.00858052261173725,0.012602754868567,0.0181142333894968,0.00320004601962864
624,0.00395653210580349,0.00499339075759053,0.000673433183692396,0.0104369521141052,0.00484440103173256,0.00641358084976673
625,0.001333994907327,0.00773013755679131,-0.00496509065851569,0.00983707699924707,-0.00660690013319254,0.0113289104774594
626,-0.00137394072953612,0.00881001725792885,-0.00708086742088199,0.00994860287755728,-0.0108517119660974,0.0153957000002265
627,-0.00157787534408271,0.00749154528602958,-0.00703931786119938,0.00825798977166414,-0.00694245332852006,0.0157067719846964
628,0.000215867112274282,0.00420675799250603,-0.00697375228628516,0.00443807896226645,-0.000824594520963728,0.0118976226076484
629,0.00131609826348722,0.000629888498224318,-0.00863494165241718,0.000357722485205159,0.000650976493488997,0.00587313668802381
630,0.00222722673788667,-0.00201468612067401,-0.0110429674386978,-0.00235990807414055,-0.000554499041754752,-0.000833890866488218
631,0.00555043620988727,-0.00400950014591217,-0.0116551835089922,-0.00334988976828754,0.00252413214184344,-0.00727962562814355
632,0.00963693764060736,-0.00550913671031594,-0.0113649964332581,-0.00344786955974996,0.00807511899620295,-0.0114859594032168
633,0.0108369765803218,-0.00586869474500418,-0.0130686881020665,-0.00414170324802399,0.00875529740005732,-0.0119195356965065
634,0.00851202756166458,-0.00481493258848786,-0.0164311230182648,-0.005350636318326,0.00282124988734722,-0.008955217897892
635,0.00342284748330712,-0.00190028501674533,-0.0189955905079842,-0.00475120777264237,-0.00809279922395945,-0.00251175137236714
636,-0.00446263188496232,0.00296980887651443,-0.0186821892857552,-0.000384409242542461,-0.0220051407814026,0.00772975152358413
637,-0.01234529633075,0.00715103931725025,-0.0145050063729286,0.00622585276141763,-0.0313825570046902,0.0183153860270977
638,-0.0145191447809339,0.00775794545188546,-0.00849205069243908,0.0109067903831601,-0.0281170215457678,0.0240185968577862
639,-0.0117758298292756,0.0062072710134089,-0.00539979338645935,0.0114222196862102,-0.0186333227902651,0.0244611743837595
640,-0.00936577655375004,0.00555906258523464,-0.00687389308586717,0.00924649182707071,-0.013282174244523,0.0228081997483969
641,-0.00688391737639904,0.00555188953876495,-0.00936425291001797,0.00648036552593112,-0.00916437525302172,0.0196131970733404
642,-0.00260952557437122,0.00469564134255052,-0.0109397219493985,0.00340061145834625,-0.0031788379419595,0.014573291875422
643,0.000591410789638758,0.00303962454199791,-0.0127562489360571,-0.000253539270488545,0.000335905438987538,0.00961066782474518
644,-0.000338770420057699,0.00177231698762625,-0.0144084123894572,-0.00288742128759623,-0.00168779189698398,0.00775096984580159
645,-0.00458577834069729,0.00242034811526537,-0.013689617626369,-0.00190619681961834,-0.0077067376114428,0.0113348579034209
646,-0.00694813206791878,0.00349904387257993,-0.00923775415867567,0.00152936892118305,-0.00957925897091627,0.0170404110103846
647,-0.0039469925686717,0.00245539122261107,-0.00307547720149159,0.00365564646199346,-0.00242033298127353,0.0197265781462193
648,0.000952633796259761,0.000555187580175698,0.00107634591404349,0.00408406183123589,0.0060155033133924,0.0206755995750427
649,0.00358865037560463,-9.64847349678166E-05,0.00214647548273206,0.00459127267822623,0.00718386052176356,0.022868549451232
650,0.00414985464885831,0.000807613832876086,0.00208253040909767,0.00591018423438072,0.00230073230341077,0.0262601096183062
651,0.00546542135998607,0.00261066434904933,0.00335123250260949,0.00773903215304017,0.000495574437081814,0.0291054751724005
652,0.00872245337814093,0.00444680545479059,0.00582723179832101,0.00879497081041336,0.00537138804793358,0.0295522455126047
653,0.011179193854332,0.00633251667022705,0.00697792181745172,0.00789770018309355,0.00938446074724197,0.0275168139487505
654,0.0100256856530905,0.00839761923998594,0.00582674844190478,0.00574526377022266,0.00823293812572956,0.0253688842058182
655,0.00625472329556942,0.0104390410706401,0.00386746576987207,0.0046435073018074,0.00488604139536619,0.0257970206439495
656,0.00371872424148023,0.0121891163289547,0.002380226040259,0.00475408555939794,0.00281375204212964,0.0272298976778984
657,0.00430403975769877,0.0126637043431401,0.00155912083573639,0.00351625448092818,0.00336380302906036,0.0252845883369446
658,0.00616803811863065,0.0115773156285286,0.00176401634234935,0.000751054962165654,0.00535917654633522,0.0196184627711773
659,0.00793114583939314,0.00946313608437777,0.00259758369065821,-0.00154024746734649,0.00770684098824859,0.012501360848546
660,0.00980000104755163,0.00666517298668623,0.00266607431694865,-0.00244112894870341,0.0107045751065016,0.00587138999253511
661,0.0115013346076012,0.00426377914845943,0.00163258297834545,-0.00182844744995236,0.0136633412912488,0.00217957026325166
662,0.01192048471421,0.00324272876605392,-0.000366692140232772,-0.000398277275962755,0.0135552361607552,0.00172414781991392
663,0.0103898495435715,0.00347673567011952,-0.0023281539324671,0.00146814493928105,0.0101502854377031,0.00290856719948351
664,0.00715137273073196,0.00509693194180727,-0.00164356059394777,0.00484010716900229,0.00740772997960448,0.00590317836031318
665,0.00336285377852619,0.00822347402572632,0.00204172567464411,0.00913973618298769,0.00642202468588948,0.0106176221743226
666,0.000829633849207312,0.0115537978708744,0.00588153023272753,0.0124004697427154,0.00383777706883848,0.0146412746980786
667,0.0010443584760651,0.014085540547967,0.00843207351863384,0.0148268565535545,0.000583038723561913,0.0165872797369957
668,0.00497942324727774,0.0163141824305058,0.0105693824589252,0.016868032515049,0.00305140856653452,0.0172194819897413
669,0.0107739605009556,0.0181789547204971,0.0126147894188762,0.018173772841692,0.01063331682235,0.0177523344755173
670,0.0152349667623639,0.0186227522790432,0.0138880284503102,0.0188385806977749,0.0172655899077654,0.0186129026114941
671,0.0179914198815823,0.0178242437541485,0.0136872474104166,0.0180460922420025,0.0216136835515499,0.0190259125083685
672,0.018956957384944,0.0165692456066608,0.0123315574601293,0.0155751053243876,0.0223542153835297,0.0180978588759899
673,0.0169528108090162,0.0139916520565748,0.0103364568203688,0.0128294732421637,0.0166984535753727,0.0157866980880499
674,0.0124417087063193,0.00948869716376066,0.00793615076690912,0.0108393747359514,0.00825710967183113,0.0130325062200427
675,0.00544751202687621,0.00525785097852349,0.00555163947865367,0.0103273708373308,-0.000818913569673896,0.0116131957620382
676,-0.00240690913051367,0.00242192903533578,0.00321524124592543,0.00962586514651775,-0.0075461775995791,0.0104128895327449
677,-0.00469486648216844,-0.000961252255365252,0.000257688167039305,0.00502201030030847,-0.00372328329831362,0.00519177550449967
678,-0.000261010398389772,-0.00513155525550246,-0.0040478385053575,-0.00314885098487139,0.00533969607204199,-0.00357486074790359
679,0.00439968146383762,-0.00803990662097931,-0.00797740183770657,-0.0100485412403941,0.00902293529361486,-0.0102954981848598
680,0.00567710027098656,-0.0083640618249774,-0.00853664707392454,-0.0116561194881797,0.00815501343458891,-0.0112407375127077
681,0.00492879981175065,-0.00624925270676613,-0.00526406988501549,-0.00820112880319357,0.00766904419288039,-0.00662771053612232
682,0.00369311077520251,-0.00304890144616365,0.000280383654171601,-0.002487204503268,0.00997648108750582,0.0011228343937546
683,0.00372703955508769,-0.00124044774565846,0.00570965837687254,0.00235090334899724,0.0144147463142872,0.00711622089147568
684,0.00630434602499008,-0.00160402501933277,0.00793387182056904,0.00376614974811673,0.0169421341270208,0.00714152725413442
685,0.00861463602632284,-0.00171229615807533,0.00610663695260882,0.00266922265291214,0.0135605437681079,0.00405271770432591
686,0.00735888024792075,-0.000639482284896076,0.0033070940990001,0.00252896500751376,0.00621178513392806,0.00235491618514061
687,0.0032761893235147,-0.000231877624173649,0.00231853523291647,0.00466299755498767,-0.00108175619971007,0.00166522338986397
688,-0.000487528188386932,-0.000654070754535496,0.00128062884323299,0.00697115808725357,-0.00853894650936127,0.00253009586594999
689,-0.00153410562779754,-0.000367065105820075,-0.00187822745647281,0.00717131095007062,-0.014573210850358,0.00695141591131687
690,0.000922873383387923,0.0002270807599416,-0.00491304509341717,0.0051345145329833,-0.0138186598196626,0.0118634747341275
691,0.00650622602552176,-0.000251815974479541,-0.00462617026641965,0.00238428567536175,-0.00274562276899815,0.0126585951074958
692,0.0129690850153565,-0.00171521923039109,-0.00154652982018888,0.000114288348413538,0.0145915513858199,0.00871250033378601
693,0.0171432867646217,-0.00343177886679769,-0.000283353263512254,-0.00254844315350056,0.025880116969347,0.00179226440377533
694,0.0173160415142775,-0.00512902950868011,-0.00347339548170567,-0.00672612618654966,0.0252966545522213,-0.00545340683311224
695,0.013984777033329,-0.00678663980215788,-0.00959144439548254,-0.0121204722672701,0.0168429464101791,-0.0108189592137933
696,0.00812912918627262,-0.00777956889942288,-0.0157348848879337,-0.0166436675935984,0.00428433995693922,-0.013014636002481
697,0.00036926701432094,-0.00732686789706349,-0.0181014090776443,-0.0170536730438471,-0.00730779673904181,-0.0110576450824738
698,-0.00808435026556253,-0.00587717862799764,-0.0164467915892601,-0.0124979419633746,-0.0176205318421125,-0.0059012696146965
699,-0.0146467722952366,-0.00504603376612067,-0.013958565890789,-0.00577929290011525,-0.0285705663263798,-0.00120711489580572
700,-0.0147819863632321,-0.00642488803714514,-0.0104905674234033,-0.000629387039225549,-0.0284828189760447,-0.00115040666423738
701,-0.00929700583219528,-0.00938080064952374,-0.00766900973394513,0.000883016095031053,-0.0177937485277653,-0.00571787031367421
702,-0.0038482821546495,-0.0119427107274532,-0.00847212783992291,-0.000951772322878242,-0.0102861179038882,-0.0106377955526114
703,0.0012650394346565,-0.0136592797935009,-0.010067131370306,-0.00351278926245868,-0.00291878543794155,-0.012722778134048
704,0.00581935793161392,-0.0138534279540181,-0.0103999450802803,-0.0044681103900075,0.00575244519859552,-0.0107972659170628
705,0.00757285300642252,-0.0118766380473971,-0.0112633248791099,-0.00564758479595184,0.00997348595410585,-0.00672208610922098
706,0.00810464844107628,-0.00915674399584532,-0.0129609545692801,-0.00882551167160273,0.0109546864405274,-0.00398144777864218
707,0.00779375387355685,-0.00672048702836037,-0.0131878349930048,-0.0110100284218788,0.0107657434418797,-0.00203242222778499
708,0.0053526358678937,-0.00430715922266245,-0.010940195992589,-0.00977855361998081,0.00761403422802687,0.000479423499200493
709,0.00283694826066494,-0.00232278066687286,-0.00893944688141346,-0.0077552511356771,-0.000368544366210699,0.000896042096428573
710,0.00199715793132782,-0.00137763714883477,-0.00928717013448477,-0.00793551374226809,-0.00765689834952354,-0.00293402653187513
711,0.0013797867577523,-0.000894844881258905,-0.0101613085716963,-0.00898799858987331,-0.00773440580815077,-0.00754861766472459
712,-0.000676825875416398,-0.000263056310359389,-0.00973287504166365,-0.00836612470448017,-0.00364117277786136,-0.00825372245162725
713,-0.00431059254333377,0.000405444152420387,-0.00782643258571625,-0.005586301907897,-0.000500063295476139,-0.00559142837300897
714,-0.00753206154331565,0.000478440284496173,-0.00482047721743584,-0.00255300151184201,0.00185360107570887,-0.00350238592363894
715,-0.0071240565739572,-0.000963191036134958,-0.00385696766898036,-0.00282780453562737,0.00338215823285282,-0.00469331443309784
716,-0.0043811840005219,-0.00323575176298618,-0.00765852024778724,-0.00683738524094224,0.000749141210690141,-0.00778005737811327
717,-0.00478960201144218,-0.00414898106828332,-0.0113237639889121,-0.00890724547207356,-0.00400377064943314,-0.00767998630180955
718,-0.00717505440115929,-0.00378458015620708,-0.00719706388190389,-0.00424015056341887,0.00042040750849992,-0.0021839365363121
719,-0.00452685775235295,-0.00405073724687099,0.000904316955711693,0.00275077694095671,0.0133643858134747,0.00399054307490587
720,0.00235692411661148,-0.00495329825207591,0.00226405425928533,0.00479734223335981,0.0170658901333809,0.0050717662088573
721,0.00577149167656899,-0.00508882803842425,-0.003963443916291,0.00215401686728001,0.00461984518915415,0.00177659478504211
722,0.00212914543226361,-0.0032088786829263,-0.011661022901535,-0.000895386096090078,-0.0169049724936485,-0.000367385626304895
723,-0.00480466382578015,-0.000212624261621386,-0.0160891804844141,-0.00232123583555222,-0.0369436629116535,0.00031414334080182
724,-0.0102556301280856,0.00149876507930458,-0.015144519507885,-0.00181979348417372,-0.0465486273169518,0.00194318138528615
725,-0.0150237726047635,0.00151760247536004,-0.00972744822502136,0.00123044662177563,-0.0477624349296093,0.00532434741035104
726,-0.018399378284812,-0.00072246917989105,-0.000399709708290175,0.00637492816895247,-0.0405769720673561,0.00948037952184677
727,-0.0167607329785824,-0.00563895097002387,0.0103915557265282,0.0102857118472457,-0.024089690297842,0.0100606046617031
728,-0.0157429948449135,-0.00944794714450836,0.0159003753215075,0.0117408037185669,-0.0182650107890368,0.00846418831497431
729,-0.0188831966370344,-0.0100597171112895,0.0153500195592642,0.0122575340792537,-0.0237901359796524,0.00828141625970602
730,-0.016721336171031,-0.0104711791500449,0.0140913212671876,0.0108900321647525,-0.0143953887745738,0.00768167525529861
731,-0.00556011777371168,-0.0116965482011437,0.0124946516007185,0.00622118869796395,0.0048006409779191,0.00506396498531103
732,0.00640457170084119,-0.0114410407841206,0.00884475838392973,-9.89977270364761E-05,0.0120957605540752,0.00255073490552604
733,0.0126949353143573,-0.00926561933010817,0.00528491055592895,-0.00528182694688439,0.00676570273935795,0.0013855448924005
734,0.0149305565282702,-0.00790816359221935,0.00416001304984093,-0.00876277126371861,0.000437475275248289,-0.000255345803452656
735,0.0138652212917805,-0.00821920856833458,0.00465143518522382,-0.00959595572203398,-0.0043812096118927,-0.00106131157372147
736,0.00740901101380587,-0.00776809034869075,0.00433375034481287,-0.00671703321859241,-0.0130712212994695,0.00222768541425467
737,-0.000800490088295192,-0.00615932606160641,0.00289144297130406,-0.00305893481709063,-0.0204427801072598,0.00682960404083133
738,-0.00693313172087073,-0.00481249811127782,0.00213064113631845,-0.00024882546858862,-0.0222427640110254,0.00948482193052769
739,-0.0139693012461066,-0.00330582540482283,0.00324656465090811,0.00436918530613184,-0.0270520113408566,0.0121530117467046
740,-0.02100626565516,-0.00217430363409221,0.0059574656188488,0.00958304107189178,-0.0344421677291393,0.0135390385985374
741,-0.0212482344359159,-0.00349568319506943,0.00685651693493128,0.00966665893793106,-0.0347984470427036,0.00825639441609383
742,-0.0140980826690793,-0.00723827118054032,0.00283409166149795,0.00339240324683487,-0.0266339275985956,-0.00345376087352633
743,-0.00571880117058754,-0.0111121386289597,-0.0050806519575417,-0.0048497156240046,-0.0195398014038801,-0.0155966756865382
744,-0.00493292650207877,-0.0119647849351168,-0.0138957472518086,-0.00913806539028883,-0.0291705373674631,-0.0205618645995855
745,-0.00949533376842737,-0.0111369797959924,-0.0177751053124666,-0.00848853308707476,-0.0419098734855652,-0.0179337486624718
746,-0.00740533648058772,-0.0125992679968476,-0.0140396412461996,-0.00808390602469444,-0.0320311710238457,-0.0153400283306837
747,0.00028132856823504,-0.0160764269530773,-0.0075605153106153,-0.0103205339983106,-0.0113666327670217,-0.0164830144494772
748,0.00633983919396997,-0.0201573297381401,-0.000647776410914958,-0.0129565773531795,0.00463351840153337,-0.0201407950371504
749,0.00856473576277494,-0.0223698373883963,0.00701427599415183,-0.01288085244596,0.0139854066073895,-0.0214388705790043
750,0.006003781221807,-0.0203486308455467,0.0121886394917965,-0.00993346609175205,0.0100455712527037,-0.0169511400163174
751,0.000678446376696229,-0.0160012524574995,0.0121627785265446,-0.00708986027166247,-0.00580776575952768,-0.00981883984059095
752,-0.00384977110661566,-0.0118782352656126,0.00835608690977097,-0.00507236644625664,-0.0217789486050606,-0.00305143883451819
753,-0.00464595062658191,-0.00902376137673855,0.00421906867995858,-0.00409610895439982,-0.0248577352613211,0.000649055291432887
754,-0.00122700340580195,-0.00711060408502817,0.00205259840004146,-0.00491750473156571,-0.0133601184934378,-0.000910140166524798
755,0.00302786473184824,-0.00538941146805882,0.0025259149260819,-0.00551182869821787,-0.000482143543194979,-0.00556762656196952
756,0.0058172564022243,-0.00542018190026283,0.00469293352216482,-0.00511143915355206,0.00503407930955291,-0.0118206487968564
757,0.00803961604833603,-0.00878497399389744,0.00770094385370612,-0.00528842397034168,0.0102667007595301,-0.0196854192763567
758,0.00932054501026869,-0.0133801251649857,0.0111953681334853,-0.00581182027235627,0.0208142157644033,-0.0259010810405016
759,0.00806004740297794,-0.0157988108694553,0.0119800940155983,-0.00681968033313751,0.0266915950924158,-0.0278661660850048
760,0.00587228266522288,-0.015788659453392,0.00757954409345984,-0.0103077599778771,0.0216179136186838,-0.0285120438784361
761,0.00464568613097072,-0.0148842167109251,0.000541702902410179,-0.0157662853598595,0.0112599516287446,-0.0307107456028461
762,0.00342023861594498,-0.0133267464116216,-0.00397632364183664,-0.0193463694304228,0.00198203278705478,-0.0325855985283852
763,0.0010395145509392,-0.0117808980867267,-0.00284657976590097,-0.0185400098562241,-0.00257543497718871,-0.0320695638656616
764,-0.00150033575482666,-0.0119515415281057,0.00154444109648466,-0.0152422552928329,-0.00336158857680857,-0.0306892897933722
765,-0.00350876734592021,-0.012947790324688,0.00437170639634132,-0.0124123310670257,-0.00569683825597167,-0.0289430767297745
766,-0.00785006117075682,-0.0108664082363248,0.00371230929158628,-0.00968936644494534,-0.0130676478147507,-0.0226756278425455
767,-0.0150938993319869,-0.00472033442929387,0.000847780553158373,-0.00623951153829694,-0.0216218791902065,-0.0112042669206858
768,-0.0218390114605427,0.00214638048782945,-0.00282055954448879,-0.00319403829053044,-0.0296197477728128,-0.000317715195706114
769,-0.0253138802945614,0.0063543664291501,-0.0056139612570405,-0.00131390534806997,-0.0352246537804604,0.00501569546759129
770,-0.0230954885482788,0.00619189161807299,-0.00596387544646859,-0.00133970112074167,-0.0307783111929893,0.00272345286794007
771,-0.0165244676172733,0.00269016926176846,-0.00574044743552804,-0.0038301341701299,-0.0211360920220613,-0.0056972554884851
772,-0.0114173209294677,-0.00121249514631927,-0.00545292068272829,-0.00620066607370973,-0.0160582009702921,-0.0148053606972098
773,-0.0103400107473135,-0.00372243206948042,-0.00212013837881386,-0.00484837777912617,-0.0121874902397394,-0.0200310070067644
774,-0.0107489265501499,-0.0053059384226799,0.00283271539956331,-0.00148526742123067,-0.0035031430888921,-0.0221864264458418
775,-0.0117808422073722,-0.00615233462303877,0.00466605369001627,0.000541714020073414,0.00672062719240785,-0.0224383398890495
776,-0.0143341161310673,-0.00569581054151058,0.00325670279562473,0.00215386389754713,0.0118284150958061,-0.019837312400341
777,-0.0163871198892593,-0.00483699841424823,0.00133928807917982,0.00391031010076404,0.0115838497877121,-0.0168952979147434
778,-0.0173999927937984,-0.00473754154518247,-0.000487659737700596,0.00386314350180328,0.00812795013189316,-0.0171699356287718
779,-0.0194969214498997,-0.00518276682123542,-0.00313890352845192,0.00119475170504302,0.00284063909202814,-0.0200437773019075
780,-0.0234162900596857,-0.00495774997398257,-0.00665529258549213,-0.00206139544025064,-0.00555384391918778,-0.0221098940819502
781,-0.0263013821095228,-0.00501053314656019,-0.00844545103609562,-0.0041921311058104,-0.0131686395034194,-0.0229735653847456
782,-0.0238421130925417,-0.00751422578468919,-0.00650870800018311,-0.00611192034557462,-0.00802326295524836,-0.0238363016396761
783,-0.0183038841933012,-0.0105822132900357,-0.00414176192134619,-0.00908646918833256,0.00359568861313164,-0.0232395958155394
784,-0.0151623766869307,-0.0115099847316742,-0.00542177818715572,-0.0137799819931388,0.005564552731812,-0.0224528014659882
785,-0.01418880186975,-0.0112466234713793,-0.00950123555958271,-0.019966896623373,0.000572338234633207,-0.0249377563595772
786,-0.0136989559978247,-0.0108435954898596,-0.01362594217062,-0.025816697627306,-0.00600684899836779,-0.0299709346145391
787,-0.0146929556503892,-0.0102343317121267,-0.0163882877677679,-0.0295249577611685,-0.0147320069372654,-0.0350812412798405
788,-0.0178578477352858,-0.00975272059440613,-0.0171109791845083,-0.0301614943891764,-0.0212683230638504,-0.0385791771113873
789,-0.0218579489737749,-0.00957108661532402,-0.0163414273411036,-0.0282068811357021,-0.0220320783555508,-0.0396083295345306
790,-0.0239086821675301,-0.0100458888337016,-0.0162135139107704,-0.0266288667917252,-0.0194600000977516,-0.0401424430310726
791,-0.0227746237069368,-0.0112574547529221,-0.0179780647158623,-0.0276256613433361,-0.0165798533707857,-0.0419335030019283
792,-0.0208271387964487,-0.0118313701823354,-0.0205153040587902,-0.0297441072762012,-0.0143671529367566,-0.0430201329290867
793,-0.0203525088727474,-0.0101919816806912,-0.0218490418046713,-0.0302648600190878,-0.0133626125752926,-0.0414412468671799
794,-0.0208198297768831,-0.00699502509087324,-0.0209524687379599,-0.0285807065665722,-0.0122126061469316,-0.038039568811655
795,-0.0220846440643072,-0.00470486469566822,-0.0188098028302193,-0.0261850114911795,-0.0105962529778481,-0.0342545658349991
796,-0.024497227743268,-0.00468039745464921,-0.0169985368847847,-0.0243326164782047,-0.00989917758852243,-0.0310434605926275
797,-0.0268682688474655,-0.00630442192777991,-0.0158130321651697,-0.0231999941170216,-0.00945240538567305,-0.0295676179230213
798,-0.0282668974250555,-0.0084596173837781,-0.0155205046758056,-0.0225404445081949,-0.00893904455006123,-0.0307650957256556
799,-0.0287514813244343,-0.0107567394152284,-0.0162688251584768,-0.0223560035228729,-0.0085836099460721,-0.0343941077589989
800,-0.0280322134494781,-0.013077205978334,-0.0161119531840086,-0.0224824845790863,-0.00675995601341128,-0.0388394370675087
801,-0.0264331679791212,-0.0145905707031488,-0.0141422208398581,-0.0220581218600273,-0.00428874278441072,-0.0418250299990177
802,-0.0256519131362438,-0.0146674895659089,-0.0125699518248439,-0.0205818861722946,-0.00510729430243373,-0.0419251881539822
803,-0.025775758549571,-0.0144280251115561,-0.012101836502552,-0.0186846908181906,-0.00686139473691583,-0.0396903529763222
804,-0.0254218820482492,-0.0148274172097445,-0.0113909309729934,-0.0169883333146572,-0.00446056248620152,-0.035884901881218
805,-0.0244908947497606,-0.0157624892890453,-0.0102604096755385,-0.0161874815821648,0.000588168855756521,-0.0314298123121262
806,-0.0239927023649216,-0.01715755648911,-0.00994538795202971,-0.0175306908786297,0.0048045446164906,-0.0277758631855249
807,-0.0246729888021946,-0.0178093332797289,-0.0111857345327735,-0.0206956136971712,0.0064429072663188,-0.0255335383117199
808,-0.0263958182185888,-0.0166967064142227,-0.0133517049252987,-0.0237376745790243,0.00486358720809221,-0.0253339894115925
809,-0.0281380973756313,-0.014875166118145,-0.0155432410538197,-0.0255504511296749,0.00238851853646338,-0.0274032820016146
810,-0.0288701895624399,-0.0132645377889276,-0.0173145607113838,-0.0258815214037895,0.000394463480915874,-0.0301284790039063
811,-0.0290604438632727,-0.0114432256668806,-0.0182806085795164,-0.0242573674768209,-0.00282921106554568,-0.0305450279265642
812,-0.0281811077147722,-0.00999266933649778,-0.0169947687536478,-0.0215764250606298,-0.00357417948544025,-0.0285409484058619
813,-0.025587534531951,-0.00931930541992188,-0.0138794034719467,-0.0199594479054213,-0.000718937546480447,-0.0267622582614422
814,-0.0231011975556612,-0.00829614978283644,-0.0118758287280798,-0.0197144504636526,-0.000903810432646424,-0.0259858760982752
815,-0.0217697136104107,-0.00698676379397511,-0.0114296786487103,-0.0196237675845623,-0.00506732426583767,-0.0258669052273035
816,-0.0212840866297483,-0.00652853213250637,-0.0108924107626081,-0.0194720029830933,-0.009129973128438,-0.0260213334113359
817,-0.0206883978098631,-0.00738771958276629,-0.00849995482712984,-0.0196608807891607,-0.00811496283859015,-0.0257754027843475
818,-0.0198601093143225,-0.00847777910530567,-0.00321298977360129,-0.0192706659436226,4.37458074884489E-05,-0.0235061291605234
819,-0.0198887623846531,-0.00887987297028303,0.00319525296799839,-0.0176627226173878,0.0100154122337699,-0.0185712352395058
820,-0.0205454509705305,-0.00951247662305832,0.00644980138167739,-0.0167610887438059,0.0139685198664665,-0.0142790116369724
821,-0.0213306751102209,-0.0106546245515347,0.00408582529053092,-0.0180956237018108,0.0087017398327589,-0.0128500293940306
822,-0.0220190919935703,-0.0114915072917938,-0.000813571736216545,-0.0199665706604719,-0.000630286172963679,-0.0125631811097264
823,-0.0224880538880825,-0.0113841611891985,-0.00413689808920026,-0.0201496910303831,-0.00805793795734644,-0.011962253600359
824,-0.0237454194575548,-0.0100061735138297,-0.00469635566696525,-0.0180346742272377,-0.0115789622068405,-0.0112663535401225
825,-0.0261870604008436,-0.00744079519063234,-0.00233762874267995,-0.0139003982767463,-0.0103882709518075,-0.0108494013547897
826,-0.0282762162387371,-0.00400322861969471,0.000318095058901235,-0.00953113287687302,-0.00819292757660151,-0.0111309718340635
827,-0.0262762606143951,-0.00123625213745981,0.000252019992331043,-0.00780326267704368,-0.00541956769302487,-0.0139597291126847
828,-0.0197116434574127,-0.000516294268891215,-0.00186859094537795,-0.00911353994160891,0.000230699792155065,-0.0192923061549664
829,-0.0147104356437922,-0.00101436208933592,-0.00543521670624614,-0.0117458011955023,0.00186078331898898,-0.0236159879714251
830,-0.0143755972385406,-0.00120252079796046,-0.00917731039226055,-0.0140339639037848,-0.00370889389887452,-0.0239552706480026
831,-0.0158904027193785,0.000323886837577447,-0.0109777534380555,-0.0143262343481183,-0.0104717602953315,-0.0187156666070223
832,-0.0169019512832165,0.00324789923615754,-0.0119190290570259,-0.0127576095983386,-0.0145505359396338,-0.00983823090791702
833,-0.0175765082240105,0.00518199242651463,-0.0142315356060863,-0.0107208956032991,-0.0161365810781717,-0.00242228340357542
834,-0.0193303003907204,0.00468251528218389,-0.0181510932743549,-0.00868177320808172,-0.0161666143685579,0.000889183487743139
835,-0.0221897810697556,0.00203622551634908,-0.0215669013559818,-0.00686404528096318,-0.014313543215394,0.000327974295942113
836,-0.0235609635710716,-0.00178794655948877,-0.0222778748720884,-0.00601433590054512,-0.0104398420080543,-0.00328864972107112
837,-0.0228563826531172,-0.00548926973715425,-0.0215728599578142,-0.00672046141698956,-0.0089986240491271,-0.0084736617282033
838,-0.0232371911406517,-0.00797603651881218,-0.0226270612329245,-0.00876049883663654,-0.0156438518315554,-0.013701094314456
839,-0.0245911125093699,-0.0093616247177124,-0.0253649093210697,-0.0116075370460749,-0.0242162365466356,-0.0194139275699854
840,-0.0235685016959906,-0.0101428097113967,-0.0272664446383715,-0.0143404835835099,-0.0247710458934307,-0.0265006329864264
841,-0.0212144516408443,-0.0101495739072561,-0.0276719946414232,-0.0153678124770522,-0.0224607437849045,-0.0336735621094704
842,-0.0217530746012926,-0.00919723603874445,-0.0276535302400589,-0.0138161107897758,-0.0280381347984076,-0.0381410233676434
843,-0.0244492087513208,-0.0079391747713089,-0.0273923184722662,-0.0109327705577016,-0.0382298193871975,-0.0382288433611393
844,-0.0245489533990622,-0.00729786138981581,-0.025359908118844,-0.00889436062425375,-0.0411641150712967,-0.0348586440086365
845,-0.0216421037912369,-0.00670539680868387,-0.0215925499796867,-0.00861815735697746,-0.0359879173338413,-0.0298781897872686
846,-0.0185446757823229,-0.00539433397352695,-0.0195662993937731,-0.0107286442071199,-0.0304594114422798,-0.0260810907930136
847,-0.0168631616979837,-0.00389844202436507,-0.0221153125166893,-0.0157560668885708,-0.028679708018899,-0.0261277537792921
848,-0.0172627624124289,-0.00281080836430192,-0.0276219341903925,-0.0218332409858704,-0.0301876235753298,-0.0293982587754726
849,-0.018310971558094,-0.00285038352012634,-0.0329950302839279,-0.0271833296865225,-0.0315368883311749,-0.034789465367794
850,-0.0185911171138287,-0.0041084811091423,-0.0392368845641613,-0.0331508815288544,-0.0338643863797188,-0.0424263626337051
851,-0.0197027828544378,-0.00560685526579618,-0.0483409203588963,-0.0410932824015617,-0.0423758253455162,-0.0511222220957279
852,-0.0230509620159864,-0.00653784116730094,-0.0582975000143051,-0.0495411306619644,-0.0564624220132828,-0.0586530044674873
853,-0.0283263176679611,-0.00644871266558766,-0.0659390538930893,-0.0555641911923885,-0.0718965604901314,-0.0633196979761124
854,-0.032589003443718,-0.00630828039720654,-0.0694145783782005,-0.0583657920360565,-0.0811794102191925,-0.0659063383936882
855,-0.0315911546349525,-0.00763905746862292,-0.0690425783395767,-0.0600537844002247,-0.0788235068321228,-0.0691429376602173
856,-0.0269995629787445,-0.00969808083027601,-0.0676439851522446,-0.0620146244764328,-0.07231255620718,-0.0740380734205246
857,-0.0241003073751926,-0.0102572487667203,-0.0684120133519173,-0.0645715743303299,-0.0727642104029655,-0.079686664044857
858,-0.0239568892866373,-0.00913160014897585,-0.0733526423573494,-0.0693994164466858,-0.0826809853315353,-0.0860947668552399
859,-0.0237594526261091,-0.00856167636811733,-0.0817585438489914,-0.0775327011942863,-0.0952338725328445,-0.0943988785147667
860,-0.0217314884066582,-0.00971299596130848,-0.0911194682121277,-0.0872023403644562,-0.102657169103622,-0.10430783033371
861,-0.0190217886120081,-0.0117818657308817,-0.100204817950726,-0.0962753370404243,-0.105172894895077,-0.113745413720608
862,-0.0168546494096518,-0.0138906659558415,-0.108592100441456,-0.104193635284901,-0.10659259557724,-0.120951093733311
863,-0.0151719311252236,-0.0155236544087529,-0.115598537027836,-0.110868982970715,-0.108650989830494,-0.12600576877594
864,-0.0133021539077163,-0.0165827237069607,-0.121301539242268,-0.116922363638878,-0.111370965838432,-0.131464272737503
865,-0.0105747990310192,-0.0171576961874962,-0.125798285007477,-0.123375490307808,-0.113649256527424,-0.139398783445358
866,-0.00785466842353344,-0.0173666924238205,-0.129256725311279,-0.130040764808655,-0.115477345883846,-0.148616045713425
867,-0.00669320859014988,-0.017558541148901,-0.133119240403175,-0.135761871933937,-0.118571400642395,-0.156832903623581
868,-0.00728145241737366,-0.0174791421741247,-0.138636574149132,-0.139383852481842,-0.124625325202942,-0.162323608994484
869,-0.00900360010564327,-0.0169523227959871,-0.145686939358711,-0.14138075709343,-0.134160682559013,-0.164689511060715
870,-0.0111119281500578,-0.0166629869490862,-0.153712168335915,-0.143891245126724,-0.145696207880974,-0.165482357144356
871,-0.0130373733118176,-0.0166429281234741,-0.162875011563301,-0.14840841293335,-0.158588618040085,-0.166792318224907
872,-0.0141213657334447,-0.0164166688919067,-0.172298789024353,-0.154746696352959,-0.170929402112961,-0.170177266001701
873,-0.0133772669360042,-0.0168644972145557,-0.178460896015167,-0.16222308576107,-0.176503956317902,-0.176885306835175
874,-0.010918908752501,-0.0191290695220232,-0.179923042654991,-0.171252176165581,-0.174262151122093,-0.187448590993881
875,-0.0083553297445178,-0.0218797158449888,-0.180660590529442,-0.182415813207626,-0.171407625079155,-0.199470520019531
876,-0.00726049114018679,-0.0217622332274914,-0.184899106621742,-0.193588495254517,-0.174127921462059,-0.207594677805901
877,-0.00829978380352259,-0.0177037939429283,-0.191942885518074,-0.201651811599731,-0.182085499167442,-0.208890780806541
878,-0.00980147067457438,-0.0126567874103785,-0.197504177689552,-0.205972924828529,-0.188687235116959,-0.206092014908791
879,-0.00910195987671614,-0.00958502199500799,-0.19944854080677,-0.207324847579002,-0.189935684204102,-0.203073307871819
880,-0.00684952456504107,-0.00883718300610781,-0.199806168675423,-0.206173241138458,-0.1901935338974,-0.200454741716385
881,-0.00523494556546211,-0.0094769261777401,-0.201407119631767,-0.203478276729584,-0.193358153104782,-0.197402089834213
882,-0.0049310433678329,-0.0102518126368523,-0.20519907772541,-0.200731381773949,-0.199023544788361,-0.193702667951584
883,-0.00626982422545552,-0.0100997863337398,-0.209712341427803,-0.198290899395943,-0.206265166401863,-0.189195528626442
884,-0.00977728422731161,-0.00906476378440857,-0.212254330515862,-0.195924997329712,-0.214128449559212,-0.184424519538879
885,-0.0128348572179675,-0.00823194533586502,-0.209733471274376,-0.19406521320343,-0.216954216361046,-0.181581899523735
886,-0.0121555523946881,-0.00847075041383505,-0.202028170228004,-0.193082556128502,-0.210050746798515,-0.181092813611031
887,-0.00963635556399822,-0.00936971139162779,-0.194683879613876,-0.193692252039909,-0.19991959631443,-0.179805099964142
888,-0.00838819891214371,-0.00988668575882912,-0.192955017089844,-0.196626171469688,-0.195257484912872,-0.175473019480705
889,-0.00934361945837736,-0.00949140824377537,-0.195876091718674,-0.199856981635094,-0.197553217411041,-0.168512254953384
890,-0.0115188881754875,-0.00827955361455679,-0.198854252696037,-0.200318768620491,-0.201789602637291,-0.160419791936874
891,-0.0126607697457075,-0.00619441131129861,-0.199050530791283,-0.197561353445053,-0.202462092041969,-0.15240204334259
892,-0.0122217610478401,-0.00324036786332726,-0.195686548948288,-0.19233500957489,-0.198402881622314,-0.144755557179451
893,-0.0109641682356596,-0.000555682694539428,-0.189438059926033,-0.185181424021721,-0.191808491945267,-0.137802585959435
894,-0.00919718854129314,0.000667332904413342,-0.1824761480093,-0.17711241543293,-0.186452478170395,-0.131982088088989
895,-0.00703172385692596,0.000146292368299328,-0.175315022468567,-0.169470921158791,-0.182536229491234,-0.128756478428841
896,-0.00499422429129481,-0.00152634584810585,-0.168089017271996,-0.163609504699707,-0.178157031536102,-0.129609659314156
897,-0.00381632102653384,-0.00272257183678448,-0.162952527403831,-0.16030678153038,-0.17412605881691,-0.132820278406143
898,-0.00418109493330121,-0.00254867551848292,-0.160725191235542,-0.159129619598389,-0.172388449311256,-0.135076478123665
899,-0.00720071699470282,-0.00173767108935863,-0.160037532448769,-0.158910885453224,-0.17505407333374,-0.134530752897263
900,-0.0110697140917182,-0.00130542612168938,-0.159529864788055,-0.158810943365097,-0.180677637457848,-0.1319829672575
901,-0.0114604476839304,-0.00166213419288397,-0.157406896352768,-0.157791554927826,-0.182357519865036,-0.12932300567627
902,-0.00725389178842306,-0.00244399299845099,-0.151761919260025,-0.154790952801704,-0.173546001315117,-0.127351179718971
903,-0.00130719400476664,-0.00234836619347334,-0.143962696194649,-0.149593964219093,-0.157317206263542,-0.125466302037239
904,0.00221013813279569,-0.000247591524384916,-0.137143805623055,-0.141906693577766,-0.143958777189255,-0.12179060280323
905,0.00232840538956225,0.00232709106057882,-0.131857335567474,-0.133065924048424,-0.136299163103104,-0.116656929254532
906,0.00170658901333809,0.00281849410384893,-0.127459347248077,-0.126407295465469,-0.130987003445625,-0.112384781241417
907,0.00204989383928478,0.000831709592603147,-0.123582482337952,-0.122837692499161,-0.126347810029984,-0.108856536448002
908,0.00270478567108512,-0.00259923632256687,-0.119243964552879,-0.119928747415543,-0.121285811066628,-0.104586854577065
909,0.00246095051988959,-0.00613774918019772,-0.113476745784283,-0.115521341562271,-0.115664608776569,-0.0986483991146088
910,0.000357066950527951,-0.00821257289499044,-0.106581144034863,-0.109471753239632,-0.112562663853168,-0.0902975872159004
911,-0.0042750290594995,-0.00790766067802906,-0.0992796421051025,-0.102251514792442,-0.115167573094368,-0.0796624422073364
912,-0.00973619986325502,-0.0062552778981626,-0.0909417346119881,-0.0941594168543816,-0.118871413171291,-0.0686991214752197
913,-0.0126839457079768,-0.00489443866536021,-0.0810166597366333,-0.0856518670916557,-0.116849951446056,-0.0594150573015213
914,-0.0117203872650862,-0.00398784223943949,-0.0703509747982025,-0.0770425945520401,-0.109948500990868,-0.0517774187028408
915,-0.00664476491510868,-0.00349580403417349,-0.0599465817213058,-0.0690525695681572,-0.0987451374530792,-0.0457465723156929
916,0.0011577729601413,-0.00426506716758013,-0.0514772832393646,-0.0638124868273735,-0.0823556557297707,-0.042950477451086
917,0.00783162005245686,-0.00635829428210855,-0.0465517863631248,-0.0625122711062431,-0.0659149289131165,-0.0441262386739254
918,0.0113764917477965,-0.0084297489374876,-0.0436899550259113,-0.0627518072724342,-0.0540450923144817,-0.0468936301767826
919,0.0128572685644031,-0.00937512796372175,-0.0396315418183804,-0.0608409903943539,-0.0453212112188339,-0.0477541536092758
920,0.013470402918756,-0.0093934815376997,-0.0334804467856884,-0.055230300873518,-0.0372019037604332,-0.0452924929559231
921,0.0135616837069392,-0.0095102759078145,-0.0268051624298096,-0.046972181648016,-0.0295537579804659,-0.0404051244258881
922,0.0130089391022921,-0.00990201719105244,-0.0206239260733128,-0.0376425758004189,-0.0231970995664597,-0.033364549279213
923,0.0118820136412978,-0.0100362189114094,-0.0147855691611767,-0.0285881217569113,-0.0180477872490883,-0.0238473545759916
924,0.0111696748062968,-0.0104428865015507,-0.00908504799008369,-0.0218508318066597,-0.0123920645564795,-0.0140382889658213
925,0.0117772491648793,-0.0114275319501758,-0.00314749497920275,-0.0182339083403349,-0.00411798758432269,-0.00623279763385654
926,0.0135498670861125,-0.0119372522458434,0.00361533975228667,-0.0161805301904678,0.00633676676079631,-0.000320074206683785
927,0.0149538572877645,-0.0111698871478438,0.0105289649218321,-0.0134609462693334,0.0152297001332045,0.00471401168033481
928,0.0145408725365996,-0.00949418172240257,0.0164493713527918,-0.00857010949403048,0.0209821369498968,0.0093285096809268
929,0.0129855908453465,-0.00811799149960279,0.0216251518577337,-0.0021280744113028,0.0263557527214289,0.0124743320047855
930,0.0111931292340159,-0.00760993454605341,0.0267327222973108,0.00420664763078094,0.0326338522136211,0.0134951733052731
931,0.00944847241044044,-0.00680919270962477,0.0322121605277061,0.0104700559750199,0.0384444929659367,0.0146717550233006
932,0.00739238178357482,-0.00478600803762674,0.0387249700725079,0.01814329251647,0.0421204976737499,0.0194749794900417
933,0.00632381532341242,-0.00316576077602804,0.0472868047654629,0.026919761672616,0.0480652488768101,0.0270330440253019
934,0.00964654423296452,-0.00366499181836843,0.0572300441563129,0.0343285948038101,0.0620628744363785,0.0333276204764843
935,0.0151278357952833,-0.00517343683168292,0.0652628690004349,0.039979737251997,0.0770414248108864,0.0387356467545033
936,0.0178699474781752,-0.0061350567266345,0.0700652003288269,0.045552097260952,0.0853962674736977,0.0458623468875885
937,0.0180422160774469,-0.00627320120111108,0.0739947780966759,0.0518478527665138,0.0902637019753456,0.0540992803871632
938,0.0170926339924335,-0.005256328266114,0.0786534547805786,0.0587641447782516,0.0931852757930756,0.0617976039648056
939,0.0156589671969414,-0.00245717517100275,0.083578459918499,0.0655040815472603,0.0921897515654564,0.0686204880475998
940,0.0154610499739647,0.00133488862775266,0.0889222100377083,0.071063444018364,0.0923867449164391,0.074798509478569
941,0.0168785452842712,0.00446784775704145,0.0951483622193336,0.0758729502558708,0.0991460010409355,0.081330381333828
942,0.0172867570072412,0.00655631208792329,0.101588927209377,0.08143050968647,0.107547581195831,0.0895802229642868
943,0.0150861740112305,0.00792746897786856,0.107802085578442,0.0883478000760078,0.112292006611824,0.0993367284536362
944,0.0120417959988117,0.00820004381239414,0.11362286657095,0.0957018211483955,0.115529663860798,0.108554795384407
945,0.00995450094342232,0.00656255800276995,0.118164353072643,0.101831935346127,0.120379701256752,0.114624999463558
946,0.00858278106898069,0.0041379202157259,0.12093511223793,0.106480926275253,0.125150591135025,0.117149397730827
947,0.00817048270255327,0.00298272189684212,0.122395299375057,0.110385857522488,0.128498092293739,0.117770954966545
948,0.00937307253479958,0.00316270906478167,0.123103469610214,0.113824889063835,0.132258534431458,0.117488339543343
949,0.0111708706244826,0.00413406267762184,0.123226411640644,0.117035411298275,0.136919841170311,0.117664530873299
950,0.0118306884542108,0.00574098853394389,0.122665449976921,0.119803011417389,0.140872314572334,0.119850784540176
951,0.0103774741292,0.00752008194103837,0.121474251151085,0.122056722640991,0.14191909134388,0.123860657215118
952,0.00832521263509989,0.00904971174895763,0.120444305241108,0.124774143099785,0.140876665711403,0.128849372267723
953,0.00770380580797791,0.00997261423617601,0.120759360492229,0.128460913896561,0.140787214040756,0.133655235171318
954,0.00808022823184729,0.010109486989677,0.123002775013447,0.132394790649414,0.1422428637743,0.137117832899094
955,0.00880487449467182,0.0097042266279459,0.126942589879036,0.135696709156036,0.145497560501099,0.139493241906166
956,0.0098691713064909,0.00887754559516907,0.131379246711731,0.138191431760788,0.150198593735695,0.1417555809021
957,0.0106025999411941,0.00764426868408918,0.134664297103882,0.140500888228416,0.153268039226532,0.144994795322418
958,0.0105751873925328,0.006220493465662,0.135939955711365,0.143038153648376,0.153547704219818,0.149634048342705
959,0.0100337089970708,0.00441007688641548,0.135491579771042,0.145427286624908,0.153063178062439,0.154372960329056
960,0.00898440554738045,0.00190286117140204,0.13463369011879,0.147204756736755,0.153737559914589,0.157392710447311
961,0.00735686626285315,-0.000713229237589985,0.134398356080055,0.14832429587841,0.15575122833252,0.15827077627182
962,0.00599772622808814,-0.00250099995173514,0.134528800845146,0.14908541738987,0.158057853579521,0.158223241567612
963,0.00594076327979565,-0.00304146483540535,0.134812980890274,0.150124549865723,0.16020293533802,0.158702373504639
964,0.00638430519029498,-0.00290037784725428,0.135167300701141,0.151504710316658,0.161508738994598,0.159879595041275
965,0.00582595448940992,-0.00269974954426289,0.135547965764999,0.152494594454765,0.160796478390694,0.160846725106239
966,0.00416662404313684,-0.00232765404507518,0.136746600270271,0.153087794780731,0.158238455653191,0.161017075181007
967,0.00207461440004408,-0.00205332273617387,0.138962000608444,0.153911426663399,0.155277743935585,0.160734996199608
