,AF3,AF4,Fp1,Fp2,AF7,AF8
0,0.00936740357428789,0.00528888218104839,-0.00811748765408993,-0.0144203901290894,-0.0160729568451643,-0.00950857065618038
1,0.0101079260930419,0.00507237762212753,-0.0071788290515542,-0.0179617404937744,-0.0149957491084933,-0.012659564614296
2,0.0112757552415133,0.00470767449587584,-0.00764091173186898,-0.0210178941488266,-0.0139797143638134,-0.0151725159958005
3,0.0124564571306109,0.00378770683892071,-0.00969889666885138,-0.023654131218791,-0.0139950858429074,-0.0176230370998383
4,0.0128751453012228,0.0021642348729074,-0.0127893891185522,-0.0266112349927425,-0.0153995519503951,-0.0204852186143398
5,0.0121253291144967,-0.00019166455604136,-0.0158983487635851,-0.0298852790147066,-0.0181450508534908,-0.0234966091811657
6,0.0109120225533843,-0.00289608119055629,-0.0183829125016928,-0.0324212871491909,-0.0213350150734186,-0.0253694448620081
7,0.0102701662108302,-0.00524497218430042,-0.0204605720937252,-0.0329954512417316,-0.0240131448954344,-0.0236569419503212
8,0.0102211767807603,-0.00652423407882452,-0.0223192404955626,-0.0315957516431808,-0.0264114551246166,-0.0172489918768406
9,0.00991534255445004,-0.00653461832553148,-0.0238164011389017,-0.0298435371369123,-0.0290145613253117,-0.00911630969494581
10,0.0088907815515995,-0.00595288770273328,-0.0245065484195948,-0.0295052118599415,-0.0311837885528803,-0.00452480325475335
11,0.00766930775716901,-0.00533074419945478,-0.0237339753657579,-0.030655512586236,-0.0316960364580154,-0.0060085030272603
12,0.00691244890913367,-0.00458139693364501,-0.0216587856411934,-0.0318935811519623,-0.0307182632386684,-0.0114459842443466
13,0.00681739998981357,-0.00328127597458661,-0.0194815937429667,-0.0323120653629303,-0.0299206133931875,-0.0174281485378742
14,0.00726388115435839,-0.00144667108543217,-0.0186299532651901,-0.0324008278548718,-0.0303321145474911,-0.0222528111189604
15,0.00775456847622991,0.00014420723891817,-0.0196253787726164,-0.0326485820114613,-0.0316685624420643,-0.0250509139150381
16,0.00784300174564123,0.000954487884882838,-0.0216008182615042,-0.0327134914696217,-0.0330931767821312,-0.0254109408706427
17,0.00764385936781764,0.00107915978878737,-0.0231906156986952,-0.0325848311185837,-0.033684778958559,-0.0239400342106819
18,0.00694774556905031,0.000327819550875574,-0.0239397808909416,-0.0331285707652569,-0.033608864992857,-0.0219356343150139
19,0.00586618250235915,-0.00169512419961393,-0.0238296762108803,-0.0344621986150742,-0.0335650257766247,-0.0207585692405701
20,0.00565906427800655,-0.00457303551957011,-0.0222036186605692,-0.0352116376161575,-0.03262634947896,-0.0206278823316097
21,0.0065917014144361,-0.00684783700853586,-0.0189869627356529,-0.0341480411589146,-0.0299624782055616,-0.0203775223344564
22,0.00747455097734928,-0.00716825434938073,-0.0154855037108064,-0.0317843370139599,-0.0269581619650126,-0.019357206299901
23,0.00766003783792257,-0.00573978759348392,-0.0130890337750316,-0.0296865943819284,-0.0252420529723167,-0.0181236024945974
24,0.00713704433292151,-0.0039464607834816,-0.0120120504871011,-0.0285852942615747,-0.0251951050013304,-0.0168171003460884
25,0.00622607581317425,-0.00296587427146733,-0.0112676797434688,-0.0282447449862957,-0.0256492961198092,-0.015290129929781
26,0.00572772137820721,-0.00325600267387927,-0.00989028532058001,-0.0284970961511135,-0.0251212511211634,-0.0134932715445757
27,0.00584476906806231,-0.00482514267787337,-0.00813320185989141,-0.029123755171895,-0.0243202820420265,-0.010526280850172
28,0.0062128291465342,-0.00674034981057048,-0.00656411051750183,-0.0291288960725069,-0.0245869122445583,-0.00638229912146926
29,0.00660592596977949,-0.00771396607160568,-0.00523892883211374,-0.0277272742241621,-0.0259573645889759,-0.00329660391435027
30,0.00729211559519172,-0.00789928808808327,-0.00418633688241243,-0.0256426390260458,-0.0273671094328165,-0.00304749072529376
31,0.00848605204373598,-0.00811983458697796,-0.00364266894757748,-0.0243716109544039,-0.0274804420769215,-0.00471676839515567
32,0.00935300625860691,-0.00845669582486153,-0.00462127849459648,-0.024994283914566,-0.0271026063710451,-0.00609154580160975
33,0.00952602177858353,-0.00835969764739275,-0.00790636800229549,-0.0270167179405689,-0.0280206948518753,-0.00594356236979365
34,0.00988487433642149,-0.00706452643498778,-0.0122597692534328,-0.0284294579178095,-0.0298186503350735,-0.00453943246975541
35,0.0108047621324658,-0.00457863649353385,-0.01570900157094,-0.0283735804259777,-0.031254094094038,-0.00387027743272483
36,0.0118895284831524,-0.00220287241972983,-0.0174636468291283,-0.0278062615543604,-0.0322366952896118,-0.00633917655795813
37,0.013227122835815,-0.00103205908089876,-0.0176660213619471,-0.0276118759065866,-0.0325104556977749,-0.0118452748283744
38,0.0151152005419135,-0.000717637944035232,-0.0166598297655582,-0.0280859805643559,-0.0312312785536051,-0.0179190170019865
39,0.0169326476752758,-0.000728010665625334,-0.0151112535968423,-0.0293872281908989,-0.0291625335812569,-0.0223579369485378
40,0.0180522911250591,-0.000872821605298668,-0.0136318644508719,-0.0311508271843195,-0.0279502682387829,-0.0231562685221434
41,0.018600245937705,-0.000812664395198226,-0.0123675661161542,-0.032223716378212,-0.0277656801044941,-0.0183615181595087
42,0.0188261158764362,-0.000483062583953142,-0.011079958640039,-0.0313903503119946,-0.0278501771390438,-0.00970009155571461
43,0.0189913790673018,0.000686651153955609,-0.00875862408429384,-0.0280149858444929,-0.0273627005517483,-0.00219600345008075
44,0.0187991466373205,0.00339926546439528,-0.00535320537164807,-0.02272685803473,-0.0261672306805849,0.00109486992005259
45,0.0170688275247812,0.00628812797367573,-0.0033017136156559,-0.0173801016062498,-0.026101179420948,-1.22828732855851E-05
46,0.0137617792934179,0.00726976105943322,-0.00426819454878569,-0.013417162001133,-0.0288973152637482,-0.00356465298682451
47,0.0109614422544837,0.00647191936150193,-0.00695880269631743,-0.0111624700948596,-0.0327661037445068,-0.00604095682501793
48,0.01046222448349,0.00543776014819741,-0.00918135978281498,-0.0103628309443593,-0.034406092017889,-0.0053862938657403
49,0.0118104228749871,0.00443747220560908,-0.00999978929758072,-0.0106109259650111,-0.0335136987268925,-0.0026748173404485
50,0.0135480361059308,0.00341091700829566,-0.00949203595519066,-0.0113301835954189,-0.0320767797529697,-0.000479438429465517
51,0.0153191350400448,0.00365047482773662,-0.00750949792563915,-0.0120411664247513,-0.0306477844715118,0.000213266190257855
52,0.0174466129392385,0.00544102070853114,-0.00374002708122134,-0.0127506935968995,-0.0281425192952156,0.000671746209263802
53,0.0198065172880888,0.00736537855118513,0.00152044929563999,-0.0134483091533184,-0.0242738369852304,0.00223079510033131
54,0.0220144260674715,0.00792464520782232,0.00649814587086439,-0.0145031288266182,-0.0203972645103931,0.00400526542216539
55,0.0237416382879019,0.00682353088632226,0.0091942073777318,-0.0156165156513453,-0.0181564334779978,0.00427594874054194
56,0.0245794206857681,0.00506551517173648,0.00979185197502375,-0.0149304289370775,-0.0184102561324835,0.00227865274064243
57,0.0242776982486248,0.00364680029451847,0.00992523413151503,-0.0118827531114221,-0.0209967624396086,-0.00221447111107409
58,0.0228658504784107,0.00324160326272249,0.0100150955840945,-0.00846342742443085,-0.0242582000792027,-0.00767650688067079
59,0.020768852904439,0.00357891223393381,0.00908414460718632,-0.00669504376128316,-0.025275444611907,-0.0113775953650475
60,0.0187466852366924,0.00346126244403422,0.00675416458398104,-0.00670557422563434,-0.0227094013243914,-0.0122222602367401
61,0.0170820262283087,0.0023711456451565,0.00372040225192904,-0.00781825929880142,-0.0187568906694651,-0.0108576593920588
62,0.0162902567535639,0.00104871951043606,0.000826525210868567,-0.0100189652293921,-0.0164363160729408,-0.00768983364105225
63,0.0171021167188883,0.000851883029099554,-0.00125938048586249,-0.013356220908463,-0.016610361635685,-0.00265604490414262
64,0.0191505048424006,0.00269096833653748,-0.00190583150833845,-0.0166710447520018,-0.0181518122553825,0.00269655487500131
65,0.0215588957071304,0.00581722427159548,-0.00105511583387852,-0.0178594626486301,-0.0197530873119831,0.00516076292842627
66,0.0238181669265032,0.00882212817668915,0.000899047881830484,-0.0156926922500134,-0.0209082830697298,0.00379707175306976
67,0.0257517490535975,0.0113259255886078,0.00367823382839561,-0.0111296623945236,-0.0214149951934814,0.000545155664440244
68,0.0269020106643438,0.012651389464736,0.00628089578822255,-0.00695919198915362,-0.0215276014059782,-0.00319536658935249
69,0.0268702227622271,0.0120845483615994,0.00820580869913101,-0.00528618926182389,-0.0211309939622879,-0.00602148286998272
70,0.0262214615941048,0.0108212130144238,0.0106675680726767,-0.004777149297297,-0.0190349947661161,-0.00579095911234617
71,0.025319579988718,0.00993936136364937,0.0136006530374289,-0.00346050155349076,-0.0154231367632747,-0.00326070399023592
72,0.0241294223815203,0.00878010224550962,0.0150721678510308,-0.00215013092383742,-0.0119976354762912,-0.00139129406306893
73,0.0231825616210699,0.00689324038103223,0.0143733927980065,-0.00200075400061905,-0.00982519891113043,-0.000964312930591404
74,0.0225849933922291,0.00429453002288938,0.0119895497336984,-0.00327592273242772,-0.00912264455109835,-0.00127198512200266
75,0.0222137849777937,0.00144536152947694,0.00871911086142063,-0.00531955156475306,-0.00934527162462473,-0.00124135089572519
76,0.0224110465496778,-0.000322877836879343,0.00594567181542516,-0.00659699086099863,-0.00955688115209341,-0.000433338602306321
77,0.023025868460536,-0.000322975101880729,0.00411391817033291,-0.00688651809468865,-0.00959100667387247,-0.000258974469034001
78,0.0234281439334154,0.00108849990647286,0.00235695904120803,-0.00674047227948904,-0.0104573769494891,-0.00137507100589573
79,0.0226069036871195,0.00235019880346954,-0.000338435551384464,-0.00662871869280934,-0.0135749615728855,-0.00328311882913113
80,0.0202425476163626,0.00207279319874942,-0.00400229124352336,-0.0069068381562829,-0.018834700807929,-0.00550995580852032
81,0.0177737288177013,0.00113652145955712,-0.00746796559542418,-0.00709838652983308,-0.0241325311362743,-0.0077283838763833
82,0.0163039993494749,0.000641755003016442,-0.00975403934717178,-0.00669524492695928,-0.0273614246398211,-0.0101808365434408
83,0.0157950688153505,0.000632650393527001,-0.010496930219233,-0.00551130063831806,-0.0277025289833546,-0.0123751312494278
84,0.0159945078194141,0.00096631603082642,-0.00957749783992767,-0.00384986191056669,-0.025807173922658,-0.0135613065212965
85,0.016334380954504,0.00134467706084251,-0.00712925707921386,-0.00266562053002417,-0.0229959785938263,-0.0138402096927166
86,0.0168839264661074,0.00249202759005129,-0.0034820178989321,-0.00163542828522623,-0.0198558401316404,-0.0119965700432658
87,0.0180521886795759,0.00523577304556966,0.000588857044931501,0.000559860956855118,-0.016540938988328,-0.00681639276444912
88,0.0192425455898046,0.008325413800776,0.00444536469876766,0.00359025504440069,-0.0133458999916911,-0.000407331972382963
89,0.0198484063148499,0.0104007963091135,0.00841666758060455,0.00636489596217871,-0.0104900952428579,0.00403283583000302
90,0.0197293851524591,0.0113932369276881,0.0120511027052999,0.00827948190271854,-0.00879758130759001,0.00526573788374662
91,0.0189682357013226,0.0115398736670613,0.0136038092896342,0.00895937718451023,-0.00890024937689304,0.00416360842064023
92,0.0181451123207808,0.0110238697379828,0.0129930386319757,0.00938623677939177,-0.00978819560259581,0.00344889657571912
93,0.0178334470838308,0.0100301224738359,0.012304937466979,0.011126771569252,-0.0102872746065259,0.00637344922870398
94,0.0178630128502846,0.00873991381376982,0.0126491701230407,0.0137987779453397,-0.0106661012396216,0.0140094477683306
95,0.0179698802530766,0.00682235462591052,0.0133095867931843,0.015384285710752,-0.0111886356025934,0.0226825959980488
96,0.0181434098631144,0.00387102225795388,0.0135243330150843,0.0148387216031551,-0.0113459527492523,0.0260411147028208
97,0.0185293685644865,0.000703451049048454,0.0134977595880628,0.0135171841830015,-0.0105975707992911,0.0221541076898575
98,0.0197280123829842,-0.00114469276741147,0.0139942783862352,0.0133982682600617,-0.00834045838564634,0.0144349904730916
99,0.0216420032083988,-0.00108457624446601,0.0148709276691079,0.0146654825657606,-0.00505079049617052,0.00653327256441116
100,0.0233076997101307,0.000871755997650325,0.0150172729045153,0.0164887923747301,-0.00210335850715637,0.00153955677524209
101,0.0241015776991844,0.00434114877134562,0.0139076169580221,0.0180302541702986,-0.000298452388960868,0.00153022049926221
102,0.0236661937087774,0.00704680709168315,0.0119230700656772,0.0176348853856325,-0.000394993199734017,0.00454853475093842
103,0.0226374994963408,0.00714088557288051,0.0101765245199203,0.0152065129950643,-0.00199198862537742,0.00718314480036497
104,0.0223391447216272,0.00550076132640243,0.00986758340150118,0.0131238829344511,-0.00315078604035079,0.00834009144455194
105,0.0227331835776567,0.00357659277506173,0.0110133904963732,0.0124717941507697,-0.0032730067614466,0.00806453544646502
106,0.0230129901319742,0.00233016721904278,0.0130946738645434,0.0127458833158016,-0.00332713290117681,0.00678243348374963
107,0.0227558612823486,0.00203280826099217,0.0155395278707147,0.0134487617760897,-0.00403589149937034,0.00506661599501967
108,0.0225093234330416,0.00268876715563238,0.0177678093314171,0.0143108759075403,-0.0048616761341691,0.00332501158118248
109,0.0235510542988777,0.00532518839463592,0.0200805868953466,0.0159280393272638,-0.00469769164919853,0.00247039692476392
110,0.0257612597197294,0.010389887727797,0.0226085893809795,0.0187834315001965,-0.00359537987969816,0.00310688535682857
111,0.0274351835250854,0.0163009501993656,0.0239706169813871,0.021851958706975,-0.00302346330136061,0.00502352137118578
112,0.0276361461728811,0.0209141727536917,0.0233115032315254,0.0240565966814756,-0.00386747880838811,0.00807019881904125
113,0.0267999544739723,0.0227864384651184,0.021641943603754,0.0251915249973536,-0.00521156936883926,0.0119725158438087
114,0.0256953816860914,0.0218754075467587,0.0204088408499956,0.0253232046961784,-0.00587368244305253,0.0159751977771521
115,0.0251670479774475,0.0197598803788424,0.0206007640808821,0.0249545276165009,-0.00524231605231762,0.019287021830678
116,0.0250004306435585,0.018292373046279,0.0217749681323767,0.0244790464639664,-0.00398110877722502,0.0219206139445305
117,0.0236087702214718,0.0180101431906223,0.022630762308836,0.0238920319825411,-0.0033417388331145,0.0239619333297014
118,0.0200734958052635,0.017384447157383,0.022629838436842,0.0223651528358459,-0.0029742531478405,0.023647690191865
119,0.0152336610481143,0.0146926669403911,0.0220729932188988,0.0188408810645342,-0.00234336173161864,0.0198161210864782
120,0.0112500516697764,0.0105206063017249,0.0222041141241789,0.0147863076999784,-0.00164426618721336,0.0152916181832552
121,0.00965461134910584,0.00634476402774453,0.0240611378103495,0.0129612293094397,-0.000550273631233722,0.0136819696053863
122,0.00972529780119658,0.00350081128999591,0.0269276257604361,0.0140920970588923,0.000792434206232429,0.0160459745675325
123,0.0098041333258152,0.00278261234052479,0.0290436018258333,0.0164606627076864,0.00149139144923538,0.0204589311033487
124,0.00898034684360027,0.00303935655392706,0.0289609041064978,0.0176110807806253,0.00052719353698194,0.0228006131947041
125,0.00790870096534491,0.0029654682148248,0.0267458949238062,0.0169622916728258,-0.00243483390659094,0.0210297368466854
126,0.00789643917232752,0.00273496704176068,0.0238761827349663,0.0159816332161427,-0.00592742022126913,0.0165754463523626
127,0.00910898111760616,0.00290955323725939,0.0214853193610907,0.0162364058196545,-0.00853709690272808,0.0114743402227759
128,0.0109371487051249,0.00334820919670165,0.0198157485574484,0.0180981531739235,-0.01006471645087,0.00728853093460202
129,0.0125670032575727,0.00325180683284998,0.018991032615304,0.0204643253237009,-0.0104806805029511,0.00598374661058187
130,0.0134719060733914,0.00214735232293606,0.0191927999258041,0.0218900535255671,-0.00982021167874336,0.00936762895435095
131,0.0138356871902943,0.000307385111227632,0.0208567790687084,0.0218868367373943,-0.00830744672566652,0.0157970227301121
132,0.0137326195836067,-0.00175713014323264,0.0236201696097851,0.0205660592764616,-0.00653391610831022,0.0201608389616013
133,0.0131527353078127,-0.00403868220746517,0.0254965126514435,0.0181137025356293,-0.00531495874747634,0.0193062573671341
134,0.0124704204499722,-0.00646970327943563,0.0256222486495972,0.0152758657932281,-0.00487415120005608,0.0146286049857736
135,0.0117114866152406,-0.00854664389044046,0.024544782936573,0.0125848539173603,-0.00525978859513998,0.00852084066718817
136,0.0111338393762708,-0.0100811710581183,0.0227987039834261,0.010042984969914,-0.00600247969850898,0.00261181406676769
137,0.0110680973157287,-0.0112763913348317,0.0207875315099955,0.00773789407685399,-0.00620667636394501,-0.00166246539447457
138,0.011296964250505,-0.0113379079848528,0.0190150178968906,0.00650584418326616,-0.00557178724557161,-0.00278203119523823
139,0.0117948278784752,-0.0087278550490737,0.0184085052460432,0.00748750567436218,-0.00411332631483674,-0.000233831495279446
140,0.0119305951520801,-0.00449591781944036,0.0186784863471985,0.00980332959443331,-0.0029258020222187,0.00350361061282456
141,0.0112287793308496,-0.00130363507196307,0.0188315585255623,0.0121486475691199,-0.00285110995173454,0.00669478764757514
142,0.0102185131981969,-0.00048518055700697,0.0186816714704037,0.0146309658885002,-0.0023422169033438,0.0100829508155584
143,0.00984820816665888,-0.00159859890118241,0.0184835810214281,0.0168843772262335,0.000217374297790229,0.0139150209724903
144,0.0105559844523668,-0.00330651132389903,0.0182819049805403,0.0173460152000189,0.00296050799079239,0.0166152436286211
145,0.0113937016576529,-0.00502702500671148,0.0172523837536573,0.0152350338175893,0.00215404760092497,0.0151145337149501
146,0.0119432350620627,-0.00605695648118854,0.0150627512484789,0.0122791510075331,-0.00230903015471995,0.00845632422715425
147,0.0126203391700983,-0.00573716033250093,0.0124650746583939,0.00975747033953667,-0.00630803219974041,-0.000903222011402249
148,0.0131589127704501,-0.00487276213243604,0.00964820012450218,0.00656058546155691,-0.00655622966587543,-0.00985167920589447
149,0.0132420687004924,-0.00460189022123814,0.00645228708162904,0.00212298636324704,-0.00361971207894385,-0.0160617399960756
150,0.0129286553710699,-0.00527459010481834,0.00341583066619933,-0.0024501821026206,-6.33902309346013E-05,-0.0184386447072029
151,0.0123560121282935,-0.00624946923926473,0.00156540924217552,-0.00558936316519976,0.00213968055322766,-0.0171400848776102
152,0.0120318504050374,-0.00639227032661438,0.00173534429632127,-0.00601133424788713,0.00243210326880217,-0.0128634478896856
153,0.0125860283151269,-0.0052162129431963,0.00413925480097532,-0.00367089943028986,0.00128484913147986,-0.00647728051990271
154,0.0135422898456454,-0.00278679840266705,0.00821690354496241,-1.78017489815829E-05,-0.000877446844242513,0.000933967705350369
155,0.0136345168575644,0.000190553619177081,0.0124049130827188,0.00291637354530394,-0.00378424813970923,0.00669828616082668
156,0.0130831077694893,0.00268263812176883,0.0152944894507527,0.00404304079711437,-0.00612167408689857,0.00839706603437662
157,0.012963904067874,0.00461829546838999,0.0167946331202984,0.00397449126467109,-0.00679303333163261,0.00741207413375378
158,0.0130454627797008,0.00585671234875917,0.0172067675739527,0.00364232226274908,-0.00682175159454346,0.00603744760155678
159,0.0127490507438779,0.00619619758799672,0.0167271643877029,0.00359430187381804,-0.00751127861440182,0.0054299384355545
160,0.0123927425593138,0.00673241354525089,0.0159529335796833,0.00430009793490171,-0.00825857277959585,0.00663047190755606
161,0.0126770278438926,0.0082789259031415,0.0156312938779593,0.00583758670836687,-0.00774138979613781,0.00971719808876514
162,0.0136559633538127,0.0102470042183995,0.0157521031796932,0.0081353010609746,-0.00623212894424796,0.0134122921153903
163,0.0147737748920918,0.0120506165549159,0.0157491005957127,0.0110667049884796,-0.00514430506154895,0.0161409098654985
164,0.0154705662280321,0.0128458393737674,0.015238830819726,0.0135552985593677,-0.00527414865791798,0.016514265909791
165,0.0155754238367081,0.011866120621562,0.0145112276077271,0.0145481480285525,-0.00627779541537166,0.014469756744802
166,0.0151654714718461,0.0099314097315073,0.0147728193551302,0.0144300675019622,-0.00692960014566779,0.0120256142690778
167,0.0138504337519407,0.00800691451877356,0.0163819789886475,0.0139947012066841,-0.00660470174625516,0.0100245643407106
168,0.0115300407633185,0.00624124892055988,0.0183907989412546,0.0138373952358961,-0.00592686841264367,0.00803022459149361
169,0.00952533818781376,0.00488651683554053,0.0205150451511145,0.0146306483075023,-0.00484792469069362,0.00718772411346436
170,0.00879359152168036,0.00415690522640944,0.0222581513226032,0.0160198882222176,-0.00320863048546016,0.00771487504243851
171,0.00848420336842537,0.00387642602436244,0.0224701464176178,0.0167078319936991,-0.00206653261557221,0.00747393444180489
172,0.00797241739928722,0.00414086366072297,0.021242793649435,0.0164254326373339,-0.00173702975735068,0.00538722146302462
173,0.00762309925630689,0.00498327054083347,0.0193677917122841,0.015640227124095,-0.00177154073026031,0.0023035213816911
174,0.00735264597460628,0.00597954262048006,0.0170525275170803,0.0144722005352378,-0.00300603755749762,-6.3654406403657E-05
175,0.00662532402202487,0.00688590621575713,0.0146112013608217,0.0131754968315363,-0.00630070501938462,0.00107438012491912
176,0.00520780868828297,0.00740855559706688,0.0130425971001387,0.0124223669990897,-0.0105771943926811,0.0069472212344408
177,0.00372163648717105,0.00746757490560412,0.0130577040836215,0.0128552904352546,-0.0137707889080048,0.0152941783890128
178,0.00310434843413532,0.00707339774817228,0.0142904361709952,0.0139065282419324,-0.0145851355046034,0.0226771775633097
179,0.00294513418339193,0.00559442117810249,0.0154723431915045,0.013576228171587,-0.0138747151941061,0.0257890690118074
180,0.00249256403185427,0.00320897810161114,0.0157306995242834,0.0112518640235066,-0.0132251689210534,0.0236458908766508
181,0.00217064889147878,0.00129253638442606,0.0152545943856239,0.00885317660868168,-0.0128107918426394,0.0189278014004231
182,0.00259698694571853,0.000707813247572631,0.014422862790525,0.00770271336659789,-0.0121304420754313,0.0143055021762848
183,0.00362131511792541,0.00121910346206278,0.0139845991507173,0.00743028335273266,-0.0110609475523233,0.0101291202008724
184,0.00465821521356702,0.00265875016339123,0.014966462738812,0.0078868567943573,-0.00993860885500908,0.00651001883670688
185,0.00544590316712856,0.00502936635166407,0.0170918293297291,0.00918101333081722,-0.00909431651234627,0.00427219644188881
186,0.00585407996550202,0.00724471220746636,0.0187697857618332,0.0109807420521975,-0.00851073022931814,0.0032023664098233
187,0.00562743190675974,0.00798894464969635,0.0188992898911238,0.0124339079484344,-0.00792765896767378,0.00248574046418071
188,0.0045944987796247,0.00717795081436634,0.017404705286026,0.0124033642932773,-0.00767607614398003,0.0025583675596863
189,0.0031892282422632,0.00553523516282439,0.0151598155498505,0.0111168660223484,-0.00813923962414265,0.00414379360154271
190,0.00262211519293487,0.00407473416998982,0.0140044307336211,0.0102249830961227,-0.00818990077823401,0.00715449871495366
191,0.00348823633976281,0.00376642565242946,0.014779606834054,0.0105737429112196,-0.00670446641743183,0.0109939919784665
192,0.00495319021865726,0.00435933144763112,0.0164482109248638,0.0117385191842914,-0.00440051080659032,0.0139870708808303
193,0.00568596227094531,0.0047818785533309,0.0179387889802456,0.01317541860044,-0.0025603985413909,0.0143284285441041
194,0.00525078643113375,0.0048158522695303,0.018933979794383,0.0145152723416686,-0.00140540092252195,0.0123243471607566
195,0.00436199875548482,0.00471303425729275,0.0199447833001614,0.0156342349946499,-0.000318590609822422,0.00976858846843243
196,0.00403408659622073,0.00441493513062596,0.0219506360590458,0.0170104671269655,0.00125916243996471,0.00867792125791311
197,0.00452671991661191,0.00396179873496294,0.0242956075817347,0.0186814945191145,0.00292009371332824,0.0107037490233779
198,0.00465474557131529,0.00311643886379898,0.0249727237969637,0.0192411858588457,0.00346056977286935,0.0152196800336242
199,0.00337764411233366,0.00146147981286049,0.0236800964921713,0.0179136320948601,0.00248308852314949,0.019388135522604
200,0.0015395994996652,-0.00105409079696983,0.0219873506575823,0.0157738048583269,0.000934405892621726,0.0201411992311478
201,0.000586110225412995,-0.00370051711797714,0.0209692846983671,0.0138538703322411,-0.000148959996295162,0.0162996705621481
202,0.000733712746296078,-0.00485100969672203,0.0203347187489271,0.0121171670034528,-0.000477949681226164,0.00978000368922949
203,0.00109085883013904,-0.00379014876671135,0.0195984039455652,0.0104328328743577,-0.000136364353238605,0.00363634270615876
204,0.000458245078334585,-0.00144530553370714,0.018592270091176,0.00947249960154295,0.000185738506843336,-0.000106773237348534
205,-0.00142588652670383,0.000696786853950471,0.0172229744493961,0.00970948114991188,-6.85956329107285E-05,-0.00110313459299505
206,-0.00335963093675673,0.00185030547436327,0.0163357723504305,0.011061679571867,-1.22528736028471E-05,0.000166409285156988
207,-0.00455252500250936,0.00278590386733413,0.0168107487261295,0.01365040615201,0.000625233631581068,0.00389328342862427
208,-0.00539543433114886,0.00451942253857851,0.0176019053906202,0.016913702711463,0.000460248731542379,0.00973054114729166
209,-0.00606894167140126,0.00646857870742679,0.0174388233572245,0.0193048361688852,-0.000720301177352667,0.0147269703447819
210,-0.00592799158766866,0.00802324991673231,0.0172902569174767,0.0207386314868927,-0.00107643252704293,0.0164791401475668
211,-0.00459060166031122,0.00999298132956028,0.018780330196023,0.0225308984518051,0.00104453437961638,0.0159915816038847
212,-0.00272158323787153,0.0119365509599447,0.021639721468091,0.0238818358629942,0.00553347356617451,0.0141645343974233
213,-0.0010108114220202,0.0122199906036258,0.0245391502976418,0.0229898802936077,0.0111434888094664,0.0111432559788227
214,0.000832670193631202,0.0111640952527523,0.0266666058450937,0.0204169005155563,0.016756484284997,0.00882855802774429
215,0.00354626099579036,0.0102189537137747,0.0276733674108982,0.0180832222104073,0.0216002054512501,0.00865723844617605
216,0.0066850851289928,0.00949032604694366,0.0275465864688158,0.0168576277792454,0.0246464069932699,0.0096405204385519
217,0.00941141694784164,0.00837580393999815,0.0271087680011988,0.0168801844120026,0.0255928207188845,0.0103928633034229
218,0.0117941703647375,0.00682338699698448,0.0269418898969889,0.0181991755962372,0.0250946022570133,0.00949293840676546
219,0.0133204776793718,0.00474995607510209,0.0261038430035114,0.0198288708925247,0.0228834412992001,0.0057110171765089
220,0.012847825884819,0.00220277835614979,0.0235541332513094,0.0204141568392515,0.0183950364589691,0.000788969860877842
221,0.010358409024775,-2.70889013336273E-05,0.0197122637182474,0.0197388734668493,0.0127931637689471,-0.00180342618841678
222,0.00759328249841928,-0.00103479728568345,0.0167525578290224,0.0191353838890791,0.00881029665470123,-0.000327082263538614
223,0.00598186952993274,-0.000773668172769248,0.0162107832729816,0.0197599064558744,0.00761526077985764,0.0047033648006618
224,0.00527242803946137,0.00023319260799326,0.0168923288583755,0.0205142255872488,0.00792518071830273,0.0111170802265406
225,0.00508618867024779,0.00145249278284609,0.0173867791891098,0.0193977374583483,0.00874253828078508,0.0159735102206469
226,0.00515524717047811,0.00213749473914504,0.0179477073252201,0.015929264947772,0.00977784022688866,0.0169845279306173
227,0.0050094248726964,0.00224035186693072,0.0188223384320736,0.0114129344001412,0.0105432737618685,0.0147474687546492
228,0.00480042770504951,0.00247730780392885,0.019365256652236,0.00761188473552465,0.0111141838133335,0.0117807984352112
229,0.00481092184782028,0.00269034784287214,0.0189561787992716,0.00492001790553331,0.0123429270461202,0.00940660294145346
230,0.00490730674937367,0.00223363912664354,0.0180258490145206,0.00278331968002021,0.0143924746662378,0.00823119096457958
231,0.00520074274390936,0.00175387517083436,0.0180014315992594,0.00187224370893091,0.0161196645349264,0.00786067917943001
232,0.00588782550767064,0.00221327389590442,0.0192874670028687,0.00288730044849217,0.0164542924612761,0.00575408944860101
233,0.00682860054075718,0.00312756537459791,0.02035859413445,0.00493595423176885,0.0155547419562936,0.000759424467105418
234,0.00747823063284159,0.00399660225957632,0.0195988416671753,0.00703769968822598,0.0137030743062496,-0.00442923093214631
235,0.00742439040914178,0.00547965383157134,0.0170279145240784,0.00873089767992496,0.0109594287350774,-0.00656227255240083
236,0.0071299304254353,0.00801354181021452,0.0141222150996327,0.00990812852978706,0.00824757013469934,-0.00504639325663447
237,0.00725398724898696,0.0111466152593493,0.0123518882319331,0.0110678756609559,0.00668133003637195,-0.00156144285574555
238,0.00789116322994232,0.0140901766717434,0.0122351469472051,0.0125299552455544,0.00685492902994156,0.00143186363857239
239,0.00919790007174015,0.0167000312358141,0.013853014446795,0.0147218070924282,0.00920737627893686,0.00265002041123807
240,0.0112033355981112,0.019348343834281,0.0162982791662216,0.0177902523428202,0.012919906526804,0.00256436038762331
241,0.0130964396521449,0.020839573815465,0.0173649080097675,0.0199619550257921,0.0162112060934305,0.00139104970730841
242,0.0142830088734627,0.0189978964626789,0.0162317473441362,0.0198385622352362,0.0185114927589893,-0.000535926490556449
243,0.0153287732973695,0.0141762793064117,0.0147807216271758,0.0188352093100548,0.0203113444149494,-0.00193495699204504
244,0.0164433307945728,0.00890183355659246,0.0145231606438756,0.0185867790132761,0.0214647687971592,-0.00288261962123215
245,0.0168837010860443,0.00495136715471745,0.0147412698715925,0.0188340879976749,0.0212228577584028,-0.00437223212793469
246,0.0169264767318964,0.00260449107736349,0.0148354638367891,0.0188581924885511,0.0204503182321787,-0.00597541220486164
247,0.0169454496353865,0.00105961970984936,0.0148188769817352,0.0184767376631498,0.0203520227223635,-0.00620407145470381
248,0.0163928978145123,8.96080018719658E-06,0.0144517589360476,0.0176442991942167,0.0206821914762259,-0.00416568666696548
249,0.0150854391977191,0.000145447818795219,0.0135161578655243,0.0160174146294594,0.0208925623446703,-0.00155516434460878
250,0.0126950275152922,0.00148534076288342,0.0112680923193693,0.0134817808866501,0.019653856754303,-0.00116578838787973
251,0.00912552606314421,0.003213593037799,0.00748457340523601,0.0110090272501111,0.0162014365196228,-0.00289465114474297
252,0.00529063865542412,0.0045677786692977,0.00335182226262987,0.00933706946671009,0.0119239967316389,-0.00424054078757763
253,0.00213380693458021,0.00506895314902067,6.49516805424355E-05,0.008113625459373,0.00858901254832745,-0.00377173395827413
254,0.000593702134210616,0.00514193018898368,-0.00150079792365432,0.00782351661473513,0.00758274318650365,-0.0018009360646829
255,0.00106630998197943,0.00546029536053538,-0.00127845094539225,0.00936887133866549,0.0091581204906106,0.000847348594106734
256,0.00205255160108209,0.00558996200561523,-0.000617581594269723,0.0119102643802762,0.0114567168056965,0.00321622285991907
257,0.00219646352343261,0.00503141153603792,-0.000398564152419567,0.0140636563301086,0.0132478689774871,0.00477165728807449
258,0.00226217485032976,0.00397504074499011,-3.66129279427696E-05,0.0155091136693954,0.0156489722430706,0.00576560711488128
259,0.00264984020031989,0.00216277129948139,0.000700959528330714,0.0160045493394136,0.0190305095165968,0.00658052228391171
260,0.00273717218078673,-0.000154182169353589,0.00174025911837816,0.0156395118683577,0.0223130974918604,0.00781534984707832
261,0.00272964965552092,-0.00158471905160695,0.00349343940615654,0.0154646812006831,0.0249405782669783,0.00961960386484861
262,0.00266354042105377,-0.00203094352036715,0.0053625451400876,0.015506093390286,0.0262550972402096,0.0104556092992425
263,0.00201753177680075,-0.00247041578404605,0.00595883373171091,0.0146137773990631,0.0257100034505129,0.00872160494327545
264,0.00112733652349561,-0.00288376212120056,0.00524795800447464,0.0127182276919484,0.0241547469049692,0.00497820135205984
265,0.000950779125560075,-0.00231943558901548,0.0049594035372138,0.0114149739965796,0.0230041574686766,0.00172297947574407
266,0.0017953822389245,-0.000510027166455984,0.006340351421386,0.0117406938225031,0.0225688051432371,0.000711563508957624
267,0.00300930603407323,0.00131462328135967,0.00820844434201717,0.0124248750507832,0.0212932545691729,0.00162241514772177
268,0.00414920598268509,0.00219684652984142,0.0086382906883955,0.01197858620435,0.0180304907262325,0.00372389890253544
269,0.00559664284810424,0.00237927632406354,0.00754046952351928,0.0108856614679098,0.0144667997956276,0.00626270798966289
270,0.00712283002212644,0.00186049297917634,0.00609588529914618,0.0102300783619285,0.0125310579314828,0.00756165152415633
271,0.00761674949899316,0.000246077426709235,0.00479513453319669,0.0100819179788232,0.0118465768173337,0.00595000199973583
272,0.00683817407116294,-0.00220977328717709,0.00310111278668046,0.00962338130921125,0.0113282259553671,0.00152352929580957
273,0.00532659702003002,-0.00511292647570372,0.000581581320147961,0.00779631175100803,0.010251346975565,-0.00455595133826137
274,0.00342533458024263,-0.00848356354981661,-0.00218232488259673,0.00443264469504356,0.00837050564587116,-0.0116626117378473
275,0.00134731107391417,-0.0118654500693083,-0.00431606406345963,0.000703033583704382,0.00615435373038054,-0.0189455058425665
276,-0.000612507341429591,-0.0144661590456963,-0.00576477404683828,-0.00184888544026762,0.00445745512843132,-0.0250137317925692
277,-0.00190682511311024,-0.0161367189139128,-0.00681977160274982,-0.00248943571932614,0.00421105930581689,-0.0284219738095999
278,-0.00233356701210141,-0.0167050529271364,-0.0073223514482379,-0.00147313915658742,0.00528954714536667,-0.027656827121973
279,-0.00226678233593702,-0.0158033929765224,-0.00709925033152103,0.000244512222707272,0.00631133606657386,-0.0231176614761353
280,-0.00208250619471073,-0.0140273030847311,-0.00668410211801529,0.00133393344003707,0.00618225010111928,-0.0174842774868011
281,-0.0019909180700779,-0.0124644292518497,-0.0068215923383832,0.00134040997363627,0.00495050335302949,-0.0126754827797413
282,-0.00151019613258541,-0.0113231865689158,-0.00730295013636351,0.00118334556464106,0.00401196256279945,-0.00879052188247442
283,-0.000480407121358439,-0.010590503923595,-0.00736483419314027,0.00126438331790268,0.00421605538576841,-0.00598516827449203
284,0.000165700330398977,-0.0104011557996273,-0.00655652955174446,0.00114297517575324,0.00458889035508037,-0.00481479102745652
285,-8.12301004771143E-05,-0.0104767791926861,-0.0051688551902771,0.00079840881517157,0.00442080805078149,-0.00515746977180243
286,-0.000961192301474512,-0.0105452034622431,-0.0040348251350224,0.000586374546401203,0.00414976151660085,-0.00627842033281922
287,-0.00187494070269167,-0.0102238059043884,-0.00319525762461126,0.000974631286226213,0.00428305100649595,-0.00743192108348012
288,-0.00213577412068844,-0.00880924705415964,-0.00233670836314559,0.00204986985772848,0.00447258586063981,-0.00785846542567015
289,-0.0019924440421164,-0.00661901477724314,-0.00215016049332917,0.00315721542574465,0.00375303183682263,-0.00690461369231343
290,-0.00255162664689124,-0.00512561574578285,-0.00316566554829478,0.00355681055225432,0.00182792183477432,-0.00607979483902454
291,-0.00360619346611202,-0.0046324273571372,-0.00434546312317252,0.00383935705758631,-0.000312579970341176,-0.00770619604736567
292,-0.00416175741702318,-0.00479028793051839,-0.00487347133457661,0.00506144808605313,-0.00167126022279263,-0.0109456274658442
293,-0.00412196479737759,-0.00581706548109651,-0.00510873552411795,0.00711576966568828,-0.00176306918729097,-0.0131906699389219
294,-0.00338337733410299,-0.00711230374872684,-0.00478631444275379,0.0098277535289526,-4.27063714596443E-05,-0.0133672012016177
295,-0.00200679828412831,-0.00762786995619535,-0.00370534253306687,0.0127197066321969,0.00285808648914099,-0.0118912719190121
296,-0.000892880081664771,-0.00755531387403607,-0.00300634442828596,0.0141168814152479,0.00493078026920557,-0.0103681273758411
297,-0.000514970684889704,-0.0074097840115428,-0.00314662605524063,0.0136728547513485,0.00547904008999467,-0.0105215413495898
298,-0.000654254457913339,-0.00698712794110179,-0.00313916546292603,0.0127222379669547,0.00550355110317469,-0.0121771134436131
299,-0.00113817758392543,-0.00624376349151134,-0.00247364374808967,0.0120470616966486,0.00532999262213707,-0.014249175786972
300,-0.00151680444832891,-0.00517040863633156,-0.00194601318798959,0.012122068554163,0.00465001817792654,-0.0159175619482994
301,-0.0019956910982728,-0.00413442170247436,-0.00304593588225544,0.0126728471368551,0.00357537879608572,-0.0173585824668407
302,-0.00330739584751427,-0.00364104984328151,-0.00588000426068902,0.013045584782958,0.00293402350507677,-0.0192847177386284
303,-0.00519693503156304,-0.00361992488615215,-0.00885602552443743,0.0132470149546862,0.00375353079289198,-0.0212724171578884
304,-0.00725718215107918,-0.00410089734941721,-0.0113093163818121,0.013275783509016,0.00528604816645384,-0.0222811363637447
305,-0.00947972107678652,-0.00499480264261365,-0.0137023665010929,0.0133402086794376,0.00510148983448744,-0.0217721536755562
306,-0.0117279468104243,-0.00630146032199264,-0.0159268975257874,0.0135804498568177,0.00221365573816001,-0.0204289648681879
307,-0.0138527899980545,-0.00815489143133163,-0.0174284111708403,0.0136899873614311,-0.00208045961335301,-0.0197015684098005
308,-0.0158157180994749,-0.0101141938939691,-0.0179652348160744,0.0135636115446687,-0.00611372897401452,-0.019787797704339
309,-0.0173886232078075,-0.0114214448258281,-0.0174847096204758,0.0135477632284164,-0.00862364657223225,-0.0195269603282213
310,-0.0185187831521034,-0.0118915755301714,-0.0167978201061487,0.0136181088164449,-0.0095725366845727,-0.0186979379504919
311,-0.0195222459733486,-0.0116433817893267,-0.0172428619116545,0.0135625191032887,-0.0100536225363612,-0.0175516363233328
312,-0.0202436856925488,-0.0104424636811018,-0.0187522303313017,0.0137523943558335,-0.0105958385393023,-0.0156140271574259
313,-0.0201648864895105,-0.00877279415726662,-0.0202887821942568,0.0141883455216885,-0.0106185302138329,-0.0135870510712266
314,-0.019313944503665,-0.00803308095782995,-0.021339314058423,0.0141897071152925,-0.00949196238070726,-0.0133623592555523
315,-0.0184399802237749,-0.0086660785600543,-0.0220452975481749,0.0131957521662116,-0.00788311846554279,-0.0152268400415778
316,-0.0182720720767975,-0.00971705187112093,-0.0226251818239689,0.0113741792738438,-0.00693432101979852,-0.0171368587762117
317,-0.0184516720473766,-0.0101677402853966,-0.0222978387027979,0.010133127681911,-0.00645664986222982,-0.0167293846607208
318,-0.0178561601787806,-0.00953633617609739,-0.0199177823960781,0.0109516764059663,-0.00535828154534101,-0.0135845448821783
319,-0.0164084061980248,-0.00809136778116226,-0.0164851527661085,0.0130846658721566,-0.00393626559525728,-0.0100226728245616
320,-0.0154184615239501,-0.00698057608678937,-0.0143317710608244,0.0140304546803236,-0.00350472866557539,-0.00910713151097298
321,-0.0162143390625715,-0.00723808817565441,-0.014159519225359,0.012478512711823,-0.00411506835371256,-0.011071945540607
322,-0.0187015850096941,-0.00811188481748104,-0.0145998699590564,0.00994302611798048,-0.00479420647025108,-0.0126056531444192
323,-0.0215798635035753,-0.00855051912367344,-0.0139911808073521,0.00857589486986399,-0.00463411537930369,-0.0112789114937186
324,-0.0242018643766642,-0.00946115143597126,-0.012268265709281,0.00840992014855146,-0.00370941939763725,-0.00852467864751816
325,-0.0265555176883936,-0.0113702937960625,-0.0106979999691248,0.00813903752714396,-0.00309111410751939,-0.00731027871370316
326,-0.0286332946270704,-0.0135915270075202,-0.0108754942193627,0.00647991150617599,-0.00400661583989859,-0.0102884080260992
327,-0.0307740401476622,-0.0155771933495998,-0.0135711757466197,0.00329506839625537,-0.00718893529847264,-0.0177673827856779
328,-0.0333197452127934,-0.0166543386876583,-0.0173457246273756,0.000159973380505107,-0.0117993168532848,-0.0257173404097557
329,-0.0360610857605934,-0.017021669074893,-0.0204664897173643,-0.00180601980537176,-0.0159944817423821,-0.0298556089401245
330,-0.0377889834344387,-0.0172520466148853,-0.0226433202624321,-0.00257617002353072,-0.0183982457965612,-0.0298965647816658
331,-0.0376293286681175,-0.0168070364743471,-0.0240360014140606,-0.00217905128374696,-0.0189516637474298,-0.0283362530171871
332,-0.0361998565495014,-0.0147402407601476,-0.0247412528842688,-0.00104803696740419,-0.0185234025120735,-0.0271435026079416
333,-0.0341886840760708,-0.010939103551209,-0.0242118015885353,0.000517392181791365,-0.01719119399786,-0.0261026695370674
334,-0.0322798416018486,-0.00713389366865158,-0.0220468509942293,0.00248748413287103,-0.0149088194593787,-0.0247450098395348
335,-0.0314275659620762,-0.00551600428298116,-0.0190786048769951,0.0044217873364687,-0.0126962568610907,-0.0231115277856588
336,-0.0316224917769432,-0.00657735532149673,-0.0163879841566086,0.00591520266607404,-0.0111828120425344,-0.0211937390267849
337,-0.0320951789617538,-0.009244279935956,-0.014652706682682,0.00622176425531507,-0.0100499931722879,-0.0200023707002401
338,-0.0325699895620346,-0.0121432719752193,-0.0141130443662405,0.00414119567722082,-0.00928021967411041,-0.0207329094409943
339,-0.0332334414124489,-0.0143851386383176,-0.0143984826281667,-0.000124247060739435,-0.00924648437649012,-0.0234216656535864
340,-0.0339802578091621,-0.0154629703611135,-0.0149316322058439,-0.00437493249773979,-0.00999405514448881,-0.0268429052084684
341,-0.0348127111792564,-0.015305289067328,-0.0157503802329302,-0.00668110745027661,-0.0116028944030404,-0.0289081912487745
342,-0.0358355678617954,-0.0140664018690586,-0.0165828634053469,-0.00657198438420892,-0.0137190716341138,-0.0285949129611254
343,-0.036794051527977,-0.0118318423628807,-0.0166531931608915,-0.00447489367797971,-0.0155219156295061,-0.0260298531502485
344,-0.0373656861484051,-0.00896169245243073,-0.0164791140705347,-0.00176656770054251,-0.0171457156538963,-0.0211680550128222
345,-0.0368115156888962,-0.00594373233616352,-0.0165422335267067,0.000421102187829092,-0.0183341596275568,-0.0154186841100454
346,-0.0348881483078003,-0.00352490460500121,-0.0164602342993021,0.00193262519314885,-0.0184796079993248,-0.0123482644557953
347,-0.0327142812311649,-0.00208835257217288,-0.0165897663682699,0.003017672104761,-0.0186399612575769,-0.0131269749253988
348,-0.0311728399246931,-0.00141215662006289,-0.0170347150415182,0.00411845371127129,-0.0197118446230888,-0.0147047722712159
349,-0.0298154689371586,-0.00159401015844196,-0.0166903752833605,0.00505420286208391,-0.0200965385884047,-0.01459916587919
350,-0.0277140103280544,-0.00200523249804974,-0.0146653512492776,0.00551812117919326,-0.0175624042749405,-0.0131050115451217
351,-0.0250669606029987,-0.00199255254119635,-0.0115629509091377,0.00563550367951393,-0.0127389524132013,-0.0119241047650576
352,-0.022942716255784,-0.00238008564338088,-0.00850022677332163,0.00546607654541731,-0.00829036347568035,-0.0122834946960211
353,-0.0214602611958981,-0.00346930976957083,-0.00563591904938221,0.0055006630718708,-0.00542214093729854,-0.0134473526850343
354,-0.0201729778200388,-0.00434327078983188,-0.00346095650456846,0.00625129695981741,-0.00406905729323626,-0.0140697387978435
355,-0.019090311601758,-0.00443831877782941,-0.00311432406306267,0.00722994189709425,-0.0036961929872632,-0.0134059274569154
356,-0.0183009095489979,-0.00390933779999614,-0.00421750778332353,0.00728183472529054,-0.00320422858931124,-0.0116213597357273
357,-0.0181586891412735,-0.00307351467199624,-0.00575975421816111,0.00581908551976085,-0.00291276164352894,-0.0101893907412887
358,-0.0190482679754496,-0.00211768690496683,-0.00804700795561075,0.00325208646245301,-0.00425260467454791,-0.0102178417146206
359,-0.0204609110951424,-0.00104747735895216,-0.0113757587969303,0.000558817875571549,-0.00723333843052387,-0.010480172932148
360,-0.0215665493160486,0.000171491366927512,-0.0147689739242196,-0.0013354312395677,-0.0103795677423477,-0.00905249733477831
361,-0.0223677940666676,0.00164570868946612,-0.0170025713741779,-0.00238699396140873,-0.012550825253129,-0.00628584204241633
362,-0.0233545545488596,0.00344704301096499,-0.0180035438388586,-0.00304541527293622,-0.0137309581041336,-0.00469755521044135
363,-0.0243608150631189,0.00524520548060536,-0.0185781326144934,-0.00325011415407062,-0.0143395969644189,-0.00618254067376256
364,-0.024786964058876,0.00631995173171163,-0.0191128049045801,-0.00279721268452704,-0.0147617757320404,-0.00999422743916512
365,-0.0240939445793629,0.00551671255379915,-0.0191411674022675,-0.00226419093087316,-0.0145225478336215,-0.014507400803268
366,-0.0216020625084639,0.00240437174215913,-0.0181046016514301,-0.00224463571794331,-0.0125907119363546,-0.018640298396349
367,-0.0173618942499161,-0.00127838086336851,-0.0159218944609165,-0.00200785440392792,-0.00896602310240269,-0.0202613547444344
368,-0.0128484023734927,-0.00366155221126974,-0.0131352599710226,-0.000845656031742692,-0.00463367765769362,-0.0180862583220005
369,-0.00952396914362907,-0.00478502921760082,-0.0105976667255163,0.000649449182674289,-0.000174737928318791,-0.0143874641507864
370,-0.00768735306337476,-0.0051022064872086,-0.00858207140117884,0.00196061306633055,0.0049813836812973,-0.0119045488536358
371,-0.00720722042024136,-0.00474108057096601,-0.00750398263335228,0.00265472079627216,0.0110545074567199,-0.0110052246600389
372,-0.00750166084617376,-0.00400055525824428,-0.00778986793011427,0.00250183767639101,0.016512418165803,-0.0102951135486364
373,-0.00788290146738291,-0.00310194282792509,-0.00880391430109739,0.00238401838578284,0.0183073338121176,-0.00805429928004742
374,-0.00847897119820118,-0.00214352644979954,-0.00961764249950647,0.00291831232607365,0.0146187115460634,-0.00404275674372911
375,-0.00922507327049971,-0.00115696853026748,-0.00987424608319998,0.00381973898038268,0.0075222160667181,0.000134178117150441
376,-0.00998508092015982,-0.000483584910398349,-0.0103452457115054,0.00442633032798767,-0.000125374834169634,0.00240492611192167
377,-0.0109602445736527,-0.000697481969837099,-0.0118132717907429,0.00431255577132106,-0.00724970130249858,0.00197464157827199
378,-0.0114492950960994,-0.00151645950973034,-0.0132386861369014,0.00390532589517534,-0.0122912032529712,0.000331961084157228
379,-0.0111447963863611,-0.00234822276979685,-0.0133034121245146,0.00315067218616605,-0.0143499672412872,-0.000622555497102439
380,-0.010818307287991,-0.00335055193863809,-0.0126015590503812,0.00131819222588092,-0.0148323103785515,-0.000905199209228158
381,-0.0105681540444493,-0.00463752914220095,-0.0122132711112499,-0.00103625294286758,-0.0147677408531308,-0.00138003926258534
382,-0.0101504493504763,-0.00576925463974476,-0.0118575040251017,-0.00258151744492352,-0.0140134235844016,-0.00221718987450004
383,-0.00943285785615444,-0.00648634834215045,-0.0111101428046823,-0.00309693301096559,-0.0118375020101666,-0.00331057608127594
384,-0.00809459015727043,-0.00697759399190545,-0.0101762283593416,-0.00301430374383926,-0.00763810379430652,-0.00390129606239498
385,-0.00604618107900023,-0.00731499958783388,-0.00868054665625095,-0.00268973526544869,-0.00243746815249324,-0.00275357416830957
386,-0.00375381857156754,-0.00742705771699548,-0.00669284164905548,-0.00272158696316183,0.00143622595351189,-0.000347736262483522
387,-0.0016889440594241,-0.00712003046646714,-0.00535521795973182,-0.00313036888837814,0.00257131061516702,0.00160066597163677
388,-0.000157303540618159,-0.00622342713177204,-0.00506141595542431,-0.00363282859325409,0.00154791993554682,0.00200190837495029
389,0.000710407039150596,-0.00478406716138124,-0.00534356664866209,-0.00444159563630819,6.44672036287375E-06,0.000826369563583285
390,0.00126852001994848,-0.00284469733014703,-0.00572772789746523,-0.0054054819047451,-0.000595807970967144,-0.001417430001311
391,0.00196642032824457,-0.00100765645038337,-0.00599878607317805,-0.00604224391281605,6.4690008002799E-05,-0.00436041178181767
392,0.00337295327335596,-2.6194018573733E-05,-0.00551927043125033,-0.00599121581763029,0.00185145437717438,-0.00634285202249885
393,0.005446198862046,7.55417295295047E-06,-0.00377677101641893,-0.00569715211167932,0.00394582794979215,-0.00557872513309121
394,0.00697035156190395,-0.00108272791840136,-0.00226256903260946,-0.00651948386803269,0.00427003437653184,-0.00404993537813425
395,0.00694327242672443,-0.00330368825234473,-0.00269517651759088,-0.00830266531556845,0.00184167933184654,-0.00495214527472854
396,0.00582458870485425,-0.00551014952361584,-0.00400247517973185,-0.00892051588743925,-0.0017690536333248,-0.0081916032359004
397,0.00462174182757735,-0.007104835473001,-0.00413394346833229,-0.00748643511906266,-0.00448404159396887,-0.0121596725657582
398,0.00384554918855429,-0.00840702373534441,-0.00295599922537804,-0.00482062809169292,-0.0055542797781527,-0.0155511908233166
399,0.00423163454979658,-0.0083404453471303,-0.001112888334319,-0.00167739216703922,-0.00487144431099296,-0.0171091202646494
400,0.00596948619931936,-0.0056974608451128,0.00111038004979491,0.00101539352908731,-0.00297965155914426,-0.0165691822767258
401,0.00819590128958225,-0.00117292220238596,0.00326350447721779,0.00217598956078291,-0.0010472844587639,-0.0147304376587272
402,0.010204466059804,0.00336635299026966,0.00459923269227147,0.00153219792991877,0.00039362336974591,-0.0126242209225893
403,0.0116484193131328,0.00606489414349198,0.00482367491349578,-0.000219466572161764,0.00132207991555333,-0.0107964528724551
404,0.0123515697196126,0.00616174750030041,0.00445235474035144,-0.00190730299800634,0.00126044417265803,-0.00902448315173388
405,0.0123357269912958,0.00445535453036428,0.00352762779220939,-0.00254130293615162,-2.48941050813301E-05,-0.00688271038234234
406,0.0119868218898773,0.00265903864055872,0.0017357311444357,-0.00191845977678895,-0.00155165535397828,-0.00424996437504888
407,0.0117365326732397,0.00188442808575928,-0.000574623118154705,-0.000955409370362759,-0.00237322971224785,-0.00212037144228816
408,0.0118579845875502,0.00216428539715707,-0.0023713989648968,-0.000541393354069442,-0.00225216872058809,-0.00170160329435021
409,0.0122606744989753,0.00309759192168713,-0.00283736898563802,-0.000457257818197832,-0.00152833573520184,-0.00257712742313743
410,0.0120893670246005,0.00374510744586587,-0.00254182913340628,-0.000843377900309861,-0.0011762015055865,-0.00416031060740352
411,0.0109776081517339,0.00345850619487464,-0.0020811993163079,-0.00214506429620087,-0.00156630261335522,-0.00621911231428385
412,0.00949790142476559,0.00244153710082173,-0.000809508201200515,-0.00375944469124079,-0.00202834489755332,-0.00745993480086327
413,0.00856594648212194,0.00113306066486984,0.00168784242123365,-0.00446185888722539,-0.00164809555280954,-0.00606357818469405
414,0.00893934071063995,0.000218757995753549,0.00426397891715169,-0.00353793543763459,-0.000469409715151414,-0.00206928816623986
415,0.0101476702839136,0.00049229123396799,0.00559163279831409,-0.00166513456497341,0.000413352478062734,0.00233555631712079
416,0.0114062018692493,0.00235045398585498,0.0060845841653645,-6.93201445756131E-06,0.00118630798533559,0.00508040841668844
417,0.0121181663125753,0.00449787359684706,0.00609330460429192,0.000307244685245678,0.00251075578853488,0.00450124870985746
418,0.0115998908877373,0.0051607652567327,0.00495110685005784,-0.00140892004128546,0.00346108106896281,0.000367511907825246
419,0.0104855578392744,0.00481040589511395,0.00305538810789585,-0.00431855907663703,0.00304963509552181,-0.00471799075603485
420,0.00986788794398308,0.00471956329420209,0.00120470253750682,-0.00700674718245864,0.00115681090392172,-0.00777742732316256
421,0.010008298791945,0.00538234412670136,-0.000109025844722055,-0.00836085062474012,-0.00115430739242584,-0.00785752665251493
422,0.0107789477333426,0.00668855244293809,-3.40755177603569E-05,-0.00776808382943273,-0.0022536248434335,-0.00553311081603169
423,0.0113278422504663,0.00743711274117231,0.00128727604169399,-0.00576916057616472,-0.00213645421899855,-0.00211267173290253
424,0.0111485784873366,0.00683079194277525,0.00281504611484706,-0.00330824893899262,-0.00181628367863595,0.00131489767227322
425,0.010609058663249,0.00558938831090927,0.00381224951706827,-0.0010003651259467,-0.00191443285439163,0.00412920955568552
426,0.009517852216959,0.0043586827814579,0.00358386780135334,0.000322141771903262,-0.00290005304850638,0.00585314398631454
427,0.00759682478383183,0.00306374346837401,0.00231168512254953,-9.05803026398644E-05,-0.00440690107643604,0.00615094834938645
428,0.00564087461680174,0.00144913955591619,0.00156695209443569,-0.00169480720069259,-0.00517711229622364,0.00442722579464316
429,0.00493203708902001,-0.000127709514345042,0.00186680781189352,-0.00288064847700298,-0.00466265296563506,0.00108198844827712
430,0.00573546066880226,-0.00114046898670495,0.00191555544734001,-0.00298932893201709,-0.00367515231482685,-0.00249115168116987
431,0.00734817795455456,-0.00140636332798749,0.00151549407746643,-0.00226756185293198,-0.00268052192404866,-0.00488236825913191
432,0.00880784448236227,-0.000671471934765577,0.00178627425339073,-0.000700982287526131,-0.00118812604341656,-0.00473122578114271
433,0.00970446690917015,0.00109380437061191,0.00338889006525278,0.00159748073201627,0.00108351069502532,-0.00194968155119568
434,0.0108286775648594,0.00349360285326838,0.0058931615203619,0.00427305651828647,0.00379251642152667,0.00260717538185418
435,0.0127595337107778,0.00613441225141287,0.00810513366013765,0.00732648186385632,0.00611628359183669,0.00859395880252123
436,0.015041152946651,0.00874018203467131,0.00973663106560707,0.0107730003073812,0.0074913939461112,0.0149917379021645
437,0.016918295994401,0.0109300864860415,0.0112491184845567,0.0139653030782938,0.00725364405661821,0.0194461904466152
438,0.0184699855744839,0.0128393638879061,0.0128548173233867,0.0163235925137997,0.00547792203724384,0.0208353903144598
439,0.0201101265847683,0.014487387612462,0.0143873114138842,0.0173855349421501,0.00388898700475693,0.0197238177061081
440,0.0215554162859917,0.0152728017419577,0.0154347224161029,0.0172646325081587,0.00409607915207744,0.0173357482999563
441,0.022159356623888,0.01499202568084,0.0159913990646601,0.0171391014009714,0.00582885183393955,0.0152697218582034
442,0.0215056762099266,0.0138376904651523,0.016460757702589,0.0173261780291796,0.00732609489932656,0.0141133731231093
443,0.0200764127075672,0.0120327156037092,0.0167620833963156,0.0169917158782482,0.00764765357598662,0.0128174778074026
444,0.0190715473145247,0.0103569831699133,0.0164240077137947,0.0161316469311714,0.00748333940282464,0.0107840839773417
445,0.0196133591234684,0.0100113349035382,0.0160166509449482,0.0157980937510729,0.00807579420506954,0.00947574246674776
446,0.0216492656618357,0.0112576503306627,0.0165743175894022,0.0166224855929613,0.00969291478395462,0.0101836575195193
447,0.0238534267991781,0.0134459743276238,0.0177547726780176,0.0184214189648628,0.011241958476603,0.0125519465655088
448,0.0247424580156803,0.0155537789687514,0.0180834773927927,0.0203582122921944,0.0113847553730011,0.0158744584769011
449,0.0236627925187349,0.0167080909013748,0.0165380388498306,0.0212958697229624,0.00972944218665361,0.0198899917304516
450,0.0212047155946493,0.0171183180063963,0.0136319007724524,0.0206509754061699,0.00716601219028234,0.0240370091050863
451,0.018943153321743,0.0178346782922745,0.0109763899818063,0.0187535285949707,0.00535947037860751,0.0268038213253021
452,0.017791036516428,0.0190444700419903,0.00911794789135456,0.016392920166254,0.00483962567523122,0.0261562447994947
453,0.0168947856873274,0.0195857267826796,0.00730085093528032,0.0140177384018898,0.00421838695183396,0.0213292464613914
454,0.0154340146109462,0.0189541839063168,0.00543414289131761,0.0114271687343717,0.00290755601599813,0.0140434270724654
455,0.0136294458061457,0.0178817231208086,0.00408035330474377,0.00837217178195715,0.00171055691316724,0.00679084938019514
456,0.0118633937090635,0.0169155839830637,0.00343898218125105,0.00559702189639211,0.000816259940620512,0.0012978840386495
457,0.0106096900999546,0.0162177607417107,0.00346723152324557,0.00441360473632813,6.41803781036288E-05,-0.00170813512522727
458,0.0103273382410407,0.0155960926786065,0.00396076356992126,0.00466112373396754,-0.000577703700400889,-0.00301993172615767
459,0.0107428031042218,0.0144054815173149,0.004347856156528,0.00479053054004908,-0.00155033136252314,-0.00417883927002549
460,0.0109914420172572,0.0128901973366737,0.00438996125012636,0.00437143351882696,-0.00299973227083683,-0.00527431396767497
461,0.010478351265192,0.011846206150949,0.00446253409609199,0.00416601588949561,-0.00405236519873142,-0.00540658831596375
462,0.00961874704807997,0.0113800494000316,0.00519205676391721,0.00476462161168456,-0.00379783846437931,-0.00388308498077095
463,0.00927780661731958,0.0112286731600761,0.00671848282217979,0.00632216595113277,-0.0027015449013561,-0.000397749099647626
464,0.00937493238598108,0.0109027018770576,0.00833322294056416,0.00833346415311098,-0.00209781224839389,0.00376339140348136
465,0.00928666163235903,0.0102924965322018,0.00961875915527344,0.00990129262208939,-0.00228856550529599,0.00669076945632696
466,0.00882511399686337,0.0101445922628045,0.0104309087619185,0.0105653703212738,-0.00266605569049716,0.00776452291756868
467,0.00816912762820721,0.0112952431663871,0.0104268621653318,0.0110520413145423,-0.00320934085175395,0.00781288370490074
468,0.00749484729021788,0.0135011998936534,0.009664386510849,0.0121215311810374,-0.00437992718070745,0.00777855422347784
469,0.00654296670109034,0.0153592964634299,0.00827286299318075,0.0129122538492084,-0.00586976204067469,0.00745317107066512
470,0.00509350653737783,0.0157347619533539,0.00638322345912457,0.0125567885115743,-0.0066941762343049,0.00656150979921222
471,0.0031815217807889,0.0145738152787089,0.00417005689814687,0.0115178842097521,-0.00723550235852599,0.00564425205811858
472,0.00106355804018676,0.0126218488439918,0.00173190387431532,0.0104372166097164,-0.00843144208192825,0.00584010919556022
473,-0.000811492442153394,0.0106343626976013,-0.000648016575723886,0.00931184180080891,-0.00985710415989161,0.00767901027575135
474,-0.00233170972205698,0.00869619194418192,-0.00290196598507464,0.00784466229379177,-0.010755087248981,0.00976281240582466
475,-0.00319983204826713,0.00688565615564585,-0.00471467757597566,0.00623087026178837,-0.0108302868902683,0.00998479500412941
476,-0.00316342711448669,0.00555522600188851,-0.00616524601355195,0.00448096077889204,-0.0108652822673321,0.00734714604914188
477,-0.00268213707022369,0.00448568956926465,-0.00820421054959297,0.00201128167100251,-0.0120313735678792,0.00220676488243043
478,-0.00198472663760185,0.00320150912739336,-0.0103236548602581,-0.000867199501954019,-0.0139163546264172,-0.00421937461942434
479,-0.000524073489941657,0.00228623836301267,-0.0108251878991723,-0.0024317423813045,-0.0148470988497138,-0.00984394922852516
480,0.00169589405413717,0.00290375761687756,-0.00927078537642956,-0.00140230287797749,-0.0142575958743691,-0.0123988799750805
481,0.00353954546153545,0.00506427558138967,-0.00655117351561785,0.00131282384973019,-0.0133432000875473,-0.0110767707228661
482,0.00399831030517817,0.00756205013021827,-0.00395100098103285,0.00338992313481867,-0.0131949717178941,-0.0074741467833519
483,0.00319080636836588,0.00925607793033123,-0.00273239333182573,0.00329928356222808,-0.0137828243896365,-0.00499324174597859
484,0.00212529837153852,0.00982282217592001,-0.00321098556742072,0.00157660862896591,-0.014616884291172,-0.00591812189668417
485,0.00128774100448936,0.00948946177959442,-0.00415016384795308,9.66624502325431E-05,-0.0156621113419533,-0.00917877350002527
486,0.000816572282928973,0.00859939400106668,-0.00424862094223499,-0.000136800023028627,-0.0162768121808767,-0.012144505046308
487,0.00143683410715312,0.0074959178455174,-0.00371313560754061,0.000182238334673457,-0.015175242908299,-0.0133989742025733
488,0.00326682371087372,0.00640899827703834,-0.00314601231366396,0.000209646779694594,-0.0126750580966473,-0.0132667347788811
489,0.00533508230000734,0.00524095073342323,-0.00237275054678321,-0.000229983124881983,-0.010195036418736,-0.012440288439393
490,0.00687992898747325,0.00382269313558936,-0.00144740520045161,-0.00101530645042658,-0.0081259747967124,-0.0112312799319625
491,0.00796130858361721,0.00258994265459478,-0.00082963885506615,-0.00152442767284811,-0.00579107971861959,-0.00962026137858629
492,0.00874438136816025,0.00225844164378941,-0.000539991306141019,-0.000672075781039894,-0.00290350778959692,-0.00715875206515193
493,0.00880456808954477,0.00231709098443389,-0.000654434552416205,0.00151323573663831,3.49409356203978E-06,-0.00439714733511209
494,0.00791124999523163,0.00136348488740623,-0.00198874901980162,0.00331472256220877,0.00195550988428295,-0.00284728850238025
495,0.00673891045153141,-0.000415717804571614,-0.00481416191905737,0.00337141589261591,0.00239188713021576,-0.00280081550590694
496,0.00595047930255532,-0.00117155001498759,-0.00804589129984379,0.00209602131508291,0.00180828175507486,-0.00317904935218394
497,0.00533129321411252,-4.90735546918586E-05,-0.0107613448053598,0.000226795964408666,0.000246318377321586,-0.0030388489831239
498,0.00476350309327245,0.00213685818016529,-0.0122695313766599,-0.00217142864130437,-0.0020337593741715,-0.00231086323037744
499,0.00457275565713644,0.00397056387737393,-0.0120470132678747,-0.00484674889594316,-0.00350938201881945,-0.00181830883957446
500,0.00428719259798527,0.0045106434263289,-0.0108807114884257,-0.00722730392590165,-0.00381112261675298,-0.00247315946035087
501,0.00336148636415601,0.00440659373998642,-0.0098464572802186,-0.00853253994137049,-0.00366627494804561,-0.00357074430212379
502,0.00230827741324902,0.00489168940111995,-0.00916365627199411,-0.00791508238762617,-0.00335368327796459,-0.00376319256611168
503,0.00214236578904092,0.00624178582802415,-0.00850921403616667,-0.00543048977851868,-0.00245676073245704,-0.00295900227501988
504,0.00340340146794915,0.00774503592401743,-0.00768565060570836,-0.0024414686486125,-0.000168219397892244,-0.00190460565499961
505,0.00567530002444983,0.00848367903381586,-0.00696720508858562,-0.000258950225543231,0.00343760475516319,-0.00154882064089179
506,0.00828075315803289,0.00846599880605936,-0.00633794628083706,0.000936670403461903,0.00744389649480581,-0.00212986371479928
507,0.0103236315771937,0.00782168004661798,-0.00579272583127022,0.00102833099663258,0.0107260951772332,-0.00356636103242636
508,0.0113781159743667,0.00682752532884479,-0.0056082010269165,0.000584146124310791,0.0125195309519768,-0.00536692934110761
509,0.0123018631711602,0.00672993762418628,-0.00587103795260191,0.00110393424984068,0.0131798312067986,-0.00606139004230499
510,0.0133131556212902,0.00736270705237985,-0.00709592970088124,0.00202109478414059,0.0133047066628933,-0.00550755113363266
511,0.0137283783406019,0.00738075701519847,-0.00910027604550123,0.00183181266766042,0.0130636934190989,-0.00378806912340224
512,0.0133228525519371,0.00645045191049576,-0.0104965139180422,0.000618141726590693,0.0129641005769372,0.000174001746927388
513,0.0125825591385365,0.0048445644788444,-0.0105556091293693,-0.00100296211894602,0.0137784229591489,0.0052962782792747
514,0.0117892744019628,0.00277476571500301,-0.0100436098873615,-0.00287972181104124,0.0149184530600905,0.00828025583177805
515,0.0106010846793652,0.000552604789845645,-0.0101538700982928,-0.00490633118897676,0.0147855579853058,0.00761794997379184
516,0.00919907819479704,-0.00132373790256679,-0.0107663758099079,-0.00656275684013963,0.0132896173745394,0.00449641887098551
517,0.00847982428967953,-0.00247688312083483,-0.0108884703367949,-0.00733406050130725,0.0120637407526374,0.000782163755502552
518,0.00900768674910069,-0.00251273554749787,-0.0100434888154268,-0.00713062612339854,0.0119872130453587,-0.00183316937182099
519,0.0103087034076452,-0.00132248958107084,-0.00848048832267523,-0.00605212105438113,0.0122845228761435,-0.00233133300207555
520,0.0114112440496683,0.00084751786198467,-0.00697328615933657,-0.00411360990256071,0.0121511099860072,-0.000664167921058834
521,0.0117241507396102,0.00354371056891978,-0.0064794048666954,-0.00184883549809456,0.01126579195261,0.00213326932862401
522,0.0114015908911824,0.00575580447912216,-0.00717806862667203,5.8786306908587E-05,0.00968132540583611,0.00409091589972377
523,0.0109580243006349,0.00666010705754161,-0.00770374946296215,0.0016625685384497,0.00848090928047895,0.00400224793702364
524,0.0107517307624221,0.0065484675578773,-0.00664648786187172,0.0033850756008178,0.00877452734857798,0.00271480018272996
525,0.0106165120378137,0.00567764323204756,-0.0044189072214067,0.00498404121026397,0.00992534775286913,0.0014076353982091
526,0.0102035840973258,0.00385704776272178,-0.00228249351494014,0.00581671297550201,0.0106948781758547,0.000238243956118822
527,0.00966827198863029,0.00180893926881254,-0.000950676389038563,0.00589575106278062,0.010672751814127,-0.000702491845004261
528,0.00926654506474733,0.000600770348683,-0.000750998791772872,0.00550725869834423,0.00983238779008389,-0.00127668841741979
529,0.00920971482992172,0.000404174497816712,-0.00177564960904419,0.00496489880606532,0.00864287093281746,-0.00183312559965998
530,0.00955055374652147,0.00080463761696592,-0.00347388791851699,0.00487638683989644,0.00796203128993511,-0.00216361181810498
531,0.0100578861311078,0.00150169711560011,-0.00464733876287937,0.00580263696610928,0.00839995313435793,-0.000819032604340464
532,0.0108317695558071,0.00229762447997928,-0.00488590821623802,0.00754872802644968,0.010072635486722,0.00248560379259288
533,0.0115875750780106,0.0031508298125118,-0.00535482121631503,0.00929454155266285,0.0116584273055196,0.00598393753170967
534,0.0117277316749096,0.00447617890313268,-0.00638549122959375,0.0107400631532073,0.0118011720478535,0.00834374222904444
535,0.0115547170862556,0.00622266298159957,-0.00651764217764139,0.0124677652493119,0.0113808838650584,0.00963582005351782
536,0.0111376997083426,0.00712921423837543,-0.00566497817635536,0.0141623532399535,0.01083012111485,0.0100558456033468
537,0.010249299928546,0.00677159801125526,-0.00533032370731235,0.0142052229493856,0.00917249731719494,0.00940013490617275
538,0.00893632229417562,0.00625674054026604,-0.00626842258498073,0.0120383333414793,0.00625520246103406,0.00749451853334904
539,0.00686586741358042,0.00597520405426621,-0.00857140403240919,0.00865511782467365,0.0021592197008431,0.00493107317015529
540,0.00429178075864911,0.0057800505310297,-0.0115078324452043,0.00554856052622199,-0.00249875313602388,0.00332622579298913
541,0.00216326187364757,0.00555059313774109,-0.0136768259108067,0.00369852618314326,-0.00558410491794348,0.00363696087151766
542,0.000642666942439973,0.00488751288503408,-0.0146567784249783,0.00299524841830134,-0.00574026955291629,0.00619111023843288
543,-0.000745360448490828,0.00361915165558457,-0.0149431973695755,0.00306088384240866,-0.00380538636818528,0.0110967373475432
544,-0.0023446143604815,0.00151307182386518,-0.0149867497384548,0.00337297096848488,-0.00135214976035059,0.0159981399774551
545,-0.00421910034492612,-0.00089703913545236,-0.015001499094069,0.00357257504947484,0.000435676629422233,0.0175843741744757
546,-0.00576638430356979,-0.0019732944201678,-0.0145113868638873,0.00430509727448225,0.00136972707696259,0.0157120302319527
547,-0.0064146751537919,-0.00168850529007614,-0.0128797739744186,0.00549451168626547,0.00215112906880677,0.0125307850539684
548,-0.00612295744940639,-0.00141040189191699,-0.0104143926873803,0.00610355101525784,0.00342999398708344,0.00961806531995535
549,-0.00486452411860228,-0.00131367752328515,-0.00836048275232315,0.00578088173642755,0.00513282651081681,0.0074769570492208
550,-0.00289231818169355,-0.00105954671744257,-0.00787677895277739,0.00454231863841414,0.00670063821598887,0.00546278385445476
551,-0.000689003150910139,-0.000820024113636464,-0.00873863976448774,0.00279846857301891,0.00791323930025101,0.00252619874663651
552,0.00124715408310294,-0.00123002135660499,-0.00995887350291014,0.00113205274101347,0.00857390556484461,-0.00131702178623527
553,0.002524234354496,-0.00277948984876275,-0.0109005430713296,-0.000364475796232,0.00807486288249493,-0.00485206581652164
554,0.00321195251308382,-0.00469252048060298,-0.0109935514628887,-0.00169939897023141,0.00622291257604957,-0.00654003350064158
555,0.00340761733241379,-0.00570895662531257,-0.0100185461342335,-0.00281859468668699,0.00351802655495703,-0.00556207355111837
556,0.00269123748876154,-0.00589231448248029,-0.00893849227577448,-0.0040467050857842,0.000427180813858286,-0.00297609460540116
557,0.001328045851551,-0.0062589873559773,-0.00854021869599819,-0.00600133836269379,-0.00200824439525604,-0.00159339013043791
558,0.000424811034463346,-0.00710255606099963,-0.00835317000746727,-0.00868478044867516,-0.00284446915611625,-0.00310707464814186
559,2.15179279621225E-05,-0.00793290324509144,-0.00838560424745083,-0.011690977960825,-0.00310278963297606,-0.00627776235342026
560,-0.000531554222106934,-0.00792962312698364,-0.00883661303669214,-0.014479037374258,-0.00366687192581594,-0.00887395162135363
561,-0.00130310072563589,-0.00654713297262788,-0.00908876676112413,-0.0162083171308041,-0.0037965695373714,-0.0100851720198989
562,-0.0020423517562449,-0.00461829546838999,-0.00891862809658051,-0.0167374033480883,-0.0031819767318666,-0.0101388124749064
563,-0.00231078360229731,-0.00410783616825938,-0.00808898918330669,-0.0165932569652796,-0.00204714201390743,-0.00925550796091557
564,-0.00211098580621183,-0.00598597293719649,-0.00631025433540344,-0.0162550378590822,-0.000651279871817678,-0.00839642062783241
565,-0.00239625875838101,-0.00942128803580999,-0.0046053477562964,-0.0161920469254255,-5.15219217049889E-05,-0.00906978454440832
566,-0.00363189354538918,-0.013246432878077,-0.00401019537821412,-0.0164959114044905,-0.000456212088465691,-0.0119145773351192
567,-0.00511961709707975,-0.0161452107131481,-0.0041201519779861,-0.0164679922163486,-0.000781297334469855,-0.0154268946498632
568,-0.00617260904982686,-0.0169249475002289,-0.00419412506744266,-0.0153250796720386,-0.00063581153517589,-0.0162391420453787
569,-0.00672883959487081,-0.0157429091632366,-0.00410395581275225,-0.0133300181478262,6.56549018458463E-05,-0.0125106861814857
570,-0.00683112721890211,-0.0136978076770902,-0.00414054561406374,-0.0113322548568249,0.00132521544583142,-0.00626841466873884
571,-0.00625857803970575,-0.0112236449494958,-0.00428710971027613,-0.00952719058841467,0.00241993577219546,-0.000730460858903825
572,-0.00518159056082368,-0.00850792694836855,-0.00427764095366001,-0.0080874003469944,0.00259879138320684,0.00237886444665492
573,-0.00401342147961259,-0.00646059401333332,-0.00455743446946144,-0.00765096535906196,0.00172661081887782,0.00278531806543469
574,-0.00295240920968354,-0.00584698608145118,-0.00586565351113677,-0.0086510693654418,5.28583223058376E-05,0.00136524019762874
575,-0.00222047348506749,-0.00710206152871251,-0.00784523133188486,-0.0107848020270467,-0.00180848315358162,-0.000748583930544555
576,-0.00142377021256834,-0.00983306858688593,-0.00932547356933355,-0.0128843281418085,-0.00263207778334618,-0.00280207465402782
577,-0.000156426496687345,-0.0118385637179017,-0.00991361029446125,-0.0138372536748648,-0.00198653852567077,-0.00433871150016785
578,0.000892478739842772,-0.0113515425473452,-0.0101634273305535,-0.0137493517249823,-0.000909285678062588,-0.00578129990026355
579,0.000845955742988735,-0.00926852505654097,-0.0108262095600367,-0.0140070524066687,-0.000440056406660005,-0.0079696262255311
580,-0.000607321679126471,-0.00734168943017721,-0.0123026631772518,-0.015489031560719,-0.00103504676371813,-0.0109039153903723
581,-0.00290348380804062,-0.00618920428678393,-0.0139015857130289,-0.0172713901847601,-0.00234447536058724,-0.0139865586534142
582,-0.00486243050545454,-0.00574257271364331,-0.0144312214106321,-0.0178680401295424,-0.00377918733283877,-0.0163037776947021
583,-0.0055736918002367,-0.00585593888536096,-0.0134229976683855,-0.0169294476509094,-0.00499130366370082,-0.0167741719633341
584,-0.004492930136621,-0.00590543216094375,-0.0110452976077795,-0.0151515929028392,-0.00492340652272105,-0.0146143296733499
585,-0.00162285519763827,-0.00497850775718689,-0.00795049034059048,-0.0132915200665593,-0.0030920566059649,-0.00949083361774683
586,0.00207810592837632,-0.00265091191977263,-0.00495316926389933,-0.0116544375196099,-0.00101016485132277,-0.00217032199725509
587,0.00509589724242687,0.000370803958503529,-0.00256987125612795,-0.0101812044158578,-0.000238884691498242,0.00492172315716743
588,0.00667140400037169,0.00286460667848587,-0.000820803630631417,-0.00862033758312464,-0.00028123872471042,0.0096846641972661
589,0.00694279652088881,0.00389227434061468,0.000266735354671255,-0.0074411197565496,-1.28796846183832E-05,0.0118862930685282
590,0.00619810447096825,0.00317169376648963,0.000243688904447481,-0.00774516072124243,0.000633942196145654,0.012274113483727
591,0.00500289723277092,0.0015744031406939,-0.000988926040008664,-0.00927625689655542,0.00145685905590653,0.0118282968178391
592,0.0037686382420361,-0.000105032107967418,-0.00328653561882675,-0.0112502370029688,0.00201181089505553,0.0110488412901759
593,0.00262923003174365,-0.0016932439757511,-0.00626502884551883,-0.0134807657450438,0.00182017625775188,0.0100121144205332
594,0.00214615580625832,-0.00270399753935635,-0.00847787782549858,-0.0151294581592083,0.00141497794538736,0.00878804828971624
595,0.00242724176496267,-0.00305575528182089,-0.00866017863154411,-0.015392879024148,0.00157477578613907,0.00707725947722793
596,0.0024682127404958,-0.00322554097510874,-0.00769829377532005,-0.0146154342219234,0.00189371919259429,0.00529941637068987
597,0.00163994170725346,-0.00298197171650827,-0.00724999746307731,-0.0131596093997359,0.00150934606790543,0.00636516092345119
598,0.000399890093831345,-0.00203075539320707,-0.00733030680567026,-0.0109698940068483,0.000661557307466865,0.0125097148120403
599,-0.000246837531449273,-0.000694484042469412,-0.00711122341454029,-0.00821328721940517,0.000110340333776549,0.0204554200172424
600,0.000344424974173307,0.000886423862539232,-0.00643399776890874,-0.00534905679523945,-8.39132844703272E-05,0.0244788024574518
601,0.00194185378495604,0.00296647939831018,-0.00508500589057803,-0.00306746573187411,2.43417543970281E-05,0.0227000191807747
602,0.00368458894081414,0.00515032047405839,-0.00301974569447339,-0.00221659755334258,0.000258108921116218,0.0169520061463118
603,0.00482112960889935,0.00645025726407766,-0.000988210667856038,-0.00299955159425735,0.000345643755281344,0.00991567503660917
604,0.00523666059598327,0.00615250365808606,0.000509118952322751,-0.00485268607735634,0.000659713114146143,0.00354046747088432
605,0.00493973912671208,0.00411399407312274,0.00154235772788525,-0.00713337445631623,0.00133943185210228,-0.000942276208661497
606,0.00380816962569952,0.00118633755482733,0.00212187971919775,-0.00913770589977503,0.00157293246593326,-0.00255615543574095
607,0.00162896944675595,-0.00179881881922483,0.00145477405749261,-0.0105303237214684,0.000192867344594561,-0.00205357419326901
608,-0.00130254740361124,-0.00426203291863203,-0.00121264823246747,-0.011266378685832,-0.00273385434411466,-0.000775599502958357
609,-0.00345604098401964,-0.00509655894711614,-0.00449871318414807,-0.0108271446079016,-0.00503775710240006,0.00154311419464648
610,-0.0037272700574249,-0.00435224687680602,-0.00599322561174631,-0.00899637676775455,-0.00446427240967751,0.00499535817652941
611,-0.0029632116202265,-0.00387035496532917,-0.00528212869539857,-0.00670546339824796,-0.000997625873424113,0.00833349954336882
612,-0.00211515231058002,-0.00431110896170139,-0.00342616275884211,-0.004570621997118,0.00369345862418413,0.0104803927242756
613,-0.0015002730069682,-0.00489254668354988,-0.00144636153709143,-0.00266979145817459,0.00735912518575788,0.0106053426861763
614,-0.00186436402145773,-0.00553877186030149,-0.000340883038006723,-0.00192895077634603,0.00805235560983419,0.00822167471051216
615,-0.00363052752800286,-0.00563434278592467,-0.000265912851318717,-0.0023917299695313,0.00571554712951183,0.00516291661188006
616,-0.00608975533396006,-0.00445223925635219,-0.000636155600659549,-0.00267441780306399,0.00217938143759966,0.00378935574553907
617,-0.00803713593631983,-0.00301995873451233,-0.0014937873929739,-0.00252294703386724,-0.000885349232703447,0.00448178499937058
618,-0.00882143061608076,-0.00253968290053308,-0.00304916664026678,-0.00294477446004748,-0.0034123039804399,0.00675869733095169
619,-0.0084557393565774,-0.0037989963311702,-0.00487067829817533,-0.00444128504022956,-0.00606225058436394,0.0095228673890233
620,-0.00703527545556426,-0.00612429901957512,-0.00616242876276374,-0.00602637324482203,-0.00863346178084612,0.0120488591492176
621,-0.00529338978230953,-0.00729665579274297,-0.00642321817576885,-0.00698043452575803,-0.0100830793380737,0.0141013497486711
622,-0.00432856241241097,-0.00657348427921534,-0.00548262288793921,-0.00780321843922138,-0.00982474070042372,0.0149370199069381
623,-0.00419916165992618,-0.0045683840289712,-0.00363327492959797,-0.00875057093799114,-0.00836633145809174,0.0139808123931289
624,-0.00429040007293224,-0.00210422719828784,-0.00227322475984693,-0.0101799974218011,-0.00670640962198377,0.0109938895329833
625,-0.00423070602118969,-0.000581334519665688,-0.00257556117139757,-0.0124527737498283,-0.00524675380438566,0.00739437341690063
626,-0.0041022771038115,-0.00132820243015885,-0.00425521982833743,-0.0151070840656757,-0.00353437685407698,0.00543758505955338
627,-0.00417917687445879,-0.00441440753638744,-0.00632721977308393,-0.0175072830170393,-0.00148173421621323,0.00412806309759617
628,-0.00410057278349996,-0.00831568986177444,-0.00764714414253831,-0.0190492328256369,0.000355178868630901,0.000685762788634747
629,-0.00353844137862325,-0.0115066366270185,-0.00759645272046328,-0.0193029660731554,0.00142008485272527,-0.00468280352652073
630,-0.00321881333366036,-0.0140917301177979,-0.00678866961970925,-0.0184126328676939,0.00131751573644578,-0.00917325541377068
631,-0.00336162722669542,-0.0162509176880121,-0.00590667920187116,-0.0165104847401381,0.000680566066876054,-0.0102071100845933
632,-0.00326517643406987,-0.0172320324927568,-0.00497425626963377,-0.0139874201267958,0.00057308841496706,-0.00763467978686094
633,-0.00260921590961516,-0.016379464417696,-0.00395199563354254,-0.0115766627714038,0.000764348253142089,-0.00393707817420363
634,-0.00217346474528313,-0.0142588652670383,-0.00342248799279332,-0.0100090317428112,-0.000198684618226253,-0.0018011243082583
635,-0.00318064703606069,-0.0127214323729277,-0.00450345501303673,-0.0103785442188382,-0.00332260131835938,-0.00263053248636425
636,-0.00514024822041392,-0.0125910202041268,-0.00717382831498981,-0.0129135549068451,-0.00761387590318918,-0.00589819764718413
637,-0.00627538468688726,-0.0125700039789081,-0.0097523657605052,-0.0159541349858046,-0.0108193634077907,-0.00831199251115322
638,-0.00649619242176414,-0.0118603203445673,-0.0111041711643338,-0.0180229023098946,-0.0119886035099626,-0.00741539662703872
639,-0.00672306912019849,-0.0114605156704783,-0.0115938000380993,-0.0194234177470207,-0.0118221789598465,-0.00563872698694468
640,-0.00630170898512006,-0.0120220761746168,-0.0112953186035156,-0.0206877868622541,-0.0107687450945377,-0.00653172377496958
641,-0.00493967579677701,-0.013163985684514,-0.00966912880539894,-0.0216200184077024,-0.0093362657353282,-0.0101560978218913
642,-0.00379913579672575,-0.0144584150984883,-0.00703320931643248,-0.021899476647377,-0.00847562402486801,-0.0137391705065966
643,-0.00286677619442344,-0.0154747422784567,-0.00447899661958218,-0.0211448688060045,-0.00800787005573511,-0.0149727491661906
644,-0.00197053025476635,-0.0158150941133499,-0.00276039424352348,-0.0194107964634895,-0.00718930503353477,-0.0147122424095869
645,-0.00186175596900284,-0.0149923833087087,-0.00182854803279042,-0.0172615144401789,-0.00574945379048586,-0.0150969782844186
646,-0.00205425475724041,-0.0122345834970474,-0.0011216300772503,-0.0145122380927205,-0.00361644360236824,-0.015681017190218
647,-0.00216635270044208,-0.00829044915735722,-0.000821818772237748,-0.0112536698579788,-0.00188223284203559,-0.0150478575378656
648,-0.00298047647811472,-0.00522289099171758,-0.00142505043186247,-0.00886055920273066,-0.00190644524991512,-0.0135922357439995
649,-0.00449840631335974,-0.003475331235677,-0.00242392858490348,-0.00781624857336283,-0.00350265018641949,-0.0116034271195531
650,-0.00608752062544227,-0.00193409505300224,-0.003194659948349,-0.00756624899804592,-0.0057629500515759,-0.0084105059504509
651,-0.00749114714562893,-5.30459001311101E-05,-0.00396132096648216,-0.00835027266293764,-0.00789602473378181,-0.00424150004982948
652,-0.00878736469894648,0.001630675396882,-0.0051961112767458,-0.0103923268616199,-0.00953409634530544,-0.000241300775087439
653,-0.0101290922611952,0.00210715085268021,-0.00696980580687523,-0.0133474683389068,-0.0108770905062556,0.00241907662712038
654,-0.0112999342381954,0.000493553350679576,-0.00902392528951168,-0.0171395838260651,-0.0121246678754687,0.00280673545785248
655,-0.0115341832861304,-0.00319211045280099,-0.0106023689731956,-0.0212119910866022,-0.0127371968701482,0.00107429677154869
656,-0.0103321950882673,-0.00746420118957758,-0.0110698295757174,-0.0240862928330898,-0.0119259217754006,-0.0011339319171384
657,-0.00819642003625631,-0.0104279769584537,-0.0107646314427257,-0.0246339179575443,-0.0100994417443872,-0.00241362676024437
658,-0.00614802027121186,-0.0116072110831738,-0.00974552985280752,-0.0229742471128702,-0.00806515756994486,-0.00381253752857447
659,-0.00495512457564473,-0.0116527089849114,-0.00763985048979521,-0.0202082302421331,-0.00596776697784662,-0.00677429605275393
660,-0.00494740065187216,-0.0111839445307851,-0.00530076771974564,-0.0176702830940485,-0.00453362939879298,-0.00967542175203562
661,-0.00613196520134807,-0.0104784658178687,-0.00406048959121108,-0.0160329397767782,-0.00497598573565483,-0.00904800184071064
662,-0.00838783383369446,-0.0100782318040729,-0.00477747758850455,-0.0156460218131542,-0.00728860311210155,-0.00429339008405805
663,-0.0109965736046433,-0.0103961797431111,-0.00728247128427029,-0.0165118891745806,-0.00936035811901093,0.00142558407969773
664,-0.0124474531039596,-0.0102338921278715,-0.0096909636631608,-0.0171120166778564,-0.00823615584522486,0.00591186061501503
665,-0.0119089847430587,-0.00894838571548462,-0.0105339856818318,-0.0161022022366524,-0.00361633161082864,0.00860884599387646
666,-0.0106658805161715,-0.00853690411895514,-0.0109447576105595,-0.0148980738595128,0.000737672846298665,0.00808098446577787
667,-0.0107640018686652,-0.0101421670988202,-0.013017350807786,-0.0156034305691719,0.0010282697621733,0.00388258136808872
668,-0.0126624787226319,-0.0124253677204251,-0.0168299991637468,-0.0176102705299854,-0.00241078389808536,-0.0025569093413651
669,-0.0153277134522796,-0.0145497648045421,-0.0206209719181061,-0.0188376028090715,-0.00659781508147717,-0.00967278797179461
670,-0.0178475901484489,-0.0166829936206341,-0.0231574606150389,-0.0189481228590012,-0.0098751550540328,-0.0159759242087603
671,-0.0200142096728086,-0.0182214733213186,-0.0245599970221519,-0.0194357447326183,-0.0124781979247928,-0.019850293174386
672,-0.0214606560766697,-0.0182892121374607,-0.0253207720816135,-0.0209654252976179,-0.0142895150929689,-0.0201006326824427
673,-0.0219297576695681,-0.0174262635409832,-0.0254732444882393,-0.0224918723106384,-0.014795252121985,-0.0174755677580833
674,-0.0212749987840652,-0.0163010861724615,-0.0240561570972204,-0.022648498415947,-0.0133615359663963,-0.0140020763501525
675,-0.019326264038682,-0.0149451931938529,-0.0203273799270391,-0.0213767345994711,-0.00944419763982296,-0.0111086806282401
676,-0.016709066927433,-0.014110779389739,-0.0154203437268734,-0.0198966935276985,-0.00409438693895936,-0.00906067341566086
677,-0.0140848932787776,-0.0144161051139236,-0.011226674541831,-0.0187361855059862,0.00101837690453976,-0.00698556005954742
678,-0.0118454350158572,-0.0157110821455717,-0.00896507129073143,-0.0175602603703737,0.00478541059419513,-0.00496567832306027
679,-0.010280653834343,-0.017417574301362,-0.00865258276462555,-0.016166877001524,0.00692820688709617,-0.00437959609553218
680,-0.00899783801287413,-0.0185126177966595,-0.00933402124792337,-0.0144188925623894,0.00844200607389212,-0.00487016374245286
681,-0.00785218365490437,-0.0188985522836447,-0.0104027707129717,-0.0126152541488409,0.0100755859166384,-0.00547175481915474
682,-0.00757021503522992,-0.019258676096797,-0.0120170339941978,-0.0116047617048025,0.0112590529024601,-0.00739310076460242
683,-0.00826045032590628,-0.0191793479025364,-0.0140138110145926,-0.0115887094289064,0.011538552120328,-0.0112386457622051
684,-0.00936945155262947,-0.0183090399950743,-0.016012404114008,-0.0124652497470379,0.0110918106511235,-0.0153719913214445
685,-0.0106160584837198,-0.0172174852341414,-0.0177300162613392,-0.0143769402056932,0.0102051990106702,-0.018096124753356
686,-0.0110146170482039,-0.0157215539366007,-0.0182692874222994,-0.0162681713700294,0.0100655891001225,-0.0185405574738979
687,-0.00958838406950235,-0.013402403332293,-0.0174488238990307,-0.0170039106160402,0.0116640161722898,-0.0176013242453337
688,-0.00727057224139571,-0.0114984344691038,-0.0160737857222557,-0.0173051152378321,0.014454822987318,-0.0179945696145296
689,-0.00544161535799503,-0.011734894476831,-0.0142605621367693,-0.0181346740573645,0.0177800171077251,-0.0208993069827557
690,-0.00442111445590854,-0.0143620045855641,-0.0119906794279814,-0.0198727920651436,0.0209850668907166,-0.0247843191027641
691,-0.00369226071052253,-0.0179274044930935,-0.00952276960015297,-0.0220097955316305,0.0234017260372639,-0.0272167716175318
692,-0.00291003962047398,-0.0203270651400089,-0.00712059112265706,-0.0227784644812346,0.0251461341977119,-0.0266431383788586
693,-0.00278388964943588,-0.020855313166976,-0.00507779698818922,-0.0212669800966978,0.0266327615827322,-0.0232426151633263
694,-0.00367316976189613,-0.0203432533890009,-0.00343264336697757,-0.0183427110314369,0.0279411282390356,-0.0181521251797676
695,-0.00513633247464895,-0.0197080690413713,-0.0023519906681031,-0.0156203238293529,0.0283138081431389,-0.0131970429793
696,-0.00700291758403182,-0.0190561600029469,-0.00233255187049508,-0.0143007440492511,0.0266490951180458,-0.00980718340724707
697,-0.00853135995566845,-0.0172846950590611,-0.00327667291276157,-0.014107758179307,0.023371996358037,-0.00759998383000493
698,-0.0087386891245842,-0.0136189190670848,-0.00445124879479408,-0.0140044260770082,0.0200180169194937,-0.00566366827115417
699,-0.00791384745389223,-0.00915488228201866,-0.00526560051366687,-0.0134093631058931,0.0174007117748261,-0.00389674818143249
700,-0.00684425979852676,-0.00558908563107252,-0.00535717280581594,-0.0124934101477265,0.0158387273550034,-0.00299409939907491
701,-0.00607865070924163,-0.00410181004554033,-0.00481843436136842,-0.0119664706289768,0.0152960615232587,-0.00406648544594646
702,-0.00594335608184338,-0.00428044516593218,-0.00412106513977051,-0.0119466716423631,0.0155386906117201,-0.00661180540919304
703,-0.00617767218500376,-0.00422529736533761,-0.00349609367549419,-0.0120893521234393,0.017015777528286,-0.00844064261764288
704,-0.00633320957422256,-0.00368225434795022,-0.00265376828610897,-0.0128214880824089,0.0200744364410639,-0.00950966868549585
705,-0.00642242003232241,-0.00391934486106038,-0.001576267182827,-0.0146680232137442,0.0237943846732378,-0.0117309140041471
706,-0.00629134383052588,-0.00507671618834138,-0.00103719637263566,-0.016788000240922,0.0267016850411892,-0.0149772772565484
707,-0.00580131728202105,-0.00658568553626537,-0.00156599178444594,-0.0177799742668867,0.0278065484017134,-0.0172958858311176
708,-0.00572108151391149,-0.00801859982311726,-0.00237050605937839,-0.0172763001173735,0.026957156136632,-0.0172303281724453
709,-0.00669846404343843,-0.00897351652383804,-0.00204725773073733,-0.0159993283450603,0.024879539385438,-0.0150218643248081
710,-0.00850047823041677,-0.00964479614049196,-0.000833957165013999,-0.0152831207960844,0.0222451947629452,-0.0127282561734319
711,-0.0106899095699191,-0.0103442324325442,-0.000178429632796906,-0.0156229753047228,0.0192090310156345,-0.0115923015400767
712,-0.0126972952857614,-0.0107549922540784,-0.000261700100963935,-0.0157295484095812,0.0163663309067488,-0.0105718094855547
713,-0.0137367248535156,-0.0103900609537959,-0.000495948770549148,-0.0145047083497047,0.014656356535852,-0.00857697892934084
714,-0.0138947675004601,-0.00935272965580225,-0.00152887974400073,-0.0133199393749237,0.0139787262305617,-0.00707565993070602
715,-0.0139327421784401,-0.00835827644914389,-0.00412663770839572,-0.01412208750844,0.0136817563325167,-0.00846914481371641
716,-0.0136131476610899,-0.00738896802067757,-0.00713765248656273,-0.0159690678119659,0.0139802545309067,-0.0119274985045195
717,-0.0125658242031932,-0.00603488693013787,-0.00914076250046492,-0.0168611351400614,0.0151807861402631,-0.0149577679112554
718,-0.0112738311290741,-0.00484086340293288,-0.0101055586710572,-0.0166830345988274,0.0168792568147182,-0.0170686934143305
719,-0.00991169176995754,-0.00412979535758495,-0.0104214511811733,-0.0157805364578962,0.0187624599784613,-0.0186284352093935
720,-0.00868895649909973,-0.00392284011468291,-0.0106519237160683,-0.0143968528136611,0.0203718971461058,-0.0197313446551561
721,-0.00792439188808203,-0.00461116852238774,-0.0110439918935299,-0.0134818144142628,0.0211296267807484,-0.0207418501377106
722,-0.00728591112419963,-0.00548756215721369,-0.0109322387725115,-0.0134631618857384,0.021229000762105,-0.0216624550521374
723,-0.00690582673996687,-0.00539971562102437,-0.0100809028372169,-0.0137512162327766,0.0206813272088766,-0.0220303069800138
724,-0.00765427015721798,-0.00472545903176069,-0.00867093820124865,-0.0138699607923627,0.0188957415521145,-0.0214707292616367
725,-0.00960194040089846,-0.00438123336061835,-0.00636245822533965,-0.0138501087203622,0.0160992071032524,-0.0197710990905762
726,-0.012095095589757,-0.00477123539894819,-0.00391511293128133,-0.014360873028636,0.0129297086969018,-0.0179304648190737
727,-0.0145928580313921,-0.00609078351408243,-0.00321925850585103,-0.0159598235040903,0.0097593767568469,-0.0177327878773212
728,-0.0159296691417694,-0.00730138318613172,-0.00383897568099201,-0.0172253176569939,0.00796571280807257,-0.0188398100435734
729,-0.0153591288253665,-0.00650444393977523,-0.00338599039241672,-0.0163388047367334,0.00869553629308939,-0.0192949622869492
730,-0.0139935705810785,-0.00330248032696545,-0.00133071339223534,-0.0138476546853781,0.010429329238832,-0.0182178150862455
731,-0.0131084062159061,0.000777613953687251,0.000432958418969065,-0.0119137363508344,0.0106257032603025,-0.0161618590354919
732,-0.012511215172708,0.00432797241955996,0.000573926896322519,-0.0114124957472086,0.00936673395335674,-0.0132868448272347
733,-0.0115880779922009,0.00679501472041011,4.36140871897805E-05,-0.0111667681485415,0.0087789399549365,-0.00942764803767204
734,-0.0104648573324084,0.00775210419669747,0.000303027860354632,-0.0102766510099173,0.00983463786542416,-0.00578461261466146
735,-0.00952105037868023,0.00716718519106507,0.00113351095933467,-0.00945724919438362,0.0113838203251362,-0.00375121366232634
736,-0.00868096016347408,0.0056452895514667,0.0014765087980777,-0.00950268004089594,0.0117872497066855,-0.00352337909862399
737,-0.00775316869840026,0.00414897734299302,0.00166439136955887,-0.00926970969885588,0.0106636332347989,-0.00397368613630533
738,-0.00735261989757419,0.00265238573774695,0.00222585280425847,-0.00757044740021229,0.00861307885497808,-0.00424458319321275
739,-0.00794876087456942,0.000365072366548702,0.0023545166477561,-0.00524998595938087,0.00667786551639438,-0.00496185012161732
740,-0.00870061106979847,-0.00235811062157154,0.00130708713550121,-0.00355226476676762,0.00559118017554283,-0.00629529450088739
741,-0.00877473503351212,-0.00455053709447384,-0.00047115032793954,-0.00314350775443017,0.00540879368782043,-0.00772395310923457
742,-0.00857980828732252,-0.00601242249831557,-0.00168246170505881,-0.00412282953038812,0.0060177450068295,-0.00937219988554716
743,-0.00841254275292158,-0.00666951527819037,-0.00131123489700258,-0.00525374757125974,0.00717329699546099,-0.0108798444271088
744,-0.00797876343131065,-0.00675880489870906,7.15839778422378E-05,-0.00562745705246925,0.00789858493953943,-0.0111796297132969
745,-0.00774037139490247,-0.00713764410465956,0.00114186259452254,-0.00614294642582536,0.0068260645493865,-0.00989567395299673
746,-0.00808291975408793,-0.0076451194472611,0.00185272702947259,-0.0070457486435771,0.00438222009688616,-0.00744132045656443
747,-0.00837955251336098,-0.00745087722316384,0.00292198429815471,-0.0072503387928009,0.00266990507952869,-0.00453469017520547
748,-0.00835364405065775,-0.00661614304408431,0.00441000191494823,-0.00654018996283412,0.0026747090741992,-0.0024896003305912
749,-0.00850823055952787,-0.00583534315228462,0.00558837782591581,-0.00596025167033076,0.00368110067211092,-0.00295924441888928
750,-0.00864333566278219,-0.00505062658339739,0.00645815068855882,-0.00579412747174501,0.00518461503088474,-0.00565090728923678
751,-0.00822078064084053,-0.00355450250208378,0.00809879414737225,-0.00514456443488598,0.00714342249557376,-0.00803577713668346
752,-0.00801349710673094,-0.00160167855210602,0.0100298142060637,-0.00389341497793794,0.0085329432040453,-0.00836869236081839
753,-0.00854695402085781,0.000230128513067029,0.010989235714078,-0.00225811544805765,0.00860729720443487,-0.00695425784215331
754,-0.00877248123288155,0.00196616188623011,0.011185061186552,-0.000469809805508703,0.00825653038918972,-0.00554943364113569
755,-0.00822653993964195,0.00308301486074924,0.0105246920138597,0.000255439314059913,0.00806444883346558,-0.00619410583749413
756,-0.00757170841097832,0.00307735474780202,0.00858683045953512,-0.000221107024117373,0.00764358509331942,-0.0084944935515523
757,-0.0071373051032424,0.00250631244853139,0.00634521432220936,-0.000323037471389398,0.00712619721889496,-0.0100177163258195
758,-0.00645473878830671,0.00193168048281223,0.00530813913792372,0.000608638511039317,0.00738999294117093,-0.0098442742601037
759,-0.00523100793361664,0.00119977560825646,0.00611282698810101,0.00135329831391573,0.00871592666953802,-0.00927202217280865
760,-0.00426309555768967,0.000431515480158851,0.00812914967536926,0.00077713344944641,0.0103263203054667,-0.00924134626984596
761,-0.00422069383785129,0.000328427326167002,0.0102978311479092,-0.000485570053569973,0.0119582265615463,-0.00910818856209517
762,-0.00478258635848761,0.00120222952682525,0.0122227370738983,-0.000576903694309294,0.014165629632771,-0.00814220402389765
763,-0.00564916338771582,0.00268107908777893,0.0135165005922318,0.00130613648798317,0.0162114184349775,-0.00661700265482068
764,-0.00674431165680289,0.00408021919429302,0.013801222667098,0.00392941199243069,0.0166031159460545,-0.00532956002280116
765,-0.00776070775464177,0.00492019997909665,0.013307330198586,0.0060458742082119,0.0152784883975983,-0.0045837014913559
766,-0.00850784871727228,0.00470970710739493,0.0120569001883268,0.00717574497684836,0.0130967078730464,-0.00404637353494763
767,-0.00875878520309925,0.00316090486012399,0.0101413205265999,0.00741170533001423,0.0108348159119487,-0.00337738078087568
768,-0.00860781595110893,0.000611920200753957,0.00803960021585226,0.00744392350316048,0.00886938069015741,-0.00319159287028015
769,-0.00840623490512371,-0.00213106698356569,0.00624735653400421,0.0076295817270875,0.00763864396139979,-0.00430531008169055
770,-0.00796281453222036,-0.00428670225664973,0.00502568576484919,0.00750534934923053,0.00742932688444853,-0.00652845576405525
771,-0.00677736988291144,-0.00557814072817564,0.00461898418143392,0.00693991640582681,0.00827120337635279,-0.00922250375151634
772,-0.00430536409839988,-0.00563414487987757,0.00553327240049839,0.00697593437507749,0.0107296258211136,-0.0112555678933859
773,-0.00162568723317236,-0.00480944477021694,0.00712411664426327,0.00772977480664849,0.0138655006885529,-0.0117521779611707
774,-0.000957163167186081,-0.00425456557422876,0.00775387696921825,0.00791094265878201,0.0151696316897869,-0.0109441019594669
775,-0.00256354617886245,-0.00399574963375926,0.00676078954711556,0.00747189577668905,0.0139520103111863,-0.00907497107982636
776,-0.00498961703851819,-0.00315658166073263,0.00523446733132005,0.00798878539353609,0.0116300601512194,-0.00590710900723934
777,-0.00680223247036338,-0.00138175417669117,0.00489275855943561,0.0103008821606636,0.0100026298314333,-0.00166216981597245
778,-0.00736339436843991,0.000725744001101702,0.00554313510656357,0.0132875358685851,0.00975678861141205,0.00245273462496698
779,-0.00701679848134518,0.00247329496778548,0.00521030044183135,0.0152906402945518,0.00987292174249887,0.00531164836138487
780,-0.00648689270019531,0.00339481933042407,0.0031258559320122,0.0156404096633196,0.00954440515488386,0.00650071306154132
781,-0.00614910898730159,0.00274623418226838,0.000934079638682306,0.0148722976446152,0.00965684931725264,0.00610267743468285
782,-0.00595946982502937,0.000265531940385699,0.000272008968750015,0.0139825418591499,0.0108420560136437,0.00475353701040149
783,-0.00587156694382429,-0.00327027752064168,0.000367287400877103,0.013364490121603,0.0123108550906181,0.00323980953544378
784,-0.00601991731673479,-0.0068837464787066,-0.000278116960544139,0.012629902921617,0.013451443053782,0.00145354762207717
785,-0.00649812584742904,-0.00966119207441807,-0.00136284157633781,0.0116505809128284,0.0144132012501359,-0.00177200569305569
786,-0.00728926947340369,-0.0109360842034221,-0.00167944212444127,0.0108573921024799,0.0153152532875538,-0.00736791361123323
787,-0.00799340568482876,-0.0108060734346509,-0.000787164899520576,0.0106231374666095,0.0160136930644512,-0.0146840056404471
788,-0.00811276491731405,-0.0100828520953655,0.000498629175126553,0.0108782164752483,0.0162573177367449,-0.0217304732650518
789,-0.00811040494590998,-0.00952313560992479,0.000702598830685019,0.0109270475804806,0.0157490167766809,-0.0271131061017513
790,-0.00872885342687368,-0.00877901911735535,-0.000204393509193324,0.0107330083847046,0.0143162719905376,-0.0300112850964069
791,-0.00994898658245802,-0.0071696937084198,-0.00106217327993363,0.0113489292562008,0.0117812603712082,-0.029440350830555
792,-0.011335326358676,-0.00442337617278099,-0.00137649266980588,0.0129958130419254,0.00850196275860071,-0.0256124082952738
793,-0.0127096092328429,-0.000275555765256286,-0.00123969849664718,0.0146194426342845,0.00527478801086545,-0.0198144875466824
794,-0.0147214690223336,0.00419685104861856,-0.00129623431712389,0.0149713288992643,0.00150003167800605,-0.0140168201178312
795,-0.0176977664232254,0.00681137247011065,-0.00190892338287085,0.0139347398653626,-0.00338131631724536,-0.0100861871615052
796,-0.0206238254904747,0.00686353677883744,-0.00213664537295699,0.0130356885492802,-0.00755709689110518,-0.00820319447666407
797,-0.0223577618598938,0.00519333686679602,-0.000851110729854554,0.0131421517580748,-0.00879100989550352,-0.00808236561715603
798,-0.0226080846041441,0.00259071285836399,0.00136240245774388,0.0126903280615807,-0.00722842663526535,-0.0105191748589277
799,-0.0218854229897261,-0.000603783002588898,0.00250419275835156,0.0099666640162468,-0.00457171723246574,-0.0161307547241449
800,-0.0207753572613001,-0.00376319698989391,0.00186956359539181,0.00575344962999225,-0.00134004454594105,-0.0231290329247713
801,-0.0193982627242804,-0.00623758463189006,0.000280506646959111,0.00190947344526649,0.00267282966524363,-0.028834942728281
802,-0.0183425974100828,-0.00800704583525658,-0.00182607327587903,-0.000773268053308129,0.00620486726984382,-0.0322715118527412
803,-0.0187331736087799,-0.00905922614037991,-0.0046796016395092,-0.00223786127753556,0.00705105112865567,-0.0333193503320217
804,-0.0204520002007484,-0.00944433733820915,-0.00781868398189545,-0.00286196544766426,0.00503792054951191,-0.0322389900684357
805,-0.0221722144633532,-0.009524698369205,-0.0097136814147234,-0.0031694108620286,0.00249199871905148,-0.0298967733979225
806,-0.0232623852789402,-0.0095430975779891,-0.00995094049721956,-0.00370281515643001,0.00096512190066278,-0.0273253154009581
807,-0.0240526888519526,-0.00949701201170683,-0.00992290768772364,-0.00533887138590217,-0.000214349231100641,-0.0256816782057285
808,-0.0249600298702717,-0.00909620430320501,-0.0108245015144348,-0.00794972479343414,-0.00196727318689227,-0.0251047890633345
809,-0.0262588318437338,-0.00810837745666504,-0.0127984452992678,-0.00983746070414782,-0.00422365963459015,-0.0245553366839886
810,-0.0272827260196209,-0.00647020619362593,-0.0148534420877695,-0.00935800839215517,-0.00619696639478207,-0.0231475234031677
811,-0.0275198724120855,-0.00504276202991605,-0.0157092977315187,-0.00679042842239141,-0.00731745222583413,-0.0210272986441851
812,-0.0283479429781437,-0.00551675539463758,-0.0155904078856111,-0.00427081016823649,-0.00818873569369316,-0.0193047728389502
813,-0.0301176309585571,-0.00774635234847665,-0.0154753401875496,-0.00316002266481519,-0.00900864414870739,-0.0182536542415619
814,-0.0311550088226795,-0.010010682977736,-0.0152899967506528,-0.00290925917215645,-0.00869653467088938,-0.0170748233795166
815,-0.0306730400770903,-0.0115404026582837,-0.0140418745577335,-0.00240798108279705,-0.00681236619129777,-0.0151603287085891
816,-0.0297138728201389,-0.0127558344975114,-0.0117383170872927,-0.00137791852466762,-0.00434821704402566,-0.0128711024299264
817,-0.0301953069865704,-0.0144590511918068,-0.0101400092244148,-0.000696923758368939,-0.00270820409059525,-0.0117774019017816
818,-0.0323006808757782,-0.0166045222431421,-0.0102736838161945,-0.00113334017805755,-0.0018972068792209,-0.0127200921997428
819,-0.0340709015727043,-0.0181728042662144,-0.0111915795132518,-0.00227354699745774,-0.000554340134840459,-0.014447326771915
820,-0.0344360172748566,-0.0186594370752573,-0.0117892324924469,-0.00322889047674835,0.00179947924334556,-0.0152052817866206
821,-0.0340254195034504,-0.0184308122843504,-0.0118131367489696,-0.00386070855893195,0.00428121676668525,-0.0147953862324357
822,-0.0336425416171551,-0.0181298367679119,-0.0114123355597258,-0.00462838541716337,0.00571609986945987,-0.0147658195346594
823,-0.0333379469811916,-0.0178667828440666,-0.0107353795319796,-0.00528698088601232,0.00532289780676365,-0.0159125253558159
824,-0.033126924186945,-0.0174968540668488,-0.0103100286796689,-0.0054583577439189,0.00307275447994471,-0.0173108484596014
825,-0.0336509086191654,-0.0172949004918337,-0.011005099862814,-0.00601420504972339,-7.62343988753855E-05,-0.0181585364043713
826,-0.0346278510987759,-0.0166524983942509,-0.0120446402579546,-0.00709644285961986,-0.00196692603640258,-0.0179799161851406
827,-0.034957330673933,-0.0144416131079197,-0.0112978331744671,-0.00714305276051164,-0.00119995861314237,-0.0166149530559778
828,-0.0348010994493961,-0.0114239249378443,-0.00876666139811277,-0.00614891480654478,0.00073898583650589,-0.015598657540977
829,-0.034457441419363,-0.00926556997001171,-0.00665508769452572,-0.00559704611077905,0.00167216325644404,-0.0164848547428846
830,-0.033194363117218,-0.00787155516445637,-0.00628058472648263,-0.0052260491065681,0.00128591596148908,-0.0177523866295815
831,-0.0309331808239222,-0.00651340093463659,-0.00731170596554875,-0.00445975549519062,0.00016043454525061,-0.0169807970523834
832,-0.0286148153245449,-0.00520269386470318,-0.00876159314066172,-0.0040750689804554,-0.00183071207720786,-0.0139326071366668
833,-0.026967778801918,-0.00419594114646316,-0.00978798232972622,-0.00448964256793261,-0.00472297752276063,-0.0102098621428013
834,-0.0256964862346649,-0.00374067737720907,-0.00979549437761307,-0.00513277901336551,-0.00677535496652126,-0.00757700623944402
835,-0.0240777712315321,-0.00356887676753104,-0.00850141141563654,-0.00559134082868695,-0.0063668517395854,-0.00615322450175881
836,-0.0226384047418833,-0.00368463387712836,-0.00724373525008559,-0.00677168788388371,-0.0050199693068862,-0.00526215927675366
837,-0.0223175548017025,-0.00436104228720069,-0.00776068354025483,-0.00934206694364548,-0.00528641138225794,-0.00462336419150233
838,-0.0231165941804647,-0.00530826719477773,-0.00949535146355629,-0.0121638486161828,-0.00740033481270075,-0.00400203140452504
839,-0.0248480588197708,-0.0062407124787569,-0.0111403316259384,-0.0139424148947001,-0.00999598205089569,-0.00344600854441524
840,-0.0270926747471094,-0.00692424178123474,-0.0126202842220664,-0.0143455332145095,-0.0121061839163303,-0.00297390436753631
841,-0.0290158819407225,-0.00727679347619414,-0.014075274579227,-0.013789133168757,-0.0133392354473472,-0.00224093534052372
842,-0.0300549287348986,-0.00747518287971616,-0.0159217175096273,-0.0132758542895317,-0.0136019419878721,-0.00112180062569678
843,-0.0299892015755177,-0.00763520924374461,-0.0188164412975311,-0.0135190403088927,-0.0133216734975576,6.7533808760345E-05
844,-0.0285730678588152,-0.00764950597658753,-0.0214999374002218,-0.014045650139451,-0.0125203961506486,0.00145292293746024
845,-0.0261388439685106,-0.00718171894550323,-0.021829592064023,-0.0137002924457192,-0.0107473619282246,0.0041012610308826
846,-0.0239408370107412,-0.00585662759840488,-0.0198622085154057,-0.0116737280040979,-0.00866950023919344,0.00922184530645609
847,-0.0230056531727314,-0.00340296700596809,-0.0169836636632681,-0.0078442869707942,-0.00746924197301269,0.0172741785645485
848,-0.0234542787075043,-0.000421969598392025,-0.0138111701235175,-0.00319016189314425,-0.00723857805132866,0.0263862777501345
849,-0.0242594331502914,0.00171669549308717,-0.0102222543209791,0.000431031541666016,-0.00683513563126326,0.0326038971543312
850,-0.0235321428626776,0.0025246876757592,-0.00663091987371445,0.00094566447660327,-0.00525228213518858,0.032680980861187
851,-0.020751791074872,0.00219305534847081,-0.00515756662935019,-0.00326854106970131,-0.00346090085804462,0.0256839450448751
852,-0.0175893194973469,0.000453012151410803,-0.00785470195114613,-0.0113776316866279,-0.00321998237632215,0.0138226235285401
853,-0.0156751852482557,-0.00266948691569269,-0.0134787689894438,-0.0199157614260912,-0.00442704884335399,0.0016211875481531
854,-0.0148751940578222,-0.00621880358085036,-0.0180061589926481,-0.0254493001848459,-0.00499223545193672,-0.00691740540787578
855,-0.014886436983943,-0.00961737241595984,-0.0194519590586424,-0.0274014472961426,-0.00417477823793888,-0.0111132459715009
856,-0.016187597066164,-0.0126625504344702,-0.0194381326436996,-0.0276243537664413,-0.00384261924773455,-0.0133193070068955
857,-0.0183668453246355,-0.0145590072497725,-0.0196659155189991,-0.0273857694119215,-0.00526505894958973,-0.015076051466167
858,-0.020313935354352,-0.0149150732904673,-0.0203070994466543,-0.0268667917698622,-0.00770171778276563,-0.0155640840530396
859,-0.0209816880524158,-0.0137199005112052,-0.020406236872077,-0.0255597084760666,-0.00961384922266006,-0.0129383392632008
860,-0.0201220065355301,-0.0115006761625409,-0.0193127188831568,-0.0229715947061777,-0.0103229554370046,-0.00676050968468189
861,-0.0185198895633221,-0.00905999075621367,-0.0177216473966837,-0.0197346545755863,-0.0100539997220039,0.0011528474278748
862,-0.0166041385382414,-0.00587896443903446,-0.0163761712610722,-0.0171289797872305,-0.00906938593834639,0.00853565149009228
863,-0.0145626571029425,-0.00180693611036986,-0.0154031701385975,-0.0159432329237461,-0.00772925699129701,0.0132172079756856
864,-0.0129661215469241,0.00142005039379001,-0.0148000894114375,-0.0160837527364492,-0.00653435569256544,0.0137768909335136
865,-0.0118379592895508,0.002551892073825,-0.0142207760363817,-0.0165867414325476,-0.00569542124867439,0.0113390916958451
866,-0.0105996150523424,0.00253857206553221,-0.0130605809390545,-0.0159661583602428,-0.00514700124040246,0.00948094204068184
867,-0.00940267741680145,0.00226508150808513,-0.0117030087858438,-0.0143182380124927,-0.00546703487634659,0.0103461435064673
868,-0.00862862076610327,0.00120897975284606,-0.0107631413266063,-0.0135967805981636,-0.00693236943334341,0.0122832674533129
869,-0.00803558621555567,-0.00108100357465446,-0.00991004332900047,-0.0150127336382866,-0.00854982063174248,0.0125659219920635
870,-0.0078362850472331,-0.00429864041507244,-0.00948662590235472,-0.018262255936861,-0.00993688218295574,0.00987567752599716
871,-0.00863459706306458,-0.00732861505821347,-0.010071063414216,-0.0221081934869289,-0.0112850992009044,0.00492857443168759
872,-0.0100450227037072,-0.00892735086381435,-0.0106663964688778,-0.0245840549468994,-0.0117456559091806,-6.49440698907711E-05
873,-0.0107079884037375,-0.00883274525403976,-0.0102487048134208,-0.0243791323155165,-0.0107041317969561,-0.00270771654322743
874,-0.00980321317911148,-0.00777574256062508,-0.00915595609694719,-0.0223010610789061,-0.00872456654906273,-0.00186518672853708
875,-0.00813980121165514,-0.00694955512881279,-0.00803269166499376,-0.0198564734309912,-0.00659262994304299,0.00161943980492651
876,-0.00710976123809814,-0.00708079058676958,-0.00697807967662811,-0.017494473606348,-0.00485059572383761,0.00585455074906349
877,-0.00729449419304729,-0.00762770045548677,-0.00593725778162479,-0.0156637020409107,-0.00404394185170531,0.00826192833483219
878,-0.00830716267228127,-0.00773860840126872,-0.00518413726240397,-0.0151035385206342,-0.00477981474250555,0.00712925055995584
879,-0.00919307675212622,-0.0071280999109149,-0.004826579708606,-0.0157175622880459,-0.00686297426000237,0.0034009066876024
880,-0.00926495250314474,-0.00605063233524561,-0.00481706159189343,-0.0169867090880871,-0.00940750166773796,-0.00142996571958065
881,-0.00832345616072416,-0.00508263288065791,-0.00548818288370967,-0.0185516010969877,-0.0117184426635504,-0.00623558461666107
882,-0.006328159943223,-0.00423850584775209,-0.00624860590323806,-0.0198606438934803,-0.0129466569051147,-0.00934778712689877
883,-0.00342294480651617,-0.0030856067314744,-0.00533403502777219,-0.0195799823850393,-0.0120722874999046,-0.0094433194026351
884,-0.000462626514490694,-0.00194492074660957,-0.0027536847628653,-0.0172672104090452,-0.00981131661683321,-0.00707644317299128
885,0.00102875975426286,-0.00167714850977063,-0.000623850617557764,-0.0150290774181485,-0.00868107471615076,-0.00436702044680715
886,0.000373112852685153,-0.00257282145321369,-0.000164483542903326,-0.0150208566337824,-0.0096809109672904,-0.00288517912849784
887,-0.00123813957907259,-0.00422451505437493,-0.00101507687941194,-0.016966799274087,-0.0111388517543674,-0.00310167227871716
888,-0.00184996414463967,-0.00569037208333611,-0.0017454446060583,-0.0188985522836447,-0.010973434895277,-0.00429465901106596
889,-0.00131386064458638,-0.00660322559997439,-0.00151604739949107,-0.0198965221643448,-0.00958908163011074,-0.00520021189004183
890,-0.00112651090603322,-0.00711812684312463,-0.00146798917558044,-0.0205171089619398,-0.00908619072288275,-0.00514296069741249
891,-0.00202167616225779,-0.00641941605135798,-0.00234379339963198,-0.0206783581525087,-0.00991770252585411,-0.00318046822212636
892,-0.00356179545633495,-0.00358354463241994,-0.00322810327634215,-0.0195043962448835,-0.0111030545085669,0.00174440396949649
893,-0.00455163000151515,0.000687997613567859,-0.00285982387140393,-0.0166231524199247,-0.0116097861900926,0.00909730233252048
894,-0.00402620853856206,0.00415537459775805,-0.000973363639786839,-0.0128792328760028,-0.0109143210574985,0.0167784299701452
895,-0.00195620278827846,0.00542971957474947,0.00163637124933302,-0.00960845127701759,-0.00933953188359737,0.0225871950387955
896,0.00107103073969483,0.00503505580127239,0.00422998145222664,-0.00770554319024086,-0.00743877049535513,0.0243355482816696
897,0.00405016215518117,0.00372693012468517,0.00668660830706358,-0.0076489276252687,-0.00557186780497432,0.0206492990255356
898,0.00644481228664517,0.00175923982169479,0.00927906204015017,-0.00900115445256233,-0.00386371300555766,0.0135716684162617
899,0.00800798088312149,-0.00034341067657806,0.0116835003718734,-0.0104323774576187,-0.00265978882089257,0.00703884521499276
900,0.00793871469795704,-0.00207953108474612,0.0127740623429418,-0.0113847143948078,-0.00266963499598205,0.00239977962337434
901,0.0066552278585732,-0.00330970040522516,0.0128826117143035,-0.011612300761044,-0.0032412160653621,-0.000363891012966633
902,0.00595057988539338,-0.00401113647967577,0.014016848988831,-0.0102656288072467,-0.00265212100930512,-0.000277411745628342
903,0.00616084225475788,-0.00490204524248838,0.0163716729730368,-0.00787206180393696,-0.0011958759278059,0.00242486433126032
904,0.00611440651118755,-0.00645263306796551,0.0179853606969118,-0.00616551423445344,-0.000745708704926074,0.00609198911115527
905,0.00522437086328864,-0.00790998339653015,0.0178071111440659,-0.00595231959596276,-0.00190488749649376,0.00921437609940767
906,0.00406139530241489,-0.0083328103646636,0.016412079334259,-0.0069361375644803,-0.00369257037527859,0.0107436059042811
907,0.00302871502935886,-0.00748684164136648,0.0143654644489288,-0.00862434133887291,-0.00552334496751428,0.0105543872341514
908,0.00193873816169798,-0.00605666125193238,0.011880804784596,-0.0108439708128572,-0.00744555192068219,0.0091392220929265
909,0.00136641832068563,-0.0047100237570703,0.00977514963597059,-0.0129833742976189,-0.00846157222986221,0.00711670191958547
910,0.00232813484035432,-0.00359545135870576,0.00903253722935915,-0.0139896739274263,-0.00756009016185999,0.00523408968001604
911,0.00466127879917622,-0.00281691853888333,0.00952006783336401,-0.0135235972702503,-0.00543625792488456,0.00388832134194672
912,0.00727759255096316,-0.00226194667629898,0.0102431587874889,-0.0119420373812318,-0.00324521586298943,0.00324885337613523
913,0.0092038931325078,-0.00195280893240124,0.0104866148903966,-0.0102279121056199,-0.00156196055468172,0.00306898122653365
914,0.00989866349846125,-0.00235800072550774,0.00993958581238985,-0.0096919946372509,-0.000723901845049113,0.00218904577195644
915,0.00949177239090204,-0.00316277123056352,0.0083398325368762,-0.0104157403111458,-0.000741390336770564,0.000105045248346869
916,0.0086405323818326,-0.00347524369135499,0.00610649818554521,-0.0113442745059729,-0.00132921838667244,-0.00246737920679152
917,0.00789684429764748,-0.00344607257284224,0.00462818890810013,-0.0119582321494818,-0.00215128785930574,-0.00484151765704155
918,0.00730490451678634,-0.00333593972027302,0.00488244229927659,-0.0120773492380977,-0.00292725209146738,-0.00610213121399283
919,0.00664984434843063,-0.00260611833073199,0.00644576130434871,-0.0112876249477267,-0.0037284076679498,-0.00493849208578467
920,0.00586296617984772,-0.00152430834714323,0.00799803994596004,-0.0100991753861308,-0.00475640501827002,-0.00136836955789477
921,0.00540719600394368,-0.00112624431494623,0.00881844758987427,-0.00940405111759901,-0.00531387142837048,0.00431302422657609
922,0.00567230815067887,-0.00187618692871183,0.00918576214462519,-0.00915142521262169,-0.00447079725563526,0.012081902474165
923,0.00617835717275739,-0.00380088994279504,0.00922743231058121,-0.00939656514674425,-0.00287961889989674,0.0190747603774071
924,0.00665556266903877,-0.00643308460712433,0.00909944251179695,-0.0104977870360017,-0.0019142945529893,0.0216390769928694
925,0.00735787488520145,-0.0081953126937151,0.00944255292415619,-0.011897231452167,-0.00191046996042132,0.0194003842771053
926,0.00793789979070425,-0.0079270638525486,0.0101073514670134,-0.0127039728686213,-0.00282777193933725,0.014421041123569
927,0.00755578093230724,-0.00648750178515911,0.00989149510860443,-0.0128111727535725,-0.00504704657942057,0.0090998001396656
928,0.00649473303928971,-0.00466311722993851,0.00856397952884436,-0.0122678894549608,-0.00818962603807449,0.00541693763807416
929,0.00606469437479973,-0.00237340526655316,0.0070414524525404,-0.0111913215368986,-0.0107696279883385,0.00404729461297393
930,0.00607635360211134,-0.000946635089349002,0.00578317511826754,-0.0105082085356116,-0.0117595568299294,0.00334631744772196
931,0.0051402454264462,-0.00183185597416013,0.00501766009256244,-0.0104392413049936,-0.0112077528610826,0.00158811500295997
932,0.00328610418364406,-0.00384516338817775,0.00523696187883615,-0.00938602909445763,-0.00952563341706991,3.21093175443821E-05
933,0.00209785345941782,-0.00469989702105522,0.00657467590644956,-0.00629204092547297,-0.00701808324083686,0.000865709560457617
934,0.00217215321026742,-0.00442195544019341,0.00811446271836758,-0.00255068182013929,-0.0042759939096868,0.00329368840903044
935,0.00213453127071261,-0.00486250082030892,0.0088725034147501,-0.000162794865900651,-0.0024749799631536,0.00483112083747983
936,0.00134538265410811,-0.0061980290338397,0.00921694282442331,0.000933511124458164,-0.00225935690104961,0.00498789548873901
937,0.000693449983373284,-0.0071709081530571,0.0093713840469718,0.00172139809001237,-0.00321155763231218,0.00446468824520707
938,0.000562084605917335,-0.00716661801561713,0.00850345008075237,0.00194027321413159,-0.00499466387555003,0.00369653082452714
939,0.000522096117492765,-0.00630353949964046,0.00672917626798153,0.00114067282993346,-0.00721771130338311,0.00397908920422196
940,0.000667732383590192,-0.00453450903296471,0.00536721851676703,0.000283146742731333,-0.00832048058509827,0.00725407293066382
941,0.00135283858980984,-0.00191215134691447,0.00430830614641309,0.000106297004094813,-0.00771564338356256,0.013484438881278
942,0.00195098842959851,0.000356283911969513,0.00205627293325961,-0.000518024433404207,-0.00756969209760427,0.0192596465349197
943,0.00184242788236588,0.00107839703559875,-0.00111057958565652,-0.00242425687611103,-0.00930554885417223,0.0211486835032701
944,0.00147986505180597,0.000286748923826963,-0.00320264673791826,-0.00474373484030366,-0.0114192562177777,0.0188423506915569
945,0.00188266148325056,-0.000876119651366025,-0.0027960604056716,-0.00592455687001348,-0.0118071315810084,0.0143154999241233
946,0.00308391195721924,-0.00139682937879115,-0.000523176218848675,-0.00548518495634198,-0.0104991355910897,0.00998409744352102
947,0.00348027935251594,-0.00161741790361702,0.00129154836758971,-0.00461173104122281,-0.00961634237319231,0.00749009009450674
948,0.00248075486160815,-0.00172926392406225,0.00149345817044377,-0.00385398813523352,-0.0101789189502597,0.00753215933218598
949,0.00169418728910387,-0.00116088753566146,0.000696616712957621,-0.00245974096469581,-0.0109194545075297,0.0099894842132926
950,0.00209721829742193,-0.000169956663739868,-0.00056187150767073,-0.000250358891207725,-0.0111179426312447,0.0140859140083194
951,0.00293313828296959,0.000531857542227954,-0.00203287461772561,0.00191482878290117,-0.0114070568233728,0.0186258424073458
952,0.00359126180410385,0.000792643113527447,-0.00292984931729734,0.00334474467672408,-0.0117069957777858,0.02222197689116
953,0.00460721552371979,0.000966627732850611,-0.00208370084874332,0.00442019011825323,-0.010939315892756,0.0239678490906954
954,0.00678990548476577,0.00208167033270001,0.000870050338562578,0.00603584293276072,-0.00798556953668594,0.0237599685788155
955,0.00986938364803791,0.00490664085373282,0.00505270389840007,0.0083790635690093,-0.00326573359780014,0.0220160465687513
956,0.0126032000407577,0.00863538030534983,0.00891215074807405,0.0101813590154052,0.00074066361412406,0.019042095169425
957,0.0139455553144217,0.011622317135334,0.0109039442613721,0.0101121906191111,0.00173812604043633,0.0150090754032135
958,0.0140964416787028,0.013306119479239,0.011053467169404,0.00908998679369688,-8.68501956574619E-05,0.0110700288787484
959,0.0134568829089403,0.0137424413114786,0.0102222496643662,0.00860327575355768,-0.00290259439498186,0.00829445105046034
960,0.0112188374623656,0.0125301340594888,0.00781178055331111,0.00835203938186169,-0.00604469329118729,0.00667647505179048
961,0.0074301608838141,0.00991787388920784,0.0035019344650209,0.00769792031496763,-0.00945655256509781,0.00630229199305177
