,AF3,AF4,Fp1,Fp2,AF7,AF8
0,0.024955140426755,-0.0757338181138039,-0.00139445415697992,-0.0220505949109793,-0.000130508531583473,-0.0340227670967579
1,0.0263339728116989,-0.0822013393044472,-0.00140585342887789,-0.0294526256620884,0.00606455001980066,-0.0329199470579624
2,0.0204486977308989,-0.0871276184916496,-0.00384143320843577,-0.0325762443244457,0.00447544129565358,-0.0384543687105179
3,0.00744577823206782,-0.090264618396759,-0.00801611412316561,-0.0296912379562855,-0.0090076494961977,-0.0482322685420513
4,-0.00606004102155566,-0.092911995947361,-0.00927032809704542,-0.0224183071404696,-0.0274824146181345,-0.0569199211895466
5,-0.0136318448930979,-0.0974640697240829,-0.00726962834596634,-0.0160941407084465,-0.0402648970484734,-0.0595301762223244
6,-0.0115375686436892,-0.105188339948654,-0.0044851559214294,-0.0108921760693192,-0.0403334125876427,-0.0516617149114609
7,0.00321617024019361,-0.114073015749455,-0.000499356130603701,-0.00359846744686365,-0.0257472600787878,-0.0346629321575165
8,0.0258085578680038,-0.121641762554646,0.00554354581981897,0.00354100530967116,-0.00365403550677001,-0.0183575432747602
9,0.0417735874652863,-0.127153098583221,0.0130666382610798,0.00709868874400854,0.0145776644349098,-0.00850618258118629
10,0.0446367971599102,-0.128373295068741,0.0213256776332855,0.0112840356305242,0.0259456485509872,0.00187596364412457
11,0.0391365513205528,-0.122373886406422,0.0279024839401245,0.0200913548469543,0.0321135073900223,0.0172467119991779
12,0.0314769856631756,-0.109036408364773,0.0297927763313055,0.0288855023682117,0.0329058021306992,0.0287247132509947
13,0.0262539144605398,-0.0927369371056557,0.0269371196627617,0.0324504114687443,0.0289842169731855,0.0278640687465668
14,0.023865669965744,-0.0812831670045853,0.0212800279259682,0.0303685665130615,0.0213419143110514,0.0177074335515499
15,0.0220799148082733,-0.0793577656149864,0.015034157782793,0.0238647423684597,0.0115413358435035,0.00577518157660961
16,0.0206320062279701,-0.0846506953239441,0.0106454771012068,0.0152802634984255,0.00318636768497527,-0.00532528618350625
17,0.0215582735836506,-0.0916429236531258,0.00934491492807865,0.00784230884164572,-0.000804961426183581,-0.0161689296364784
18,0.0250435993075371,-0.0968591719865799,0.00998513400554657,0.00332403066568077,-0.000447789614554495,-0.0238430146127939
19,0.0292882118374109,-0.0993556529283524,0.0114515470340848,0.00223563821054995,0.00316440523602068,-0.02366535179317
20,0.0338494889438152,-0.0990263819694519,0.0138151925057173,0.00463496567681432,0.00877419859170914,-0.017105620354414
21,0.0377790294587612,-0.097842738032341,0.0149298524484038,0.00910534895956516,0.0136485695838928,-0.0120744351297617
22,0.0392795093357563,-0.0985370501875877,0.0112767117097974,0.0136927980929613,0.0148757928982377,-0.0130432983860374
23,0.039378609508276,-0.0998958945274353,0.00562301417812705,0.0178611632436514,0.0135549679398537,-0.013736511580646
24,0.0385942906141281,-0.100399948656559,0.00400093896314502,0.0198957324028015,0.0118524916470051,-0.00780129246413708
25,0.0351734012365341,-0.102629914879799,0.00609362777322531,0.0175472684204578,0.00874566566199064,-0.00117179949302226
26,0.0309729706496,-0.106704741716385,0.00910960044711828,0.0137950759381056,0.00573082314804196,-0.000774233893025666
27,0.0279441233724356,-0.110505558550358,0.0118419323116541,0.0119503252208233,0.00520273903384805,-0.00556993670761585
28,0.0242936592549086,-0.115881204605103,0.0124354222789407,0.00997453834861517,0.00480362912639976,-0.0138218328356743
29,0.019576059654355,-0.124634474515915,0.00921622756868601,0.00552072422578931,0.00174873147625476,-0.0247564166784287
30,0.0163004156202078,-0.133097410202026,0.00342562166042626,-0.000217273598536849,-0.00244917999953032,-0.0336909666657448
31,0.0175721440464258,-0.135774940252304,0.000785279902629554,-0.0024523944593966,-0.00231756130233407,-0.0344217158854008
32,0.0219669342041016,-0.134066015481949,0.00506098847836256,0.00214601051993668,0.00414319289848208,-0.0289950631558895
33,0.023510679602623,-0.134837701916695,0.012373554520309,0.00960265658795834,0.0116326175630093,-0.0262556299567223
34,0.0211701262742281,-0.139333128929138,0.0184168331325054,0.0146110290661454,0.0159831512719393,-0.0279786624014378
35,0.0201363246887922,-0.142749458551407,0.0231690462678671,0.0167028978466988,0.0179723873734474,-0.0266620554029942
36,0.0230010598897934,-0.14227394759655,0.0257955435663462,0.0158938933163881,0.0184479560703039,-0.0184457562863827
37,0.0271093100309372,-0.138888150453568,0.023863285779953,0.0113478377461433,0.0168320257216692,-0.00887383241206408
38,0.0281335078179836,-0.135576695203781,0.0170866698026657,0.00363423814997077,0.012753021903336,-0.00558054400607944
39,0.0252290107309818,-0.133283749222755,0.00964961759746075,-0.00395445246249437,0.00808708183467388,-0.00898653827607632
40,0.0218008458614349,-0.13056269288063,0.00708847446367145,-0.00687096221372485,0.00599622493609786,-0.013035417534411
41,0.0207195840775967,-0.12811005115509,0.0100371204316616,-0.00431539351120591,0.00753666367381811,-0.0134395649656653
42,0.0222168415784836,-0.127587109804153,0.0148393251001835,0.000623742991592735,0.0109136328101158,-0.0110531384125352
43,0.0248632747679949,-0.129030868411064,0.01780054718256,0.00462151458486915,0.0133637236431241,-0.00897324085235596
44,0.0273962244391441,-0.131158649921417,0.0174809042364359,0.00637587439268827,0.0144587717950344,-0.0079449126496911
45,0.0291308723390102,-0.132916152477264,0.0148524139076471,0.00617981795221567,0.0155007699504495,-0.00720129068940878
46,0.0307212956249714,-0.132703632116318,0.0120505606755614,0.00505617493763566,0.0166734736412764,-0.00549015635624528
47,0.0338565967977047,-0.128122314810753,0.0105357496067882,0.00445680459961295,0.017933402210474,-0.000799224129877985
48,0.0377022959291935,-0.12009771168232,0.010491437278688,0.00549797993153334,0.020223518833518,0.00652501778677106
49,0.0389085337519646,-0.11309215426445,0.0114306751638651,0.00804189685732126,0.0231598205864429,0.0135722225531936
50,0.0349207296967506,-0.111785978078842,0.011540399864316,0.00945282075554132,0.0234833154827356,0.0160309094935656
51,0.0285195019096136,-0.116937592625618,0.0101912440732121,0.00849076267331839,0.0203683599829674,0.0115851992741227
52,0.0274141058325768,-0.123173341155052,0.0103930057957768,0.00847123470157385,0.0183813832700253,0.00535841844975948
53,0.0334994569420815,-0.125210732221603,0.0135914711281657,0.011459942907095,0.0207288730889559,0.00428317813202739
54,0.0410909801721573,-0.124176025390625,0.0168599542230368,0.0165509227663279,0.0258262772113085,0.00725142890587449
55,0.0465628132224083,-0.124220587313175,0.0186013765633106,0.0234006084501743,0.0306969080120325,0.0100191868841648
56,0.0490689724683762,-0.12565940618515,0.0211222767829895,0.0305076371878386,0.0333409793674946,0.0145325884222984
57,0.0465702749788761,-0.12635625898838,0.0239380896091461,0.0331095084547997,0.032199464738369,0.0216347668319941
58,0.0387091487646103,-0.125902220606804,0.0217709187418222,0.0272400788962841,0.0266304742544889,0.0230538211762905
59,0.029639296233654,-0.125001803040504,0.0129460711032152,0.014298927038908,0.0191394072026014,0.0138149233534932
60,0.0253548882901669,-0.124756291508675,0.00276870024390519,0.000100490055046976,0.0153270913287997,0.0017926343716681
61,0.0271795522421598,-0.12621220946312,-0.00408936943858862,-0.0110723907127976,0.0167886540293694,-0.00565439043566585
62,0.0283705703914166,-0.130948022007942,-0.00942622404545546,-0.0199212655425072,0.0174276642501354,-0.0128149380907416
63,0.0233470946550369,-0.141435086727142,-0.0166964624077082,-0.0270460024476051,0.0144428825005889,-0.0239524692296982
64,0.016040526330471,-0.153821468353271,-0.0232440643012524,-0.0292973499745131,0.0116847110912204,-0.0307014193385839
65,0.0126112410798669,-0.158129677176476,-0.0223088338971138,-0.0242480933666229,0.0113304937258363,-0.0239618886262178
66,0.0120034394785762,-0.152517825365067,-0.0131283225491643,-0.0130399009212852,0.0130485352128744,-0.00985786598175764
67,0.00934600736945868,-0.144502714276314,-0.00109369959682226,0.00119200756307691,0.0159714575856924,0.000586797657888383
68,0.00458598602563143,-0.139704674482346,0.0109515944495797,0.0146949999034405,0.0189242009073496,0.00837190449237823
69,0.00109604990575463,-0.139743402600288,0.0218784883618355,0.0244830120354891,0.0216947980225086,0.0199039280414581
70,-0.00181291613262147,-0.14624160528183,0.0267566591501236,0.0270764566957951,0.0242320075631142,0.0310739241540432
71,-0.00518487673252821,-0.156889453530312,0.0223530605435371,0.0195269174873829,0.0265849344432354,0.0332621671259403
72,-0.00522125978022814,-0.164381355047226,0.0125319892540574,0.00489777280017734,0.0294541362673044,0.026646489277482
73,-0.000881789019331336,-0.165841266512871,0.00242671463638544,-0.00985826179385185,0.0317762717604637,0.0165260992944241
74,0.00337379658594728,-0.164317682385445,-0.00507015734910965,-0.0202399156987667,0.0318132862448692,0.00752455042675138
75,0.00464729871600866,-0.162702262401581,-0.00751785049214959,-0.0241662207990885,0.03053461574018,0.00343494070693851
76,0.00323130865581334,-0.163309723138809,-0.00523550342768431,-0.0211105644702911,0.0289931818842888,0.00512184342369437
77,0.00054157042177394,-0.164960995316505,-0.00243735150434077,-0.0128867169842124,0.0268349852412939,0.0101842489093542
78,-0.00192641757894307,-0.161325439810753,-0.00373151851817966,-0.00516859767958522,0.0244986489415169,0.0142539916560054
79,-0.00323201855644584,-0.152532666921616,-0.0105755617842078,-0.00524733122438192,0.0231266506016254,0.0124552380293608
80,-0.00312108499929309,-0.147197529673576,-0.0185553953051567,-0.0129088815301657,0.0238513983786106,0.0060241874307394
81,-0.0034409121144563,-0.149004310369492,-0.0213459562510252,-0.019570043310523,0.0256337355822325,0.00282044382765889
82,-0.0065744393505156,-0.153350502252579,-0.0180605091154575,-0.0194369927048683,0.0253975708037615,0.00672001019120216
83,-0.0126208392903209,-0.154084593057632,-0.0122635131701827,-0.0153189171105623,0.0224537551403046,0.0128424018621445
84,-0.0189243536442518,-0.148638784885406,-0.00615866109728813,-0.0125656072050333,0.0194382164627314,0.0157647132873535
85,-0.0222687814384699,-0.140981078147888,-0.0002899055252783,-0.0131861893460155,0.0177160408347845,0.0146124074235559
86,-0.0220584850758314,-0.136958420276642,0.00395498797297478,-0.0152985118329525,0.0155397178605199,0.00961951073259115
87,-0.0206519793719053,-0.138146594166756,0.00516145583242178,-0.0156284254044294,0.0112141473218799,0.00305318296886981
88,-0.0207771323621273,-0.142825156450272,0.00402176845818758,-0.0136610819026828,0.0058080218732357,-0.00134693831205368
89,-0.0223858542740345,-0.148846834897995,0.00216117058880627,-0.0119770253077149,0.00157197250518948,-0.00282412953674793
90,-0.0228991564363241,-0.155833438038826,-0.000952370755840093,-0.0126566495746374,-0.000815970473922789,-0.00209548883140087
91,-0.0190354734659195,-0.162716388702393,-0.00501689547672868,-0.0148369884118438,0.00102027738466859,-0.000777135079260916
92,-0.0100170923396945,-0.167015805840492,-0.00767175713554025,-0.0164640601724386,0.00838234554976225,-0.00276525015942752
93,0.00221115187741816,-0.168225392699242,-0.00808177888393402,-0.0170562043786049,0.0166077930480242,-0.0095212422311306
94,0.0122938035055995,-0.168128371238709,-0.00716438144445419,-0.0181874372065067,0.0208048541098833,-0.0169118940830231
95,0.0111705455929041,-0.169336259365082,-0.00835082307457924,-0.0228040665388107,0.0178336724638939,-0.0210626255720854
96,-0.00294406129978597,-0.169641390442848,-0.0144750140607357,-0.0307718757539988,0.00546383485198021,-0.0219277366995811
97,-0.0196956712752581,-0.161281660199165,-0.0213362704962492,-0.0351436957716942,-0.0116980280727148,-0.0185500774532557
98,-0.026601692661643,-0.141952812671661,-0.020633839070797,-0.0287108812481165,-0.0213313084095716,-0.0098930774256587
99,-0.0225709080696106,-0.121143400669098,-0.0115830944851041,-0.0140863247215748,-0.017756249755621,-0.000797721324488521
100,-0.0160413142293692,-0.109615094959736,-0.00154690910130739,-0.000926678592804819,-0.00676060002297163,0.00420198542997241
101,-0.0108849657699466,-0.10847545415163,0.00504404259845614,0.00478606484830379,0.00611398043110967,0.00785371568053961
102,-0.00788784213364124,-0.116157554090023,0.00721197528764606,0.00309247663244605,0.0167516767978668,0.0112844686955214
103,-0.00773152615875006,-0.131642237305641,0.00559448543936014,-0.00176702509634197,0.0223689042031765,0.0122259557247162
104,-0.00768583407625556,-0.148120686411858,0.00341647281311452,-0.0057865516282618,0.0239806175231934,0.0120543595403433
105,-0.00643447833135724,-0.157935366034508,0.00227989605627954,-0.00987735763192177,0.0227274745702744,0.0114430719986558
106,-0.00581964896991849,-0.159707233309746,0.00171957479324192,-0.0157183837145567,0.0202709119766951,0.00821436196565628
107,-0.00746405078098178,-0.156717449426651,0.00109863886609674,-0.0219485145062208,0.0179658718407154,0.00217071990482509
108,-0.0103901764377952,-0.151775911450386,0.000279514177236706,-0.0253549925982952,0.0158202182501554,-0.00368847558274865
109,-0.0111746834591031,-0.145791873335838,0.000287652219412848,-0.022853234782815,0.015370330773294,-0.00366356293670833
110,-0.00806524977087975,-0.140028789639473,0.00195188506040722,-0.0142809916287661,0.0178631003946066,0.00755680678412318
111,-0.00204553944058716,-0.134790748357773,0.00584951601922512,-0.00227106618694961,0.0229586493223906,0.027015708386898
112,0.00387478014454246,-0.129548668861389,0.011669697239995,0.00812325347214937,0.029776107519865,0.0413312800228596
113,0.00728379283100367,-0.125249430537224,0.0166218224912882,0.0119104646146297,0.0365410782396793,0.0407988876104355
114,0.0092766871675849,-0.122118890285492,0.0178026352077723,0.00984653551131487,0.0412488132715225,0.0302529837936163
115,0.0096687339246273,-0.11922737210989,0.0150201199576259,0.00528075639158487,0.0424857251346111,0.0181636232882738
116,0.00514395209029317,-0.117185518145561,0.00986656825989485,-0.00119309162255377,0.0401039384305477,0.00699980650097132
117,-0.00471430132165551,-0.118409797549248,0.0032885167747736,-0.00931607000529766,0.035484928637743,-0.00256585003808141
118,-0.0136212045326829,-0.123623460531235,-0.00226971483789384,-0.0157473012804985,0.0315974541008472,-0.00779480300843716
119,-0.0157619155943394,-0.129609152674675,-0.0028427760116756,-0.0172879248857498,0.0296807307749987,-0.0070098377764225
120,-0.013103305362165,-0.131884947419167,0.00122478255070746,-0.0150430044159293,0.0281361937522888,-0.00204396736808121
121,-0.0101760989055038,-0.127679333090782,0.00476166512817144,-0.0117665268480778,0.0273179057985544,0.00485848262906075
122,-0.00995673332363367,-0.117918409407139,0.00289604836143553,-0.010038809850812,0.027613990008831,0.00932662934064865
123,-0.0140687115490437,-0.108287528157234,-0.00522493943572044,-0.012875696644187,0.0254091676324606,0.00650733290240169
124,-0.0197615530341864,-0.105410724878311,-0.016669537872076,-0.0200286656618118,0.0177530441433191,-0.000544977723620832
125,-0.0202459432184696,-0.1094920784235,-0.0250188540667295,-0.0251189097762108,0.00936027057468891,-0.00425798771902919
126,-0.0134575115516782,-0.116004385054111,-0.0243796110153198,-0.0224056206643581,0.00803849101066589,-0.00271649868227541
127,-0.00485063344240189,-0.122586205601692,-0.015902753919363,-0.0137944268062711,0.0133882919326425,-0.000518868037033826
128,0.000814743456430733,-0.126565158367157,-0.00522214965894818,-0.00493351649492979,0.0186816900968552,0.000476212590001523
129,0.00207957974635065,-0.125155955553055,0.00180842215195298,-0.000265784066868946,0.0194200780242682,0.00354453618638217
130,-0.000418052426539361,-0.119992353022099,0.00286392285488546,0.000266134447883815,0.0164422560483217,0.010700661689043
131,-0.00189943343866616,-0.113972835242748,0.00325455190613866,0.00260993582196534,0.0160635709762573,0.0207628160715103
132,0.000812448095530272,-0.110161140561104,0.00787749048322439,0.00932774506509304,0.0226661581546068,0.0295735225081444
133,0.0037530935369432,-0.110868133604527,0.0137735307216644,0.0156284738332033,0.03152135014534,0.0331407636404037
134,0.00292012770660222,-0.11370761692524,0.0165504980832338,0.017956979572773,0.0357573553919792,0.0301127806305885
135,-0.0012309035519138,-0.115724757313728,0.0152672883123159,0.0159232057631016,0.0346111841499805,0.0208106003701687
136,-0.00668049091473222,-0.118114292621613,0.010478563606739,0.00997720938175917,0.0312822423875332,0.00921840872615576
137,-0.0105041079223156,-0.121161468327045,0.00380200077779591,0.00374914682470262,0.0284028053283691,0.00213505700230598
138,-0.0105220256373286,-0.121321320533752,-0.00259509100578725,0.00116430362686515,0.0262043103575706,0.00275285425595939
139,-0.00936033576726913,-0.117494568228722,-0.00838496629148722,-0.00102930248249322,0.0227493103593588,0.00804868247359991
140,-0.0107494099065661,-0.111848808825016,-0.013291341252625,-0.00777260819450021,0.0172709934413433,0.0125523777678609
141,-0.0128697846084833,-0.106662578880787,-0.0156733933836222,-0.0145295020192862,0.0121840126812458,0.0128623461350799
142,-0.0110519919544458,-0.104931764304638,-0.0148402387276292,-0.0137904388830066,0.0114925988018513,0.00959351100027561
143,-0.0062275929376483,-0.108311057090759,-0.012343917042017,-0.00780032807961106,0.0163226500153542,0.00490953912958503
144,-0.00391903985291719,-0.114404551684856,-0.00944643653929234,-0.00293465610593557,0.0231544561684132,0.00192193291150033
145,-0.00502865994349122,-0.119069285690784,-0.00495286053046584,0.00107938330620527,0.0280759632587433,0.00358662893995643
146,-0.00626516668125987,-0.119611911475658,0.00186532945372164,0.00699046766385436,0.0300154630094767,0.00862085539847612
147,-0.00578778516501188,-0.115667186677456,0.0096551813185215,0.0133292321115732,0.0305174198001623,0.0135565074160695
148,-0.00401084497570992,-0.110228672623634,0.0153165310621262,0.0156621709465981,0.0298026446253061,0.0149609325453639
149,-0.00369938905350864,-0.108277194201946,0.0147466100752354,0.0112143820151687,0.0241363402456045,0.0110719138756394
150,-0.00687043648213148,-0.109843008220196,0.00740167126059532,0.00251913210377097,0.0121825402602553,0.00553996814414859
151,-0.0105249276384711,-0.108511529862881,-0.000955858500674367,-0.00439136009663343,-0.00019120481738355,0.00406414968892932
152,-0.0123794889077544,-0.103899352252483,-0.00630467990413308,-0.0070896758697927,-0.00804172176867723,0.00505494838580489
153,-0.0121232429519296,-0.102087713778019,-0.00999703351408243,-0.00716105103492737,-0.0105194104835391,0.00395929766818881
154,-0.0081007145345211,-0.103788711130619,-0.0120738781988621,-0.00533400103449821,-0.00793418288230896,0.00295819411985576
155,-0.00206072721630335,-0.105970308184624,-0.0103795873001218,-0.00213214196264744,-0.00274215522222221,0.00488499598577619
156,0.00228662905283272,-0.106196537613869,-0.00342185259796679,0.00170421821530908,0.00329545978456736,0.00914138928055763
157,0.00396590540185571,-0.104365319013596,0.00681941350921988,0.00560794118791819,0.0101182283833623,0.0147480787709355
158,0.00444445898756385,-0.102179683744907,0.0148237124085426,0.00901013426482677,0.0166086256504059,0.0213963463902473
159,0.00328963389620185,-0.1008295789361,0.0155300134792924,0.0106044756248593,0.0189076419919729,0.0264185890555382
160,-0.00135742523707449,-0.1010871976614,0.00892496015876532,0.00960222724825144,0.0151281021535397,0.0253014862537384
161,-0.00545571418479085,-0.101083740592003,0.00142145226709545,0.00821526441723108,0.0105910701677203,0.0210614893585444
162,-0.00429160287603736,-0.0983249098062515,-0.000926198496017605,0.00767068658024073,0.0100729409605265,0.0219220407307148
163,-0.000441981683252379,-0.0947647094726563,0.001345424214378,0.00615128735080361,0.0122712710872293,0.0280419792979956
164,0.00235613621771336,-0.0943993628025055,0.00403104908764362,0.00261434516869485,0.0149790700525045,0.0307520423084497
165,0.00350582483224571,-0.098138727247715,0.00465038465335965,-0.00109443790279329,0.0167154017835855,0.0249552987515926
166,0.00321241258643568,-0.102407082915306,0.004066351801157,-0.00191906571853906,0.0160247944295406,0.0152703141793609
167,0.00310810469090939,-0.101360768079758,0.0050166854634881,0.000979634467512369,0.0140020065009594,0.00994225405156612
168,0.00478864833712578,-0.0910321176052094,0.00860712118446827,0.00571973714977503,0.0129694556817412,0.0150101613253355
169,0.00590059487149119,-0.074117437005043,0.0117329768836498,0.0094647416844964,0.011384941637516,0.0296859983354807
170,0.00343812024220824,-0.0603567622601986,0.0111621087417006,0.0094112940132618,0.00617615692317486,0.0436052829027176
171,0.000249767210334539,-0.057314969599247,0.0098585169762373,0.00593801448121667,0.000298658065730706,0.0468481667339802
172,0.00127307674847543,-0.0649764090776443,0.0129981776699424,0.00386285944841802,-0.000308003218378872,0.041046816855669
173,0.00643345015123487,-0.0793591514229774,0.0195319522172213,0.00642957258969545,0.00529081886634231,0.0345809273421764
174,0.0126227922737598,-0.0948955118656158,0.0233447011560202,0.0104981707409024,0.0130496993660927,0.0304677374660969
175,0.0171684063971043,-0.10680141299963,0.0207696482539177,0.0108000235632062,0.017386531457305,0.0246649067848921
176,0.0198316127061844,-0.111490711569786,0.0147114815190434,0.00774151366204023,0.0163698866963387,0.0156995728611946
177,0.0220800321549177,-0.106986060738564,0.0100322784855962,0.00637666881084442,0.0126457689329982,0.00846235733479261
178,0.0235242284834385,-0.0957499444484711,0.00824847258627415,0.008144935593009,0.00880335550755262,0.00785712711513042
179,0.0226772967725992,-0.0829869657754898,0.00926155876368284,0.0101475231349468,0.00538488244637847,0.0152593478560448
180,0.0202968902885914,-0.0724049881100655,0.0133285690099001,0.0118330828845501,0.00267610349692404,0.0308494940400124
181,0.0196410864591599,-0.0642521232366562,0.0200191996991634,0.0156020298600197,0.00317238597199321,0.0514715388417244
182,0.0204384122043848,-0.0581945404410362,0.0256408303976059,0.0202677864581347,0.00716190924867988,0.0669706538319588
183,0.0181355308741331,-0.0548913478851318,0.0254053045064211,0.0216890834271908,0.0101983323693275,0.0690054148435593
184,0.012923807837069,-0.0544006787240505,0.0199786592274904,0.0198949538171291,0.00935989804565907,0.0585043430328369
185,0.0112403277307749,-0.0572440326213837,0.0145073737949133,0.0174236036837101,0.0065446924418211,0.0411265790462494
186,0.0157338734716177,-0.0642374604940414,0.0104786278679967,0.013312553986907,0.00460962532088161,0.0232097897678614
187,0.0201680641621351,-0.0732358917593956,0.00367865012958646,0.00599151151254773,0.00385135761462152,0.00942310504615307
188,0.016999552026391,-0.0793873742222786,-0.00818698573857546,-0.000711147557012737,0.00206708232872188,2.32417660299689E-05
189,0.00691523402929306,-0.0800913348793983,-0.0206631403416395,-0.000484264717670158,-0.00337201822549105,-0.00558621063828468
190,-0.00171637907624245,-0.0774516612291336,-0.0278298500925303,0.00693780928850174,-0.0113499946892262,-0.0039933635853231
191,-0.00394922541454434,-0.0758747905492783,-0.0297917015850544,0.0147542208433151,-0.0185555592179298,0.00618482287973166
192,-0.00264266785234213,-0.0762878879904747,-0.0306219756603241,0.0176611300557852,-0.0229827500879765,0.0206348281353712
193,-0.00083854963304475,-0.0758461654186249,-0.0310599412769079,0.0153383081778884,-0.022438170388341,0.0334855429828167
194,5.24438146385364E-05,-0.0740946307778358,-0.0307653788477182,0.00730978837236762,-0.0178221445530653,0.0385196395218372
195,-0.00155807298142463,-0.0724910199642181,-0.0319562964141369,-0.00577031075954437,-0.0136791635304689,0.0327994823455811
196,-0.00201289472170174,-0.0711377188563347,-0.0338182635605335,-0.016721323132515,-0.0095069445669651,0.0211260858923197
197,0.00303513556718826,-0.0709766298532486,-0.0325739905238152,-0.0182298701256514,-0.00259044347330928,0.0114900078624487
198,0.00958681013435125,-0.0728714168071747,-0.0284184627234936,-0.0120470551773906,0.00301821017637849,0.00807324517518282
199,0.0127126416191459,-0.0742850825190544,-0.0241648685187101,-0.00455727567896247,0.00282032182440162,0.00934312306344509
200,0.0121770082041621,-0.0723187848925591,-0.0202505458146334,0.00119002582505345,-0.000377057120203972,0.0102383233606815
201,0.0091711999848485,-0.0665149390697479,-0.0170578025281429,0.00475405622273684,-0.00131247332319617,0.00974088814109564
202,0.00606601405888796,-0.058304138481617,-0.0165153257548809,0.00635285954922438,0.000760296476073563,0.0123437251895666
203,0.00554037839174271,-0.0499940365552902,-0.0179879926145077,0.00751989567652345,0.00358540005981922,0.0189421270042658
204,0.00688494509086013,-0.043940968811512,-0.0190749857574701,0.00958117283880711,0.00620603421702981,0.0240111649036407
205,0.00518863601610065,-0.0432828329503536,-0.0206098333001137,0.0107165286317468,0.00633776327595115,0.0218042228370905
206,-0.000487994286231697,-0.0474445372819901,-0.0231440998613834,0.00912646297365427,0.00248430925421417,0.0140737872570753
207,-0.0040545673109591,-0.0503757670521736,-0.0233537312597036,0.00734586222097278,-0.00152703723870218,0.00954845733940601
208,-0.00348542374558747,-0.0501219294965267,-0.0213547442108393,0.00710491929203272,-0.00364009104669094,0.0129496278241277
209,-0.00243875733576715,-0.0500030927360058,-0.0214540082961321,0.00613652821630239,-0.00601868331432343,0.0206533670425415
210,-0.00252166436985135,-0.0498730279505253,-0.0249201264232397,0.00245170085690916,-0.00943536404520273,0.0265278164297342
211,-0.00309392879717052,-0.046487245708704,-0.0286191906780005,-0.00240955082699656,-0.0121656563133001,0.026231000199914
212,-0.00300792045891285,-0.0397153720259666,-0.0282099228352308,-0.00362908747047186,-0.0114718545228243,0.0206435415893793
213,-0.000430072395829484,-0.0318505689501762,-0.0221924632787704,0.00268111005425453,-0.00577140599489212,0.0164859127253294
214,0.0037852474488318,-0.0267039462924004,-0.014443201944232,0.0131466649472713,0.00246476801112294,0.0172132477164268
215,0.00534375198185444,-0.0281039867550135,-0.0107350079342723,0.0190332308411598,0.00797573104500771,0.0196245480328798
216,0.00169619452208281,-0.035619929432869,-0.0126003194600344,0.0161586124449968,0.00786857306957245,0.0193499457091093
217,-0.00742153590545058,-0.0478349812328815,-0.0187662858515978,0.00632322393357754,0.00215022824704647,0.0129508767277002
218,-0.018402598798275,-0.0625484511256218,-0.0266760103404522,-0.00556686194613576,-0.00689291255548596,0.00338774081319571
219,-0.0235862676054239,-0.073837585747242,-0.0317986309528351,-0.0128053603693843,-0.0143117560073733,-0.00204676226712763
220,-0.0214492101222277,-0.0778935924172401,-0.032317440956831,-0.0119172530248761,-0.0163735430687666,-0.00300504663027823
221,-0.0169400088489056,-0.0769542530179024,-0.0303145628422499,-0.00420145317912102,-0.0119784958660603,-0.00254761893302202
222,-0.0117487562820315,-0.0750445649027824,-0.0274261608719826,0.00776344118639827,-0.00212496658787131,0.00311450520530343
223,-0.00558803183957934,-0.0721851959824562,-0.0244346205145121,0.0200421698391438,0.0088135926052928,0.0179345011711121
224,-0.000971708446741104,-0.063860759139061,-0.022969014942646,0.0278953742235899,0.0164518523961306,0.0338797904551029
225,-0.000459525006590411,-0.0494186095893383,-0.0229373667389154,0.0308324936777353,0.0205077566206455,0.0385010465979576
226,-0.00338988588191569,-0.0360356830060482,-0.0209381189197302,0.0314349755644798,0.0234755575656891,0.0301115177571774
227,-0.0072970069013536,-0.0290240608155727,-0.0151558071374893,0.0301513969898224,0.0264625325798988,0.0180811453610659
228,-0.0100356843322515,-0.0261018555611372,-0.0083077447488904,0.0263523235917091,0.0281588304787874,0.0128295244649053
229,-0.0109487548470497,-0.0238257627934217,-0.00356205552816391,0.0202896520495415,0.0273752864450216,0.0158574655652046
230,-0.0121866762638092,-0.023169606924057,-0.00159731972962618,0.0126706222072244,0.0232594888657331,0.0197100639343262
231,-0.0154720945283771,-0.0269649028778076,-0.00155918928794563,0.00574168190360069,0.016685176640749,0.0201969649642706
232,-0.0190166160464287,-0.0364327654242516,-0.00411624042317271,0.000685209291987121,0.0114332139492035,0.0187648832798004
233,-0.0202500112354755,-0.0495511032640934,-0.0114448657259345,-0.00422320794314146,0.0109954755753279,0.014900085516274
234,-0.0175811741501093,-0.0603422932326794,-0.0220561567693949,-0.00905528012663126,0.0160588640719652,0.00790610071271658
235,-0.0103621017187834,-0.0626767799258232,-0.0297991707921028,-0.0102552967146039,0.0246671382337809,0.00151774846017361
236,-0.00215491116978228,-0.0568114221096039,-0.0307137332856655,-0.00602477556094527,0.0331075116991997,0.00119173002894968
237,-0.000760408584028482,-0.0494546703994274,-0.0275892484933138,-0.000332153227645904,0.0370167642831802,0.00832318607717752
238,-0.00730997370555997,-0.0431476049125195,-0.0239449627697468,0.00479068094864488,0.0359079390764236,0.0200534276664257
239,-0.0141740627586842,-0.0337039679288864,-0.01927400380373,0.0128322597593069,0.0343482717871666,0.0310277659446001
240,-0.0155485831201077,-0.0207475386559963,-0.0134418439120054,0.0226518586277962,0.0359521917998791,0.0336912721395493
241,-0.00966200511902571,-0.0110448878258467,-0.0086821224540472,0.0270889587700367,0.0401786342263222,0.0258217453956604
242,0.00195870897732675,-0.0122829172760248,-0.00549943372607231,0.0240952577441931,0.0453245155513287,0.0154419718310237
243,0.0137689299881458,-0.0247809793800116,-0.0019975071772933,0.0188216138631105,0.05166931822896,0.0114425830543041
244,0.0194162987172604,-0.039703868329525,0.00201252172701061,0.016516350209713,0.0578390397131443,0.0154201071709394
245,0.0165994390845299,-0.0475132800638676,0.00471718143671751,0.0195286124944687,0.0605901144444942,0.0239975471049547
246,0.00807658117264509,-0.0459866113960743,0.00531198084354401,0.0259696058928967,0.0606940016150475,0.0315162502229214
247,-0.00254116370342672,-0.0395686477422714,0.00407410273328424,0.0299213379621506,0.0596389770507813,0.0318642631173134
248,-0.0127001293003559,-0.0338945016264915,0.00126387760974467,0.0274419076740742,0.0549070350825787,0.0252607371658087
249,-0.0207083690911531,-0.0325461216270924,-0.00259198457933962,0.0205051451921463,0.0449345968663692,0.0190806500613689
250,-0.0263480637222528,-0.035795122385025,-0.00622994266450405,0.0130288461223245,0.0325497351586819,0.0180876702070236
251,-0.0307779498398304,-0.0413664616644382,-0.00817928556352854,0.00637839734554291,0.0214758086949587,0.0183832459151745
252,-0.0350846834480762,-0.0463856048882008,-0.00938336178660393,2.60807200902491E-06,0.0134717766195536,0.011887033469975
253,-0.0369901545345783,-0.0478698499500752,-0.011720753274858,-0.00510164070874453,0.00948980636894703,-0.00235331780277193
254,-0.0321915522217751,-0.0435762032866478,-0.013182258233428,-0.00567694194614887,0.0114868870005012,-0.0150453513488173
255,-0.020756559446454,-0.0348707176744938,-0.0107686966657639,-0.000615395721979439,0.0204105880111456,-0.0170039627701044
256,-0.00829289946705103,-0.0275860652327538,-0.00608749454841018,0.00597727065905929,0.0321668162941933,-0.00867733918130398
257,-0.000974877213593572,-0.0268120598047972,-0.00391929689794779,0.00915098562836647,0.0393806397914886,0.00238671130500734
258,-0.000908818328753114,-0.0313939303159714,-0.00671825744211674,0.00969467405229807,0.0393337532877922,0.0124224880710244
259,-0.00590438162907958,-0.0360512249171734,-0.0127496216446161,0.0107579370960593,0.0368549786508083,0.0201673712581396
260,-0.0131070138886571,-0.0376570075750351,-0.0194830298423767,0.0111572267487645,0.0365926921367645,0.0198505744338036
261,-0.0199555717408657,-0.0374323092401028,-0.0248953048139811,0.00994108989834785,0.0374635383486748,0.0114939892664552
262,-0.0232639666646719,-0.0388899706304073,-0.0260493215173483,0.010464895516634,0.0367130041122437,0.00519694341346622
263,-0.0213039238005877,-0.0406789667904377,-0.0206664074212313,0.0152274006977677,0.0347801893949509,0.00650278059765697
264,-0.0146824568510056,-0.0354772731661797,-0.0112981470301747,0.0215559266507626,0.0344780050218105,0.0112219927832484
265,-0.00621862430125475,-0.0240581408143044,-0.00513594597578049,0.0234039053320885,0.0364189855754375,0.0126820094883442
266,-0.000561910506803542,-0.0168479308485985,-0.00638750055804849,0.0175190456211567,0.0388667099177837,0.00847245194017887
267,-0.00153225660324097,-0.0190278515219688,-0.0137800229713321,0.00617650244385004,0.0397515147924423,0.00154432910494506
268,-0.00871543865650892,-0.0259705595672131,-0.0236732140183449,-0.00510334176942706,0.0371093340218067,-0.00486906198784709
269,-0.0166633855551481,-0.029414551332593,-0.0293304920196533,-0.0102169532328844,0.0323294028639793,-0.00873304437845945
270,-0.0199744645506144,-0.0264024678617716,-0.0256430730223656,-0.00704376166686416,0.029311390593648,-0.0086141424253583
271,-0.0190705470740795,-0.0220323260873556,-0.016751317307353,1.10286127892323E-05,0.0284983012825251,-0.00587285030633211
272,-0.0180412344634533,-0.0208831503987312,-0.0109991617500782,0.00453532440587878,0.0285549405962229,-0.00283965934067965
273,-0.0179077088832855,-0.0221154671162367,-0.0118422461673617,0.00428429758176208,0.0302437487989664,0.000150528052472509
274,-0.0158564113080502,-0.0234789289534092,-0.0173128396272659,0.00177915499079973,0.0340344794094563,0.0039066500030458
275,-0.0112095037475228,-0.0232611298561096,-0.0240274053066969,0.000600173778366297,0.0382378399372101,0.00916007161140442
276,-0.00782437901943922,-0.0219944231212139,-0.0303885452449322,0.00237185857258737,0.0397155247628689,0.0132724680006504
277,-0.00813988409936428,-0.0238334219902754,-0.0360553152859211,0.00527740363031626,0.0375825054943562,0.0113026648759842
278,-0.00914737861603498,-0.0306007210165262,-0.0411456935107708,0.0058016162365675,0.0341685079038143,0.00314037478528917
279,-0.00762809906154871,-0.0386185757815838,-0.0457089990377426,0.00295040593482554,0.031348142772913,-0.00666387658566237
280,-0.0044177919626236,-0.0434963069856167,-0.0473255887627602,-0.000477906316518784,0.0307624042034149,-0.0131091177463531
281,-0.00322060193866491,-0.0434862822294235,-0.0453355722129345,-0.00220851716585457,0.0320733897387981,-0.0139507185667753
282,-0.00772903813049197,-0.0388455390930176,-0.0437688939273357,-0.00335101364180446,0.0323347300291061,-0.0109880277886987
283,-0.0167427845299244,-0.0310902148485184,-0.0448484718799591,-0.00511825969442725,0.0312668494880199,-0.00686077261343598
284,-0.0245466679334641,-0.0228610280901194,-0.0466651618480682,-0.00675626564770937,0.0302024129778147,-0.00178025325294584
285,-0.0255067609250546,-0.0151044335216284,-0.0454547666013241,-0.00563826644793153,0.0308674667030573,0.00636002002283931
286,-0.0195251610130072,-0.00848258379846811,-0.0402802675962448,-0.000966724008321762,0.0331331603229046,0.0161188691854477
287,-0.0129404626786709,-0.00641258340328932,-0.0354793518781662,0.0034403579775244,0.0321796908974648,0.0220337901264429
288,-0.0109076648950577,-0.0102542228996754,-0.0347080528736115,0.00402918783947825,0.0261724162846804,0.0212573651224375
289,-0.0133036645129323,-0.016666803508997,-0.0374981723725796,0.000475297856610268,0.0194269362837076,0.013810696080327
290,-0.0163021553307772,-0.0214632339775562,-0.041044931858778,-0.00512238638475537,0.0159082654863596,0.0028375806286931
291,-0.0166762638837099,-0.02377306856215,-0.0430392697453499,-0.0101009644567966,0.0160185229033232,-0.00643035536631942
292,-0.0143520310521126,-0.024473749101162,-0.0432157292962074,-0.0128621235489845,0.019641449674964,-0.0107649015262723
293,-0.0118234939873219,-0.0229684598743916,-0.0435068793594837,-0.0130544640123844,0.0247247982770205,-0.00879427697509527
294,-0.0131559083238244,-0.0192503165453672,-0.0472142323851585,-0.0120758172124624,0.0249238610267639,-0.00364052737131715
295,-0.0215221643447876,-0.0160437654703856,-0.0558683089911938,-0.0139469103887677,0.0164684690535069,-0.00322524551302195
296,-0.034313015639782,-0.0149241397157311,-0.0656270831823349,-0.0203617345541716,0.00499867927283049,-0.00860339310020208
297,-0.0444076359272003,-0.015520116314292,-0.0701557919383049,-0.0252926424145699,-0.00103794748429209,-0.0139904273673892
298,-0.0478466041386127,-0.0200252830982208,-0.0688151344656944,-0.0220326166599989,-0.00145507103297859,-0.0180348269641399
299,-0.0437182784080505,-0.0269249565899372,-0.065281979739666,-0.0117186205461621,0.000464683049358428,-0.019707040861249
300,-0.036140438169241,-0.0289046727120876,-0.0636233538389206,-0.00468294601887465,0.00321481679566205,-0.0177630335092545
301,-0.0337902568280697,-0.0252980478107929,-0.0670485720038414,-0.0108253434300423,0.00451886700466275,-0.0159253608435392
302,-0.0362966433167458,-0.0211335085332394,-0.0712126940488815,-0.0253501571714878,0.00604615779593587,-0.0167421232908964
303,-0.033263586461544,-0.0162859857082367,-0.0667787566781044,-0.0336249023675919,0.0153025351464748,-0.0178377795964479
304,-0.0211440715938807,-0.00942601915448904,-0.0528090856969357,-0.0281237047165632,0.0346839986741543,-0.0154390400275588
305,-0.00774269644171,-0.00489152828231454,-0.0378999821841717,-0.014110735617578,0.0557617358863354,-0.00834819301962852
306,0.000151373838889413,-0.00730207003653049,-0.0289783198386431,-0.00234434520825744,0.068930983543396,0.000954700342845172
307,0.00109976821113378,-0.0154152233153582,-0.0261390767991543,0.00101757212541997,0.0708124861121178,0.00777302961796522
308,-0.00383618986234069,-0.0238550025969744,-0.0259541571140289,-0.00178966391831636,0.0632250159978867,0.0081487474963069
309,-0.0111136352643371,-0.0285665020346642,-0.0260321032255888,-0.00503828655928373,0.0513213910162449,0.0029699329752475
310,-0.0168903525918722,-0.0286381933838129,-0.0263570491224527,-0.0055947033688426,0.0407267324626446,-0.00175763515289873
311,-0.0204013213515282,-0.0253285616636276,-0.028316019102931,-0.00510973716154695,0.0340898856520653,-0.0030049595516175
312,-0.0219451002776623,-0.0202360805124044,-0.0316487476229668,-0.00631007226184011,0.0323925912380219,-0.00302126933820546
313,-0.0212452542036772,-0.0138643113896251,-0.0339872762560844,-0.00843312311917543,0.0358324497938156,-0.00360864144749939
314,-0.0188081320375204,-0.0064952690154314,-0.0357191301882267,-0.0100316870957613,0.0407583750784397,-0.00585916824638844
315,-0.0151280025020242,0.0023397752083838,-0.0388110429048538,-0.0109421433880925,0.0419172123074532,-0.00804897770285606
316,-0.0127151720225811,0.012183228507638,-0.0418120324611664,-0.0113167110830545,0.037661224603653,-0.00572870252653956
317,-0.0154430493712425,0.018893338739872,-0.0408034510910511,-0.0103650102391839,0.0314916297793388,0.00200402643531561
318,-0.0233238339424133,0.0173895359039307,-0.0351976938545704,-0.00665210140869021,0.0281873606145382,0.0112064769491553
319,-0.0326556786894798,0.00699481042101979,-0.0299996305257082,-0.00229173619300127,0.0277110747992992,0.0151922013610601
320,-0.0397514961659908,-0.00730819487944245,-0.0292431022971869,-0.00185679050628096,0.0270717162638903,0.00919231958687305
321,-0.0424402840435505,-0.0179972872138023,-0.0303971134126186,-0.00600744597613811,0.0276214461773634,-0.00339071289636195
322,-0.0409816168248653,-0.0212647393345833,-0.0302120018750429,-0.0115546025335789,0.0319046340882778,-0.0137492623180151
323,-0.0377659425139427,-0.0203489270061255,-0.030645702034235,-0.0168411731719971,0.0364553928375244,-0.0173194222152233
324,-0.0351768545806408,-0.0185854751616716,-0.0337548293173313,-0.0209007207304239,0.0353288725018501,-0.0156615860760212
325,-0.0340172685682774,-0.0157795175909996,-0.0367336682975292,-0.0197860598564148,0.0275722853839397,-0.0107353320345283
326,-0.0327910259366035,-0.0121151246130466,-0.0353618748486042,-0.0108976317569613,0.0192693825811148,-0.00401382241398096
327,-0.0307451393455267,-0.00811375491321087,-0.0300731174647808,0.000725488411262631,0.017341461032629,2.78039829026966E-06
328,-0.0281362347304821,-0.0033146555069834,-0.0242317058146,0.00657638441771269,0.0215995907783508,-0.00047049528802745
329,-0.024009233340621,-4.27460472565144E-05,-0.0177923757582903,0.00395684456452727,0.0259707160294056,-0.000357933749910444
330,-0.0188888739794493,-0.00288392626680434,-0.00929685682058334,-0.00314567773602903,0.0269137546420097,0.00236580264754593
331,-0.0154820689931512,-0.0113911787047982,-0.00224146177060902,-0.0102850003167987,0.0261372774839401,0.0039648674428463
332,-0.0158463455736637,-0.019782118499279,-0.00294795795343816,-0.0160641744732857,0.0254398714751005,0.00238836696371436
333,-0.0192257221788168,-0.0224959421902895,-0.0117861144244671,-0.0203001666814089,0.0250532999634743,-0.000884187233168632
334,-0.0218411460518837,-0.0191321037709713,-0.0206638723611832,-0.021398926153779,0.0266547799110413,-0.00498785404488444
335,-0.0201211459934711,-0.0132363447919488,-0.0220777094364166,-0.0173294264823198,0.0318098515272141,-0.0102663328871131
336,-0.0132582131773233,-0.00578015809878707,-0.0168740395456553,-0.00941404886543751,0.0391923934221268,-0.0134756239131093
337,-0.00384260155260563,0.00268307304941118,-0.0114465123042464,-0.00318726501427591,0.0444327853620052,-0.0128481769934297
338,0.00450756633654237,0.00759688578546047,-0.0110914539545774,-0.00270551885478199,0.0431385710835457,-0.0132939694449306
339,0.0112032582983375,0.00577101996168494,-0.0164115466177464,-0.00710987020283937,0.0365298688411713,-0.0165250897407532
340,0.0155212786048651,-0.00128513341769576,-0.0236456394195557,-0.0142254373058677,0.0297254808247089,-0.0176407024264336
341,0.0154883665964007,-0.00870559550821781,-0.0253103971481323,-0.0199027508497238,0.0276462510228157,-0.0129107953980565
342,0.0116337109357119,-0.010346039198339,-0.0162735413759947,-0.0184889547526836,0.0333097949624062,-0.00307145807892084
343,0.00554418424144387,-0.00414595520123839,-0.00105865579098463,-0.00930171832442284,0.0444586202502251,0.00881356559693813
344,-0.00153997493907809,0.00644431309774518,0.0111725404858589,0.0024140584282577,0.0554150193929672,0.0175209976732731
345,-0.00996934529393911,0.0148115204647183,0.013282623142004,0.0083569074049592,0.0597433336079121,0.0162378512322903
346,-0.0194855313748121,0.016431262716651,0.00442903861403465,0.00453127222135663,0.0540411025285721,0.0067480681464076
347,-0.024156242609024,0.0152604477480054,-0.00574667891487479,-0.00140066689345986,0.0450628511607647,0.00103321031201631
348,-0.0188905242830515,0.0167880058288574,-0.00730318995192647,7.74312138673849E-05,0.0417708568274975,0.0019367546774447
349,-0.0063707372173667,0.0203110296279192,-0.00112009840086102,0.00830256938934326,0.0439912527799606,0.00345796416513622
350,0.00708805723115802,0.0233156718313694,0.00681653525680304,0.017219603061676,0.0473800674080849,0.00691704917699099
351,0.0161576382815838,0.0240699630230665,0.0126857152208686,0.0227298978716135,0.0505704842507839,0.0125202732160687
352,0.0194553416222334,0.0220405794680119,0.0151321217417717,0.0244016982614994,0.0539303496479988,0.0146309230476618
353,0.0187016259878874,0.0174980070441961,0.0137428641319275,0.0238112471997738,0.0561855286359787,0.012851893901825
354,0.0141948442906141,0.0114799607545137,0.00920060742646456,0.0212496481835842,0.0555109977722168,0.0116956783458591
355,0.00572848552837968,0.00677754450589418,0.00463975733146071,0.0165439639240503,0.0508974343538284,0.0118306996300817
356,-0.00457076402381063,0.00448059057816863,0.00307695404626429,0.010722110979259,0.0419124476611614,0.00903868768364191
357,-0.0138567639514804,0.00177956989500672,0.0028135038446635,0.00383946904912591,0.0297286882996559,0.000124515776406042
358,-0.0202880408614874,-0.00323859415948391,-8.9530243712943E-05,-0.00410428270697594,0.0174937024712563,-0.012575170956552
359,-0.021421829238534,-0.00696066441014409,-0.00480869598686695,-0.00961547158658504,0.0105479033663869,-0.0216791238635778
360,-0.017549280077219,-0.0052462313324213,-0.00777539098635316,-0.00987302977591753,0.0108155636116862,-0.0222210939973593
361,-0.0139034651219845,0.00154296541586518,-0.00797572825103998,-0.00601379061117768,0.0134325474500656,-0.0159587375819683
362,-0.015132556669414,0.00898920465260744,-0.00604188209399581,3.55693846358918E-05,0.013928946107626,-0.00762621825560927
363,-0.0231647174805403,0.0115806888788939,-0.00406620930880308,0.0049660075455904,0.0107625918462873,-0.00145053991582245
364,-0.0353877618908882,0.00843869242817163,-0.00451260525733233,0.00494099454954267,0.00399667955935001,-0.000307675742078573
365,-0.0446978956460953,0.00393151165917516,-0.0061787236481905,0.000884582754224539,-0.00291094882413745,-0.00343620637431741
366,-0.0450234338641167,0.00382568663917482,-0.00484533980488777,-0.00167445582337677,-0.00445294380187988,-0.00592296477407217
367,-0.0355185382068157,0.0101429177448154,0.000410169799579307,0.00020838734053541,-2.67758969130227E-05,-0.00604344438761473
368,-0.0201499760150909,0.0185542106628418,0.00625161081552505,0.00441153254359961,0.00527774030342698,-0.00647220248356462
369,-0.00570090534165502,0.0216190591454506,0.00857297331094742,0.0068446327932179,0.00721805868670344,-0.00815119221806526
370,0.00138892058748752,0.015286453999579,0.00465207360684872,0.00387833546847105,0.00539056165143847,-0.0112266233190894
371,0.00101791031192988,0.00502939894795418,-0.00260001583956182,-0.00258083269000053,0.00269191642291844,-0.0152501743286848
372,-0.00175828812643886,-0.000142424367368221,-0.00721532898023725,-0.00702279340475798,0.00128004385624081,-0.0185532458126545
373,-0.00257084285840392,0.000889188726432621,-0.00581893930211663,-0.00806018151342869,0.00169050646945834,-0.0207437872886658
374,-0.000159792005433701,0.00203951168805361,0.00168174493592232,-0.00805574655532837,0.00573644414544106,-0.0217973105609417
375,0.00323625816963613,-0.000765579694416374,0.00963685102760792,-0.00931472703814507,0.0129095269367099,-0.0220622010529041
376,0.00533519545570016,-0.00532030360773206,0.0101781543344259,-0.0121612595394254,0.0179402027279139,-0.021767470985651
377,0.00635396875441074,-0.00810213200747967,0.0038419128395617,-0.0132713885977864,0.0172528456896544,-0.0182824227958918
378,0.00699413334950805,-0.00679793674498796,-0.000452924752607942,-0.00834733806550503,0.014134562574327,-0.00963728781789541
379,0.00726682646200061,0.000139644151204266,0.00204275408759713,0.00155421358067542,0.0139518212527037,0.000532272213604301
380,0.00757343322038651,0.00967731885612011,0.00736194849014282,0.0111797247081995,0.0174456294625998,0.00634184991940856
381,0.00809214357286692,0.0155185125768185,0.0106514198705554,0.0159346163272858,0.0213397014886141,0.00514676747843623
382,0.00796375516802073,0.0161165706813335,0.0113871609792113,0.0143318464979529,0.0231403708457947,-0.00122354400809854
383,0.00774450600147247,0.0156550370156765,0.011931006796658,0.0100805489346385,0.023680729791522,-0.00689684087410569
384,0.00986897572875023,0.0175763666629791,0.0142872342839837,0.00832115858793259,0.0247733537107706,-0.00672978954389691
385,0.0139037594199181,0.0206643473356962,0.0173174496740103,0.00835647713392973,0.0262298658490181,-0.0030746350530535
386,0.017158092930913,0.0226341336965561,0.0187447965145111,0.00649759545922279,0.0276832524687052,-0.00114028435200453
387,0.0177872180938721,0.0236555021256208,0.0190452449023724,0.0029313126578927,0.02846460044384,-0.000438561342889443
388,0.0140255242586136,0.023441294208169,0.0185777507722378,-0.000857881444972008,0.0254276972264051,0.00112495082430542
389,0.00715604098513722,0.0211447719484568,0.015641562640667,-0.00473745726048946,0.0173196811228991,0.00193132751155645
390,0.000792641891166568,0.0173230152577162,0.00914500188082457,-0.00920194014906883,0.00750996544957161,-0.000349473644746467
391,-0.00196421588771045,0.0145957991480827,0.00114111450966448,-0.0139289433136582,0.00126834074035287,-0.00475888792425394
392,0.00212256633676589,0.0172660183161497,-0.00310113374143839,-0.016541238874197,0.00192802038509399,-0.00646125478670001
393,0.0126619944348931,0.0243173073977232,-0.000299522653222084,-0.0151870595291257,0.00818376988172531,-0.00307750259526074
394,0.0229679048061371,0.0266588591039181,0.0067171910777688,-0.01053521130234,0.0155397020280361,0.000608072092290968
395,0.0259535573422909,0.0186083540320396,0.0126362163573503,-0.00549492472782731,0.0199548173695803,-9.58958335104398E-05
396,0.021992014721036,0.00520723173394799,0.0160557068884373,-0.00237658503465354,0.0210021771490574,-0.00379370315931737
397,0.015915060415864,-0.00553612783551216,0.0193089041858912,-0.000723264587577432,0.0211171060800552,-0.00751330703496933
398,0.0074679865501821,-0.011361438781023,0.0226928647607565,-0.00018739394727163,0.0209145806729794,-0.011283790692687
399,-0.00599350593984127,-0.0138853332027793,0.0238974094390869,-0.0016881013289094,0.01821000687778,-0.0156323071569204
400,-0.0203865747898817,-0.0128492107614875,0.0226302891969681,-0.00429564621299505,0.0131569458171725,-0.0171609800308943
401,-0.0292273405939341,-0.00796054769307375,0.0205575004220009,-0.00596827920526266,0.0085247615352273,-0.0124477669596672
402,-0.0320341624319553,-0.00162122829351574,0.0182459596544504,-0.00734896678477526,0.00383406132459641,-0.00536993052810431
403,-0.0306743085384369,0.00496147107332945,0.0160956066101789,-0.00963735673576593,-0.00238807406276464,-0.00162788922898471
404,-0.0259111281484365,0.012072941288352,0.0149825867265463,-0.0114086419343948,-0.00813853181898594,-0.000886969268321991
405,-0.020546967163682,0.017990430817008,0.0138432113453746,-0.01171157322824,-0.0120604988187552,-0.0015834872610867
406,-0.01765969209373,0.0209176577627659,0.0105690499767661,-0.011499117128551,-0.0155274970456958,-0.00323842349462211
407,-0.0174729116261005,0.0207332484424114,0.00583068234845996,-0.0113141816109419,-0.0187431089580059,-0.00309608411043882
408,-0.0192810669541359,0.0173800084739923,0.00216565583832562,-0.0120040541514754,-0.0204437095671892,-0.00146114069502801
409,-0.0221525132656097,0.0109765538945794,0.000534959428478032,-0.0149423787370324,-0.0213304031640291,-0.00364678748883307
410,-0.0235426519066095,0.00179590203333646,0.000880195118952543,-0.0193291306495667,-0.0224816501140594,-0.0107021732255816
411,-0.0202312711626291,-0.0089762220159173,0.00440695928409696,-0.0215439982712269,-0.0216723028570414,-0.0168753433972597
412,-0.0108418334275484,-0.0173731688410044,0.012044913135469,-0.018036387860775,-0.0159186292439699,-0.0165553297847509
413,0.00171697908081114,-0.0204691328108311,0.0206140987575054,-0.0102211888879538,-0.00611064676195383,-0.0110973520204425
414,0.0116741759702563,-0.0187698286026716,0.026476601138711,-0.00477293971925974,0.00421071983873844,-0.00530344760045409
415,0.0147058004513383,-0.0134795652702451,0.0295948423445225,-0.00701665878295898,0.0112729333341122,-0.00030955343390815
416,0.00981451105326414,-0.00746430736035109,0.0296681486070156,-0.0160677768290043,0.0108255706727505,0.00247377553023398
417,5.48831885680556E-05,-0.00370050058700144,0.0263137109577656,-0.0255549140274525,0.00189945683814585,1.05789868030115E-05
418,-0.00858921371400356,-0.000687906867824495,0.0218225289136171,-0.0285039413720369,-0.0093368673697114,-0.00604358455166221
419,-0.0111920805647969,0.00368490326218307,0.0191392824053764,-0.0242654271423817,-0.0148528609424829,-0.00955602061003447
420,-0.0064352722838521,0.00653876131400466,0.0193091612309217,-0.0193441081792116,-0.0128027992323041,-0.00726378615945578
421,0.00344135565683246,0.00389074208214879,0.0201781969517469,-0.0196756813675165,-0.00820442009717226,-0.00106905575376004
422,0.0144011778756976,-0.00104980857577175,0.0203330367803574,-0.0233991891145706,-0.00563362240791321,0.00602954579517245
423,0.0230041146278381,-0.00068079202901572,0.0231257323175669,-0.0237144343554974,-0.00389752583578229,0.0117468545213342
424,0.0264658685773611,0.00607827492058277,0.0313148275017738,-0.0168370120227337,-0.000237179163377732,0.0162238609045744
425,0.0232928227633238,0.0140072721987963,0.0422607995569706,-0.00507573550567031,0.00492589548230171,0.02084094658494
426,0.0155408401042223,0.018510015681386,0.0498511679470539,0.00340831349603832,0.00860947649925947,0.0233390908688307
427,0.00575818074867129,0.0170532539486885,0.048059519380331,0.00141511531546712,0.00601292680948973,0.0200557392090559
428,-0.00467239506542683,0.012060628272593,0.0372114516794682,-0.00750218704342842,-0.00440274644643068,0.0131389684975147
429,-0.0124890059232712,0.0102363908663392,0.0252648945897818,-0.0137795535847545,-0.0160000622272491,0.00926252827048302
430,-0.0134787037968636,0.0130743812769651,0.0184876248240471,-0.0140451062470675,-0.0213437229394913,0.0107945529744029
431,-0.00698130019009113,0.0164781268686056,0.0165301207453012,-0.0112401423975825,-0.0202764607965946,0.0128876399248838
432,0.000942410377319902,0.0188060831278563,0.0163933355361223,-0.00747559638693929,-0.0183221157640219,0.0123799741268158
433,0.0037264961283654,0.0213178619742393,0.0168464779853821,-0.00295914500020444,-0.0193037185817957,0.0136492885649204
434,0.0024415492080152,0.0231822524219751,0.018348416313529,0.000702234974596649,-0.0219722464680672,0.0182041395455599
435,0.00296701164916158,0.0233202669769526,0.020980890840292,0.00209073512814939,-0.0233874339610338,0.0213696323335171
436,0.00711543066427112,0.0241531729698181,0.0251977294683456,0.0025781060103327,-0.0216257739812136,0.0231531169265509
437,0.0103764226660132,0.0280622132122517,0.0325033701956272,0.00483481865376234,-0.0157925244420767,0.0291215572506189
438,0.00746094807982445,0.0323499478399754,0.0417177081108093,0.00925557687878609,-0.0080787930637598,0.0390050560235977
439,-0.000376719748601317,0.0334962643682957,0.0494779609143734,0.0153817981481552,-0.00301321852020919,0.0442439951002598
440,-0.00569416116923094,0.0322783291339874,0.0557458437979221,0.0246420353651047,-0.00077902723569423,0.0403743535280228
441,-0.00536865135654807,0.0289940964430571,0.0611693188548088,0.0337367467582226,0.00160958315245807,0.0320138968527317
442,-0.0018180760089308,0.0230361130088568,0.06346096098423,0.0356579832732677,0.00465656025335193,0.0240050926804543
443,0.00238387659192085,0.0161052141338587,0.0613614544272423,0.0295311212539673,0.00653199572116137,0.0166069641709328
444,0.00425287708640099,0.00994152389466763,0.0568633824586868,0.0194445494562387,0.00535832298919559,0.00939307268708944
445,0.00252052582800388,0.00597151694819331,0.0524679571390152,0.00967837031930685,0.000997760682366788,0.0045575425028801
446,-0.0011728776153177,0.00527494540438056,0.0487587116658688,0.00341267115436494,-0.00567594449967146,0.00364441890269518
447,-0.00391502631828189,0.0075876354239881,0.0467072576284409,0.00319506018422544,-0.0116296475753188,0.00603120587766171
448,-0.00327698327600956,0.0127053577452898,0.0480551458895206,0.00966446008533239,-0.0119771584868431,0.0120337354019284
449,-0.000359187019057572,0.0192811712622643,0.049403116106987,0.016814548522234,-0.00791898928582668,0.0204551592469215
450,0.00193357502575964,0.0233848355710506,0.044947661459446,0.0169561114162207,-0.00697954697534442,0.0273671373724937
451,0.00219038804061711,0.0230666007846594,0.0358215980231762,0.0106442309916019,-0.0128479674458504,0.0319882370531559
452,0.000855520542245358,0.0215064622461796,0.0293408278375864,0.00489669805392623,-0.0207755453884602,0.0364228338003159
453,-0.000488576770294458,0.0214083921164274,0.0307752173393965,0.00522792711853981,-0.0239847358316183,0.0388590954244137
454,-0.000473468826385215,0.022352147847414,0.0388143807649612,0.0105400746688247,-0.0214368961751461,0.0357342399656773
455,-0.000173748441739008,0.023147352039814,0.0463891215622425,0.0129273179918528,-0.0190373789519072,0.0266801118850708
456,-0.00153808889444917,0.0219870638102293,0.0483701080083847,0.00803052261471748,-0.0220647752285004,0.0147611731663346
457,-0.00402387557551265,0.0190637372434139,0.0462504923343658,0.00098890601657331,-0.0285690315067768,0.00544088799506426
458,-0.00655590929090977,0.0173678454011679,0.041636485606432,-0.00294156465679407,-0.0350400879979134,0.0023818917106837
459,-0.00700198672711849,0.0178815517574549,0.0362895838916302,-0.00242605712264776,-0.03943782299757,0.0050322306342423
460,-0.00331559218466282,0.0182826090604067,0.0343735255300999,0.00136102992109954,-0.0396901406347752,0.00902056880295277
461,0.000860703934449703,0.0170228518545628,0.0357880927622318,0.0042172665707767,-0.0366540960967541,0.0098006222397089
462,0.000524787232279778,0.0161098800599575,0.0366630591452122,0.0035129024181515,-0.0329887606203556,0.00801895651966333
463,-0.00287049822509289,0.017992565408349,0.0365312397480011,0.00163089740090072,-0.0290054716169834,0.0068229716271162
464,-0.0037050845567137,0.0213420651853085,0.0378556288778782,0.00256147072650492,-0.0222388505935669,0.00783543009310961
465,0.000410700013162568,0.0222391784191132,0.0412445552647114,0.00629856484010816,-0.0121781500056386,0.0113991294056177
466,0.00740999635308981,0.01975978910923,0.0452370755374432,0.00926304794847965,-0.00337971257977188,0.0162209831178188
467,0.0144089935347438,0.0186453759670258,0.0496017262339592,0.0112716825678945,0.000186153483809903,0.0198758579790592
468,0.0186826176941395,0.0232913848012686,0.0545275807380676,0.0144716184586287,-0.00166765495669097,0.0205537099391222
469,0.0194613970816135,0.0315271429717541,0.0589620359241962,0.0180234890431166,-0.00642642518505454,0.0198033135384321
470,0.0186887979507446,0.0361258573830128,0.0610417425632477,0.0205219723284245,-0.0112927909940481,0.0212457235902548
471,0.0188761930912733,0.0341646037995815,0.0589557439088821,0.0232068300247192,-0.0156426839530468,0.0258879736065865
472,0.0208768956363201,0.0306981727480888,0.0541899688541889,0.027149323374033,-0.0178418066352606,0.0300961714237928
473,0.0224976167082787,0.0290899313986301,0.0507800281047821,0.0282461233437061,-0.0155956940725446,0.0280054528266191
474,0.0238618440926075,0.0280169118195772,0.0517721548676491,0.0226276237517595,-0.00891343504190445,0.0190540980547667
475,0.027937201783061,0.0256764348596334,0.0562674403190613,0.0140039483085275,-0.000650127301923931,0.00893834978342056
476,0.0335485860705376,0.0214675329625607,0.059881079941988,0.00810412876307964,0.00419215811416507,0.00330783263780177
477,0.0369645468890667,0.0178795792162418,0.0608644373714924,0.00640637613832951,0.00376695604063571,0.00495990691706538
478,0.0373652242124081,0.0180630311369896,0.0609354935586452,0.00718059111386538,0.00155676854774356,0.013041403144598
479,0.0360058546066284,0.0228364057838917,0.0601634718477726,0.00906407367438078,0.000227434517000802,0.0234833285212517
480,0.0325829386711121,0.0310057532042265,0.056447334587574,0.0118214301764965,-0.000918480101972818,0.0306450668722391
481,0.0270025637000799,0.0390136316418648,0.0500758178532124,0.0142897432669997,-0.00265170400962234,0.0303658097982407
482,0.0240853577852249,0.0429455116391182,0.0443055741488934,0.0153233045712113,-0.00518060149624944,0.0234277416020632
483,0.0302466340363026,0.0423125773668289,0.0412938483059406,0.0154512776061893,-0.00622721202671528,0.0143786538392305
484,0.0428695492446423,0.0389318205416203,0.0413213670253754,0.0159980729222298,-0.00148292619269341,0.00711100688204169
485,0.0506740473210812,0.0341131649911404,0.0457187294960022,0.0188789889216423,0.0090562840923667,0.00426466343924403
486,0.0485648140311241,0.030779154971242,0.0553099699318409,0.0247790329158306,0.0202816873788834,0.00781915709376335
487,0.0428864322602749,0.0324908196926117,0.0664215013384819,0.0306703224778175,0.0255369953811169,0.0160431582480669
488,0.0385427549481392,0.0355932414531708,0.0727171078324318,0.0329415500164032,0.0200954861938953,0.0230126027017832
489,0.033886581659317,0.0335739888250828,0.0714022740721703,0.0323572792112827,0.00741826230660081,0.0245187785476446
490,0.0285245440900326,0.028260376304388,0.0657408535480499,0.0322025902569294,-0.00277977087534964,0.0220022927969694
491,0.023759039118886,0.0250849146395922,0.0594512224197388,0.0330159701406956,-0.00678725354373455,0.0184752997010946
492,0.0216061472892761,0.0265112519264221,0.0547736175358295,0.0348728708922863,-0.00667448295280337,0.0170918107032776
493,0.0252625122666359,0.032979391515255,0.0541256070137024,0.0389752313494682,-0.00256509403698146,0.0205280184745789
494,0.0325215756893158,0.0395047068595886,0.0547196790575981,0.0412449650466442,0.00242880848236382,0.0249729733914137
495,0.0374281853437424,0.0392308235168457,0.050988744944334,0.0368141680955887,0.00326106720604002,0.0252892132848501
496,0.0408920161426067,0.0363132394850254,0.0454887636005878,0.0316405296325684,0.00322012440301478,0.0245345775038004
497,0.0456292852759361,0.037618413567543,0.0434907861053944,0.0329897664487362,0.00564601831138134,0.0254678800702095
498,0.0486711673438549,0.037623692303896,0.0431345552206039,0.0364633277058601,0.00555427046492696,0.0249240417033434
499,0.0497757606208324,0.0300207529217005,0.0434409976005554,0.0368272699415684,0.00152235594578087,0.0238262936472893
500,0.0512273944914341,0.0182285737246275,0.0465690679848194,0.0356130972504616,-0.00283336802385747,0.0240765828639269
501,0.051539309322834,0.00955386552959681,0.0491374544799328,0.0349493362009525,-0.00715890247374773,0.0221959222108126
502,0.0506598055362701,0.00959041528403759,0.0470175556838512,0.0357027389109135,-0.010050630196929,0.0185102690011263
503,0.0496046878397465,0.0158473122864962,0.0401242300868034,0.0346383191645145,-0.00918680243194103,0.0152661176398396
504,0.0464420840144157,0.0193485785275698,0.029714897274971,0.0269812401384115,-0.00673408526927233,0.00933517515659332
505,0.0403655655682087,0.0177601389586926,0.0195347052067518,0.0160218141973019,-0.00588652398437262,0.000529865967109799
506,0.0329376123845577,0.0157455392181873,0.0127052236348391,0.00793529953807592,-0.00880796555429697,-0.00649736309424043
507,0.0251832567155361,0.0127712078392506,0.007449253462255,0.00146606704220176,-0.0159510504454374,-0.010705504566431
508,0.0193289034068584,0.00733523536473513,0.00325099308975041,-0.00442354893311858,-0.0203521866351366,-0.0109808752313256
509,0.0183011293411255,0.00448111817240715,0.00424877507612109,-0.00327379256486893,-0.0135744269937277,-0.00384314730763435
510,0.0208844318985939,0.00680255377665162,0.0117007037624717,0.00733782118186355,-0.000181827883352526,0.00761700142174959
511,0.0231989473104477,0.0109908897429705,0.0200279764831066,0.0189067199826241,0.00638162391260266,0.0151285100728273
512,0.0236102789640427,0.0147697245702147,0.0227672010660172,0.0233215410262346,0.000262016576016322,0.0157046895474195
513,0.0236971210688353,0.0188076831400394,0.0193670466542244,0.0213993657380342,-0.0124536715447903,0.0136468661949039
514,0.0235120821744204,0.0212017763406038,0.0127294426783919,0.017143152654171,-0.0239413883537054,0.0108255883678794
515,0.0222697537392378,0.0194137915968895,0.00609679985791445,0.0144981173798442,-0.0303176194429398,0.00557956704869866
516,0.0220421906560659,0.0161380935460329,0.00219234614633024,0.0163909941911697,-0.030996548011899,-0.000696437025908381
517,0.0221673380583525,0.0132889933884144,-0.000584739434998482,0.0192661806941032,-0.0301315970718861,-0.00728718331083655
518,0.0188493989408016,0.00805037654936314,-0.00642419559881091,0.0175652485340834,-0.0331778042018414,-0.0153660988435149
519,0.0134758930653334,0.000203370189410634,-0.0145580619573593,0.0127279013395309,-0.0387822240591049,-0.0210204180330038
520,0.0123024331405759,-0.00562479207292199,-0.0187021158635616,0.00954942405223846,-0.0395187698304653,-0.0180252846330404
521,0.0180905126035213,-0.00658929022029042,-0.016034658998251,0.00873634126037359,-0.0328912995755672,-0.00817639380693436
522,0.0285740159451962,-0.00240805954672396,-0.00907251704484224,0.00991302728652954,-0.0237141028046608,0.00162599992472678
523,0.038047980517149,0.00499480357393622,-0.00116037577390671,0.0132416421547532,-0.0177211724221706,0.0070159463211894
524,0.040386538952589,0.0107425069436431,0.0046069547533989,0.0169158037751913,-0.0170034784823656,0.00815169233828783
525,0.0362221598625183,0.0120576731860638,0.00730811012908816,0.019801139831543,-0.0203901585191488,0.00814949441701174
526,0.0305523965507746,0.0104853259399533,0.00814321450889111,0.0217692423611879,-0.0272081512957811,0.00680133560672402
527,0.0242507867515087,0.00847981031984091,0.0075215115211904,0.0218479465693235,-0.036442968994379,0.000563041714485735
528,0.0158078018575907,0.00746715813875198,0.00518800877034664,0.0186868365854025,-0.0449819080531597,-0.00945786666125059
529,0.00834434013813734,0.00753186969086528,0.00127761682961136,0.0120841357856989,-0.0504056513309479,-0.0159396678209305
530,0.00661710649728775,0.00865497067570686,-0.00266044796444476,0.00518850330263376,-0.0521565824747086,-0.0144188450649381
531,0.00994430016726255,0.013117159716785,-0.00260566151700914,0.0031992660369724,-0.0486891381442547,-0.00705864001065493
532,0.013420564122498,0.0195416193455458,0.00204860628582537,0.0064158458262682,-0.0405983813107014,0.000239987988607027
533,0.0139106353744864,0.0208315122872591,0.00620278809219599,0.00866242498159409,-0.0329586528241634,-0.000702555582392961
534,0.0127401296049356,0.0138084357604384,0.00676503125578165,0.00566232623532414,-0.0290017761290073,-0.012749781832099
535,0.012902470305562,0.00215781596489251,0.00554047198966146,0.00125376449432224,-0.0282956473529339,-0.0268290769308805
536,0.0152480220422149,-0.00891007017344236,0.00591189600527287,0.00274469750002027,-0.0289484895765781,-0.0309214647859335
537,0.0168940518051386,-0.0158155169337988,0.0077421017922461,0.0096024526283145,-0.0296996030956507,-0.0257079470902681
538,0.0172368567436934,-0.013951638713479,0.00991017464548349,0.0155897904187441,-0.0287944786250591,-0.0191164370626211
539,0.0193213056772947,-0.0026897934731096,0.0137927569448948,0.0186633970588446,-0.0254630800336599,-0.013142054900527
540,0.0225362963974476,0.00955507252365351,0.0180007759481668,0.0192902963608503,-0.0239028166979551,-0.00795262306928635
541,0.0240664519369602,0.0161930490285158,0.0192777290940285,0.0171378292143345,-0.0276770889759064,-0.0047720056027174
542,0.0232795029878616,0.0172470305114985,0.0165873952209949,0.0118476180359721,-0.0362960174679756,-0.00411653192713857
543,0.0226996280252934,0.0162006746977568,0.0132204098626971,0.00660673622041941,-0.0439272150397301,-0.00485082343220711
544,0.0240856371819973,0.0174910929054022,0.013671251013875,0.00703201442956924,-0.0433446615934372,-0.00434662448242307
545,0.0253647025674582,0.0200809575617313,0.0159378554672003,0.0127206277102232,-0.036989402025938,-0.00119864731095731
546,0.0257255900651217,0.0194230489432812,0.0154736591503024,0.0174590889364481,-0.0325296483933926,0.00376195181161165
547,0.0257209036499262,0.0148078426718712,0.0121231684461236,0.0169534124433994,-0.0312838554382324,0.00553762866184115
548,0.0248560290783644,0.0101070236414671,0.00970978569239378,0.0136575382202864,-0.0287593621760607,0.000760689203161746
549,0.0233878679573536,0.00937397126108408,0.0115896509960294,0.0134518044069409,-0.0236646868288517,-0.00598880369216204
550,0.0219632182270288,0.012075568549335,0.0168189853429794,0.0172528028488159,-0.0198504701256752,-0.00999144371598959
551,0.0211718492209911,0.0148732783272862,0.0226816684007645,0.0206042528152466,-0.0189087837934494,-0.0118307368829846
552,0.02001185528934,0.0148992892354727,0.0253148637712002,0.0196138247847557,-0.0201691295951605,-0.0144076300784945
553,0.0158541984856129,0.0116613768041134,0.0214999727904797,0.0148997381329536,-0.023030761629343,-0.0185597334057093
554,0.0079262824729085,0.00685748364776373,0.0138101214542985,0.0101564470678568,-0.0252762604504824,-0.0230602845549583
555,-0.00106963596772403,0.00220623472705483,0.00820206571370363,0.00880824401974678,-0.0252127405256033,-0.0258902870118618
556,-0.00746829574927688,0.000572051561903208,0.00594838568940759,0.0115836253389716,-0.0244000889360905,-0.024481575936079
557,-0.0103285228833556,0.00459642987698317,0.00316745438612998,0.0176675524562597,-0.0246687941253185,-0.0195447150617838
558,-0.00903378892689943,0.0126584023237228,-0.000408116902690381,0.0265593808144331,-0.0240003596991301,-0.0140014877542853
559,-0.00178743188735098,0.019714156165719,-0.00219137943349779,0.0326170548796654,-0.0218034628778696,-0.00806399807333946
560,0.00953046884387732,0.0211850833147764,-0.00407523242756724,0.0277674533426762,-0.0222285129129887,-0.00116882764268667
561,0.0185474306344986,0.0157055035233498,-0.00849897135049105,0.0142449978739023,-0.0262840464711189,0.0039576762355864
562,0.0191872846335173,0.00575414299964905,-0.0132957492023706,0.00252175191417336,-0.0311372708529234,0.00400358950719237
563,0.00991575792431831,-0.00526213785633445,-0.0160421803593636,-0.00232858140952885,-0.0363809652626514,-0.00198956462554634
564,-0.00416498864069581,-0.0140934642404318,-0.0172226317226887,-0.00250142370350659,-0.0425624698400497,-0.0115527473390102
565,-0.0153810791671276,-0.0171580631285906,-0.0177554544061422,-0.000245867820922285,-0.0477940291166306,-0.0182762537151575
566,-0.0192793905735016,-0.0134631423279643,-0.0173451658338308,0.0036186610814184,-0.0486997179687023,-0.0183235667645931
567,-0.0161575004458427,-0.00526123447343707,-0.0157541427761316,0.00760230189189315,-0.0439562872052193,-0.0144995115697384
568,-0.0111427204683423,0.00347251747734845,-0.0135411862283945,0.00968232844024897,-0.0366707146167755,-0.011347440071404
569,-0.00883154477924109,0.00976986810564995,-0.0107603194192052,0.0098992008715868,-0.0303167458623648,-0.0105311293154955
570,-0.00757759995758533,0.0144998142495751,-0.00689811538904905,0.0114815989509225,-0.0245834849774837,-0.00957843754440546
571,-0.00494934618473053,0.0175564847886562,-0.00362054514698684,0.0146465050056577,-0.0196259878575802,-0.00621246080845594
572,-0.00207208865322173,0.0166628714650869,-0.00278140371665359,0.0153938643634319,-0.0174716487526894,-0.00234471377916634
573,-0.000938071287237108,0.0128940101712942,-0.00338174379430711,0.0126576442271471,-0.0183879863470793,-0.00127649609930813
574,-0.001992053585127,0.0107805952429771,-0.00358560564927757,0.0100393556058407,-0.0205836817622185,-0.00166623480618
575,-0.00452004186809063,0.0140977846458554,-0.0034350089263171,0.0104455053806305,-0.0227314755320549,0.00101511541288346
576,-0.00911957956850529,0.0214623082429171,-0.00590272527188063,0.0111277494579554,-0.0260155256837606,0.00544922240078449
577,-0.0149094732478261,0.0273423083126545,-0.0122319255024195,0.00799339730292559,-0.0299477968364954,0.00586830638349056
578,-0.0180197544395924,0.0273091550916433,-0.0193462241441011,0.00131104083266109,-0.0310547165572643,-0.000201342947548255
579,-0.0150070525705814,0.0206094887107611,-0.0239437483251095,-0.00565630802884698,-0.0284393094480038,-0.0113929379731417
580,-0.00553459348157048,0.00863840989768505,-0.0252652056515217,-0.0096037220209837,-0.0240546241402626,-0.0246232394129038
581,0.00658174557611346,-0.00620250077918172,-0.025189746171236,-0.0090160071849823,-0.020049536600709,-0.0349660292267799
582,0.0163471791893244,-0.0198912937194109,-0.0272581819444895,-0.00554078025743365,-0.0186576824635267,-0.0382773876190186
583,0.0195301491767168,-0.0273946467787027,-0.0333346463739872,-0.00286848330870271,-0.0211130790412426,-0.0353306904435158
584,0.0149407396093011,-0.025256235152483,-0.040276076644659,-0.00262234755791724,-0.0255437735468149,-0.0298122931271791
585,0.00807571224868298,-0.0156766697764397,-0.0438672937452793,-0.00341038359329104,-0.0287722367793322,-0.0237976871430874
586,0.00430497713387012,-0.00653116218745708,-0.0443790070712566,-0.00446560839191079,-0.0304597299546003,-0.0182186234742403
587,0.00346248806454241,-0.0025460256729275,-0.0426726527512074,-0.00500311888754368,-0.0296345036476851,-0.0132676167413592
588,0.00451805582270026,-0.0005746406968683,-0.0374649688601494,-0.00350871658883989,-0.0236416272819042,-0.00813006423413754
589,0.00609365943819284,0.00342033244669437,-0.0293778739869595,-0.00117654562927783,-0.0146257597953081,-0.00297596957534552
590,0.00374580989591777,0.00768502289429307,-0.0239406954497099,-0.00140141777228564,-0.0107972556725144,0.000314154458465055
591,-0.00569406896829605,0.00832385011017323,-0.0266380906105042,-0.00498783541843295,-0.0187499988824129,0.000697291630785912
592,-0.0175965931266546,0.00597975077107549,-0.0333343036472797,-0.00823592208325863,-0.0337752141058445,-0.000509748060721904
593,-0.0243155751377344,0.00324598466977477,-0.0344907753169537,-0.00790612585842609,-0.0448161028325558,-0.00288617121987045
594,-0.0253589786589146,-0.000665284926071763,-0.0287756770849228,-0.00537737552076578,-0.0483213514089584,-0.00965004600584507
595,-0.0257095266133547,-0.0084778368473053,-0.024619348347187,-0.00404638005420566,-0.0483980588614941,-0.0228758100420237
596,-0.0271966084837914,-0.0204745922237635,-0.0289967563003302,-0.0049848803319037,-0.0486110299825668,-0.0357103832066059
597,-0.0278988927602768,-0.0306800715625286,-0.0389856994152069,-0.0055612176656723,-0.0500364974141121,-0.0392042696475983
598,-0.0258090402930975,-0.0291413702070713,-0.0461577922105789,-0.00235417182557285,-0.051203478127718,-0.0337010808289051
599,-0.0211959630250931,-0.0158180631697178,-0.0470941215753555,0.00212833727709949,-0.050691295415163,-0.0274922586977482
600,-0.0170718654990196,-0.00289094471372664,-0.0443578697741032,0.0007982820388861,-0.0501263551414013,-0.028623603284359
601,-0.0162540283054113,0.00101391330827028,-0.0407222211360931,-0.0081392815336585,-0.0500349476933479,-0.0361975058913231
602,-0.0172411985695362,-0.00332682905718684,-0.0378045961260796,-0.0185625106096268,-0.0482079647481442,-0.0417992956936359
603,-0.0156791899353266,-0.011107549071312,-0.0356485657393932,-0.0230321027338505,-0.0438129007816315,-0.039970837533474
604,-0.0105184558779001,-0.0165956076234579,-0.031394686549902,-0.0193580575287342,-0.0364457294344902,-0.0329860746860504
605,-0.00510887755081058,-0.0177969709038734,-0.0234284810721874,-0.0116614894941449,-0.0256736148148775,-0.0280566290020943
606,-0.00164328108076006,-0.0173651371151209,-0.0154748568311334,-0.00577168399468064,-0.0140991797670722,-0.0297563932836056
607,0.000284995330730453,-0.0165869612246752,-0.0124374032020569,-0.00453474512323737,-0.00621591415256262,-0.037116251885891
608,-0.000368688313756138,-0.0154145564883947,-0.0153395123779774,-0.00724215945228934,-0.00534242205321789,-0.0487375520169735
609,-0.0030273471493274,-0.0128808282315731,-0.0198089648038149,-0.00873617455363274,-0.00792116113007069,-0.0609730370342731
610,-0.00614076945930719,-0.00882064551115036,-0.0218639951199293,-0.00541427871212363,-0.00821057893335819,-0.0693077594041824
611,-0.00999798998236656,-0.00595582649111748,-0.0223009902983904,-7.48094171285629E-05,-0.00743213249370456,-0.0737651810050011
612,-0.0142734292894602,-0.00627225078642368,-0.0237067528069019,0.00294329691678286,-0.0100489100441337,-0.0763031393289566
613,-0.0183022059500217,-0.00949468556791544,-0.0276144966483116,0.000589361181482673,-0.0166125781834126,-0.0793399289250374
614,-0.0194204188883305,-0.0121706807985902,-0.0311066899448633,-0.0051139984279871,-0.0217984318733215,-0.0826247334480286
615,-0.0162743050605059,-0.0123476823791862,-0.0307993572205305,-0.00847419165074825,-0.0224208496510983,-0.0845909863710403
616,-0.0118715660646558,-0.013085518963635,-0.0280001275241375,-0.00737930554896593,-0.0207378175109625,-0.0865936949849129
617,-0.00799362268298864,-0.0157881937921047,-0.0245210770517588,-0.00403190450742841,-0.0187569875270128,-0.0881743058562279
618,-0.00476623745635152,-0.0183718912303448,-0.021451972424984,-0.00173306057695299,-0.0178203284740448,-0.0884696766734123
619,-0.00171265460085124,-0.0183865390717983,-0.0194931160658598,-0.000876453763339669,-0.0177111756056547,-0.0896916016936302
620,0.00168803427368402,-0.0153122646734118,-0.0171515271067619,0.000965005776379257,-0.0165445301681757,-0.0920370742678642
621,0.00393209513276815,-0.0110118025913835,-0.0123550901189446,0.00465883314609528,-0.0142741873860359,-0.0921859890222549
622,0.00544089777395129,-0.00806205347180367,-0.00450731301680207,0.00866420939564705,-0.0116908457130194,-0.0894425362348557
623,0.00802844297140837,-0.00795033853501081,0.00271465675905347,0.0100751696154475,-0.0100847752764821,-0.0888256058096886
624,0.0111336158588529,-0.0077386312186718,0.00420813169330359,0.00839500036090612,-0.0103856977075338,-0.0906293019652367
625,0.0129556134343147,-0.00625787954777479,0.000175810608197935,0.00665691727772355,-0.0115057174116373,-0.0891283005475998
626,0.0113141341134906,-0.00912813376635313,-0.00544707989320159,0.00611409870907664,-0.0126185985282063,-0.0859655886888504
627,0.00550954369828105,-0.0178001299500465,-0.0090495441108942,0.00631692027673125,-0.0126920370385051,-0.0872771814465523
628,-0.0010297151748091,-0.02503358758986,-0.00842836778610945,0.00756404688581824,-0.00976235046982765,-0.0927652940154076
629,-0.00429607555270195,-0.0260228924453259,-0.00457797199487686,0.00778098870068789,-0.00487779965624213,-0.0986618995666504
630,-0.00427741790190339,-0.0231639705598354,-0.000733350578229874,0.00436230981722474,-0.00217308686114848,-0.102755852043629
631,-0.0030790395103395,-0.0194746628403664,0.00200758152641356,0.00014013638428878,-0.00418332172557712,-0.103484861552715
632,-0.00210521346889436,-0.0156857054680586,0.00405638990923762,-0.000343031744705513,-0.00985073857009411,-0.100636266171932
633,-0.000773942214436829,-0.0105550363659859,0.00544193340465426,0.00341880205087364,-0.0147665766999125,-0.0941019952297211
634,0.000689003558363765,-0.00362408393993974,0.00559298740699887,0.00759070087224245,-0.0159692373126745,-0.085107609629631
635,0.000882708409335464,0.00279051554389298,0.00334344198927283,0.00820129550993443,-0.0148822516202927,-0.078408919274807
636,0.00102965510450304,0.00647406419739127,-0.000632094510365278,0.00584201980382204,-0.0126662757247686,-0.076694943010807
637,0.00240484531968832,0.00685871113091707,-0.00464087119325995,0.0027546479832381,-0.00957243517041206,-0.0781171768903732
638,0.004362384788692,0.00571900280192494,-0.00803390517830849,9.74708018475212E-05,-0.00643213791772723,-0.0792041197419167
639,0.00517859123647213,0.00413981266319752,-0.0109275439754128,-0.000956276780925691,-0.00376976258121431,-0.0776120498776436
640,0.00294472859241068,0.0015050545334816,-0.0138545045629144,0.000261755660176277,-0.00203497149050236,-0.0724940448999405
641,-0.00111356773413718,-0.000180495902895927,-0.0162099860608578,0.0023481179960072,-0.00101537129376084,-0.0653070881962776
642,-0.00497475732117891,-0.000180505376192741,-0.0176687277853489,0.00178190565202385,-0.00120669754687697,-0.0618515722453594
643,-0.00995340384542942,-0.00262529053725302,-0.0205814260989428,-0.00293950270861387,-0.00511955376714468,-0.0670077428221703
644,-0.0169081818312407,-0.0102304015308619,-0.0264989640563726,-0.00937588326632977,-0.0136939631775022,-0.0792411863803864
645,-0.0226093176752329,-0.0203441027551889,-0.0330846756696701,-0.014946068637073,-0.0233349502086639,-0.0937783941626549
646,-0.0230898279696703,-0.0268993247300386,-0.03652348741889,-0.0187190882861614,-0.0280396677553654,-0.105954632163048
647,-0.0193173885345459,-0.024923600256443,-0.0358495302498341,-0.020998178049922,-0.0256333705037832,-0.110723197460175
648,-0.015015933662653,-0.015741191804409,-0.03276252374053,-0.0227884277701378,-0.0185227822512388,-0.105794005095959
649,-0.0105021744966507,-0.00500784069299698,-0.026955908164382,-0.0232977624982595,-0.00883754715323448,-0.0954221710562706
650,-0.00592128839343786,0.00301032071001828,-0.0177356973290443,-0.0208472050726414,0.000392651185393333,-0.0873554795980453
651,-0.00253659184090793,0.00753828743472695,-0.00686803460121155,-0.0150914769619703,0.00791819673031569,-0.0846660733222961
652,0.00071690184995532,0.00918892305344343,0.00275146053172648,-0.0080469474196434,0.0159901604056358,-0.0841730460524559
653,0.00633366405963898,0.00820938497781754,0.0077571626752615,-0.00364203355275095,0.0235827676951885,-0.0828297808766365
654,0.0148952612653375,0.00486397184431553,0.00638400390744209,-0.00311269983649254,0.0263973474502563,-0.0797479599714279
655,0.0229060109704733,-0.00108056387398392,0.00137285131495446,-0.00244070938788354,0.0234344433993101,-0.0746553018689156
656,0.0266750641167164,-0.00946203991770744,-0.000570277101360261,0.00362392468377948,0.0206160917878151,-0.0664773881435394
657,0.026444623246789,-0.0180397368967533,0.00489466078579426,0.0146174216642976,0.0232416167855263,-0.053974125534296
658,0.024358045309782,-0.0221489146351814,0.0148283913731575,0.0250483062118292,0.0290143899619579,-0.0401590839028358
659,0.020668325945735,-0.0187668558210135,0.0228726677596569,0.0307631194591522,0.0323880016803741,-0.0311041921377182
660,0.0151979960501194,-0.0096189109608531,0.0248478855937719,0.0307712219655514,0.0293501392006874,-0.0275162179023027
661,0.00885753240436316,0.00191023701336235,0.019605465233326,0.0264892466366291,0.0195708591490984,-0.0258819721639156
662,0.00279380823485553,0.0135191874578595,0.0107990708202124,0.0217700470238924,0.00740811228752136,-0.0256979335099459
663,-0.00226046796888113,0.0222507975995541,0.00442111305892468,0.0191301219165325,-0.00235676113516092,-0.0310315452516079
664,-0.0069924951530993,0.0232414100319147,0.000712294713594019,0.0161356069147587,-0.00866890233010054,-0.044777374714613
665,-0.0110613517463207,0.0139663349837065,-0.00397240277379751,0.00999899953603745,-0.0119329439476132,-0.0614551119506359
666,-0.0118890628218651,-0.001186104840599,-0.00893071293830872,0.00302039715461433,-0.0115025630220771,-0.0712967589497566
667,-0.00790875684469938,-0.0130468951538205,-0.0110134482383728,-0.000577047234401107,-0.00772799411788583,-0.0687211379408836
668,-0.000470356637379155,-0.0155098186805844,-0.010797974653542,-0.000932361057493836,-0.00361958518624306,-0.056382417678833
669,0.00603330181911588,-0.00989653542637825,-0.0104131689295173,-0.00165065901819617,-0.00130257324781269,-0.0441566146910191
670,0.00609696330502629,-0.00200821971520782,-0.0111786872148514,-0.00457957899197936,-0.000498564098961651,-0.0398950576782227
671,-0.00132484978530556,0.002571219811216,-0.0131935151293874,-0.00781031604856253,-0.000157200483954512,-0.0417837724089623
672,-0.011404013261199,0.00102696043904871,-0.0127962231636047,-0.0065314183011651,0.000377140037016943,-0.042530532926321
673,-0.0180256795138121,-0.00602882262319326,-0.00616196170449257,0.0022540926001966,0.000950091751292348,-0.0379438400268555
674,-0.0180934648960829,-0.0134950978681445,0.00437179999426007,0.0143053792417049,0.00253096059896052,-0.0316896550357342
675,-0.0141414422541857,-0.0156390871852636,0.0129318460822105,0.0217734351754189,0.0056705679744482,-0.03214281052351
676,-0.00939413532614708,-0.0127214314416051,0.0181355774402618,0.0217702724039555,0.0100389253348112,-0.0407590046525002
677,-0.00397605588659644,-0.00988740101456642,0.0225660968571901,0.0173619352281094,0.0155929056927562,-0.0498717874288559
678,0.00100423174444586,-0.0110869891941547,0.0261201914399862,0.011449109762907,0.0203254465013742,-0.0539322346448898
679,0.00566938146948814,-0.0137216309085488,0.028078580275178,0.0060810879804194,0.0234113335609436,-0.0518601760268211
680,0.0104305306449533,-0.0131776686757803,0.029734430834651,0.00317397224716842,0.0250561609864235,-0.0459295026957989
681,0.0113865584135056,-0.0114518394693732,0.0304996855556965,0.00211455207318068,0.0230631548911333,-0.0428879149258137
682,0.0064463447779417,-0.0127075705677271,0.0286352541297674,0.00219819438643754,0.0170353036373854,-0.045094795525074
683,-0.000908786314539611,-0.0161499343812466,0.0246100090444088,0.00323430192656815,0.0107061201706529,-0.0466001033782959
684,-0.00551904272288084,-0.0177646595984697,0.0214016269892454,0.0044208443723619,0.00897549744695425,-0.041899349540472
685,-0.00527664087712765,-0.0155040621757507,0.0216621160507202,0.00534281693398952,0.012193139642477,-0.032892283052206
686,-0.00184286793228239,-0.0107940211892128,0.0251423846930265,0.0057723899371922,0.0155306523665786,-0.0259912759065628
687,0.0026574085932225,-0.00547420186921954,0.0299637969583273,0.00578667130321264,0.0151022374629974,-0.0244308765977621
688,0.00650207465514541,-0.00113154121208936,0.0337097682058811,0.00429524760693312,0.0101127019152045,-0.0247107818722725
689,0.00716733373701572,-0.000649538415018469,0.0333571434020996,-0.00118344672955573,0.000860128493513912,-0.0220034532248974
690,0.00279368204064667,-0.00630668643862009,0.0275100823491812,-0.0108085088431835,-0.00977802276611328,-0.0202612150460482
691,-0.0028386814519763,-0.0142968082800508,0.0209524314850569,-0.0191510748118162,-0.0128962798044086,-0.0254071597009897
692,-0.00440251734107733,-0.0170248355716467,0.0201507825404406,-0.0190405230969191,-0.00320081249810755,-0.0335918627679348
693,-0.00300982338376343,-0.0126776192337275,0.0246856082230806,-0.0102688930928707,0.0113808764144778,-0.0372041985392571
694,-0.00196357048116624,-0.00578037276864052,0.030789053067565,0.000303998269373551,0.0204238723963499,-0.0323424935340881
695,-0.00234084902331233,-0.002503840951249,0.0355138145387173,0.00636055832728744,0.020664606243372,-0.0226892046630383
696,-0.00303361611440778,-0.00634771911427379,0.0368621274828911,0.00680837919935584,0.014293210580945,-0.0172684844583273
697,-0.00223498069681227,-0.0146829010918736,0.0356366448104382,0.00393624836578965,0.00577133288607001,-0.0192148629575968
698,-0.000856344762723893,-0.0218508914113045,0.0341707728803158,0.000560703396331519,-0.00137811049353331,-0.0233517680317163
699,-0.000527646217960864,-0.024571442976594,0.0333632081747055,-0.000808638753369451,-0.00593037530779839,-0.0245075616985559
700,-0.00134946370963007,-0.0242363475263119,0.030855480581522,-0.00112220901064575,-0.00940214935690165,-0.0239311475306749
701,-0.00406735483556986,-0.023973336443305,0.0236832890659571,-0.0040879831649363,-0.0136714819818735,-0.0257882568985224
702,-0.0109948217868805,-0.0250676069408655,0.0133124571293592,-0.0105454875156283,-0.0185702200978994,-0.0296477824449539
703,-0.0219711419194937,-0.0259172301739454,0.0049037397839129,-0.0174853801727295,-0.0228903219103813,-0.0310140773653984
704,-0.0310819949954748,-0.023343164473772,0.00187167408876121,-0.0221271459013224,-0.0248806849122047,-0.027750588953495
705,-0.0318476818501949,-0.0177001766860485,0.00255468371324241,-0.0238152351230383,-0.0243682656437159,-0.0229450203478336
706,-0.0270133167505264,-0.0148772047832608,0.00197919807396829,-0.0242529585957527,-0.0254925116896629,-0.0231314599514008
707,-0.0263986736536026,-0.0207109972834587,-0.00136236019898206,-0.0258977822959423,-0.031982459127903,-0.0318959094583988
708,-0.0309542249888182,-0.0315746478736401,-0.0012644330272451,-0.0259460713714361,-0.0398751609027386,-0.040378175675869
709,-0.0339393094182014,-0.0371944978833199,0.00503389677032828,-0.021121783182025,-0.0441941432654858,-0.0366062335669994
710,-0.034373190253973,-0.0341257601976395,0.0105792749673128,-0.0154458731412888,-0.0468512997031212,-0.0241901632398367
711,-0.0333623886108398,-0.0254176259040833,0.013146098703146,-0.0121579095721245,-0.0484041459858418,-0.0145793268457055
712,-0.0301868282258511,-0.0151213137432933,0.0171687211841345,-0.0095808319747448,-0.0460362620651722,-0.0124983247369528
713,-0.0262552294880152,-0.00699203414842486,0.0229468811303377,-0.00619607884436846,-0.0409139581024647,-0.0158181171864271
714,-0.021627701818943,-0.000895814795512706,0.0291212610900402,-0.00218503270298243,-0.0354930683970451,-0.0181783046573401
715,-0.0140822855755687,0.00299589545466006,0.0339115373790264,-0.000286160531686619,-0.0310188792645931,-0.0148325953632593
716,-0.00563555490225554,0.000180765651748516,0.0318771377205849,-0.00403301790356636,-0.0291787814348936,-0.00925197638571262
717,-0.00105446937959641,-0.00863983016461134,0.0229099839925766,-0.0120733352378011,-0.0287930611521006,-0.00702782953158021
718,-0.00102759525179863,-0.0142608229070902,0.0170021653175354,-0.0171882994472981,-0.0253339093178511,-0.00584105076268315
719,-0.00338854431174695,-0.0109435869380832,0.0203235428780317,-0.0148818185552955,-0.017768332734704,-0.00133821682538837
720,-0.00601229583844543,-0.000727995706256479,0.0291924700140953,-0.00769323529675603,-0.00978072825819254,0.00481566414237022
721,-0.0071336948312819,0.0118863750249147,0.038371603935957,-0.000274211342912167,-0.00394883705303073,0.00791204255074263
722,-0.00745654571801424,0.0218415129929781,0.0437232367694378,0.00368771143257618,-0.00106159644201398,0.00710806110873818
723,-0.00909126922488213,0.0256461501121521,0.0428644381463528,0.00300660519860685,-0.00160462339408696,0.00842315889894962
724,-0.0125189470127225,0.022549245506525,0.0373223945498466,-0.00126055593136698,-0.00550898211076856,0.0138934655115008
725,-0.0162898916751146,0.0133629878982902,0.0307904724031687,-0.0072609013877809,-0.0125973429530859,0.0151077173650265
726,-0.0176229886710644,0.00160944380331784,0.0260851923376322,-0.0119216330349445,-0.0210952423512936,0.00777119072154164
727,-0.01488615013659,-0.00794204790145159,0.0238932464271784,-0.0131118949502707,-0.027103940024972,-0.00212696008384228
728,-0.00961348507553339,-0.0118604153394699,0.0240956228226423,-0.0114792194217443,-0.0276764389127493,-0.00839185994118452
729,-0.00372019945643842,-0.0079072592779994,0.0272098705172539,-0.00771113904193044,-0.0226448774337769,-0.00832358840852976
730,0.00106305780354887,0.00113575044088066,0.0322063155472279,-0.00288836704567075,-0.0150273349136114,-0.0020570179913193
731,0.00136388617102057,0.0076471664942801,0.0352979823946953,0.000773722538724542,-0.00954679120332003,0.00815561227500439
732,-0.00338786491192877,0.00824039895087481,0.0338396094739437,0.00263270945288241,-0.00835983734577894,0.0200326647609472
733,-0.0095824021846056,0.00523134041577578,0.0277529247105122,0.0020220740698278,-0.0101134683936834,0.0288277510553598
734,-0.0140478303655982,0.00117663759738207,0.0185269862413406,-0.0018382198177278,-0.0111427241936326,0.0286375638097525
735,-0.0155544066801667,-0.00183499453123659,0.0103848548606038,-0.00595286954194307,-0.00862451363354921,0.0203465800732374
736,-0.0149177331477404,-0.00270318053662777,0.0070641110651195,-0.00637444015592337,-0.00518873007968068,0.0110635561868548
737,-0.0133177991956472,-0.00305194244720042,0.00825451407581568,-0.0037276241928339,-0.00418382883071899,0.00539449462667108
738,-0.0115012442693114,-0.0046366099268198,0.0116817988455296,-0.00244702189229429,-0.00412148097530007,0.00240073050372303
739,-0.0113711785525084,-0.00668420270085335,0.0148043762892485,-0.00597755145281553,-0.00350023084320128,-4.65797820652369E-05
740,-0.0135789187625051,-0.00709900399670005,0.0164393037557602,-0.0129096657037735,-0.00320461066439748,-0.00267205573618412
741,-0.0168818384408951,-0.00552531983703375,0.0169273559004068,-0.0187923293560743,-0.00382720585912466,-0.00439742347225547
742,-0.0206098146736622,-0.00382087170146406,0.0165018811821938,-0.0206766687333584,-0.00569609366357327,-0.00259475200437009
743,-0.0244428180158138,-0.00337104545906186,0.0158721208572388,-0.0183177553117275,-0.00934591330587864,0.00335850100964308
744,-0.0280712489038706,-0.00453864550217986,0.0154719455167651,-0.0139837395399809,-0.0147146116942167,0.00947166979312897
745,-0.0297050811350346,-0.006603027228266,0.0147040076553822,-0.0108689367771149,-0.0207259673625231,0.0110721876844764
746,-0.0265038348734379,-0.00765765737742186,0.014063086360693,-0.0104733686894178,-0.0250059366226196,0.00868128053843975
747,-0.0194914676249027,-0.00606605364009738,0.0153332157060504,-0.012201719917357,-0.0241645835340023,0.00611831527203321
748,-0.0128702344372869,-0.00120194035116583,0.0187632068991661,-0.0143030881881714,-0.0172965526580811,0.00475451909005642
749,-0.00781749095767736,0.00700213992968202,0.0231255665421486,-0.0143064120784402,-0.00714268255978823,0.00486001698300242
750,-0.00379988644272089,0.0167447440326214,0.0268684327602386,-0.0110437655821443,0.00219465489499271,0.00843431148678064
751,-0.000647797773126513,0.0245576743036509,0.0285187549889088,-0.00557147618383169,0.00789919961243868,0.0169587563723326
752,0.00282185338437557,0.0289395824074745,0.0282100830227137,0.000237255517276935,0.010290733538568,0.0273656565696001
753,0.00483538815751672,0.0289534498006105,0.0263900849968195,0.00319280265830457,0.0101265581324697,0.031462050974369
754,0.00325252255424857,0.023131474852562,0.0239089727401733,0.00126853084657341,0.00851483177393675,0.02606001496315
755,0.000507238029967994,0.0131029849871993,0.0222150720655918,-0.00358598260208964,0.00705456640571356,0.0183097254484892
756,0.00116877211257815,0.00540905306115747,0.0227149073034525,-0.00709712272509933,0.00730131613090634,0.0154533954337239
757,0.0072045736014843,0.00589561788365245,0.0273382961750031,-0.0059773507528007,0.011090331710875,0.0174969024956226
758,0.0140042370185256,0.0119698597118258,0.0344083718955517,-0.00123292813077569,0.0156128332018852,0.0211819708347321
759,0.0153283523395658,0.0165877118706703,0.0385591685771942,0.00234857201576233,0.0147532531991601,0.0243883207440376
760,0.00961659289896488,0.0160304699093103,0.0366575159132481,6.18152844253927E-05,0.00613251561298966,0.0257724523544312
761,0.000309744413243607,0.0101491110399365,0.0302199404686689,-0.00789938401430845,-0.00663888268172741,0.0255360696464777
762,-0.00624506548047066,0.0025566122494638,0.0243479069322348,-0.015221000649035,-0.0161211732774973,0.025242829695344
763,-0.00671875057742,-0.000106461127870716,0.0221126805990934,-0.0156454760581255,-0.0180346108973026,0.0263319183140993
764,-0.00397942587733269,0.00317389308474958,0.0205845981836319,-0.0102990828454494,-0.0154979601502419,0.0291362330317497
765,-0.000778138113673776,0.00611683167517185,0.0177308581769466,-0.00585464853793383,-0.0121786678209901,0.0310876779258251
766,0.00352577329613268,0.0065047862008214,0.0170120261609554,-0.00510350661352277,-0.00652492279186845,0.0288329645991325
767,0.00635358737781644,0.00795155763626099,0.0194181259721518,-0.00600012019276619,0.00244515086524189,0.0209097974002361
768,0.00306706759147346,0.00950102135539055,0.0213570445775986,-0.00832025986164808,0.0114518301561475,0.00900628603994846
769,-0.00427561718970537,0.00551682384684682,0.022520175203681,-0.0120569467544556,0.0174343157559633,0.000824267335701734
770,-0.00972761679440737,-0.00500381737947464,0.0236467868089676,-0.0154241276904941,0.0185798853635788,0.00213322718627751
771,-0.00978294294327497,-0.015936728566885,0.0219547357410192,-0.0175999198108912,0.0140528352931142,0.00844898074865341
772,-0.00556277995929122,-0.0212965440005064,0.0163923464715481,-0.0183144304901361,0.00638538226485252,0.0128402011469007
773,-0.00257084146142006,-0.0213699620217085,0.0104887438938022,-0.0180803537368774,-0.00145444285590202,0.0126901976764202
774,-0.00370251666754484,-0.0184033829718828,0.00844840798527002,-0.0173547435551882,-0.008378098718822,0.0105841867625713
775,-0.00707193743437529,-0.0131258871406317,0.0103149395436049,-0.0154028609395027,-0.0128863854333758,0.0121874986216426
776,-0.0107719358056784,-0.0070702200755477,0.0133372517302632,-0.0123644694685936,-0.0141415074467659,0.0206850338727236
777,-0.0136523712426424,-0.00178310601040721,0.0161194819957018,-0.0089907506480813,-0.0130626633763313,0.0340503118932247
778,-0.0127253895625472,0.00331027363426983,0.0181015711277723,-0.00491780368611217,-0.0102541679516435,0.0454515926539898
779,-0.00561200547963381,0.00886333547532558,0.0186267476528883,0.000328226189594716,-0.00616299128159881,0.0486517623066902
780,0.00343514187261462,0.0134897790849209,0.0177940912544727,0.00624228222295642,-0.00274802255444229,0.0449845418334007
781,0.0072011137381196,0.0177205447107553,0.016457611694932,0.0120635163038969,-0.0026014931499958,0.0415027476847172
782,0.00343983038328588,0.0233581941574812,0.0145644620060921,0.0155294816941023,-0.00737502286210656,0.0412787757813931
783,-0.00493668485432863,0.0270358435809612,0.01093087811023,0.0127406241372228,-0.0162944290786982,0.0386453419923782
784,-0.0128076067194343,0.024720897898078,0.00661317771300673,0.00377989793196321,-0.0252575501799583,0.0288290828466415
785,-0.0146576054394245,0.019146516919136,0.00471390457823873,-0.00493871700018644,-0.0292540937662125,0.0181788764894009
786,-0.00776775320991874,0.0156416911631823,0.00599906500428915,-0.00711848167702556,-0.0262253675609827,0.0153829399496317
787,0.00441902317106724,0.0163386706262827,0.00903644505888224,-0.00222459086216986,-0.0179750565439463,0.0194701701402664
788,0.0143991224467754,0.0195949412882328,0.012610430829227,0.00479570124298334,-0.00887949485331774,0.0245189797133207
789,0.0186114981770515,0.0227155424654484,0.016199791803956,0.00870400853455067,-0.00235731620341539,0.0281843189150095
790,0.0196346864104271,0.0257870312780142,0.0187618434429169,0.00921768974512815,0.00228583184070885,0.0303184352815151
791,0.0203267633914948,0.0297804176807404,0.018922196701169,0.00845834240317345,0.00580055080354214,0.0298016164451838
792,0.0215970035642385,0.0337845720350742,0.0171415973454714,0.00727983564138412,0.00597231229767203,0.0274413265287876
793,0.0221082586795092,0.035889059305191,0.0150712681934237,0.00808375887572765,0.00213402393274009,0.0273047108203173
794,0.0200571455061436,0.0349270068109035,0.015081855468452,0.0147696947678924,-0.00306669762358069,0.0349342375993729
795,0.0160855185240507,0.0313017182052135,0.0189015865325928,0.024304723367095,-0.00761877093464136,0.0496408268809319
796,0.0095716742798686,0.0249929949641228,0.023056810721755,0.0268872324377298,-0.0120524540543556,0.0591804161667824
797,0.00042082485742867,0.0176509488373995,0.0214478336274624,0.0195505004376173,-0.0168905388563871,0.0540238693356514
798,-0.00523172877728939,0.0139420498162508,0.0147833274677396,0.00898927450180054,-0.0192055385559797,0.0386313758790493
799,-0.00362322060391307,0.0148719288408756,0.0093015069141984,0.000659075565636158,-0.0155597114935517,0.022975692525506
800,0.00172369100619107,0.0164737273007631,0.00846205465495586,-0.00507966987788677,-0.00711284065619111,0.0135291190817952
801,0.00755512155592442,0.0155011881142855,0.0120950434356928,-0.00804879888892174,0.00195270078256726,0.0125474520027637
802,0.0116676613688469,0.0118947075679898,0.0175306554883718,-0.00642548035830259,0.00816372968256474,0.0176495686173439
803,0.011065867729485,0.00670128967612982,0.0207220632582903,-0.00161116220988333,0.00970582012087107,0.0222127661108971
804,0.00500415405258536,0.000964026141446084,0.0199323780834675,0.0010750952642411,0.00560886925086379,0.0228072199970484
805,-0.00282962946221232,-0.00309909135103226,0.016377866268158,-0.000625194457825273,-0.00258337263949215,0.0222010556608438
806,-0.00784916151314974,-0.00330685661174357,0.011255320161581,-0.00454976037144661,-0.0103087089955807,0.0225066542625427
807,-0.0104450359940529,-0.00103111006319523,0.00416148733347654,-0.00956752151250839,-0.0159723870456219,0.0218449402600527
808,-0.0139714377000928,-0.000606207468081266,-0.00447342917323112,-0.0161175895482302,-0.0224776603281498,0.0193434450775385
809,-0.0165353044867516,-0.00165568862576038,-0.0103267822414637,-0.0211850646883249,-0.0289055220782757,0.0189629029482603
810,-0.0136747686192393,0.00133895990438759,-0.00987409241497517,-0.0198024436831474,-0.0305127128958702,0.0232449844479561
811,-0.00799518264830112,0.00755213806405663,-0.0055617424659431,-0.0118672028183937,-0.0270648431032896,0.0282823778688908
812,-0.00472556706517935,0.0115752471610904,-0.000542449066415429,-0.000473253865493461,-0.0204895958304405,0.0306178350001574
813,-0.00372666283510625,0.0148201519623399,0.00562659231945872,0.0122804502025247,-0.0102042481303215,0.0311995148658752
814,-0.00345108914189041,0.0180355384945869,0.0119250137358904,0.0215912666171789,0.0014594552339986,0.0290822573006153
815,-0.00263410643674433,0.0159314349293709,0.0158219002187252,0.022871769964695,0.00938762072473764,0.0224131047725677
816,0.00148538372013718,0.00763674871996045,0.0178933292627335,0.0187348108738661,0.0122620752081275,0.013823171146214
817,0.00975991878658533,-0.000900614773854613,0.0192778035998344,0.0146005870774388,0.0120192337781191,0.00721033709123731
818,0.0193203799426556,-0.00360734015703201,0.01982974819839,0.0126572921872139,0.0119415940716863,0.00444459775462747
819,0.0254160352051258,0.000630565860774368,0.0196472406387329,0.0117455702275038,0.0140407476574183,0.00518785370513797
820,0.0255008712410927,0.00831003021448851,0.0190926771610975,0.01002879999578,0.0168971847742796,0.00623747240751982
821,0.0194934476166964,0.0142938522621989,0.0166204087436199,0.00636821845546365,0.017478808760643,0.00478566018864512
822,0.00937394611537457,0.0159631334245205,0.0111593455076218,0.0018825379665941,0.0146064171567559,0.00545050110667944
823,0.000475925829960033,0.0163429249078035,0.00623105093836784,0.000503955699969083,0.00964124873280525,0.0145151363685727
824,-0.00502803595736623,0.0181675218045712,0.00395642686635256,0.00323265325278044,0.00277580646798015,0.0274190418422222
825,-0.0088633568957448,0.0195403937250376,0.00245928601361811,0.00727283069863915,-0.00526430970057845,0.0370138995349407
826,-0.0104074887931347,0.0191488433629274,0.0011194886174053,0.0114245563745499,-0.0114491581916809,0.0443884134292603
827,-0.00906185619533062,0.0171864647418261,0.000444027100456879,0.0158443115651608,-0.0146446963772178,0.0492222458124161
828,-0.00696574710309505,0.0132119599729776,-0.000752588850446045,0.0187146700918674,-0.0162771325558424,0.0452232360839844
829,-0.00479928497225046,0.00919861998409033,-0.00316079356707633,0.0174390859901905,-0.0158268921077251,0.0323554389178753
830,-0.00224852538667619,0.0081616872921586,-0.00461616180837154,0.0125116650015116,-0.0115601634606719,0.0194878838956356
831,-0.00160955323372036,0.00917103979736567,-0.00396445114165545,0.00684408703818917,-0.00519396597519517,0.0141090881079435
832,-0.0043650520965457,0.0101192463189363,-0.00352895981632173,0.00278230104595423,-8.17007967270911E-05,0.0157884489744902
833,-0.00984306260943413,0.0102126356214285,-0.00666716974228621,0.00105041021015495,0.000994629925116897,0.016745263710618
834,-0.0167180355638266,0.00850899796932936,-0.0143164126202464,6.29323985776864E-05,-0.00249909237027168,0.0116852661594749
835,-0.0231890249997377,0.00443026376888156,-0.024055564776063,-0.00343599845655262,-0.0090402290225029,0.00277138757519424
836,-0.0283307507634163,-0.00196783780120313,-0.032314945012331,-0.00983307138085365,-0.0179016198962927,-0.00583479972556233
837,-0.0321615971624851,-0.0102554792538285,-0.036371685564518,-0.01505212392658,-0.0262917596846819,-0.00966718792915344
838,-0.0339150950312614,-0.018434064462781,-0.0355142317712307,-0.0146318776533008,-0.028903866186738,-0.0027956438716501
839,-0.0331402234733105,-0.0242254976183176,-0.032539214938879,-0.00818891543895006,-0.0252615232020617,0.0148656656965613
840,-0.0307028368115425,-0.0267784241586924,-0.0317780114710331,-0.00120801536832005,-0.0196346957236528,0.0304785557091236
841,-0.0252612810581923,-0.0237201433628798,-0.0328565239906311,0.00190786004532129,-0.0127422176301479,0.0319281369447708
842,-0.0158203095197678,-0.0136868972331285,-0.032054215669632,0.00258371978998184,-0.00392915401607752,0.0214254688471556
843,-0.00643478939309716,-0.00302870664745569,-0.0302692055702209,0.00173371168784797,0.00178331218194216,0.00779511127620935
844,-0.000416033464716747,0.00211402401328087,-0.0306578502058983,-0.00103137933183461,0.000476907269330695,-0.001262859092094
845,0.00263779982924461,0.00351583841256797,-0.0334803350269794,-0.00517178606241941,-0.00423087133094668,-0.00176779425237328
846,0.00191527127753943,0.00164881884120405,-0.0392939709126949,-0.011791780591011,-0.00860761012881994,0.00167148339096457
847,-0.00464325724169612,-0.00616655685007572,-0.0489212609827518,-0.020710838958621,-0.0124925440177321,0.0020023244433105
848,-0.0154815101996064,-0.014973689801991,-0.0581385269761086,-0.0262857805937529,-0.0146325957030058,-0.000149996500113048
849,-0.0240253508090973,-0.0141722364351153,-0.0579541996121407,-0.0221208706498146,-0.0116306934505701,0.000645510561298579
850,-0.0256550665944815,-0.00406241463497281,-0.0461817309260368,-0.00924955680966377,-0.00352188991382718,0.00618300819769502
851,-0.0227696299552917,0.00440413970500231,-0.0329680368304253,0.00347181293182075,0.00344683160074055,0.0121216233819723
852,-0.0199454259127378,0.00520172482356429,-0.0292563326656818,0.00614138087257743,0.00181600218638778,0.011237527243793
853,-0.0192961730062962,0.000708603649400175,-0.0372622087597847,-0.00473503023386002,-0.0101682115346193,0.000244979892158881
854,-0.0206386633217335,-0.00156524323392659,-0.0499127171933651,-0.0220150630921125,-0.0244732405990362,-0.0128410942852497
855,-0.0216913297772408,0.00456842873245478,-0.0558941848576069,-0.032244399189949,-0.0292518753558397,-0.0151045816019177
856,-0.0204167384654284,0.0141881080344319,-0.0498764999210835,-0.028137169778347,-0.0223198868334293,-0.00559456273913383
857,-0.0176036823540926,0.0161409359425306,-0.0369132831692696,-0.0157813113182783,-0.0129073243588209,0.00524115283042192
858,-0.0136914746835828,0.00790821015834808,-0.0251605622470379,-0.00521602621302009,-0.00830756593495607,0.0119908917695284
859,-0.00794597808271647,-0.00290943798609078,-0.0173235479742289,0.00138987449463457,-0.00717674102634192,0.0178136862814426
860,-0.00114939699415118,-0.00788643676787615,-0.0107645764946938,0.0077321301214397,-0.00530084315687418,0.027177270501852
861,0.00449687987565994,-0.00441527226939797,-0.00333931809291244,0.015236547216773,-0.00163480243645608,0.0403628721833229
862,0.00662026461213827,0.00360667589120567,0.00317437876947224,0.0203052349388599,0.000483339536003768,0.0508172214031219
863,0.00536522502079606,0.0103674260899425,0.0056368438526988,0.0188057292252779,-0.00174044771119952,0.050828468054533
864,0.0021173048298806,0.0109320897608995,0.00184560299385339,0.0103752557188272,-0.00844363030046225,0.0394441150128841
865,-0.0027830358594656,0.00352687505073845,-0.0082483384758234,-0.00167724513448775,-0.0185876674950123,0.0238388404250145
866,-0.00893697421997786,-0.00862329732626677,-0.0212916396558285,-0.0138385454192758,-0.0295535642653704,0.0100674200803041
867,-0.0148045625537634,-0.0204032082110643,-0.0324766971170902,-0.0240210518240929,-0.0379359759390354,-0.00242490880191326
868,-0.0168681684881449,-0.027263455092907,-0.0366108603775501,-0.0287822596728802,-0.0399247743189335,-0.0125578846782446
869,-0.0143937673419714,-0.0268782246857882,-0.0317694246768951,-0.026288079097867,-0.0353391543030739,-0.0163529142737389
870,-0.00994004029780626,-0.0195210799574852,-0.0220419112592936,-0.0191433355212212,-0.0286021996289492,-0.0123913371935487
871,-0.00463647022843361,-0.00740672228857875,-0.0129472790285945,-0.0110507756471634,-0.0228267330676317,-0.00338581530377269
872,-0.000967893574852496,0.00287042208947241,-0.00937185063958168,-0.00686192978173494,-0.0204427447170019,0.00363415828906
873,-0.000882745138369501,0.00414802506566048,-0.0125943217426538,-0.00937122572213411,-0.0221618004143238,0.00396891124546528
874,-0.00107072724495083,-0.00252759573049843,-0.0173514429479837,-0.0148255797103047,-0.02317875623703,0.000949446053709835
875,0.00126943574286997,-0.0100177982822061,-0.019301749765873,-0.01816251501441,-0.0203592944890261,0.000969172862824053
876,0.00574903097003698,-0.0129353832453489,-0.0187619011849165,-0.0176903400570154,-0.0160906165838242,0.0070620272308588
877,0.0105016194283962,-0.0107168359681964,-0.0169769637286663,-0.0144520504400134,-0.013261922635138,0.0169555656611919
878,0.0120403971523046,-0.00639720866456628,-0.0152990268543363,-0.0107539240270853,-0.0130171896889806,0.0255548749119043
879,0.00854085385799408,-0.00432142615318298,-0.0152841061353683,-0.00896981824189425,-0.0149031141772866,0.0278749708086252
880,0.00340305408462882,-0.00516030797734857,-0.0163105502724648,-0.00935649033635855,-0.0168640557676554,0.0241010673344135
881,0.00132060167379677,-0.00528104463592172,-0.016088929027319,-0.00990449078381062,-0.0169590171426535,0.01952457241714
882,0.00157138123176992,-0.00335774198174477,-0.0151108847931027,-0.00995083060115576,-0.0165390633046627,0.0166886672377586
883,0.00143381196539849,-0.000238210821407847,-0.0145368613302708,-0.00910644512623549,-0.0178879015147686,0.0162969101220369
884,0.00125662703067064,0.00323295569978654,-0.012888983823359,-0.00593786640092731,-0.0203144736588001,0.0196784194558859
885,0.00255453586578369,0.00522084161639214,-0.00936968345195055,-0.0010772937675938,-0.021441612392664,0.0246109869331121
886,0.00466963602229953,0.00338936340995133,-0.00636492576450109,0.00232668709941208,-0.0212022885680199,0.0248906873166561
887,0.00558132864534855,-0.00122112513054162,-0.00659020897001028,0.00226822891272604,-0.0214976202696562,0.0170722734183073
888,0.00579136982560158,-0.00204415526241064,-0.00952466018497944,-0.000244090391788632,-0.0218334086239338,0.00526609551161528
889,0.00842188857495785,0.00513321813195944,-0.0114218024536967,-0.00277409958653152,-0.0193119831383228,-0.00250603025779128
890,0.0144347818568349,0.013871718198061,-0.00945122633129358,-0.00344269489869475,-0.0135098276659846,-0.00132292835041881
891,0.0210862196981907,0.0148722128942609,-0.00454967888072133,-0.00120935402810574,-0.00754520576447248,0.00799821969121695
892,0.0261280722916126,0.00864350143820047,0.00196197582408786,0.00425687665119767,-0.00294823409058154,0.0212399922311306
893,0.0280216876417398,0.000580332765821368,0.00911438465118408,0.010720388032496,0.00163916521705687,0.0329166054725647
894,0.0261998381465673,-0.00764662306755781,0.0146806193515658,0.014867034740746,0.00733620766550303,0.0396456047892571
895,0.0232490226626396,-0.0153965093195438,0.017309008166194,0.0149937653914094,0.0118158990517259,0.0419357195496559
896,0.0216961931437254,-0.0206326190382242,0.0162349604070187,0.00977915152907372,0.0105025703087449,0.0393476039171219
897,0.0221159867942333,-0.0217559933662415,0.0115631660446525,-0.00042515285895206,0.00433588540181518,0.0291083641350269
898,0.0244531892240047,-0.0203061494976282,0.00538644567131996,-0.0117666674777865,-0.000180335046024993,0.0119774611666799
899,0.027419725432992,-0.0191743150353432,-0.000940179161261767,-0.0205868575721979,-0.000812594604212791,-0.00608161464333534
900,0.0296578798443079,-0.0170486234128475,-0.00499311788007617,-0.0246114153414965,-0.000639468082226813,-0.0182478576898575
901,0.0290479864925146,-0.0123237837105989,-0.00391394225880504,-0.0234930422157049,-0.00344758131541312,-0.0212733875960112
902,0.0230426620692015,-0.0071289069019258,0.000485306460177526,-0.019160894677043,-0.0103683164343238,-0.0140201142057776
903,0.0144167141988873,-0.00280757783912122,0.00512973219156265,-0.0121930446475744,-0.0168809480965137,0.00324962311424315
904,0.00738045712932944,0.00100187363568693,0.00838171690702438,-0.00418699625879526,-0.020358195528388,0.0236145816743374
905,0.00244302721694112,0.00540180364623666,0.00812958832830191,0.00166474492289126,-0.0228399876505136,0.0364714935421944
906,0.00122145796194673,0.0104233855381608,0.00445092236623168,0.00654678558930755,-0.0225346777588129,0.0381417497992516
907,0.00553745217621326,0.0125360768288374,0.00010493478475837,0.0128306858241558,-0.0178706962615252,0.0336589105427265
908,0.0133662084117532,0.00881838705390692,-0.00348352361470461,0.0182007495313883,-0.0125085562467575,0.028327377513051
909,0.0195801928639412,-0.000592776690609753,-0.00786197185516357,0.0182062368839979,-0.00911848619580269,0.022262355312705
910,0.0210883244872093,-0.012768535874784,-0.01411540992558,0.0125917186960578,-0.0062039801850915,0.0158356968313456
911,0.0206440668553114,-0.0213883370161057,-0.0193660315126181,0.00658743968233466,-0.00172679405659437,0.0125676933676004
912,0.0208288319408894,-0.022227393463254,-0.0209185983985662,0.00360919535160065,0.00279314629733562,0.0127332750707865
913,0.0204147510230541,-0.0161780081689358,-0.0192368552088737,0.00294258841313422,0.00444062612950802,0.0143410693854094
914,0.0173706952482462,-0.00670806737616658,-0.0159123633056879,0.0028094903100282,0.0020475834608078,0.0158797167241573
915,0.0120919588953257,0.00323906657285988,-0.011792317032814,0.00256344815716147,-0.00286967935971916,0.0174682661890984
916,0.00645957374945283,0.0107280286028981,-0.00793430767953396,0.00246738363057375,-0.00805930141359568,0.0203601904213429
917,0.00186714075971395,0.0125917606055737,-0.00607918342575431,0.00238195993006229,-0.012331310659647,0.0216717142611742
918,-0.000222661416046321,0.00913416594266891,-0.00668959133327007,0.00308024906553328,-0.0144601324573159,0.01733105070889
919,0.000851080985739827,0.0036200329195708,-0.00930852815508842,0.00420982809737325,-0.0140020651742816,0.00799070671200752
920,0.00652476074174047,0.00130658026318997,-0.0112517205998302,0.00493373069912195,-0.0100459111854434,0.000239964138017967
921,0.0167547855526209,0.00429794983938336,-0.00948168616741896,0.00619485648348928,-0.00274184532463551,-0.00140158704016358
922,0.0267594456672668,0.00769119011238217,-0.00520935747772455,0.0077630509622395,0.00461222231388092,0.000356826145434752
923,0.0313628949224949,0.00739969871938229,-0.00223900307901204,0.00766400108113885,0.00842136610299349,0.00381424417719245
924,0.0306151825934649,0.00492743868380785,-0.00212551048025489,0.00545853562653065,0.00797051377594471,0.00997794978320599
925,0.0297311879694462,0.00368744321167469,-0.00246694101952016,0.0040796147659421,0.00775845814496279,0.0170102883130312
926,0.0319407917559147,0.00449874345213175,-0.0012631684076041,0.00557988183572888,0.0119393048807979,0.0213613472878933
927,0.033655721694231,0.00401336140930653,-0.000481046998174861,0.00620067724958062,0.016661174595356,0.0216658301651478
928,0.0297210887074471,-0.00198208820074797,-0.0017534289509058,0.00265481625683606,0.0163146629929543,0.0188446920365095
929,0.0201870892196894,-0.0133934654295444,-0.00392917823046446,-0.00119567289948463,0.0115500539541245,0.0147677334025502
930,0.00894283130764961,-0.0246341284364462,-0.00720161525532603,-0.00178902095649391,0.00411363877356052,0.0131690688431263
931,0.00130334787536412,-0.0297292601317167,-0.0110540073364973,-0.000975700502749532,-0.0050306492485106,0.0177718419581652
932,0.00135922525078058,-0.0278945788741112,-0.012388457544148,-0.00031465946813114,-0.012053431943059,0.0249379463493824
933,0.0080855842679739,-0.0215445663779974,-0.0104257650673389,0.00039220746839419,-0.0141840074211359,0.0272703971713781
934,0.0161128584295511,-0.0129427574574947,-0.0066877119243145,0.000267889117822051,-0.0131298592314124,0.0232233479619026
935,0.0202123168855906,-0.0051377615891397,-0.00267717218957841,-0.00106596713885665,-0.0112712318077683,0.0154828280210495
936,0.0202809441834688,-0.000565229565836489,-0.000597664853557944,-0.00145187613088638,-0.00858631171286106,0.00826454535126686
937,0.0204896368086338,0.00186889606993645,-0.00141764176078141,0.0019622731488198,-0.00361266732215881,0.00564983580261469
938,0.0229064021259546,0.00362010719254613,-0.00403753900900483,0.00858202110975981,0.0043125101365149,0.00729247415438294
939,0.0252474676817656,0.00347034097649157,-0.00808441825211048,0.0139526184648275,0.0127493049949408,0.0102716758847237
940,0.0246213544160128,0.000880500301718712,-0.0133758252486587,0.0151657247915864,0.0176338888704777,0.013344194740057
941,0.0235913284122944,-0.000425809033913538,-0.0168097317218781,0.0149020524695516,0.0202978644520044,0.0181025601923466
942,0.0273535940796137,0.00387417734600604,-0.0151053685694933,0.0171103924512863,0.0254929978400469,0.0262521374970675
943,0.0331224426627159,0.011406322941184,-0.0114675620570779,0.020102808251977,0.0309029147028923,0.0339567810297012
944,0.0342107713222504,0.0161825437098742,-0.0113358786329627,0.0199349075555801,0.0310905985534191,0.0352991409599781
945,0.0302187893539667,0.0161740314215422,-0.0147706158459187,0.0167339295148849,0.0259396377950907,0.0301835015416145
946,0.0252085588872433,0.0121339084580541,-0.0186872761696577,0.0128755448386073,0.0183444954454899,0.0224739145487547
947,0.0216728206723928,0.00520539050921798,-0.0208910759538412,0.00966813135892153,0.0102536585181952,0.0152491275221109
948,0.0181032363325357,-0.00198996439576149,-0.0223197210580111,0.00681076198816299,0.00135678518563509,0.0110631017014384
949,0.0131918918341398,-0.00695064943283796,-0.0250911638140678,0.0044559221714735,-0.0081480098888278,0.0130555247887969
950,0.0086987717077136,-0.00921229273080826,-0.0287367776036263,0.00371915497817099,-0.0158336125314236,0.0203633047640324
951,0.0056374347768724,-0.00975598022341728,-0.0317786298692226,0.00377311534248292,-0.0203700661659241,0.0251072142273188
952,0.00296947243623436,-0.0114419721066952,-0.0339195989072323,0.00189457193482667,-0.0225834902375937,0.0200984179973602
953,0.00129595806356519,-0.0162543002516031,-0.0353039316833019,-0.00343499192968011,-0.0231548864394426,0.00666910037398338
954,0.00350233865901828,-0.020786352455616,-0.0339706726372242,-0.00844105985015631,-0.0203191358596087,-0.00602699117735028
955,0.00936914701014757,-0.021861907094717,-0.0276156887412071,-0.00688579957932234,-0.0128958309069276,-0.0113388476893306
956,0.0155114717781544,-0.0223414432257414,-0.0176474712789059,0.000857828592415899,-0.00428573647513986,-0.0124792708083987
957,0.0203661490231752,-0.0240470375865698,-0.0063240984454751,0.0093851275742054,0.00270182616077363,-0.0131794363260269
958,0.0236295703798532,-0.0244384333491325,0.004263402428478,0.0154653936624527,0.00862874370068312,-0.0111708277836442
959,0.0249254424124956,-0.0218166150152683,0.0103126866742969,0.0180862750858068,0.0132808787748218,-0.00549385836347938
960,0.0247766990214586,-0.0167098771780729,0.0104437666013837,0.0180649813264608,0.0153240980580449,0.0021387143060565
961,0.0242269821465015,-0.011128724552691,0.0078479815274477,0.0181581433862448,0.0142475441098213,0.0111686866730452
962,0.0233038868755102,-0.00699054868891835,0.00556864077225327,0.0200633741915226,0.00986736174672842,0.0198420193046331
963,0.020198991522193,-0.00483536534011364,0.00341780949383974,0.0230019111186266,0.001605084980838,0.0255364347249269
964,0.0142098302021623,-0.00487665086984634,0.00106114277150482,0.0256014075130224,-0.00902325101196766,0.0293149892240763
965,0.00823488831520081,-0.00700437976047397,-8.01954665803351E-05,0.0281071439385414,-0.0169407743960619,0.0337539650499821
966,0.00514771323651075,-0.00891225691884756,0.000552326964680105,0.0310102924704552,-0.0174445230513811,0.0370461195707321
967,0.00436036661267281,-0.00791258178651333,0.00149428436998278,0.0321214757859707,-0.0116367107257247,0.0342457517981529
968,0.00432582292705774,-0.00624420447275043,0.00100671756081283,0.0284057855606079,-0.00473901769146323,0.0239352937787771
969,0.00506196729838848,-0.00809402950108051,-0.00136825209483504,0.0207900386303663,0.000636349432170391,0.0110995266586542
970,0.00689113419502974,-0.0113423457369208,-0.00419093947857618,0.014527939260006,0.00464035104960203,0.00282250600866973
971,0.010083332657814,-0.010066207498312,-0.00520196184515953,0.0132138589397073,0.00746240839362144,0.00160991144366562
972,0.0155307445675135,-0.00288282753899693,-0.00362822087481618,0.015320610255003,0.00947040226310492,0.00424347445368767
973,0.0220297332853079,0.00560277886688709,-0.000906087865587324,0.0171782374382019,0.0101427994668484,0.00708378106355667
974,0.0252695046365261,0.00903876964002848,2.41385314438958E-05,0.0157888140529394,0.00833777338266373,0.00909899082034826
975,0.023412024602294,0.00561593659222126,-0.00232722330838442,0.0109012983739376,0.00501675391569734,0.00957770738750696
976,0.0183575730770826,-0.000873283250257373,-0.00627608457580209,0.00550985476002097,0.00192208564840257,0.00703900493681431
977,0.0114045776426792,-0.00665633054450154,-0.00987241230905056,0.00237975758500397,-0.00130024924874306,0.00117781898006797
