,AF3,AF4,Fp1,Fp2,AF7,AF8
0,-0.062760628759861,-0.0460872054100037,-0.0543307736515999,-0.044424407184124,-0.0307530555874109,-0.0487615466117859
1,-0.0631011500954628,-0.0538681857287884,-0.0624896511435509,-0.0511589199304581,-0.0400741472840309,-0.058811116963625
2,-0.0652171298861504,-0.0641038790345192,-0.071506142616272,-0.0589114725589752,-0.0485015884041786,-0.067547433078289
3,-0.0675148889422417,-0.0734132304787636,-0.0790022164583206,-0.0657199323177338,-0.0539624132215977,-0.0734913796186447
4,-0.0662988722324371,-0.0771524012088776,-0.0812038406729698,-0.0677980482578278,-0.0557496063411236,-0.0747967660427094
5,-0.0621720999479294,-0.0750195533037186,-0.0787967815995216,-0.0654261857271194,-0.0555077791213989,-0.0739292725920677
6,-0.059484276920557,-0.0720346421003342,-0.0756902173161507,-0.0626612901687622,-0.0548051297664642,-0.0770894661545753
7,-0.0603618361055851,-0.0702245235443115,-0.0742280855774879,-0.0614060088992119,-0.0547753572463989,-0.0838736146688461
8,-0.0643274039030075,-0.0670354068279266,-0.0744449198246002,-0.0601652078330517,-0.0566634386777878,-0.0879108384251595
9,-0.0706795752048492,-0.0620514191687107,-0.0755101442337036,-0.0583730489015579,-0.0605431795120239,-0.088509164750576
10,-0.076537236571312,-0.0551979653537273,-0.0760230720043182,-0.0561072640120983,-0.0633983984589577,-0.0869690999388695
11,-0.0785159766674042,-0.0453615784645081,-0.0746041983366013,-0.0527851171791554,-0.0619912892580032,-0.0820499360561371
12,-0.0778192207217216,-0.0350568331778049,-0.0715604647994041,-0.0494268164038658,-0.0579063594341278,-0.0751414224505425
13,-0.0772088691592216,-0.0286648329347372,-0.0679536312818527,-0.0478264577686787,-0.0545436814427376,-0.070428304374218
14,-0.0770992040634155,-0.0272286888211966,-0.0646087005734444,-0.0482683964073658,-0.0527223534882069,-0.0705695897340775
15,-0.0778043940663338,-0.0284709986299276,-0.0626381486654282,-0.0496883541345596,-0.0517326481640339,-0.0736980065703392
16,-0.0792839676141739,-0.0297530982643366,-0.0615849234163761,-0.0502340234816074,-0.0493033193051815,-0.0758082419633865
17,-0.0802417099475861,-0.0298851914703846,-0.0600863173604012,-0.0489636585116386,-0.0436416119337082,-0.0752035602927208
18,-0.0798466876149178,-0.0298700407147408,-0.0584282986819744,-0.0473525673151016,-0.0365978591144085,-0.0735021829605103
19,-0.0772194713354111,-0.0304722189903259,-0.0567532889544964,-0.046679824590683,-0.0315716229379177,-0.0725862979888916
20,-0.0730249285697937,-0.0314507484436035,-0.0551207885146141,-0.0466591864824295,-0.0320231653749943,-0.0721105188131332
21,-0.0693226978182793,-0.0318387001752853,-0.053160022944212,-0.0459255464375019,-0.037990391254425,-0.0696453601121902
22,-0.0649087503552437,-0.0287632998079062,-0.0480331219732761,-0.0425778105854988,-0.0436282828450203,-0.0629064962267876
23,-0.0581035502254963,-0.0215049367398024,-0.0392569899559021,-0.0369657464325428,-0.045085895806551,-0.0523874461650848
24,-0.0501736104488373,-0.0135171925649047,-0.0304085649549961,-0.0315482467412949,-0.0433000288903713,-0.0404994785785675
25,-0.0425715185701847,-0.00820917449891567,-0.0241809207946062,-0.0285337213426828,-0.0390335693955421,-0.0311481952667236
26,-0.0375997796654701,-0.00768310343846679,-0.0221651326864958,-0.0297633204609156,-0.0342801213264465,-0.0291114002466202
27,-0.0380568653345108,-0.012378497980535,-0.0247999932616949,-0.0350318737328053,-0.0319925881922245,-0.0354403555393219
28,-0.0432696491479874,-0.0188704021275043,-0.0294452961534262,-0.0408245958387852,-0.0321968458592892,-0.0456305295228958
29,-0.0501179471611977,-0.0231140945106745,-0.0338465645909309,-0.0449536219239235,-0.0343116670846939,-0.0545607432723045
30,-0.0556467957794666,-0.0236395038664341,-0.0378293581306934,-0.0481357388198376,-0.0378697067499161,-0.0592323392629623
31,-0.0568387694656849,-0.0191249884665012,-0.0395062416791916,-0.0493566133081913,-0.0397183448076248,-0.0572919137775898
32,-0.0519669912755489,-0.00940344482660294,-0.0368805564939976,-0.0466264300048351,-0.0365030355751514,-0.0492349565029144
33,-0.0428915210068226,0.00187278294470161,-0.0324375070631504,-0.0416624024510384,-0.0288315061479807,-0.0402032434940338
34,-0.0332376845180988,0.0105023784562945,-0.0298672821372747,-0.0378089509904385,-0.0204447638243437,-0.0341273956000805
35,-0.0248436443507671,0.0150669943541288,-0.0295679960399866,-0.0357297919690609,-0.0146530130878091,-0.0300283748656511
36,-0.0173913426697254,0.0166850779205561,-0.0300617124885321,-0.0339600704610348,-0.0122435223311186,-0.0260364860296249
37,-0.0110898790881038,0.0168579611927271,-0.0301106795668602,-0.0313605107367039,-0.011628245934844,-0.0233169421553612
38,-0.00805260520428419,0.0153768435120583,-0.0294359996914864,-0.0288681909441948,-0.0122726652771235,-0.0253377743065357
39,-0.00963738933205605,0.0119282212108374,-0.028407160192728,-0.0282421130686998,-0.0158834122121334,-0.0328529216349125
40,-0.0139962872490287,0.00761087657883763,-0.0274425726383924,-0.0297071654349566,-0.0225213449448347,-0.0427741445600986
41,-0.0171969216316938,0.00480860378593206,-0.0266198962926865,-0.0316707789897919,-0.0294270310550928,-0.0511890053749084
42,-0.0150804007425904,0.00634251488372684,-0.0243862140923738,-0.0316230095922947,-0.0322481133043766,-0.0550154857337475
43,-0.00659637385979295,0.0104405684396625,-0.0198531355708838,-0.0293694380670786,-0.0288974605500698,-0.0549702942371368
44,0.00315165752544999,0.0105127478018403,-0.0161631647497416,-0.0288190077990294,-0.0229674391448498,-0.0554003268480301
45,0.00825401116162539,0.00564936082810164,-0.0163547489792109,-0.0320909842848778,-0.0186290685087442,-0.0569453909993172
46,0.00764576392248273,0.0019180451054126,-0.0188645217567682,-0.0358514562249184,-0.0163853503763676,-0.055651992559433
47,0.00274175545200706,0.00187390693463385,-0.0203531887382269,-0.0369006171822548,-0.0154445394873619,-0.0500868782401085
48,-0.0058267479762435,0.00234856083989143,-0.0203042235225439,-0.0362778268754482,-0.0158332958817482,-0.0442161113023758
49,-0.0172844957560301,0.000807428092230111,-0.0204092003405094,-0.0366010777652264,-0.0174704287201166,-0.0435869842767715
50,-0.027753796428442,-0.000838204170577228,-0.0201689600944519,-0.0376213304698467,-0.0181961301714182,-0.0479533784091473
51,-0.0326103493571281,0.00059712229995057,-0.0170535519719124,-0.0367124080657959,-0.0148777337744832,-0.051884051412344
52,-0.0313194096088409,0.0055531351827085,-0.011338084936142,-0.0328680463135242,-0.0073092426173389,-0.0521817207336426
53,-0.0267387144267559,0.0125147458165884,-0.00661432510241866,-0.0273467451334,0.00050411483971402,-0.0492348447442055
54,-0.0214111879467964,0.0201131887733936,-0.00476282369345427,-0.021397951990366,0.00461004348471761,-0.0446414351463318
55,-0.0166258569806814,0.0270245634019375,-0.00479438994079828,-0.0162173174321651,0.00490680430084467,-0.0409170426428318
56,-0.013688936829567,0.0309730842709541,-0.00639962870627642,-0.0138644808903337,0.0035358564928174,-0.0407626591622829
57,-0.0132036879658699,0.0313812084496021,-0.00956932175904512,-0.014300774782896,0.00146605761256069,-0.04331024736166
58,-0.0157030057162046,0.030250558629632,-0.0141838574782014,-0.0153039759024978,-0.0030274719465524,-0.0438217520713806
59,-0.0216848254203796,0.0285431575030088,-0.0202961005270481,-0.0162766724824905,-0.010609082877636,-0.0403785407543182
60,-0.0289635676890612,0.0260364133864641,-0.0258988961577415,-0.0180498957633972,-0.01856011711061,-0.0377171896398067
61,-0.035298828035593,0.0231873914599419,-0.0297216232866049,-0.0213073045015335,-0.0245187785476446,-0.0411594100296497
62,-0.0416139848530293,0.0207262020558119,-0.0336282812058926,-0.0260624475777149,-0.0283126588910818,-0.0498906038701534
63,-0.0490933358669281,0.01872294023633,-0.0388684459030628,-0.0310649387538433,-0.0309311710298061,-0.0585987903177738
64,-0.0567060373723507,0.0163136664777994,-0.0440042614936829,-0.0347949862480164,-0.0330398678779602,-0.0624522343277931
65,-0.0628670379519463,0.0126056587323546,-0.0464565455913544,-0.03600699827075,-0.03443244099617,-0.0591252706944942
66,-0.0663918703794479,0.00888201221823692,-0.0447563156485558,-0.0335313081741333,-0.0340897366404533,-0.0494199767708778
67,-0.0668178573250771,0.00751936016604304,-0.0403593890368938,-0.0288757365196943,-0.0314428471028805,-0.0386517904698849
68,-0.0653433352708817,0.0093928836286068,-0.0362050496041775,-0.0252441633492708,-0.0281133707612753,-0.0332700796425343
69,-0.0632440745830536,0.0143258031457663,-0.0329505242407322,-0.0229254066944122,-0.0256440695375204,-0.0338210389018059
70,-0.0619132369756699,0.0200978051871061,-0.0300748199224472,-0.0211710445582867,-0.0244104657322168,-0.0362988598644733
71,-0.0637900084257126,0.0223417337983847,-0.0288910306990147,-0.0216105841100216,-0.0252410639077425,-0.0387464910745621
72,-0.0685631856322289,0.018693957477808,-0.0304279010742903,-0.0260727889835835,-0.027379471808672,-0.0428079105913639
73,-0.0725027024745941,0.011445770971477,-0.0332084484398365,-0.0332783050835133,-0.0285233575850725,-0.0486923269927502
74,-0.0742991268634796,0.00447092391550541,-0.0364137254655361,-0.040409479290247,-0.0301091931760311,-0.0525873899459839
75,-0.0756101757287979,-0.000462358351796865,-0.0405846759676933,-0.0460911467671394,-0.0345176868140697,-0.0516903549432755
76,-0.0761991292238235,-0.00253600114956498,-0.0434217229485512,-0.0490315742790699,-0.038672149181366,-0.0471527799963951
77,-0.0742434486746788,-0.000970647437497973,-0.0415016748011112,-0.0479604043066502,-0.0390860922634602,-0.0429670102894306
78,-0.069008082151413,0.00469261733815074,-0.0345568396151066,-0.042748898267746,-0.0364122502505779,-0.0414854101836681
79,-0.0625008791685104,0.0130380596965551,-0.0262710694223642,-0.0355424135923386,-0.0333083383738995,-0.041590504348278
80,-0.0583934672176838,0.0200503151863813,-0.0213644001632929,-0.0306292269378901,-0.0322859212756157,-0.0420517921447754
81,-0.0575309507548809,0.0229616183787584,-0.0207154769450426,-0.0301015786826611,-0.0336224175989628,-0.0427445024251938
82,-0.0582568570971489,0.0227596368640661,-0.0218783635646105,-0.0326593928039074,-0.0362139642238617,-0.0439493209123611
83,-0.0594257079064846,0.0221694260835648,-0.0222759936004877,-0.0360062979161739,-0.0391463898122311,-0.0454117245972157
84,-0.0604517385363579,0.0214467067271471,-0.020817780867219,-0.0389742739498615,-0.0413057282567024,-0.0483981594443321
85,-0.0627715066075325,0.0176953785121441,-0.0196623392403126,-0.0423993021249771,-0.0436911061406136,-0.0552471131086349
86,-0.0675460398197174,0.011032403446734,-0.0207809433341026,-0.0459822118282318,-0.0472983941435814,-0.0620508007705212
87,-0.070573091506958,0.00794292893260717,-0.0208902768790722,-0.0459964089095593,-0.0476396754384041,-0.0603882931172848
88,-0.0687011405825615,0.0126013830304146,-0.0174358412623405,-0.0409845113754272,-0.0417072176933289,-0.0503926277160645
89,-0.064801037311554,0.0211295504122972,-0.0138270370662212,-0.0349434912204742,-0.0335844606161118,-0.0410138554871082
90,-0.0622009448707104,0.0276700258255005,-0.0142483720555902,-0.0319410711526871,-0.0280427522957325,-0.0375911146402359
91,-0.0614132843911648,0.0296072009950876,-0.0190533790737391,-0.0325241647660732,-0.025563582777977,-0.0388159342110157
92,-0.0613807365298271,0.0284529384225607,-0.0246661100536585,-0.033897265791893,-0.0231066141277552,-0.0412749648094177
93,-0.0627401918172836,0.026950228959322,-0.0279689636081457,-0.033288661390543,-0.0193051230162382,-0.0420558154582977
94,-0.0661588758230209,0.0266178566962481,-0.0283997412770987,-0.0306384339928627,-0.0149538917466998,-0.0400193147361279
95,-0.0694391429424286,0.0281397122889757,-0.0259908977895975,-0.027168296277523,-0.0102201718837023,-0.0364451482892036
96,-0.0706556886434555,0.0303476061671972,-0.0223749969154596,-0.0243819393217564,-0.0061248391866684,-0.0343047752976418
97,-0.0687478631734848,0.0317036025226116,-0.0190240535885096,-0.0222908575087786,-0.00290395598858595,-0.0344701074063778
98,-0.0629626959562302,0.0321062654256821,-0.0150180906057358,-0.019222779199481,0.000176915636984631,-0.0339608862996101
99,-0.0554257407784462,0.0306401476264,-0.010328559204936,-0.0149329146370292,0.00121343031059951,-0.0308352708816528
100,-0.050201989710331,0.0260801501572132,-0.00683947559446096,-0.0110113779082894,-0.00173527770675719,-0.0269322879612446
101,-0.0478705540299416,0.0205915700644255,-0.00466212164610624,-0.00859797466546297,-0.00592613313347101,-0.024388749152422
102,-0.0463069714605808,0.0177991520613432,-0.00253560347482562,-0.00789815280586481,-0.00871577486395836,-0.0229339245706797
103,-0.0465281829237938,0.0178556442260742,-0.00191188661847264,-0.00889557786285877,-0.0124593442305923,-0.0202118456363678
104,-0.0503451637923718,0.0178714841604233,-0.00461032567545772,-0.0110477143898606,-0.0177800729870796,-0.0158556867390871
105,-0.0557819604873657,0.0155795263126493,-0.00894591119140387,-0.0139586115255952,-0.0205238163471222,-0.0136282965540886
106,-0.0590855814516544,0.0120075847953558,-0.0114158261567354,-0.016965901479125,-0.0184174105525017,-0.0142958052456379
107,-0.0581645965576172,0.00974856223911047,-0.0100792916491628,-0.0186527241021395,-0.0145337088033557,-0.0142988413572311
108,-0.0537428595125675,0.00946081802248955,-0.00680602993816137,-0.0192393865436316,-0.0140968402847648,-0.0126434257254004
109,-0.0479142367839813,0.0107664009556174,-0.00456549553200603,-0.0193720869719982,-0.0180096663534641,-0.0107485912740231
110,-0.0425051413476467,0.0130030708387494,-0.00352247478440404,-0.0180002469569445,-0.0216919854283333,-0.00927526969462633
111,-0.0385375842452049,0.0144515009596944,-0.00233198143541813,-0.0150696486234665,-0.0226311106234789,-0.00830453354865313
112,-0.0359223373234272,0.01465770509094,-0.000525610870681703,-0.0120894210413098,-0.0233095847070217,-0.00766419479623437
113,-0.0338123254477978,0.0161909591406584,0.0022005457431078,-0.00887175556272268,-0.0244389791041613,-0.0053786588832736
114,-0.0315382182598114,0.0218553487211466,0.00654090195894241,-0.00384775572456419,-0.0232135802507401,0.00136692635715008
115,-0.0297410041093826,0.0302571579813957,0.0107143567875028,0.00178105698432773,-0.0194720178842545,0.011627783998847
116,-0.0295330062508583,0.0367418639361858,0.0109641356393695,0.00495107285678387,-0.0163603220134974,0.0211035031825304
117,-0.0300108697265387,0.0400612205266953,0.00677131116390228,0.00572747364640236,-0.0153300184756517,0.0277312342077494
118,-0.0293393973261118,0.0428099185228348,0.00176900054793805,0.00639525474980474,-0.0140223326161504,0.0309063456952572
119,-0.0284391660243273,0.0454633831977844,-0.000910769973415881,0.00748091982677579,-0.0102399867027998,0.0297257639467716
120,-0.0288873687386513,0.0468165427446365,-0.00127538817469031,0.00849138200283051,-0.00540126208215952,0.0282792840152979
121,-0.02968854829669,0.0472910180687904,-0.000871757103595883,0.00979745201766491,-0.00222382741048932,0.0324665606021881
122,-0.0307659395039082,0.0466990061104298,-0.00148484029341489,0.0107894549146295,-0.00264462269842625,0.0388206094503403
123,-0.0344006977975369,0.0433237925171852,-0.00472152978181839,0.00914257764816284,-0.00733501790091395,0.0384609960019588
124,-0.0402747020125389,0.0381690710783005,-0.00961403921246529,0.00496471393853426,-0.0144516425207257,0.0320007652044296
125,-0.0450186803936958,0.0346116945147514,-0.0124215167015791,0.00151379848830402,-0.0203337427228689,0.0279066041111946
126,-0.0476632975041866,0.0336805656552315,-0.0116715766489506,0.000306503876345232,-0.0229577422142029,0.0286271199584007
127,-0.0496442802250385,0.0340544395148754,-0.00953684281557798,9.39742167247459E-05,-0.0231611300259829,0.0291676986962557
128,-0.0508756153285503,0.0344907008111477,-0.00802321545779705,-1.76467665369273E-06,-0.0223655924201012,0.0259423479437828
129,-0.0494416430592537,0.0354009792208672,-0.00695538287982345,0.000893089221790433,-0.0205897707492113,0.0211107078939676
130,-0.0441510193049908,0.0376080386340618,-0.00548626435920596,0.00325900875031948,-0.0174860581755638,0.0178060065954924
131,-0.0361660420894623,0.0408668108284473,-0.00389216397888958,0.00580765446648002,-0.0145932799205184,0.0170108508318663
132,-0.0275949947535992,0.0460813269019127,-0.00176022911909968,0.00809946749359369,-0.0128110935911536,0.0204135328531265
133,-0.0203703679144382,0.0529618337750435,0.00216791150160134,0.0102708209306002,-0.0100246770307422,0.0271278973668814
134,-0.016307232901454,0.0571737475693226,0.00659275380894542,0.0106641333550215,-0.00570281874388456,0.0319917872548103
135,-0.0159056354314089,0.0562034621834755,0.00830742064863443,0.00835861172527075,-0.00316871632821858,0.0339321121573448
136,-0.0178728736937046,0.0514855869114399,0.00561303272843361,0.00384458340704441,-0.00434970576316118,0.0341133773326874
137,-0.019747706130147,0.0458785519003868,0.000182996562216431,-0.00179450633004308,-0.00661617144942284,0.0309544205665588
138,-0.0188994575291872,0.042658269405365,-0.00363615551032126,-0.00531911058351398,-0.00680020730942488,0.0265329349786043
139,-0.0163450557738543,0.0408710837364197,-0.00425081560388207,-0.00527019938454032,-0.00661443453282118,0.0243117269128561
140,-0.0165586937218905,0.0359495729207993,-0.00486182235181332,-0.00486128963530064,-0.00995050091296434,0.0239921119064093
141,-0.0195275973528624,0.0277781430631876,-0.00667344685643911,-0.00594595912843943,-0.0154728544875979,0.0255570188164711
142,-0.0204285997897387,0.0207499302923679,-0.00678991805762053,-0.00607452774420381,-0.0194932296872139,0.0297453124076128
143,-0.0178699400275946,0.0167209729552269,-0.00398832513019443,-0.00415035616606474,-0.0224870890378952,0.0339865796267986
144,-0.0146879581734538,0.013858811929822,-0.000118543983262498,-0.00285576633177698,-0.0261595956981182,0.033439613878727
145,-0.0134453242644668,0.0103660887107253,0.00271394848823547,-0.00421664956957102,-0.0302218031138182,0.0266736168414354
146,-0.0132276611402631,0.008362359367311,0.00438015768304467,-0.00601038243621588,-0.0325876213610172,0.0195721983909607
147,-0.0104371290653944,0.0113973915576935,0.00640860060229898,-0.00480318628251553,-0.0304057020694017,0.0193034652620554
148,-0.00547892600297928,0.0167862977832556,0.00793410371989012,-0.00202647666446865,-0.0243660937994719,0.0237767901271582
149,-0.00191019859630615,0.0197412762790918,0.00704209320247173,-0.000966334249824286,-0.0178980231285095,0.026652155444026
150,-0.000263833208009601,0.0203761216253042,0.00496217841282487,-0.00157506053801626,-0.0132959336042404,0.0264618992805481
151,-0.000221971306018531,0.0191461276262999,0.00299252197146416,-0.00318146031349897,-0.0129094095900655,0.0240620877593756
152,-0.00231006788089871,0.0146039826795459,4.89044214191381E-05,-0.00564923835918307,-0.0179014895111322,0.0201452560722828
153,-0.00574360508471727,0.00682254182174802,-0.00467209937050939,-0.00810292549431324,-0.0259589292109013,0.0157884135842323
154,-0.00846862979233265,-0.00225723348557949,-0.0099378302693367,-0.0104426108300686,-0.0332657136023045,0.0106017319485545
155,-0.00873262155801058,-0.00987462606281042,-0.0138288270682096,-0.0132774664089084,-0.0373417139053345,0.00371277658268809
156,-0.00783928483724594,-0.0152292596176267,-0.016838176175952,-0.016993997618556,-0.0390355624258518,-0.00356891681440175
157,-0.00917426962405443,-0.0205122511833906,-0.0208926275372505,-0.0220358781516552,-0.0403699688613415,-0.00957005843520164
158,-0.0136464266106486,-0.026159243658185,-0.0252854693681002,-0.0273929871618748,-0.0416032336652279,-0.0132386460900307
159,-0.0185537599027157,-0.0295967217534781,-0.0271235629916191,-0.0303752515465021,-0.0416149832308292,-0.0136928129941225
160,-0.0205972623080015,-0.0292720533907413,-0.0247189253568649,-0.0294274426996708,-0.0399961248040199,-0.0103852916508913
161,-0.0196523014456034,-0.0267845373600721,-0.0196831710636616,-0.0261902566999197,-0.0390958450734615,-0.00448261527344584
162,-0.0174408461898565,-0.0247129555791616,-0.0150072034448385,-0.0232974905520678,-0.0401108153164387,0.000822323723696172
163,-0.0140976412221789,-0.0231641847640276,-0.0112734464928508,-0.0206758826971054,-0.0395398512482643,0.00412904284894466
164,-0.00963555835187435,-0.0207376293838024,-0.00728073110803962,-0.016955453902483,-0.0352270044386387,0.00670670764520764
165,-0.00609580567106605,-0.0174572356045246,-0.00309895887039602,-0.0130450911819935,-0.0303493235260248,0.00909214094281197
166,-0.00568854855373502,-0.0145487599074841,-0.000204152995138429,-0.0113292206078768,-0.0279712695628405,0.00948877539485693
167,-0.00899011734873056,-0.0131108369678259,-6.26888358965516E-05,-0.0129552222788334,-0.0286854095757008,0.0061364914290607
168,-0.0137077290564775,-0.0123514775186777,-0.00160559208597988,-0.0161258801817894,-0.0304473135620356,0.00116026168689132
169,-0.015963438898325,-0.0110553381964564,-0.00275374366901815,-0.0180668197572231,-0.0297330040484667,-0.00196718634106219
170,-0.0157089475542307,-0.0105202337726951,-0.00488609075546265,-0.0185781922191381,-0.0278497040271759,-0.00365194049663842
171,-0.0155676985159516,-0.0117856375873089,-0.00917804520577192,-0.0183949358761311,-0.027778223156929,-0.00529130501672626
172,-0.0159133076667786,-0.0130365258082747,-0.0124989300966263,-0.0166271030902863,-0.0272313766181469,-0.00460804766044021
173,-0.0159014742821455,-0.0115473670884967,-0.0108064888045192,-0.012033456005156,-0.0222410354763269,0.00150450749788433
174,-0.0152919003739953,-0.00669825449585915,-0.00389126362279058,-0.00537573779001832,-0.0129684628918767,0.0120246531441808
175,-0.0145312268286943,-0.000464007694972679,0.00435558706521988,0.000881525978911668,-0.00379485660232604,0.0214958116412163
176,-0.0146097149699926,0.00408372655510902,0.0103463400155306,0.00442807842046022,0.00125422212295234,0.0247415602207184
177,-0.0155843095853925,0.00499898893758655,0.0142165469005704,0.00500623835250735,0.00221681571565568,0.0222004856914282
178,-0.0174918863922358,0.00202769273892045,0.0168180242180824,0.00359781226143241,0.000520131085067987,0.0166490469127893
179,-0.0196116957813501,-0.00287300581112504,0.0186045039445162,0.00157114688772708,-0.00187147920951247,0.00989578478038311
180,-0.0193758606910706,-0.00591326272115111,0.0216879993677139,0.00137233128771186,-0.00197489513084292,0.00489083770662546
181,-0.015733502805233,-0.00571810640394688,0.0265302639454603,0.00384658039547503,0.00102165434509516,0.00377448042854667
182,-0.00944721512496471,-0.00318248942494392,0.0312500335276127,0.00795123912394047,0.00579609582200646,0.00624175602570176
183,-0.00248486711643636,0.00051927799358964,0.0338673666119576,0.0119988629594445,0.00944030936807394,0.00951848365366459
184,0.00251141376793385,0.00384379713796079,0.0330576486885548,0.0139219705015421,0.00958356168121099,0.00987942237406969
185,0.00513601209968328,0.0064332433976233,0.0301206912845373,0.0138100488111377,0.00756652839481831,0.00724156480282545
186,0.00770183838903904,0.00906881969422102,0.028644448146224,0.0139069706201553,0.00773207610473037,0.00514584081247449
187,0.00997720006853342,0.0104783112183213,0.0291082840412855,0.0143591165542603,0.0115386238321662,0.0047623966820538
188,0.00882429722696543,0.00804886873811483,0.0286746136844158,0.0132126659154892,0.0161896664649248,0.00308826891705394
189,0.00403736159205437,0.00302722048945725,0.0268033817410469,0.0109065743163228,0.0204003714025021,0.000197823057533242
190,-0.0021114016417414,-0.000948501052334905,0.0239621121436358,0.00869270227849483,0.0237009581178427,-0.000201609087525867
191,-0.00620815670117736,-0.00177639990579337,0.0208227578550577,0.00709274271503091,0.0250967387109995,0.00228835549205542
192,-0.00494752079248428,0.00163761130534112,0.0199803058058023,0.00820798333734274,0.0250972993671894,0.00596752902492881
193,0.00014952413039282,0.00651684449985623,0.0211860798299313,0.0114185716956854,0.0244923140853643,0.00802171602845192
194,0.00409776205196977,0.00730357924476266,0.0201907977461815,0.0124093536287546,0.0221822913736105,0.00602200254797935
195,0.00472145015373826,0.00338857737369835,0.0150485448539257,0.0103085972368717,0.016588943079114,0.00293904985301197
196,0.00345422374084592,-0.00189030240289867,0.00789201725274324,0.00749346008524299,0.00933604128658772,0.00210344139486551
197,0.00151087075937539,-0.00700269034132361,0.0010989933507517,0.00472650304436684,0.00409145141020417,0.00117332872468978
198,-0.00077228614827618,-0.0116257723420858,-0.0043759997934103,0.00161659670993686,0.00182684150058776,-0.00356420478783548
199,-0.00253644771873951,-0.0149933965876698,-0.00789727177470922,-0.00132610101718456,0.00177050195634365,-0.0122625110670924
200,-0.00463569164276123,-0.0176503658294678,-0.00996571592986584,-0.00393906515091658,0.00293950503692031,-0.0223222151398659
201,-0.00906883645802736,-0.0211693700402975,-0.0126810325309634,-0.00732308812439442,0.00281940074637532,-0.0309990271925926
202,-0.0135836116969585,-0.0240377224981785,-0.0158704277127981,-0.0101861376315355,0.00156912487000227,-0.0341150723397732
203,-0.0139672691002488,-0.0232732966542244,-0.0167691186070442,-0.00942988507449627,0.00247497926466167,-0.0294881202280521
204,-0.0113708702847362,-0.0200533419847488,-0.0158286783844233,-0.00599942961707711,0.00460741808637977,-0.0219799261540174
205,-0.00936800148338079,-0.0161152370274067,-0.0160222463309765,-0.00283670634962618,0.00401106663048267,-0.0161132477223873
206,-0.00857140682637692,-0.0111819403246045,-0.0177606306970119,-0.00126787321642041,0.000157782225869596,-0.0132479341700673
207,-0.00885689817368984,-0.00688401889055967,-0.0199410989880562,-0.00216051889583468,-0.00477980775758624,-0.0136523675173521
208,-0.00894904974848032,-0.00510782049968839,-0.0214665532112122,-0.00447236187756062,-0.00744461454451084,-0.0142327165231109
209,-0.00475138612091541,-0.0050033750012517,-0.0205117128789425,-0.00519704492762685,-0.00480804312974215,-0.0129861393943429
210,0.00638306187465787,-0.00471167732030153,-0.0157132968306541,-0.00278005516156554,0.00205511366948485,-0.0117253242060542
211,0.0211045648902655,-0.00501622818410397,-0.00877766497433186,0.000977707444690168,0.00850719772279263,-0.0112770115956664
212,0.0323959216475487,-0.0088066253811121,-0.00381017825566232,0.00279954937286675,0.0102764340117574,-0.0106326565146446
213,0.037238284945488,-0.0155030591413379,-0.00217163027264178,0.00220001465640962,0.00761664751917124,-0.00971666723489761
214,0.0379557684063911,-0.0211370773613453,-0.00181259366218001,0.00169695715885609,0.00509661016985774,-0.00947325956076384
215,0.0366132594645023,-0.0243444554507732,-0.00141887261997908,0.00247216341085732,0.00638266606256366,-0.0113123496994376
216,0.0332334190607071,-0.0270011518150568,-0.00105949700810015,0.00282286223955452,0.0111333848908544,-0.0166835933923721
217,0.027386736124754,-0.0298181530088186,-0.00157134863547981,0.0011256611905992,0.0148410489782691,-0.0244486685842276
218,0.0190768018364906,-0.0320143140852451,-0.00421090563759208,-0.00263986177742481,0.0124580413103104,-0.0310738701373339
219,0.0099337687715888,-0.0335530303418636,-0.00834616087377071,-0.00732520082965493,0.00435377052053809,-0.0337816178798676
220,0.00238609127700329,-0.0342580564320087,-0.0116328112781048,-0.0111154494807124,-0.0047595277428627,-0.031237006187439
221,-0.00316214235499501,-0.0330432169139385,-0.0134567702189088,-0.0133458571508527,-0.0124567477032542,-0.024645771831274
222,-0.00702779414132237,-0.0297997239977121,-0.0142681142315269,-0.0148458397015929,-0.0187186691910028,-0.0190199185162783
223,-0.00891061220318079,-0.0260955039411783,-0.0140473004430532,-0.0163816604763269,-0.0231800898909569,-0.0187846720218658
224,-0.0105840694159269,-0.0231298413127661,-0.0141893047839403,-0.0180585812777281,-0.0266140457242727,-0.0226247292011976
225,-0.014343136921525,-0.0208502821624279,-0.016004653647542,-0.0193670988082886,-0.0296668633818626,-0.0261264201253653
226,-0.0191741120070219,-0.0183119047433138,-0.018425302579999,-0.0196723826229572,-0.0310230627655983,-0.0267070364207029
227,-0.0237194113433361,-0.0152842774987221,-0.0205379165709019,-0.0199288669973612,-0.0311148762702942,-0.0249802563339472
228,-0.0292556528002024,-0.0139023987576365,-0.0233660582453012,-0.02240358479321,-0.0333439223468304,-0.0237546283751726
229,-0.0361991226673126,-0.0155702298507094,-0.0278531275689602,-0.0274618826806545,-0.0391963273286819,-0.0249567087739706
230,-0.0409600846469402,-0.0176912248134613,-0.0323303230106831,-0.0321259014308453,-0.0445854663848877,-0.0266332067549229
231,-0.0382417887449265,-0.0171976927667856,-0.032892968505621,-0.0328359007835388,-0.0427604280412197,-0.0257118456065655
232,-0.0285223834216595,-0.0148859517648816,-0.0292979162186384,-0.0295417364686728,-0.0336369797587395,-0.0222187526524067
233,-0.0191353522241116,-0.0121366707608104,-0.0262970253825188,-0.0244418382644653,-0.0245407689362764,-0.0172083955258131
234,-0.014775070361793,-0.00771968113258481,-0.026024866849184,-0.0184542778879404,-0.0196201484650373,-0.0113026900216937
235,-0.0142222978174686,-0.00182865315582603,-0.0268749576061964,-0.012562969699502,-0.0186699833720922,-0.00627989275380969
236,-0.0150405876338482,0.00192016235087067,-0.0280501917004585,-0.00898600742220879,-0.0213500782847404,-0.00462299026548862
237,-0.0154348555952311,0.00146504561416805,-0.028916023671627,-0.00846334360539913,-0.0256515555083752,-0.0057274466380477
238,-0.0148016391322017,-0.00115998042747378,-0.0284618698060513,-0.00935913156718016,-0.0293441712856293,-0.00483753858134151
239,-0.0136571899056435,-0.0031103475484997,-0.0264176912605762,-0.00975766405463219,-0.0317874550819397,0.000615828321315348
240,-0.0121565824374557,-0.00388189125806093,-0.0228490438312292,-0.00926049053668976,-0.0327018760144711,0.00645360676571727
241,-0.00966917909681797,-0.00463266437873244,-0.018117431551218,-0.00851721782237291,-0.0314873345196247,0.00720272399485111
242,-0.00636982871219516,-0.00519108027219772,-0.0132790515199304,-0.00760816037654877,-0.0275251492857933,0.00345004955306649
243,-0.00500147789716721,-0.00363749079406261,-0.00978300627321005,-0.00631753681227565,-0.0227141473442316,0.000518943299539387
244,-0.00758735276758671,2.57406882155919E-05,-0.00769706349819899,-0.00521479453891516,-0.0194954033941031,0.000713014567736536
245,-0.0121657568961382,0.0029398559127003,-0.00630053039640188,-0.0050652539357543,-0.0173959545791149,0.00174036261159927
246,-0.0148730222135782,0.00391771597787738,-0.00582698313519359,-0.00524757010862231,-0.0143480198457837,0.00254188734106719
247,-0.0130742527544498,0.00470755202695727,-0.00545594422146678,-0.00375117175281048,-0.0089248763397336,0.0045353639870882
248,-0.00782481580972672,0.00657004257664084,-0.00393885187804699,-3.65819905709941E-05,-0.00307735754176974,0.00817819777876139
249,-0.00308092031627893,0.00872955378144979,-0.00302327470853925,0.00339360279031098,-0.000449664570624009,0.0116156563162804
250,0.000447992526460439,0.0123896971344948,-0.0028766414616257,0.00645998679101467,0.000248435389949009,0.0152273727580905
251,0.00540202064439654,0.0198001302778721,-0.000265643669990823,0.0110390335321426,0.00372771942056715,0.0200807470828295
252,0.01092778891325,0.028433782979846,0.00473565049469471,0.0149934748187661,0.0104101756587625,0.022541930899024
253,0.0142486309632659,0.0351991504430771,0.00927791371941566,0.0162966307252645,0.0171654727309942,0.0206027813255787
254,0.0160354506224394,0.0416619926691055,0.0125284157693386,0.0166499633342028,0.022534566000104,0.0174326617270708
255,0.017903707921505,0.0493093393743038,0.0154056530445814,0.0177329983562231,0.0260463822633028,0.0154820354655385
256,0.0196467097848654,0.0553855560719967,0.0180198941379786,0.0187989491969347,0.0268798731267452,0.0147685753181577
257,0.0212416779249907,0.0556003823876381,0.0196374896913767,0.0184796173125505,0.025768231600523,0.0144722079858184
258,0.0224865637719631,0.0480357706546783,0.0196627993136644,0.0161890164017677,0.0234686285257339,0.0127095393836498
259,0.0224603209644556,0.0361180603504181,0.0182015243917704,0.0123801678419113,0.0198725443333387,0.00898534152656794
260,0.0207435395568609,0.0254829917103052,0.0167523268610239,0.008516451343894,0.016238659620285,0.00465352367609739
261,0.0179222151637077,0.0188180152326822,0.0167387090623379,0.00613757269456983,0.0136820981279016,0.000916401215363294
262,0.0150518519803882,0.0165328942239285,0.0174675025045872,0.00573359476402402,0.0109197366982698,-0.0014875449705869
263,0.0133996605873108,0.0186035148799419,0.0179202910512686,0.00713677704334259,0.00715829478576779,-0.00222618062980473
264,0.014282463118434,0.0245435368269682,0.0190890748053789,0.0105468984693289,0.00456470623612404,-0.000973405607510358
265,0.0169188342988491,0.0319698415696621,0.0217167139053345,0.01493557728827,0.00503307161852717,0.00137103104498237
266,0.0188345387578011,0.0385028794407845,0.0242771524935961,0.0185316223651171,0.00694382144138217,0.00388111709617078
267,0.0191389955580235,0.0439149625599384,0.0253591723740101,0.021355802193284,0.00739448377862573,0.00705450167879462
268,0.0190272871404886,0.0474564991891384,0.0253265704959631,0.0235423687845469,0.00608825124800205,0.0102122714743018
269,0.0192647203803062,0.0468471683561802,0.0243603345006704,0.0235560685396194,0.00436923420056701,0.0112858610227704
270,0.0197467561811209,0.042020283639431,0.022508978843689,0.0208640806376934,0.00404527550563216,0.00965259317308664
271,0.0201198775321245,0.0356278643012047,0.0211370456963778,0.0174060612916946,0.00721354596316814,0.00611482420936227
272,0.0202005207538605,0.0295054484158754,0.0216162726283073,0.0153916487470269,0.0134210819378495,0.00134993263054639
273,0.0207835640758276,0.0249772313982248,0.0239418521523476,0.015675799921155,0.0193844046443701,-0.00313502107746899
274,0.0221907254308462,0.0233950428664684,0.0270220562815666,0.0176038518548012,0.022033404558897,-0.00521469535306096
275,0.0225863810628653,0.0230742245912552,0.0284290444105864,0.0185914877802134,0.0193820279091597,-0.00540280248969793
276,0.0203354023396969,0.0206349473446608,0.0259575415402651,0.0163332987576723,0.0119845476001501,-0.00629185233265162
277,0.0179827325046062,0.016833832487464,0.021306237205863,0.0128055792301893,0.00534176267683506,-0.0081091420724988
278,0.0186045169830322,0.0146787250414491,0.0175035689026117,0.0114498874172568,0.00414455821737647,-0.00914926175028086
279,0.0207852143794298,0.0133113879710436,0.0147479865700006,0.0117303170263767,0.00656188186258078,-0.00962792430073023
280,0.0222261063754559,0.0101429615169764,0.0122163919731975,0.0111007858067751,0.00829259492456913,-0.011687470600009
281,0.0232213158160448,0.00592424999922514,0.0102606229484081,0.00978145748376846,0.00785331428050995,-0.0158221032470465
282,0.0252513103187084,0.00362417171709239,0.0101187564432621,0.00996691640466452,0.00720523297786713,-0.0197261422872543
283,0.0280479490756989,0.00341059849597514,0.010928844101727,0.0106233358383179,0.00773287238553166,-0.0229899641126394
284,0.0296319965273142,0.00373447872698307,0.0101047400385141,0.00907210260629654,0.00850054621696472,-0.0264088455587626
285,0.0306582488119602,0.00653115520253778,0.00928492657840252,0.00771018862724304,0.0108802886679769,-0.0260850135236979
286,0.0330558642745018,0.0131048951297998,0.0114043857902288,0.00950642209500074,0.0171540379524231,-0.0193138252943754
287,0.0355840921401978,0.0206564366817474,0.0145819364115596,0.01239865552634,0.0244863107800484,-0.0100963180884719
288,0.0361026041209698,0.0264060143381357,0.0157344713807106,0.0132707841694355,0.0279978271573782,-0.00379463587887585
289,0.0334864296019077,0.0274283941835165,0.0130957458168268,0.0100434850901365,0.0254993420094252,-0.00425869040191174
290,0.0281160064041615,0.0224276650696993,0.00701709697023034,0.00339550455100834,0.0188714116811752,-0.0109027624130249
291,0.0229705441743135,0.0153848873451352,0.000805425981525332,-0.00289677223190665,0.0135546084493399,-0.0181577131152153
292,0.0210962761193514,0.0110488124191761,-0.00294615258462727,-0.00620120484381914,0.0137352049350739,-0.0225969795137644
293,0.0223067943006754,0.0109429797157645,-0.00455999979749322,-0.0067081986926496,0.0181001797318459,-0.0248191319406033
294,0.0240925364196301,0.0135437464341521,-0.00607840530574322,-0.00655325036495924,0.021422965452075,-0.0264593586325645
295,0.0255212932825089,0.0158070474863052,-0.00857669021934271,-0.00737759657204151,0.0208807103335857,-0.0289543867111206
296,0.0278198104351759,0.0166078004986048,-0.0110235121101141,-0.00811412651091814,0.0184186957776546,-0.0317894071340561
297,0.03158013895154,0.0166760571300983,-0.0126338023692369,-0.00671627698466182,0.01618885807693,-0.0316807962954044
298,0.0363083593547344,0.0163265522569418,-0.0133297499269247,-0.00316221825778484,0.0151545591652393,-0.0271036345511675
299,0.0424965508282185,0.0161065459251404,-0.0119032636284828,0.00119750632438809,0.0172499343752861,-0.0210538264364004
300,0.05013807117939,0.0168912932276726,-0.00800057593733072,0.0059552532620728,0.0219161324203014,-0.0157230775803328
301,0.057572640478611,0.019432844594121,-0.00318309827707708,0.0115106906741858,0.0257666427642107,-0.00935997720807791
302,0.0647223219275475,0.0244117956608534,0.00209529045969248,0.0179337318986654,0.0289945807307959,-0.000734052271582186
303,0.0710089355707169,0.0304013360291719,0.00709582632407546,0.0236817970871925,0.0344851389527321,0.0068040881305933
304,0.0736601650714874,0.0346495360136032,0.00958052836358547,0.026729479432106,0.0420151576399803,0.00896917283535004
305,0.0731542706489563,0.0364324934780598,0.00991393812000752,0.0276480298489332,0.0488947667181492,0.00517422845587134
306,0.0722866132855415,0.0366473384201527,0.0109509276226163,0.0282769184559584,0.0533737540245056,-0.00072597642429173
307,0.0709942951798439,0.0356900468468666,0.013463226146996,0.0290755238384008,0.0549353137612343,-0.00367663567885756
308,0.0689266473054886,0.0338876023888588,0.0159712210297585,0.0302122253924608,0.0549351423978806,-0.00265166396275163
309,0.0674308463931084,0.0327346734702587,0.0175436474382877,0.0324803292751312,0.0556830279529095,0.000583546003326774
310,0.0660940185189247,0.0324329547584057,0.0173909086734056,0.0356333218514919,0.0568431504070759,0.00503372168168426
311,0.0644238591194153,0.0320416130125523,0.0155716659501195,0.0390638262033463,0.0577174946665764,0.0111833615228534
312,0.0648163482546806,0.0328913293778896,0.0150244487449527,0.0439733676612377,0.0602140054106712,0.0197780560702085
313,0.0693870261311531,0.0362371876835823,0.0188801474869251,0.0516237914562225,0.0657730475068092,0.0292309354990721
314,0.0760678648948669,0.0399731956422329,0.0256547871977091,0.0601425692439079,0.0719621703028679,0.0359644927084446
315,0.0796469151973724,0.0411816649138927,0.0298070348799229,0.0653750374913216,0.0739160925149918,0.0377096608281136
316,0.0787705630064011,0.0411443449556828,0.0293664187192917,0.0665550827980042,0.0711401775479317,0.0364961586892605
317,0.0767806023359299,0.0434395670890808,0.0272440072149038,0.066664420068264,0.0674485862255096,0.036761611700058
318,0.0765170231461525,0.0488165318965912,0.0263339746743441,0.0681132227182388,0.0657243207097054,0.0412231758236885
319,0.0790398940443993,0.0552834235131741,0.0284622944891453,0.0713455602526665,0.0677616000175476,0.0491547957062721
320,0.0838357955217361,0.0610070340335369,0.0336545445024967,0.0751529037952423,0.073827251791954,0.0574785172939301
321,0.0892119631171227,0.0660374686121941,0.0397110171616077,0.0785183981060982,0.0813655331730843,0.0644676834344864
322,0.0921138003468513,0.0700321421027184,0.043795321136713,0.0805879682302475,0.0858794078230858,0.0699597075581551
323,0.0906496271491051,0.0723319500684738,0.0451570525765419,0.0810065269470215,0.0850314870476723,0.0743122920393944
324,0.0862679705023766,0.0730642378330231,0.0451301634311676,0.080574557185173,0.0811943858861923,0.0777436122298241
325,0.0805490240454674,0.0713621452450752,0.0443517863750458,0.0794846788048744,0.0774039775133133,0.0789365172386169
326,0.0738769322633743,0.0664763748645782,0.0426416248083115,0.077518455684185,0.074313685297966,0.0767413824796677
327,0.0675339996814728,0.0604250058531761,0.0407393425703049,0.0754421427845955,0.0723237246274948,0.0730750262737274
328,0.0635681599378586,0.0570143461227417,0.0400038994848728,0.0748321264982224,0.0723676830530167,0.0725219696760178
329,0.063211165368557,0.0571566633880138,0.0412908867001534,0.0763287767767906,0.0751024484634399,0.076405942440033
330,0.0649249479174614,0.0572612322866917,0.0439782179892063,0.0779539048671722,0.0796295404434204,0.081157810986042
331,0.0650809183716774,0.0547906048595905,0.0460897721350193,0.0775755345821381,0.0832954049110413,0.0843894332647324
332,0.0631309971213341,0.0517037473618984,0.0471450053155422,0.0763736665248871,0.0850561559200287,0.0862473845481873
333,0.0616352409124374,0.0501040704548359,0.0484659373760223,0.0763031914830208,0.0856018960475922,0.0874297022819519
334,0.0631881356239319,0.0507061742246151,0.0519191324710846,0.0782779976725578,0.0870184823870659,0.0905711576342583
335,0.0683831572532654,0.0540832504630089,0.0579759292304516,0.0824189186096191,0.0912608280777931,0.0977984815835953
336,0.0746189132332802,0.0594938993453979,0.0645589083433151,0.0868396982550621,0.0970148667693138,0.105275347828865
337,0.0785090699791908,0.0653742253780365,0.0692874416708946,0.0892888829112053,0.101524658501148,0.106906242668629
338,0.0774331018328667,0.0697930231690407,0.0702079460024834,0.088451623916626,0.101674862205982,0.101354703307152
339,0.0709708109498024,0.07133699208498,0.0670009255409241,0.0843665972352028,0.0959440693259239,0.0920957252383232
340,0.0618697665631771,0.0701354593038559,0.0614620484411716,0.0783071294426918,0.0862346217036247,0.0831051915884018
341,0.0546041317284107,0.0677405223250389,0.0562090389430523,0.0724379494786263,0.0773412212729454,0.077496699988842
342,0.0515572316944599,0.0651642382144928,0.0528813078999519,0.0690745934844017,0.0736533850431442,0.0763724818825722
343,0.0514015704393387,0.0617863573133945,0.0507519841194153,0.0682681128382683,0.0742736607789993,0.0766760036349297
344,0.0525217354297638,0.0580267943441868,0.0484551973640919,0.0679472088813782,0.0748964473605156,0.0748111680150032
345,0.053068321198225,0.0548813454806805,0.0448155701160431,0.0655402392148972,0.0716810151934624,0.0705040916800499
346,0.0511471852660179,0.0528243705630302,0.039403822273016,0.0606499277055264,0.0637392103672028,0.0663427487015724
347,0.04743367806077,0.0518683195114136,0.033324871212244,0.0552114583551884,0.0542364828288555,0.0631659775972366
348,0.045228186994791,0.0521017052233219,0.0289300587028265,0.0509801022708416,0.0479945540428162,0.0595762766897678
349,0.046563658863306,0.0539454147219658,0.0280050970613956,0.0486248210072517,0.0461669266223907,0.0558640211820602
350,0.0494007244706154,0.0561296828091145,0.0298531334847212,0.0474122948944569,0.045427467674017,0.0532525442540646
351,0.0521418005228043,0.0570889003574848,0.0332708545029163,0.0465014204382896,0.0450111888349056,0.0535057447850704
352,0.0538823679089546,0.0553429573774338,0.0372090078890324,0.044959481805563,0.0460886508226395,0.0567907281219959
353,0.0517925173044205,0.0490549989044666,0.040075208991766,0.0418067649006844,0.0465019159018993,0.0593886487185955
354,0.0466559492051601,0.04051299020648,0.0420215018093586,0.0387361906468868,0.0449609644711018,0.0596111677587032
355,0.0432877950370312,0.0353092141449451,0.0442231148481369,0.0384806245565414,0.0432336069643497,0.060108944773674
356,0.0433891862630844,0.0349274985492229,0.045695461332798,0.0402964614331722,0.0421135425567627,0.0614520199596882
357,0.0454615280032158,0.0365926064550877,0.0453562028706074,0.0417068749666214,0.042024914175272,0.0616184882819653
358,0.0483151152729988,0.0386593677103519,0.0440944917500019,0.0421626642346382,0.0433489754796028,0.0604600794613361
359,0.0510592795908451,0.0406649820506573,0.0424576885998249,0.0420351922512054,0.0448702611029148,0.0583600290119648
360,0.0517963543534279,0.0410766825079918,0.0393608510494232,0.0406794883310795,0.0445404835045338,0.0542114898562431
361,0.0494936928153038,0.0393091961741447,0.0341904424130917,0.0378735139966011,0.0416491366922855,0.0488756373524666
362,0.0465067885816097,0.0369853638112545,0.02844731323421,0.0352281481027603,0.0382324531674385,0.0456141568720341
363,0.0454407520592213,0.0352529138326645,0.0237135924398899,0.034142404794693,0.0362252406775951,0.0454362370073795
364,0.046283945441246,0.0334245823323727,0.0204118322581053,0.0342860221862793,0.035451103001833,0.0464120544493198
365,0.0482328906655312,0.0313079319894314,0.0191934201866388,0.0351790338754654,0.0350045822560787,0.0477735698223114
366,0.0519147552549839,0.0310171283781528,0.0218628495931625,0.0376801937818527,0.036396212875843,0.0503486581146717
367,0.0566237084567547,0.033379077911377,0.0282049421221018,0.0415612831711769,0.0409647151827812,0.0533975586295128
368,0.0591507665812969,0.0363216288387775,0.034372691065073,0.0446893908083439,0.0451554581522942,0.0557681731879711
369,0.0588776282966137,0.0382805392146111,0.037858709692955,0.0459624566137791,0.0462214276194572,0.0568568594753742
370,0.0587711185216904,0.0401541516184807,0.0397559441626072,0.0465143546462059,0.046582717448473,0.0579118095338345
371,0.0611929334700108,0.0437339879572392,0.0417189411818981,0.0484241954982281,0.0496222451329231,0.0621665716171265
372,0.0648722946643829,0.0482227504253387,0.0432597249746323,0.0516952350735664,0.0548988357186317,0.0683703720569611
373,0.0669182389974594,0.0510385073721409,0.0426976308226585,0.053830724209547,0.0592675805091858,0.0707971155643463
374,0.067029170691967,0.0522321872413158,0.0408446863293648,0.0538328178226948,0.0615234859287739,0.0684346258640289
375,0.0666734427213669,0.0539117269217968,0.0399799309670925,0.0530001632869244,0.0615882650017738,0.0656371936202049
376,0.0665099695324898,0.0572404116392136,0.0401974022388458,0.0526119135320187,0.0591997876763344,0.0651067867875099
377,0.0662590339779854,0.0618474707007408,0.0398931838572025,0.0530430786311626,0.055253479629755,0.0664171949028969
378,0.0651721507310867,0.0661375299096107,0.0378788560628891,0.0535457916557789,0.0507105141878128,0.0685506910085678
379,0.0639506503939629,0.0693372413516045,0.0353006087243557,0.053756982088089,0.0472262054681778,0.0714204162359238
380,0.0643258169293404,0.0715510249137878,0.0336713865399361,0.0540153644979,0.0468436367809772,0.07392418384552
381,0.0656996294856071,0.0722626969218254,0.0322276204824448,0.0542682707309723,0.0487315841019154,0.0736976638436317
382,0.0668214559555054,0.0718062818050385,0.0309590455144644,0.0551014058291912,0.0511778108775616,0.0711049437522888
383,0.0678952112793922,0.0707476437091827,0.031125720590353,0.0570072457194328,0.0531180314719677,0.0684348568320274
384,0.0685045793652534,0.0688676610589027,0.0320390537381172,0.058514092117548,0.0522568859159946,0.0665024295449257
385,0.0678194686770439,0.0673128962516785,0.0323526188731194,0.0581432171165943,0.0476431995630264,0.0649258866906166
386,0.0653229430317879,0.0674321204423904,0.0319165922701359,0.0559280700981617,0.0411173403263092,0.0624831914901733
387,0.060578852891922,0.0688047558069229,0.031354658305645,0.0525105372071266,0.0351791679859161,0.0585704632103443
388,0.0545241609215736,0.0709852427244186,0.031677532941103,0.0491873472929001,0.03197306022048,0.0544765070080757
389,0.0491810999810696,0.0745046809315681,0.03308030590415,0.0473629385232925,0.0316311307251453,0.051257811486721
390,0.0449153818190098,0.0790749117732048,0.0340465046465397,0.0470229387283325,0.0312085952609777,0.0498211309313774
391,0.0396417565643787,0.0820984616875649,0.0314815267920494,0.046182919293642,0.0268558841198683,0.0511778481304646
392,0.0335555113852024,0.0812703669071198,0.0250445399433374,0.0437190793454647,0.0197210889309645,0.0541440099477768
393,0.0297155752778053,0.0764638260006905,0.0184879209846258,0.0408260524272919,0.0150045743212104,0.055568665266037
394,0.0281681008636951,0.0682467967271805,0.0134585639461875,0.0378132611513138,0.0135991759598255,0.0524876676499844
395,0.0277028232812881,0.0589692667126656,0.010090371593833,0.0353499576449394,0.0138058876618743,0.0453983284533024
396,0.0274829771369696,0.0509115681052208,0.00812887866050005,0.0341422818601131,0.013650169596076,0.0372201465070248
397,0.0266303084790707,0.0448940359055996,0.00558509305119514,0.0327866785228252,0.0104475943371654,0.030223885551095
398,0.0254029352217913,0.0407945141196251,0.00115690415259451,0.0298053771257401,0.0046572252176702,0.0238184649497271
399,0.0230704061686993,0.0373521260917187,-0.00434561539441347,0.0252831149846315,-0.000442136661149561,0.0167569722980261
400,0.0189051758497953,0.0353618413209915,-0.00813991110771894,0.0214257501065731,-0.00169135711621493,0.0119567178189754
401,0.014634745195508,0.0360273793339729,-0.00783388875424862,0.0206806138157845,0.00228091515600681,0.0111687900498509
402,0.0137884402647614,0.0389430150389671,-0.00235505634918809,0.0247097574174404,0.0104856388643384,0.0130172455683351
403,0.0170505698770285,0.0424920320510864,0.00667858123779297,0.0324133560061455,0.018649423494935,0.0161476172506809
404,0.0210540946573019,0.0451546050608158,0.0149945337325335,0.0397753976285458,0.0212522763758898,0.0202297754585743
405,0.0228144749999046,0.0470701083540916,0.0200891569256783,0.0439673624932766,0.0162955336272717,0.0251657888293266
406,0.0214459244161844,0.0483519695699215,0.0224714819341898,0.0448889508843422,0.0072509404271841,0.0286636706441641
407,0.0170669555664063,0.0478999204933643,0.0221132952719927,0.0432081185281277,-0.000489209080114961,0.0277430564165115
408,0.0108029488474131,0.0450211875140667,0.0181281659752131,0.0398794747889042,-0.00500145507976413,0.0229099988937378
409,0.00440507708117366,0.0411385074257851,0.0118305282667279,0.0368249304592609,-0.00781879294663668,0.0181591510772705
410,-0.00141962710767984,0.0367801301181316,0.00545029994100332,0.0345355682075024,-0.0100326100364327,0.0147640500217676
411,-0.00541464472189546,0.0314487628638744,0.00173605896998197,0.0333031490445137,-0.00991014204919338,0.0122268898412585
412,-0.00521295191720128,0.0268045626580715,0.00359512865543365,0.0348540730774403,-0.00631052441895008,0.0125109190121293
413,-0.00174542644526809,0.024460332468152,0.00901545211672783,0.0383496358990669,-0.00301277847029269,0.0159676484763622
414,0.000177363806869835,0.0236988496035337,0.0123871713876724,0.0402610152959824,-0.00506731355562806,0.020030340179801
415,-0.00230389996431768,0.0226170737296343,0.0114374710246921,0.0386191233992577,-0.0126731339842081,0.0220216996967793
416,-0.00718806544318795,0.0194113962352276,0.00781686510890722,0.0341411381959915,-0.0214697569608688,0.0201026182621717
417,-0.0114898160099983,0.0131885074079037,0.00371436635032296,0.0283991731703281,-0.0277711544185877,0.014852243475616
418,-0.0151344127953053,0.00481012975797057,-4.63462565676309E-05,0.0222988743335009,-0.0319291651248932,0.00819594692438841
419,-0.0200334209948778,-0.00400841981172562,-0.00397387240082026,0.0160053446888924,-0.0359626337885857,0.00135363719891757
420,-0.0269326418638229,-0.0119820665568113,-0.00763659924268723,0.0103282956406474,-0.0405271016061306,-0.00376759353093803
421,-0.0331706516444683,-0.0172488540410995,-0.00825724843889475,0.00711300410330296,-0.0438528433442116,-0.00523699400946498
422,-0.0351420864462852,-0.0187635477632284,-0.00388626614585519,0.00689291302114725,-0.0434682816267014,-0.00385608151555061
423,-0.0331397354602814,-0.0180923584848642,0.00369003391824663,0.00830875616520643,-0.0407219417393208,-0.00203399709425867
424,-0.0304275471717119,-0.0173843260854483,0.0109972460195422,0.00950762908905745,-0.0393115915358067,-0.0016483812360093
425,-0.0281887091696262,-0.0170392040163279,0.0164826884865761,0.0100573943927884,-0.0385930202901363,-0.00261563900858164
426,-0.025539567694068,-0.0159318968653679,0.0209444668143988,0.0114591680467129,-0.0348709747195244,-0.00248779985122383
427,-0.0237747523933649,-0.0145532619208097,0.0245432965457439,0.0138800973072648,-0.029244352132082,-0.000344335596309975
428,-0.025262888520956,-0.0147659480571747,0.0269234962761402,0.0159802194684744,-0.0261245537549257,0.0025570597499609
429,-0.0301286578178406,-0.0173624847084284,0.0285683423280716,0.0163145866245031,-0.0263704843819141,0.00463736755773425
430,-0.0379631072282791,-0.0231979265809059,0.0281820651143789,0.0127724902704358,-0.0291013866662979,0.00411932542920113
431,-0.0485984496772289,-0.0325545705854893,0.0236242413520813,0.00470596039667726,-0.034700445830822,0.000936748168896884
432,-0.0590196214616299,-0.0423835776746273,0.0172928404062986,-0.00483753578737378,-0.0411406606435776,-0.00330394133925438
433,-0.0649813935160637,-0.047748826444149,0.0144272334873676,-0.0112162018194795,-0.0437329933047295,-0.00722247781231999
434,-0.0663031712174416,-0.0474059022963047,0.0155526241287589,-0.0131090646609664,-0.042021244764328,-0.00987609755247831
435,-0.0654199048876762,-0.0441106036305428,0.0173282902687788,-0.0126468297094107,-0.0404649190604687,-0.0104421600699425
436,-0.063158206641674,-0.0400505140423775,0.0189217384904623,-0.0113157741725445,-0.0410173013806343,-0.0109138311818242
437,-0.0601719133555889,-0.0356442183256149,0.020763024687767,-0.00902921240776777,-0.0419680885970593,-0.0138255506753922
438,-0.0581629760563374,-0.0305388756096363,0.0211741011589766,-0.00569112692028284,-0.041374996304512,-0.0172135680913925
439,-0.0566412210464478,-0.0243138708174229,0.0200436525046825,-0.00163612328469753,-0.0367586202919483,-0.0183188822120428
440,-0.0535610765218735,-0.0169858261942863,0.0199459493160248,0.00256487773731351,-0.0278681460767984,-0.0166807770729065
441,-0.0497843623161316,-0.0104476530104876,0.0207583960145712,0.00490764388814569,-0.0202018301934004,-0.0140687739476562
442,-0.0476643443107605,-0.00680859014391899,0.0202961154282093,0.00363620859570801,-0.0189345329999924,-0.0123648708686233
443,-0.0480479784309864,-0.00608541071414948,0.0182443186640739,-0.00030492793302983,-0.0229625217616558,-0.0113453166559339
444,-0.0507235638797283,-0.00768397655338049,0.015109864063561,-0.0048197228461504,-0.0282013472169638,-0.0100917620584369
445,-0.0550792440772057,-0.011605579406023,0.0107407085597515,-0.00887528620660305,-0.0326034463942051,-0.00856224820017815
446,-0.0594032146036625,-0.0170080680400133,0.0063955239020288,-0.011878477409482,-0.0353528186678886,-0.00709571363404393
447,-0.0606748275458813,-0.0212024673819542,0.00499602826312184,-0.0127795515581965,-0.0339804403483868,-0.00505363382399082
448,-0.0577579662203789,-0.0216404087841511,0.00732343457639217,-0.0111841037869453,-0.0276151243597269,-0.000923194398637861
449,-0.0529512390494347,-0.0180084966123104,0.0111620994284749,-0.00763583462685347,-0.0199540816247463,0.00592145835980773
450,-0.0486230105161667,-0.0121084256097674,0.013847479596734,-0.00361043238081038,-0.0143537614494562,0.0130999200046062
451,-0.0451076962053776,-0.00514307199046016,0.0146246608346701,-0.000345862499671057,-0.0102340551093221,0.0184403844177723
452,-0.0433305352926254,0.00167100399266928,0.0138523308560252,0.00129260763060302,-0.00680058263242245,0.0220942683517933
453,-0.0447950586676598,0.00616054050624371,0.0111861359328032,0.000416366674471647,-0.00487516820430756,0.0237475521862507
454,-0.0492671094834805,0.00715174758806825,0.00610824814066291,-0.00293747475370765,-0.00538112269714475,0.0217535700649023
455,-0.0560451522469521,0.00372637156397104,-0.000897958059795201,-0.00875841733068228,-0.00897219590842724,0.0148875191807747
456,-0.0635977685451508,-0.00353880715556443,-0.0076688788831234,-0.0159859880805016,-0.0146623970940709,0.0060776500031352
457,-0.0703834667801857,-0.0120976893231273,-0.0128517346456647,-0.0227401778101921,-0.0202851798385382,-0.000717073795385659
458,-0.0775828510522842,-0.0206671431660652,-0.0177891720086336,-0.0291712749749422,-0.0250952765345573,-0.00557113997638226
459,-0.0859252437949181,-0.0289851799607277,-0.0235304981470108,-0.0354739055037498,-0.029509287327528,-0.00934843253344297
460,-0.0936236828565598,-0.0359654389321804,-0.029714671894908,-0.0406592153012753,-0.0340474620461464,-0.0118896011263132
461,-0.0990102589130402,-0.0401258766651154,-0.0357041507959366,-0.0445864573121071,-0.0383700057864189,-0.0142599754035473
462,-0.102139934897423,-0.0417676456272602,-0.0402435176074505,-0.0481443144381046,-0.0412046276032925,-0.0194178260862827
463,-0.103571094572544,-0.0422575883567333,-0.0416711308062077,-0.0511321350932121,-0.0421047657728195,-0.0271139908581972
464,-0.10250747948885,-0.0413947962224483,-0.0387994535267353,-0.0515595264732838,-0.0418334379792213,-0.0316536873579025
465,-0.0984671041369438,-0.0387990511953831,-0.0323318056762218,-0.0485765188932419,-0.0423981584608555,-0.029052097350359
466,-0.0918564051389694,-0.0347940437495708,-0.0241811238229275,-0.0435683615505695,-0.0443946868181229,-0.0219194255769253
467,-0.0841054469347,-0.0309961941093206,-0.016085047274828,-0.0393792018294334,-0.0460347943007946,-0.0172650385648012
468,-0.0784872397780418,-0.0295153148472309,-0.00980102550238371,-0.0382664017379284,-0.0472601614892483,-0.0177413616329432
469,-0.0755064710974693,-0.028242077678442,-0.00520554464310408,-0.0384607315063477,-0.048248652368784,-0.017656609416008
470,-0.0743928551673889,-0.0251820497214794,-0.00284464075230062,-0.0386176444590092,-0.0488325357437134,-0.0144473761320114
471,-0.0781187191605568,-0.0234516132622957,-0.00671135541051626,-0.0411411784589291,-0.0520051307976246,-0.0123801697045565
472,-0.0855203941464424,-0.0227958001196384,-0.0154882865026593,-0.0442324951291084,-0.0575411058962345,-0.0105617810040712
473,-0.0902789235115051,-0.0202124323695898,-0.0219824034720659,-0.0437735877931118,-0.0600788928568363,-0.00596150336787105
474,-0.0905038937926292,-0.017943998798728,-0.023724514991045,-0.0411140434443951,-0.0585434027016163,-0.00259340996854007
475,-0.0879448875784874,-0.018513485789299,-0.0226609092205763,-0.0383877158164978,-0.0559491366147995,-0.00423070648685098
476,-0.0856131687760353,-0.0220357235521078,-0.020882835611701,-0.0367188826203346,-0.0546471104025841,-0.00979098118841648
477,-0.0872030630707741,-0.028883533552289,-0.0202040206640959,-0.0384156219661236,-0.0563280917704105,-0.0170367695391178
478,-0.0925369560718536,-0.0364986397325993,-0.0210655946284533,-0.0428948849439621,-0.0608076266944408,-0.022309934720397
479,-0.0970321893692017,-0.0402086973190308,-0.0223179627209902,-0.0463094115257263,-0.064848504960537,-0.0217746216803789
480,-0.0971837714314461,-0.0395653992891312,-0.0225310884416103,-0.0466109625995159,-0.0649191215634346,-0.0166047494858503
481,-0.0948830917477608,-0.0378360114991665,-0.0224689375609159,-0.0459407716989517,-0.0619698949158192,-0.0121912863105536
482,-0.0935338288545609,-0.036874245852232,-0.0241053700447083,-0.0474370382726192,-0.059700358659029,-0.011995174922049
483,-0.0934475138783455,-0.0373700186610222,-0.0269526075571775,-0.0512670092284679,-0.0594316534698009,-0.0162406079471111
484,-0.0935605987906456,-0.0404016934335232,-0.0289109572768211,-0.0554357506334782,-0.0607526078820229,-0.0237277541309595
485,-0.0923042669892311,-0.0452330820262432,-0.0286834333091974,-0.0582352876663208,-0.0629148706793785,-0.0321946553885937
486,-0.0888809189200401,-0.0493657849729061,-0.0266397148370743,-0.0592989213764668,-0.0653354898095131,-0.0391581729054451
487,-0.0849817991256714,-0.0512410551309586,-0.0247215982526541,-0.0593033097684383,-0.0677474811673164,-0.0434039533138275
488,-0.0830188766121864,-0.0513034388422966,-0.0248541161417961,-0.059564370661974,-0.0700798854231834,-0.0455850549042225
489,-0.0844221711158752,-0.0506635271012783,-0.0272840689867735,-0.0611007213592529,-0.0735889300704002,-0.0462977178394794
490,-0.0897936671972275,-0.0509830638766289,-0.0320221073925495,-0.0647769942879677,-0.0802002549171448,-0.0474652238190174
491,-0.0976590067148209,-0.0533980429172516,-0.0388583950698376,-0.0704109147191048,-0.0896429941058159,-0.0514648668467999
492,-0.103620730340481,-0.0564512200653553,-0.0454886965453625,-0.0756583511829376,-0.0984322279691696,-0.0567766726016998
493,-0.103850916028023,-0.057632852345705,-0.0489046759903431,-0.0780902802944183,-0.102179497480392,-0.0596806854009628
494,-0.099066473543644,-0.0558127872645855,-0.0477920137345791,-0.0765919238328934,-0.0999429002404213,-0.0577784329652786
495,-0.0938989669084549,-0.0542861595749855,-0.0443565398454666,-0.0737430676817894,-0.0955374985933304,-0.0548251904547215
496,-0.0919900014996529,-0.0569808706641197,-0.0421752110123634,-0.0737719982862473,-0.0926904305815697,-0.0564806088805199
497,-0.0933405607938766,-0.0611453242599964,-0.0419869162142277,-0.0760492160916328,-0.0918990671634674,-0.059723999351263
498,-0.0960854962468147,-0.0623430162668228,-0.0417379029095173,-0.0772250443696976,-0.0914889946579933,-0.0595876835286617
499,-0.0991827324032784,-0.0610391460359097,-0.0400861613452435,-0.0772163271903992,-0.0901057943701744,-0.0591206513345242
500,-0.103495486080647,-0.0602420344948769,-0.0391316488385201,-0.0783653110265732,-0.0891148522496223,-0.0633441135287285
501,-0.109108872711658,-0.0616728663444519,-0.0418802611529827,-0.081637404859066,-0.0903525725007057,-0.0716964602470398
502,-0.113637492060661,-0.0649030432105064,-0.0479541607201099,-0.0858553051948547,-0.092779166996479,-0.0806296691298485
503,-0.114848397672176,-0.0679728761315346,-0.0540545172989368,-0.0887549445033073,-0.0937947630882263,-0.0869919136166573
504,-0.112743280827999,-0.0693711787462235,-0.0574984401464462,-0.0894197002053261,-0.091813325881958,-0.0892966389656067
505,-0.108817741274834,-0.0697048977017403,-0.057862613350153,-0.089017778635025,-0.0877457782626152,-0.0886323153972626
506,-0.104628711938858,-0.0702929273247719,-0.0566410385072231,-0.0883362218737602,-0.0849032998085022,-0.0863261595368385
507,-0.101645074784756,-0.0726205557584763,-0.0570230707526207,-0.087867259979248,-0.0861174911260605,-0.0838661044836044
508,-0.0994664579629898,-0.0771653279662132,-0.0603102631866932,-0.0878691747784615,-0.0896005481481552,-0.0829683095216751
509,-0.0955483838915825,-0.0809823274612427,-0.063738115131855,-0.0873123705387115,-0.0913193672895432,-0.0824447199702263
510,-0.0882878974080086,-0.0801545009016991,-0.064006581902504,-0.0846656858921051,-0.089655302464962,-0.0788143277168274
511,-0.0787009224295616,-0.0745260491967201,-0.0598731860518456,-0.0792300999164581,-0.0849663466215134,-0.0706042796373367
512,-0.0691168606281281,-0.066904716193676,-0.05186752602458,-0.0715638175606728,-0.0785641446709633,-0.0594011321663857
513,-0.060356006026268,-0.0598128251731396,-0.041539654135704,-0.0627431869506836,-0.0712141245603561,-0.0484287813305855
514,-0.0528084933757782,-0.0554192215204239,-0.031906995922327,-0.0543805956840515,-0.0642945840954781,-0.041477158665657
515,-0.0472116433084011,-0.0545654185116291,-0.0258157830685377,-0.0479765348136425,-0.0599889680743217,-0.0395626835525036
516,-0.0428194403648376,-0.0556640923023224,-0.0232707727700472,-0.0435536317527294,-0.0575935132801533,-0.0397099778056145
517,-0.038679227232933,-0.0565868094563484,-0.0222831573337317,-0.0402438193559647,-0.0548351779580116,-0.0390894785523415
518,-0.0344036594033241,-0.0560301393270493,-0.0212429687380791,-0.0373970158398151,-0.0515691004693508,-0.0376640520989895
519,-0.0294775348156691,-0.0543816089630127,-0.0204289350658655,-0.0353025980293751,-0.049357995390892,-0.037460133433342
520,-0.0247979275882244,-0.05392125248909,-0.0211562216281891,-0.0348394773900509,-0.0484649278223515,-0.0403610877692699
521,-0.0224475096911192,-0.0554609857499599,-0.0241429135203362,-0.0356319956481457,-0.0468740426003933,-0.0442374758422375
522,-0.0221642665565014,-0.0564389266073704,-0.028454776853323,-0.035898569971323,-0.042552288621664,-0.0445330776274204
523,-0.0221739895641804,-0.0553599372506142,-0.032209724187851,-0.0351204834878445,-0.0370120815932751,-0.0420071259140968
524,-0.0228701774030924,-0.0546024739742279,-0.035714216530323,-0.03520368039608,-0.0345000550150871,-0.0426049679517746
525,-0.0254890695214272,-0.0547816231846809,-0.0400339774787426,-0.0366738960146904,-0.0354930460453033,-0.0472155958414078
526,-0.0300425197929144,-0.0527425333857536,-0.0436444133520126,-0.0370433740317822,-0.0374799370765686,-0.0496098324656487
527,-0.0353060029447079,-0.0488158240914345,-0.0447661057114601,-0.0351674407720566,-0.0391386896371841,-0.047236230224371
528,-0.0400417447090149,-0.0473862551152706,-0.045006662607193,-0.0330766476690769,-0.0400155745446682,-0.0429479628801346
529,-0.0432179048657417,-0.0495840013027191,-0.0464225448668003,-0.0329387709498405,-0.0401740856468678,-0.0385516695678234
530,-0.0434996671974659,-0.0533572062849998,-0.0474741607904434,-0.0348382741212845,-0.0393780879676342,-0.0355757437646389
531,-0.0414187423884869,-0.0575010366737843,-0.0463772751390934,-0.037290345877409,-0.0380702763795853,-0.034990731626749
532,-0.0386409163475037,-0.0606615096330643,-0.0434451401233673,-0.0387235023081303,-0.0368789657950401,-0.034458864480257
533,-0.0351177528500557,-0.0614524967968464,-0.0397779233753681,-0.0386674888432026,-0.0335974171757698,-0.0309572648257017
534,-0.0304890237748623,-0.060798104852438,-0.0366933234035969,-0.0374432876706123,-0.0262040328234434,-0.024584736675024
535,-0.0264802314341068,-0.0601648651063442,-0.0348344817757607,-0.0353636331856251,-0.0178050249814987,-0.0183140076696873
536,-0.0247763376682997,-0.0590867064893246,-0.0336723551154137,-0.0328088402748108,-0.0122074577957392,-0.0155178066343069
537,-0.0237233228981495,-0.0556264445185661,-0.0308708809316158,-0.0290092695504427,-0.00746067799627781,-0.0162941683083773
538,-0.0212938357144594,-0.048828549683094,-0.0244932398200035,-0.0226686745882034,-0.000524194096215069,-0.0170103367418051
539,-0.0198324751108885,-0.04160151258111,-0.0172615516930819,-0.015853239223361,0.00615194626152515,-0.0154200689867139
540,-0.0219401698559523,-0.0364548675715923,-0.0123643465340137,-0.0111427875235677,0.00946549884974957,-0.0113645410165191
541,-0.0244535934180021,-0.0304701011627913,-0.00802082382142544,-0.00658949185162783,0.0110979583114386,-0.00355724897235632
542,-0.0231425166130066,-0.0216325875371695,-0.00227920501492918,-0.00024189030227717,0.0138856256380677,0.00777387991547585
543,-0.0190732143819332,-0.0134132299572229,0.00317774550057948,0.00608082814142108,0.0180434696376324,0.0185289196670055
544,-0.0139716034755111,-0.00751769077032804,0.0076612257398665,0.0121014658361673,0.0235258787870407,0.0265644434839487
545,-0.00732370046898723,-0.00297374045476317,0.0119875008240342,0.0187020990997553,0.0309356767684221,0.031832180917263
546,-0.000951254565734416,-0.00194817362353206,0.0142375770956278,0.0226991418749094,0.0382591001689434,0.0315038040280342
547,0.00316039123572409,-0.00508505292236805,0.012931632809341,0.0218309592455626,0.0433993302285671,0.0257983077317476
548,0.00552803371101618,-0.0086454302072525,0.00979028269648552,0.0183869395405054,0.0471023581922054,0.0202079936861992
549,0.00539729557931423,-0.0104051800444722,0.00577839696779847,0.014888639561832,0.0492934882640839,0.0180648509413004
550,0.00162280967924744,-0.010923033580184,0.000771244638599455,0.0125500690191984,0.0487425550818443,0.0191863048821688
551,-0.00420309044420719,-0.0115560060366988,-0.0039808452129364,0.011399214155972,0.0457882694900036,0.021801458671689
552,-0.00959901139140129,-0.0134872645139694,-0.00699941767379642,0.0106011405587196,0.0418634451925755,0.0239876359701157
553,-0.0137650528922677,-0.0162972584366798,-0.00867479294538498,0.00971830356866121,0.037102896720171,0.025681521743536
554,-0.0158260948956013,-0.0177503284066916,-0.00907258968800306,0.00923001300543547,0.0319810137152672,0.027282802388072
555,-0.0141759309917688,-0.0157812535762787,-0.00633203610777855,0.0105238202959299,0.0296200830489397,0.0292935762554407
556,-0.0108191259205341,-0.0109572941437364,-0.000782227143645287,0.0139269828796387,0.0304597467184067,0.0322644747793674
557,-0.00987931434065104,-0.00614912901073694,0.00489876605570316,0.017454469576478,0.0309898164123297,0.0338499508798122
558,-0.0123664597049356,-0.00455047329887748,0.0088702728971839,0.0183288902044296,0.0289315078407526,0.0301166642457247
559,-0.0169589035212994,-0.00871193688362837,0.0097454534843564,0.0150214713066816,0.0241440758109093,0.0204709228128195
560,-0.0214014779776335,-0.0178184900432825,0.00752904731780291,0.0091696185991168,0.0181088894605637,0.00951384007930756
561,-0.0224539749324322,-0.0263584777712822,0.00504425074905157,0.00457647861912847,0.0138487704098225,0.00239660870283842
562,-0.0191830229014158,-0.0306290164589882,0.004539895337075,0.00274198316037655,0.0128881353884935,-0.00182892859447747
563,-0.0143753318116069,-0.0324909575283527,0.00480970367789268,0.00239995564334095,0.0129054365679622,-0.00522787729278207
564,-0.0106248278170824,-0.0350386090576649,0.00374354212544858,0.00166109460406005,0.0112213343381882,-0.00602607522159815
565,-0.00846122484654188,-0.0390554629266262,0.00137413735501468,-0.00107470480725169,0.00841167010366917,-0.00420889817178249
566,-0.0071584265679121,-0.0417173467576504,-0.000325009314110503,-0.00447956612333655,0.00731873279437423,-0.00130073050968349
567,-0.00633259397000074,-0.0403582938015461,-0.000383393780793995,-0.00632477039471269,0.00981151591986418,0.00137309997808188
568,-0.00583629868924618,-0.0357893444597721,0.000350370828527957,-0.00658692419528961,0.0151317780837417,0.00259875995106995
569,-0.00413665547966957,-0.0293943826109171,0.00141749915201217,-0.00542978383600712,0.0213085450232029,0.00299026910215616
570,0.00010338311403757,-0.0218904986977577,0.00306128221563995,-0.00255458522588015,0.0265703499317169,0.0042518014088273
571,0.00578419072553515,-0.0149091705679893,0.00496013136580586,0.00161829346325248,0.0290754828602076,0.00753438519313931
572,0.00959804933518171,-0.0103972163051367,0.00489314645528793,0.00511898845434189,0.0271830540150404,0.0105257211253047
573,0.0102953044697642,-0.00823855400085449,0.00156709994189441,0.00641072075814009,0.0241662301123142,0.0095793092623353
574,0.00985388550907373,-0.00807442143559456,-0.00258106761611998,0.00614396249875426,0.0261499471962452,0.00519990501925349
575,0.0094793401658535,-0.0105064837262034,-0.00479148700833321,0.00572010781615973,0.0326079651713371,0.000923006795346737
576,0.00877887289971113,-0.014556622132659,-0.00461624842137098,0.00577071914449334,0.0378141365945339,-0.000608034548349679
577,0.00716034136712551,-0.0184189360588789,-0.00331337959505618,0.00582090392708778,0.0384600423276424,0.000270812946837395
578,0.00559873972088099,-0.0202935691922903,-0.0016896678134799,0.00621374323964119,0.0363203771412373,0.00222349120303988
579,0.0070157335139811,-0.0173145662993193,0.0013481107307598,0.00944160390645266,0.0361455529928207,0.00733791431412101
580,0.0119217894971371,-0.00952182989567518,0.00594039959833026,0.0160595197230577,0.0397798418998718,0.0171675607562065
581,0.0165315605700016,-0.00224412092939019,0.00948506966233253,0.0222742762416601,0.0440057888627052,0.0269961431622505
582,0.0185273233801126,0.00138293870259076,0.0107778534293175,0.025664059445262,0.0464817360043526,0.03182253241539
583,0.0187233369797468,0.0024917759001255,0.0102291246876121,0.0264576300978661,0.0471221134066582,0.0309753306210041
584,0.0182486120611429,0.00196210364811122,0.00688927341252565,0.0242017805576324,0.045271709561348,0.0263963937759399
585,0.018894474953413,0.00121174298692495,0.00178839894942939,0.0194939076900482,0.0421364158391953,0.0209551993757486
586,0.0216394271701574,0.00147810229100287,-0.00189169531222433,0.0144516853615642,0.0400278903543949,0.0157282836735249
587,0.0245833210647106,0.00212589744478464,-0.00393900321796536,0.0107510481029749,0.0386062972247601,0.0109743978828192
588,0.0255388151854277,0.00249479617923498,-0.00617946498095989,0.00902397278696299,0.036704309284687,0.00753620965406299
589,0.0253465753048658,0.00264005595818162,-0.00835920870304108,0.00886827893555164,0.0350582413375378,0.00549066672101617
590,0.0264314748346806,0.00296737556345761,-0.00776551431044936,0.0103216534480453,0.0352270752191544,0.00483554322272539
591,0.0293204933404922,0.00489014992490411,-0.00314485980197787,0.0140349725261331,0.0376521572470665,0.00648061512038112
592,0.0326357670128345,0.00959044508635998,0.00321467965841293,0.0194433461874723,0.0413635335862637,0.010500374250114
593,0.0343327596783638,0.014706140384078,0.00776145234704018,0.0241134446114302,0.0442558489739895,0.0140118943527341
594,0.0327749326825142,0.0161367133259773,0.0080928998067975,0.0249048192054033,0.0438983291387558,0.013255512341857
595,0.0285632871091366,0.0133580071851611,0.00485653942450881,0.0211034417152405,0.0399576015770435,0.00813900586217642
596,0.0232058670371771,0.00868279580026865,-0.00025861689937301,0.0150579893961549,0.0340402312576771,0.00254161981865764
597,0.0178742948919535,0.00339019391685724,-0.00640236539766192,0.00959806703031063,0.0272847432643175,-0.000284535984974355
598,0.0142839942127466,-0.00240021478384733,-0.0126311341300607,0.0060651688836515,0.0205774884670973,-0.000275983591564
599,0.0133608002215624,-0.00877938512712717,-0.0181258898228407,0.00377750699408352,0.0160502418875694,0.0007073117303662
600,0.0140505135059357,-0.0152342431247234,-0.0222699865698814,0.00181887520011514,0.0152596505358815,0.000871338765136898
601,0.0143950935453177,-0.0202998463064432,-0.0249966457486153,0.000259624444879591,0.016370477154851,-0.000318023114232346
602,0.013242463581264,-0.0228228606283665,-0.0263378545641899,-0.000516748172231019,0.0164107698947191,-0.00218624249100685
603,0.0120759131386876,-0.0215608980506659,-0.0246266815811396,0.00099502841476351,0.015527430921793,-0.00216597015969455
604,0.0134194474667311,-0.0170471742749214,-0.0187608189880848,0.0055319108068943,0.0153734311461449,0.00142321293242276
605,0.0169010739773512,-0.0142630804330111,-0.0115132238715887,0.00985657330602407,0.0154018113389611,0.00529300142079592
606,0.0208297036588192,-0.0158257801085711,-0.00599938770756125,0.0113743515685201,0.0149872116744518,0.00613435311242938
607,0.0234257858246565,-0.0191777143627405,-0.00369893130846322,0.010338150896132,0.0136171225458384,0.00349806877784431
608,0.0228885114192963,-0.0228232555091381,-0.00560963386669755,0.00705917272716761,0.0102614173665643,-0.00179585174191743
609,0.0202923677861691,-0.0264313090592623,-0.0101944310590625,0.00297887739725411,0.00630272272974253,-0.00656159361824393
610,0.0184299703687429,-0.0291418135166168,-0.013981768861413,-0.000292251992505044,0.00420296052470803,-0.00931692402809858
611,0.0183396264910698,-0.0309524554759264,-0.0154216149821877,-0.00334013253450394,0.00387247581966221,-0.0131460893899202
612,0.0188645515590906,-0.0323424339294434,-0.0159010738134384,-0.00715493550524116,0.00280446000397205,-0.020071504637599
613,0.0196965858340263,-0.0330285467207432,-0.0166374333202839,-0.010680160485208,0.000372976675862446,-0.0269969701766968
614,0.0222008600831032,-0.0321804620325565,-0.017179686576128,-0.0119591942057014,-0.00176034448668361,-0.0287798587232828
615,0.0266988668590784,-0.0293918345123529,-0.0160858351737261,-0.010184726677835,-0.00246566953137517,-0.0228769723325968
616,0.0323740728199482,-0.0258282385766506,-0.0118716545403004,-0.00617322418838739,-0.000215538151678629,-0.012651801109314
617,0.038146149367094,-0.0229706633836031,-0.00480279326438904,-0.00109440833330154,0.00605617556720972,-0.00390282040461898
618,0.0421265847980976,-0.0204497557133436,0.00303303799591959,0.00439094426110387,0.0142911225557327,0.00153389200568199
619,0.0433076582849026,-0.0167612079530954,0.00979894492775202,0.00988808088004589,0.0217542070895433,0.00536436447873712
620,0.0439886227250099,-0.0100878672674298,0.0160076133906841,0.0165232382714748,0.0288829058408737,0.0107525372877717
621,0.0470644980669022,-0.000268539501121268,0.0225351490080357,0.025201577693224,0.0369893573224545,0.019249401986599
622,0.0517214201390743,0.00950895063579082,0.0280852764844894,0.033786628395319,0.0446799919009209,0.0285714510828257
623,0.053659126162529,0.0148533331230283,0.0304780937731266,0.0387446172535419,0.0482430644333363,0.0348787978291512
624,0.0508746430277824,0.0149157186970115,0.03002536483109,0.0394415855407715,0.045571967959404,0.0372859984636307
625,0.0465729646384716,0.0129587044939399,0.0298102311789989,0.0390852876007557,0.0391387678682804,0.038911622017622
626,0.0432157889008522,0.0106944143772125,0.0307431910187006,0.0394114330410957,0.0317854210734367,0.0416684783995152
627,0.0396643728017807,0.00679327268153429,0.0306250024586916,0.0384145714342594,0.0241686664521694,0.0431553572416306
628,0.0359214581549168,0.00133965339045972,0.0287517663091421,0.0351584181189537,0.0188367292284966,0.0413315072655678
629,0.0339776128530502,-0.00292984419502318,0.0270996391773224,0.032033558934927,0.018568143248558,0.0383540354669094
630,0.0337498597800732,-0.00490137608721852,0.0269942469894886,0.0310218725353479,0.021367447450757,0.036662794649601
631,0.0346463955938816,-0.00512782530859113,0.0289772804826498,0.0326235853135586,0.0242253392934799,0.037249494343996
632,0.0371970683336258,-0.00406892504543066,0.0326951183378696,0.0360596999526024,0.0262021999806166,0.0397094637155533
633,0.040485467761755,-0.00332144252024591,0.0355317369103432,0.0385669879615307,0.026512311771512,0.0411322936415672
634,0.0426618382334709,-0.00411746837198734,0.0358353368937969,0.0383590310811996,0.0249763503670692,0.0388144589960575
635,0.0425344370305538,-0.00710225384682417,0.0342553034424782,0.0355499684810638,0.0215880069881678,0.0316402688622475
636,0.041049025952816,-0.0122260469943285,0.0322994813323021,0.031188452616334,0.0163812674582005,0.0212744325399399
637,0.0410093180835247,-0.0171581637114286,0.0315380655229092,0.0274389032274485,0.0111685758456588,0.0123332310467958
638,0.0428015477955341,-0.0208132807165384,0.0314353704452515,0.0247173495590687,0.00794636458158493,0.0061379186809063
639,0.0447162464261055,-0.0244063381105661,0.0305677130818367,0.0214084256440401,0.00780407013371587,-0.000492016552016139
640,0.0458688363432884,-0.027573736384511,0.0298613402992487,0.018118841573596,0.0102263037115335,-0.00828739069402218
641,0.045874547213316,-0.0281232222914696,0.0316556058824062,0.0177142955362797,0.0124742602929473,-0.0127763487398624
642,0.0458945445716381,-0.0246495995670557,0.037206593900919,0.021446879953146,0.0132449166849256,-0.00968743395060301
643,0.0473654717206955,-0.0180520042777061,0.0451418347656727,0.0275738406926394,0.013358804397285,0.000770532700698823
644,0.0493503771722317,-0.0102057848125696,0.0520873107016087,0.0332038551568985,0.0132185630500317,0.0150373885408044
645,0.0510504059493542,-0.00127192120999098,0.056369736790657,0.0374729596078396,0.0133566027507186,0.0285990983247757
646,0.0534190014004707,0.00855483114719391,0.0597276762127876,0.0417187847197056,0.0150745725259185,0.0368364192545414
647,0.055473517626524,0.0144337527453899,0.0626328662037849,0.0448044016957283,0.0176539123058319,0.0349245294928551
648,0.0550833232700825,0.0120504442602396,0.0637415423989296,0.0447203256189823,0.0194051526486874,0.0248479675501585
649,0.0531796477735043,0.00401176093146205,0.0637546479701996,0.0428639799356461,0.0209377147257328,0.0159193947911263
650,0.0525839067995548,-0.0040778792463243,0.0646721050143242,0.0415530800819397,0.0236020293086767,0.0137163139879704
651,0.056548535823822,-0.00771790416911244,0.0686013549566269,0.0427342765033245,0.028857221826911,0.0177091266959906
652,0.0657749697566032,-0.00607830518856645,0.0753725841641426,0.046817347407341,0.0365465320646763,0.0242040753364563
653,0.0746940746903419,-0.00233545433729887,0.0820281356573105,0.0513385236263275,0.0433037355542183,0.0290277022868395
654,0.077559694647789,0.00123362231533974,0.0875841081142426,0.0546296648681164,0.0479166395962238,0.0307836886495352
655,0.0753630921244621,0.00571987684816122,0.0937600880861282,0.0582316070795059,0.053013551980257,0.031584121286869
656,0.0733060240745544,0.0134731577709317,0.102530106902123,0.0646763145923615,0.0605723299086094,0.0355753786861897
657,0.0744589939713478,0.0249564535915852,0.11468855291605,0.074268750846386,0.0701922848820686,0.0440016388893127
658,0.0767636373639107,0.037446953356266,0.127441823482513,0.0842878893017769,0.0787696093320847,0.0544295832514763
659,0.0775207281112671,0.0476470962166786,0.136379167437553,0.0914164111018181,0.0827898904681206,0.0645869821310043
660,0.0767559260129929,0.0529489815235138,0.139416992664337,0.0934675633907318,0.0822305828332901,0.0713787078857422
661,0.0746380612254143,0.0515200756490231,0.136184796690941,0.0896342918276787,0.0790872201323509,0.0717934668064117
662,0.071819044649601,0.0453728772699833,0.128485605120659,0.081929050385952,0.0745831355452538,0.0677417367696762
663,0.0697474181652069,0.0380483232438564,0.119449801743031,0.0737733244895935,0.0691251680254936,0.062784768640995
664,0.0685551539063454,0.030124032869935,0.110750496387482,0.0670580342411995,0.0626362562179565,0.0572136975824833
665,0.0692434906959534,0.0240745525807142,0.104460619390011,0.0633464083075523,0.0567608401179314,0.0530284307897091
666,0.0736324638128281,0.024937991052866,0.102518662810326,0.0638791248202324,0.05497045814991,0.0544496588408947
667,0.0795196741819382,0.0318329930305481,0.103020891547203,0.0669072866439819,0.0575726889073849,0.0600978545844555
668,0.0825858637690544,0.0384849831461906,0.10254917293787,0.0691627636551857,0.0611245557665825,0.0653161704540253
669,0.0835068449378014,0.0422878414392471,0.10130076110363,0.0706707909703255,0.0638486742973328,0.0707818791270256
670,0.0861619859933853,0.0448007136583328,0.101709187030792,0.0730019137263298,0.0658077448606491,0.0783667117357254
671,0.0901921465992928,0.0454168953001499,0.103145375847816,0.0741710066795349,0.0651704519987106,0.0837647467851639
672,0.0927196517586708,0.0431261211633682,0.103129386901855,0.0723839402198792,0.0613491870462894,0.0825873017311096
673,0.0927564799785614,0.0401696525514126,0.10143705457449,0.0697376653552055,0.0569064319133759,0.0762742310762405
674,0.0893984287977219,0.0375678278505802,0.0983110517263412,0.0668676942586899,0.0519325360655785,0.0674484595656395
675,0.0818236619234085,0.034004308283329,0.0925817564129829,0.0614138878881931,0.04465626552701,0.0564761832356453
676,0.0717181339859962,0.0301932245492935,0.0841907113790512,0.0530500411987305,0.0364528223872185,0.0429195500910282
677,0.062067449092865,0.0284688211977482,0.0754877179861069,0.0444541499018669,0.0299555528908968,0.0280692204833031
678,0.053969994187355,0.0293073896318674,0.0691349729895592,0.0381067097187042,0.0259655341506004,0.0167747531086206
679,0.0464253835380077,0.029586773365736,0.065660759806633,0.0338050946593285,0.0242244899272919,0.0128127625212073
680,0.0385525152087212,0.0252657663077116,0.0633452385663986,0.0298760011792183,0.0241608545184135,0.0144253075122833
681,0.0308600664138794,0.0159400515258312,0.0607397630810738,0.025826308876276,0.0246246941387653,0.0171918943524361
682,0.0234925877302885,0.00385321513749659,0.0567267537117004,0.0209454130381346,0.0229536276310682,0.0162705034017563
683,0.0148692578077316,-0.0088697224855423,0.0490662083029747,0.0131675405427814,0.0158926621079445,0.00940316263586283
684,0.00598521903157234,-0.0185105260461569,0.0385677888989449,0.00401866529136896,0.00542947696521878,0.00103393034078181
685,0.000519100460223854,-0.0217416249215603,0.0297374203801155,-0.0018005589954555,-0.00172517017927021,-0.00364857004024088
686,-0.00139788212254643,-0.0211398042738438,0.024153346195817,-0.0042256866581738,-0.00313022825866938,-0.0063836956396699
687,-0.000753323780372739,-0.0203260648995638,0.0214098785072565,-0.00548357190564275,-0.00094900542171672,-0.00918903760612011
688,0.00356831261888146,-0.0186461731791496,0.021802743896842,-0.00510741909965873,0.00275619816966355,-0.00987344048917294
689,0.00974908098578453,-0.0162983313202858,0.0231250263750553,-0.00392744829878211,0.00504498323425651,-0.00837089959532022
690,0.0145996902137995,-0.0142635488882661,0.0238154027611017,-0.00316335260868073,0.0046431771479547,-0.00552371144294739
691,0.01806072704494,-0.0112369637936354,0.0254824794828892,-0.00132642837706953,0.00426038494333625,-0.000878325896337628
692,0.020622419193387,-0.00670959707349539,0.0287144370377064,0.00238205934874713,0.00598938623443246,0.00418600393459201
693,0.0219604838639498,-0.00161246617790312,0.0328932628035545,0.00715571455657482,0.0096996771171689,0.0080086961388588
694,0.0223916620016098,0.00364548643119633,0.0378598421812058,0.0124714849516749,0.0150587214156985,0.0107979709282517
695,0.0223991293460131,0.00877857860177755,0.0431284531950951,0.0173908919095993,0.0212789736688137,0.0135358031839132
696,0.0212463345378637,0.0124983107671142,0.0466996096074581,0.0196543373167515,0.0257061757147312,0.0158842504024506
697,0.0185530409216881,0.0142382457852364,0.0468989051878452,0.0182317681610584,0.026509003713727,0.0166347082704306
698,0.0163337364792824,0.0155483121052384,0.0448718927800655,0.0146363098174334,0.0255282558500767,0.0154759027063847
699,0.0160340890288353,0.0172679573297501,0.0420745089650154,0.0103080170229077,0.0246090274304152,0.013508278876543
700,0.0165800396353006,0.0182786546647549,0.0390341803431511,0.0059221088886261,0.022978650406003,0.012272615917027
701,0.0171309374272823,0.0180504489690065,0.036981612443924,0.00233310693874955,0.0203114617615938,0.0107928207144141
702,0.0178924798965454,0.0164371393620968,0.0356411635875702,-0.000641672813799232,0.018170453608036,0.00558947259560227
703,0.0195882078260183,0.0136827798560262,0.0340624488890171,-0.00330268847756088,0.0186801459640265,-0.00256973202340305
704,0.021577088162303,0.010976237244904,0.0334732197225094,-0.00447116978466511,0.0222523100674152,-0.00736120669171214
705,0.0218207072466612,0.00888140592724085,0.0356687642633915,-0.00296427775174379,0.0275180544704199,-0.00684876041486859
706,0.0200015231966972,0.00703836651518941,0.0401268564164639,0.000426653074100614,0.033222284168005,-0.00744479894638062
707,0.0163409262895584,0.00461456412449479,0.0429877154529095,0.00276078376919031,0.0373164042830467,-0.0137373749166727
708,0.0113708544522524,0.00244792061857879,0.0422814078629017,0.00333443260751665,0.0387392602860928,-0.0210891682654619
709,0.00646753096953034,0.00222794804722071,0.0398211888968945,0.00408325018361211,0.0386339612305164,-0.0241727083921433
710,0.00179270678199828,0.00353117217309773,0.0370563566684723,0.00504097389057279,0.0370155014097691,-0.022894486784935
711,-0.00271772895939648,0.00502502964809537,0.0350465029478073,0.0050263125449419,0.0331169664859772,-0.0181639902293682
712,-0.00691232876852155,0.00584959518164396,0.0341519489884377,0.00328097678720951,0.0268315877765417,-0.0119395963847637
713,-0.0114661967381835,0.00608515553176403,0.0330826379358768,-0.000381557591026649,0.0188284739851952,-0.00790362246334553
714,-0.0157469883561134,0.00770015316084027,0.0321903191506863,-0.00413238257169724,0.0123630184680223,-0.00752476789057255
715,-0.0175795517861843,0.0128014804795384,0.0331625044345856,-0.00579769304022193,0.0113145429641008,-0.00933034811168909
716,-0.0167694892734289,0.0199897661805153,0.0347738303244114,-0.0056810206733644,0.014761233702302,-0.0120559772476554
717,-0.0143603775650263,0.0258622504770756,0.0357450284063816,-0.00459239026531577,0.019292863085866,-0.0145599944517016
718,-0.0120220454409719,0.0287372842431068,0.037025760859251,-0.00258641899563372,0.0229090303182602,-0.0151455467566848
719,-0.0135033242404461,0.0283480640500784,0.038141306489706,-0.000535726430825889,0.0238442905247211,-0.0133198900148273
720,-0.0196563843637705,0.0253533255308867,0.038203552365303,0.000545530579984188,0.0232410784810781,-0.010572761297226
721,-0.0265176985412836,0.0211992189288139,0.0377723313868046,0.000476768269436434,0.0247899852693081,-0.00979828275740147
722,-0.0295209139585495,0.0185267385095358,0.0379972793161869,0.000810374622233212,0.0300211906433105,-0.0113685466349125
723,-0.027301013469696,0.0193513073027134,0.039534866809845,0.00304804951883852,0.036826703697443,-0.0118489591404796
724,-0.0230557788163424,0.0214158240705729,0.041028805077076,0.00537065509706736,0.0413015782833099,-0.00959719065576792
725,-0.0207716003060341,0.0214824955910444,0.040617972612381,0.00623682839795947,0.0423773676156998,-0.00535632343962789
726,-0.0222329348325729,0.0188621953129768,0.0375968180596828,0.00604981882497668,0.0416995771229267,-0.00134891399648041
727,-0.0270418226718903,0.0133266057819128,0.0318242684006691,0.00340531324036419,0.0398700349032879,-0.00236005033366382
728,-0.0331804789602757,0.00609335582703352,0.0239836107939482,-0.0025363601744175,0.0358546525239944,-0.00894157961010933
729,-0.039050780236721,0.000488739460706711,0.0151610895991325,-0.00978186167776585,0.029060322791338,-0.0164785906672478
730,-0.0435309000313282,-0.000958402524702251,0.00685925222933292,-0.0155942859128118,0.0225046873092651,-0.0207856986671686
731,-0.0452973656356335,0.00200979132205248,0.000535483821295202,-0.0180178321897984,0.0203482676297426,-0.0194070544093847
732,-0.044426217675209,0.00711457896977663,-0.00402974523603916,-0.017581757158041,0.0221697762608528,-0.0140092363581061
733,-0.0411363281309605,0.012255797162652,-0.0066572492942214,-0.015109047293663,0.025411244481802,-0.00857693050056696
734,-0.0355073474347591,0.0168380662798882,-0.00647940533235669,-0.0107203023508191,0.0299425255507231,-0.00577519275248051
735,-0.0306814722716808,0.0191524978727102,-0.00503146508708596,-0.00702678831294179,0.0349302515387535,-0.00626420881599188
736,-0.0302154235541821,0.0178303141146898,-0.00424929801374674,-0.00676597328856587,0.0363692492246628,-0.00857621897011995
737,-0.0338419638574123,0.0141411256045103,-0.00374001287855208,-0.00930620916187763,0.0313699804246426,-0.0119212018325925
738,-0.0401483215391636,0.00869599357247353,-0.00374618708156049,-0.0136365909129381,0.0206663310527802,-0.0186432283371687
739,-0.0474695526063442,0.00184459064621478,-0.00507628871127963,-0.0191620700061321,0.00798982195556164,-0.0293066892772913
740,-0.0520749427378178,-0.00347819388844073,-0.00595581997185946,-0.0232823714613914,-0.00096714188111946,-0.0381943397223949
741,-0.0518327280879021,-0.00552310375496745,-0.00470384024083614,-0.0242818184196949,-0.00316982483491302,-0.0401975437998772
742,-0.0482545420527458,-0.00519665749743581,-0.00211096717976034,-0.0233741533011198,-0.000141030584927648,-0.036332331597805
743,-0.042653638869524,-0.00280283018946648,0.00113683554809541,-0.021309707313776,0.00594750186428428,-0.0300920680165291
744,-0.035582572221756,0.000681225850712508,0.00481046084314585,-0.018386347219348,0.0124071342870593,-0.0254304986447096
745,-0.028926333412528,0.00239872606471181,0.00718692084774375,-0.0167816579341888,0.0151909692212939,-0.0254605505615473
746,-0.025410870090127,0.00188464915845543,0.00713666947558522,-0.0176059678196907,0.0127643719315529,-0.0283905826508999
747,-0.0268886741250753,0.00173674453981221,0.00612783851101995,-0.0188522692769766,0.00786197930574417,-0.0304255578666925
748,-0.033504381775856,0.00270920339971781,0.00472235819324851,-0.0188876427710056,0.00300243613310158,-0.0313715636730194
749,-0.0431214720010757,0.00336414482444525,0.00217887852340937,-0.0176883116364479,-0.00129618693608791,-0.0316149815917015
750,-0.0524152629077435,0.00257363659329712,-0.00107879843562841,-0.0164896938949823,-0.00451612332835794,-0.0307360365986824
751,-0.0598044879734516,-0.000660371326375753,-0.00477997167035937,-0.0178457777947187,-0.00737428339198232,-0.0306950695812702
752,-0.0648446306586266,-0.0065021407790482,-0.00907311215996742,-0.0225581414997578,-0.0112194754183292,-0.034469697624445
753,-0.0677666440606117,-0.0141630098223686,-0.0139723690226674,-0.0289624501019716,-0.0166342593729496,-0.0421686097979546
754,-0.068774402141571,-0.0209549404680729,-0.0187244322150946,-0.0347220413386822,-0.0226773917675018,-0.0497099086642265
755,-0.0665226653218269,-0.0241677463054657,-0.0218139067292213,-0.038621548563242,-0.0259789004921913,-0.0539099872112274
756,-0.0616296529769897,-0.0261595528572798,-0.0232354830950499,-0.0414061434566975,-0.0252428241074085,-0.0560273416340351
757,-0.0569321922957897,-0.0299795996397734,-0.0234755501151085,-0.0429596565663815,-0.0229132659733295,-0.0568576157093048
758,-0.054028682410717,-0.0352986268699169,-0.0224400050938129,-0.0427013002336025,-0.0216019153594971,-0.056214451789856
759,-0.0522375665605068,-0.0404322110116482,-0.0205100569874048,-0.0412845835089684,-0.0220628995448351,-0.0554385744035244
760,-0.0482277348637581,-0.042238611727953,-0.0170166324824095,-0.0382113978266716,-0.0210886616259813,-0.054978784173727
761,-0.0410611033439636,-0.0387656688690186,-0.0117073450237513,-0.0330133438110352,-0.0161636266857386,-0.0535968728363514
762,-0.0343276783823967,-0.0320936515927315,-0.00657073315232992,-0.0277603045105934,-0.00952803622931242,-0.0509289428591728
763,-0.0309698730707169,-0.0265981275588274,-0.0041261282749474,-0.0255689714103937,-0.0041532781906426,-0.0496203005313873
764,-0.0311690252274275,-0.0252854768186808,-0.00637134537100792,-0.0277781877666712,-0.00171410071197897,-0.0511617437005043
765,-0.0326990485191345,-0.0268189962953329,-0.0121403466910124,-0.0321816876530647,-0.00143523083534092,-0.0515911802649498
766,-0.0333132222294807,-0.027244346216321,-0.016735153272748,-0.0346939265727997,-0.0011475341161713,-0.0471843928098679
767,-0.0336271971464157,-0.0247246827930212,-0.0176986679434776,-0.0336533188819885,-0.000783713185228407,-0.0402402468025684
768,-0.036252822726965,-0.0201759431511164,-0.0170249808579683,-0.0307555254548788,-0.00163892551790923,-0.0349723771214485
769,-0.0422846563160419,-0.0150182321667671,-0.0166426505893469,-0.0282356347888708,-0.00299058575183153,-0.0331400446593761
770,-0.0499899052083492,-0.0100993551313877,-0.0165311433374882,-0.027526032179594,-0.002237843349576,-0.0345230214297771
771,-0.0564973801374435,-0.00493910769000649,-0.0163925345987082,-0.0279828086495399,0.001190509297885,-0.0349582880735397
772,-0.0588823743164539,0.00078960694372654,-0.0163263734430075,-0.0274394024163485,0.00558673636987805,-0.0298935398459435
773,-0.0554869882762432,0.00576827907934785,-0.0161745734512806,-0.0249715559184551,0.0103848902508616,-0.021222922950983
774,-0.0478442534804344,0.00870445091277361,-0.0148105705156922,-0.020554156973958,0.0161355528980494,-0.0122693059965968
775,-0.039401076734066,0.0102109769359231,-0.0112369395792484,-0.0142754232510924,0.0225041899830103,-0.00437596254050732
776,-0.0318780057132244,0.012029723264277,-0.00568265561014414,-0.00705581484362483,0.0281933676451445,-4.15049216826446E-05
777,-0.0265749953687191,0.013131401501596,-0.000767858466133475,-0.00156122469343245,0.0298808310180902,-0.00108342175371945
778,-0.0257604438811541,0.0104585401713848,-0.000323957996442914,-0.000870547781232744,0.0245160721242428,-0.00640578754246235
779,-0.0286698397248983,0.00486270058900118,-0.00426696008071303,-0.00474053993821144,0.0146560445427895,-0.0124838277697563
780,-0.0325259380042553,-0.000217913038795814,-0.00960129778832197,-0.0105640413239598,0.00499418657273054,-0.0164518263190985
781,-0.0362897291779518,-0.00294522941112518,-0.0149144995957613,-0.0164701174944639,-0.00217554671689868,-0.01771798171103
782,-0.0385416597127914,-0.00183246890082955,-0.0184256639331579,-0.0204039122909307,-0.00446018576622009,-0.0162581354379654
783,-0.0376559384167194,0.00354264327324927,-0.0176483448594809,-0.0208277609199286,-0.00144959799945354,-0.0133533142507076
784,-0.0352502390742302,0.0105207981541753,-0.0138650964945555,-0.0193472057580948,0.00211773929186165,-0.0112839480862021
785,-0.0339232310652733,0.0161446388810873,-0.0110562620684505,-0.0181716419756413,0.0025705830194056,-0.00962657760828733
786,-0.0333881117403507,0.018598236143589,-0.0112935090437531,-0.01737155392766,0.00128824438434094,-0.00749869644641876
787,-0.0322371236979961,0.0170651413500309,-0.0143235707655549,-0.0165828671306372,0.000393215072108433,-0.00627369666472077
788,-0.0311113744974136,0.0123884994536638,-0.018578602001071,-0.0161803457885981,0.000128317464259453,-0.00709522981196642
789,-0.0318144373595715,0.00658821454271674,-0.0220826249569654,-0.0164615660905838,-0.000402177538489923,-0.00971411075443029
790,-0.0361113771796227,0.00134860014077276,-0.0260772574692965,-0.0184560138732195,-0.00373667199164629,-0.0130057502537966
791,-0.0432074293494225,-0.00390492752194405,-0.0330888628959656,-0.0237082224339247,-0.0109325451776385,-0.0183801576495171
792,-0.0484859868884087,-0.00953998137265444,-0.041273407638073,-0.0305600427091122,-0.0184251517057419,-0.0271456465125084
793,-0.049570694565773,-0.0136705143377185,-0.0464693680405617,-0.0349604301154613,-0.0228106901049614,-0.036067433655262
794,-0.0494455583393574,-0.0152500597760081,-0.0467336103320122,-0.0354691632091999,-0.0242545157670975,-0.0417149141430855
795,-0.0512666441500187,-0.0152040757238865,-0.0435424968600273,-0.0337262265384197,-0.0239247381687164,-0.0434559099376202
796,-0.0538166239857674,-0.0145758958533406,-0.0386918522417545,-0.031013160943985,-0.0211074966937304,-0.0421248897910118
797,-0.0544669553637505,-0.014373917132616,-0.0331726670265198,-0.0277065001428127,-0.0148556623607874,-0.0391858443617821
798,-0.0525270625948906,-0.0138400197029114,-0.0286162085831165,-0.0234795045107603,-0.00633938424289227,-0.0356502234935761
799,-0.0488499850034714,-0.0109712667763233,-0.0263174623250961,-0.0185618847608566,0.00141063693445176,-0.0321349948644638
800,-0.0455354191362858,-0.00727140111848712,-0.026628265157342,-0.0155309233814478,0.00499122915789485,-0.0301354676485062
801,-0.0430283807218075,-0.00526242889463902,-0.028012765571475,-0.0154003323987126,0.0046294922940433,-0.0303833689540625
802,-0.0409639589488506,-0.0061287134885788,-0.0290342345833778,-0.0167678277939558,0.00222458876669407,-0.032480776309967
803,-0.0397779121994972,-0.00977424252778292,-0.0293601024895906,-0.0179495420306921,-0.000867850438226014,-0.0348814912140369
804,-0.0379654802381992,-0.0126421023160219,-0.0276517551392317,-0.0170776080340147,-0.00195785472169518,-0.0353606566786766
805,-0.0343000590801239,-0.0114101637154818,-0.023709150031209,-0.0139809679239988,-0.000737597001716495,-0.0342022776603699
806,-0.0299123581498861,-0.00752067193388939,-0.0195832140743732,-0.0106237828731537,0.000833430618513376,-0.0336552709341049
807,-0.0260061677545309,-0.00457813031971455,-0.0167320221662521,-0.00861326605081558,0.00268087885342538,-0.0344338566064835
808,-0.0221091601997614,-0.00312119070440531,-0.014241368509829,-0.00671777315437794,0.00589490728452802,-0.0337521657347679
809,-0.0184325538575649,-0.00193027139175683,-0.0118047539144754,-0.00364813068881631,0.00911370106041431,-0.0297326538711786
810,-0.0173211451619864,-0.0011537364916876,-0.0112431161105633,-0.000758697977289557,0.00898894853889942,-0.0248547680675983
811,-0.0193125978112221,-0.000995282432995737,-0.012475997209549,0.00122712051961571,0.00558735569939017,-0.0217476803809404
812,-0.0216553490608931,-0.00106406782288104,-0.012691717594862,0.00326257990673184,0.00284554692916572,-0.0205448660999537
813,-0.0228029433637857,-0.00193736294750124,-0.0109397610649467,0.00497102504596114,0.00222060037776828,-0.0211962591856718
814,-0.0240906719118357,-0.00464320974424481,-0.00916794221848249,0.0047988505102694,0.00138306547887623,-0.0246266815811396
815,-0.0261055547744036,-0.00867684930562973,-0.00876034051179886,0.00266157928854227,-0.00120064767543226,-0.030804643407464
816,-0.0281230341643095,-0.0130448006093502,-0.0101858386769891,-0.000423930148826912,-0.0056611206382513,-0.0378929860889912
817,-0.0293765068054199,-0.0170263610780239,-0.0131790414452553,-0.00354869896546006,-0.0110821900889277,-0.0430520586669445
818,-0.028623141348362,-0.0199777353554964,-0.015842366963625,-0.00577564910054207,-0.014791214838624,-0.0447785891592503
819,-0.0234712697565556,-0.0201247949153185,-0.0152905005961657,-0.00501492852345109,-0.0134357279166579,-0.0427237525582314
820,-0.012758850120008,-0.0148505251854658,-0.0104766730219126,-0.00017691680113785,-0.00579194212332368,-0.0381092242896557
821,0.00110743520781398,-0.00376559351570904,-0.00337247457355261,0.0066785579547286,0.00593652483075857,-0.0344704911112785
822,0.0144246118143201,0.010525262914598,0.00397656485438347,0.0136694880202413,0.0180306695401669,-0.0320287235081196
823,0.0249097943305969,0.024018844589591,0.0110422531142831,0.0201970022171736,0.0284495875239372,-0.0283543579280376
824,0.0323643758893013,0.0343907959759235,0.018122298642993,0.0258210375905037,0.0374614298343658,-0.0227122567594051
825,0.0382718481123447,0.0420398563146591,0.0249349698424339,0.0305853895843029,0.0446661114692688,-0.014960671775043
826,0.0438755489885807,0.0464598461985588,0.0295409485697746,0.0338315181434155,0.0482856817543507,-0.00822837091982365
827,0.0494953207671642,0.0469085462391377,0.0308206062763929,0.0350622683763504,0.0479788593947887,-0.00604844372719526
828,0.0559491515159607,0.0455326624214649,0.0305850096046925,0.0359954535961151,0.046002235263586,-0.00576600525528193
829,0.0634016245603561,0.0443972274661064,0.0305916368961334,0.0378842428326607,0.0440982319414616,-0.00420017959550023
830,0.0693896934390068,0.0428527891635895,0.0299017634242773,0.0387387275695801,0.0407460629940033,-0.00320081878453493
831,0.071706160902977,0.0397953949868679,0.0277005676180124,0.0366762317717075,0.0350250788033009,-0.00545617286115885
832,0.0721689313650131,0.0366153791546822,0.0263758357614279,0.0336215645074844,0.0300542432814837,-0.00957588478922844
833,0.074275828897953,0.0352291539311409,0.0286868344992399,0.032197542488575,0.0298002790659666,-0.0124757625162601
834,0.0783350989222527,0.0344772636890411,0.0330800041556358,0.0320870839059353,0.0352027378976345,-0.0129414154216647
835,0.0804409384727478,0.0309855155646801,0.033968023955822,0.0310796853154898,0.0417198799550533,-0.0108246291056275
836,0.0794385969638824,0.0256365053355694,0.0297429524362087,0.0299905799329281,0.0450466088950634,-0.00521453795954585
837,0.0794842168688774,0.0236167684197426,0.025932913646102,0.0325105525553226,0.0477388389408588,0.00397048657760024
838,0.0816033557057381,0.0253009553998709,0.0262448769062757,0.0378300398588181,0.0529321581125259,0.0126640917733312
839,0.0813059434294701,0.0259935595095158,0.027370311319828,0.0404743328690529,0.0577114894986153,0.0156573895365
840,0.0766222551465034,0.0235241875052452,0.0255648642778397,0.0378516763448715,0.0580965392291546,0.0122940810397267
841,0.0712300911545753,0.0197470933198929,0.0213567595928907,0.0321330241858959,0.0548067390918732,0.00584624987095594
842,0.0679763779044151,0.0162528324872255,0.0158637650310993,0.0255640707910061,0.0507518164813519,-0.00111270358320326
843,0.0668289810419083,0.0138218505308032,0.0102731576189399,0.0197366513311863,0.0483988970518112,-0.00692413514479995
844,0.0673779845237732,0.0135119874030352,0.00688866013661027,0.0163326188921928,0.049027755856514,-0.0103603266179562
845,0.0691392198204994,0.0149511341005564,0.00658714072778821,0.0155740724876523,0.0516708008944988,-0.0119808241724968
846,0.0728569999337196,0.0173678640276194,0.00887338165193796,0.0182461459189653,0.0549443103373051,-0.0108566824346781
847,0.080024465918541,0.0212188325822353,0.0134196849539876,0.0259105451405048,0.0588439926505089,-0.00300184544175863
848,0.0895793810486794,0.0259722266346216,0.0192221123725176,0.0362734869122505,0.0631480887532234,0.011420969851315
849,0.0971682220697403,0.0284569784998894,0.0231616590172052,0.0428680367767811,0.0652199387550354,0.0243092030286789
850,0.0995239466428757,0.0258317608386278,0.0224226135760546,0.0414642170071602,0.0627192854881287,0.0280188787728548
851,0.0975733399391174,0.0195007249712944,0.0179560612887144,0.0346521213650703,0.0569430552423,0.0242211390286684
852,0.0936681404709816,0.0126643106341362,0.0129347490146756,0.0274786204099655,0.0507744327187538,0.0192907173186541
853,0.0884351208806038,0.00484064826741815,0.0089796083047986,0.0209557060152292,0.045670673251152,0.0147760296240449
854,0.0809901058673859,-0.00529178092256188,0.00493710022419691,0.013347172178328,0.0406847037374973,0.00939839612692595
855,0.0732901468873024,-0.0144143803045154,0.000427631544880569,0.00602835463359952,0.0358688645064831,0.00388356181792915
856,0.0694325417280197,-0.0197512675076723,-0.0034473268315196,0.00228984211571515,0.032581802457571,-0.00128755636978894
857,0.0694662481546402,-0.0233968906104565,-0.00732178427278996,0.00155367446132004,0.0298010352998972,-0.0064295195043087
858,0.0703737512230873,-0.0270885899662972,-0.0116774030029774,0.000989675056189299,0.0267486814409494,-0.0101348310709
859,0.0702580735087395,-0.0311241019517183,-0.0157587304711342,-0.00124389119446278,0.0258407462388277,-0.011841538362205
860,0.0679988488554955,-0.0370085872709751,-0.0200738832354546,-0.00628292094916105,0.0282025244086981,-0.0129396757110953
861,0.0639349892735481,-0.0439715683460236,-0.0244718529284,-0.0121935969218612,0.0317919738590717,-0.0115900002419949
862,0.0602942034602165,-0.0487141907215118,-0.0268442835658789,-0.0149680078029633,0.0342978276312351,-0.00503197638317943
863,0.0575550273060799,-0.0505182817578316,-0.0262645687907934,-0.0140658719465137,0.0332833416759968,0.00410491274669766
864,0.0551438927650452,-0.0494738779962063,-0.0229196287691593,-0.0110745336860418,0.0289367418736219,0.0121813854202628
865,0.0539556629955769,-0.0445027463138103,-0.0172032508999109,-0.00657573807984591,0.0244350153952837,0.01866290345788
866,0.0549399517476559,-0.0361166149377823,-0.0110857207328081,-0.00141703779809177,0.0211610868573189,0.0235004834830761
867,0.0571957752108574,-0.0275053661316633,-0.0077316053211689,0.00205547595396638,0.017705824226141,0.025663610547781
868,0.0586182735860348,-0.0224433727562428,-0.00843705702573061,0.00157742318697274,0.0129700051620603,0.0245359800755978
869,0.0596440881490707,-0.0198673456907272,-0.0100014377385378,-0.000513795821461827,0.00953748542815447,0.0231842380017042
870,0.0617250762879848,-0.0162216760218143,-0.00946466159075499,-0.000416542374296114,0.0103284306824207,0.024539515376091
871,0.0635465532541275,-0.0120750488713384,-0.00820734724402428,0.00125453132204711,0.0138553278520703,0.0274404063820839
872,0.0632967203855515,-0.00976739916950464,-0.00865686591714621,0.00210666027851403,0.0163285322487354,0.030324088409543
873,0.0600619427859783,-0.0101285697892308,-0.0126935727894306,0.000403768790420145,0.0145569713786244,0.0313586555421352
874,0.0548685900866985,-0.012056085281074,-0.0197953563183546,-0.0034641046077013,0.00867753755301237,0.0291854217648506
875,0.0514905191957951,-0.013441888615489,-0.026010375469923,-0.00631784275174141,0.00329579180106521,0.0263212639838457
876,0.0531700477004051,-0.012579926289618,-0.0276364870369434,-0.0053294594399631,0.00317282439209521,0.0275577493011951
877,0.0591978840529919,-0.00902359187602997,-0.0244029927998781,-0.000687550404109061,0.00883220415562391,0.0343425795435905
878,0.0655341446399689,-0.0036840143147856,-0.0187368113547564,0.00541453715413809,0.0171414371579885,0.0433834679424763
879,0.0686208680272102,0.00228900765068829,-0.0132023645564914,0.0112321646884084,0.0238535013049841,0.0519791953265667
880,0.0689950361847878,0.00807174481451511,-0.00883285142481327,0.0165932159870863,0.0266429148614407,0.060826301574707
881,0.0709423869848251,0.0126654449850321,-0.00474770274013281,0.0221578627824783,0.0277334488928318,0.0701453983783722
882,0.0760352909564972,0.0146726751700044,-0.000314409582642838,0.0273415148258209,0.0304626561701298,0.0774035602807999
883,0.0811784043908119,0.0142996935173869,0.00389637378975749,0.0312171448022127,0.0349491387605667,0.0811121687293053
884,0.082866482436657,0.0128492014482617,0.00648085540160537,0.0331504568457603,0.0379127264022827,0.0817580670118332
885,0.0790312439203262,0.010304388590157,0.00532358512282372,0.0319261439144611,0.0354005917906761,0.0799045339226723
886,0.070878267288208,0.00604139314964414,0.000532510399352759,0.0275546535849571,0.028541374951601,0.074954129755497
887,0.0613175369799137,-7.46977093513124E-05,-0.00607496174052358,0.0213643033057451,0.0213031508028507,0.0658011436462402
888,0.0505578778684139,-0.00756214698776603,-0.0142411133274436,0.0145162045955658,0.013707822188735,0.0538297407329082
889,0.037965752184391,-0.0156809538602829,-0.0238356608897448,0.00773598998785019,0.00531727401539683,0.0421515107154846
890,0.0247892886400223,-0.0234285537153482,-0.0340655371546745,0.00120390532538295,-0.00206803902983665,0.0331468097865582
891,0.012978415004909,-0.0283190701156855,-0.043424304574728,-0.00455615343526006,-0.00711261387914419,0.0273218415677547
892,0.00390118453651667,-0.0280917938798666,-0.0493302941322327,-0.00824962183833122,-0.009026356972754,0.0237944480031729
893,-0.00288466271013021,-0.0243793912231922,-0.0508079491555691,-0.00936222169548273,-0.00764719117432833,0.0218207892030478
894,-0.00863552652299404,-0.0205989144742489,-0.0489425584673882,-0.00873753521591425,-0.00357901328243315,0.021249532699585
895,-0.0135221285745502,-0.0182719565927982,-0.0458443686366081,-0.00764283211901784,0.00174309918656945,0.0213724803179502
896,-0.0174570567905903,-0.0174600761383772,-0.0444213040173054,-0.00712931901216507,0.00606353487819433,0.020823648199439
897,-0.020480889827013,-0.0180850736796856,-0.0459138751029968,-0.00757400784641504,0.00796406343579292,0.019690552726388
898,-0.0232185740023851,-0.021247610449791,-0.0491258651018143,-0.00952175538986921,0.00736506236717105,0.0176357999444008
899,-0.0269646178930998,-0.0279673952609301,-0.0522981062531471,-0.0137166492640972,0.00412644306197762,0.0126945674419403
900,-0.0317106172442436,-0.036718588322401,-0.0545773431658745,-0.0191792566329241,-0.00207482976838946,0.00580686330795288
901,-0.0362536385655403,-0.0453738234937191,-0.0568466857075691,-0.0243411641567945,-0.0100174332037568,-0.000672130612656474
902,-0.0399812534451485,-0.0528524741530418,-0.0607029981911182,-0.029334781691432,-0.0173178501427174,-0.00803007278591394
903,-0.0435311011970043,-0.0587380528450012,-0.0671206787228584,-0.0352590046823025,-0.0233827363699675,-0.018383638933301
904,-0.0469787493348122,-0.0620792992413044,-0.0750779882073402,-0.0416849367320538,-0.0288975667208433,-0.0292419865727425
905,-0.0486656911671162,-0.0619181506335735,-0.0805825889110565,-0.0464006513357162,-0.0318180210888386,-0.0361263006925583
906,-0.0472000874578953,-0.0592714622616768,-0.0794102475047112,-0.0472883358597755,-0.0285701975226402,-0.0377172976732254
907,-0.0425724908709526,-0.0550195835530758,-0.0707705691456795,-0.0434651523828506,-0.020035432651639,-0.0343318656086922
908,-0.03581777587533,-0.0486300475895405,-0.0577630735933781,-0.0359983295202255,-0.0113374991342425,-0.0257363151758909
909,-0.0298949498683214,-0.0415490828454494,-0.0459166839718819,-0.028443168848753,-0.00692260637879372,-0.0143058737739921
910,-0.028337337076664,-0.0379391573369503,-0.0398589335381985,-0.0247394274920225,-0.00829375442117453,-0.00574437435716391
911,-0.0313795879483223,-0.0394133739173412,-0.039918564260006,-0.0252715051174164,-0.0136482212692499,-0.00300151063129306
912,-0.0358943715691566,-0.0426019132137299,-0.0427279956638813,-0.0271821171045303,-0.018412284553051,-0.00407743081450462
913,-0.0390122011303902,-0.0434153340756893,-0.0444375053048134,-0.027660058811307,-0.0183929484337568,-0.00526180025190115
914,-0.0404670797288418,-0.0424606315791607,-0.0442498028278351,-0.0271449983119965,-0.0141807170584798,-0.00702767819166183
915,-0.0405418202280998,-0.0414867326617241,-0.0436289049685001,-0.0270619448274374,-0.00928065646439791,-0.0104387039318681
916,-0.0390851721167564,-0.0386922061443329,-0.0431321822106838,-0.0261191129684448,-0.00572548806667328,-0.0107390433549881
917,-0.0367165878415108,-0.0334542542695999,-0.0421433188021183,-0.023268286138773,-0.00356221129186451,-0.00575771043077111
918,-0.0340724922716618,-0.0271447598934174,-0.0400711447000504,-0.0191151555627584,-0.00206080451607704,0.00167492812033743
919,-0.030882490798831,-0.02005660161376,-0.0372249484062195,-0.0145224537700415,-0.00104091654065996,0.00934412889182568
920,-0.0260696671903133,-0.0121294567361474,-0.0341115333139896,-0.0102870771661401,-0.000275921891443431,0.0160173270851374
921,-0.0199187323451042,-0.00509466882795095,-0.0316481813788414,-0.00775911286473274,0.000119961623568088,0.0199972167611122
922,-0.0145231317728758,-0.00125310802832246,-0.0305422898381948,-0.00765466224402189,-0.000529651762917638,0.0200510248541832
923,-0.0115129267796874,-0.000486574106616899,-0.030277693644166,-0.00862299557775259,-0.00198308657854795,0.0177748370915651
924,-0.0118466364219785,-0.0017119535477832,-0.0305675528943539,-0.00981369521468878,-0.00423717312514782,0.0156968291848898
925,-0.0147367995232344,-0.00388130778446794,-0.0303724259138107,-0.0109023749828339,-0.00720620388165116,0.0143527407199144
926,-0.0164811722934246,-0.00550318928435445,-0.0272357165813446,-0.0102861290797591,-0.00926341488957405,0.0133823277428746
927,-0.0140125462785363,-0.00622186064720154,-0.0209843590855598,-0.00769110349938273,-0.00907733477652073,0.0130753573030233
928,-0.00723407976329327,-0.00670196767896414,-0.0145853105932474,-0.00503025855869055,-0.00647362042218447,0.0139987636357546
929,0.00217985943891108,-0.00743894604966044,-0.0104052368551493,-0.00358097208663821,-0.00203777337446809,0.0162482988089323
930,0.0101935742422938,-0.00840585213154554,-0.00870172958821058,-0.00313691957853734,0.0027869283221662,0.0191751513630152
931,0.0109110027551651,-0.00992508791387081,-0.00907136406749487,-0.0037533100694418,0.00577430613338947,0.021494559943676
932,0.00329822464846075,-0.0117766028270125,-0.00989436637610197,-0.00523118209093809,0.0053068702109158,0.0229387860745192
933,-0.00599827989935875,-0.0106328092515469,-0.0081976754590869,-0.00494514452293515,0.00194686220493168,0.0259692668914795
934,-0.0127316163852811,-0.00562264304608107,-0.00460577802732587,-0.00210244162008166,-0.00417908327654004,0.0311904903501272
935,-0.0178957246243954,-0.000628260022494942,-0.00175205292180181,0.000977007555775344,-0.0120321093127131,0.0355569869279861
936,-0.0222995653748512,0.00122666091192514,-0.000279220461379737,0.0025623757392168,-0.0185452867299318,0.0373786613345146
937,-0.02621029317379,-0.000589890754781663,-0.000233246231800877,0.0025257074739784,-0.0228470880538225,0.0376712344586849
938,-0.0296271946281195,-0.00534944841638207,-0.00120605691336095,0.00203242595307529,-0.0257498286664486,0.0371902920305729
939,-0.0327079892158508,-0.0113804806023836,-0.00328121497295797,0.00145778409205377,-0.027881532907486,0.0363298878073692
940,-0.0350826904177666,-0.0161557663232088,-0.00622163433581591,0.000304415938444436,-0.0285584200173616,0.0359356552362442
941,-0.0377543643116951,-0.0205871425569057,-0.00984564516693354,-0.00267665297724307,-0.0275899954140186,0.0343818515539169
942,-0.042918361723423,-0.0263772960752249,-0.0144486362114549,-0.00754857109859586,-0.0265037696808577,0.03108917362988
943,-0.0494303964078426,-0.0312284659594297,-0.0182522814720869,-0.0111077167093754,-0.024842195212841,0.0295947100967169
944,-0.053884893655777,-0.0328158102929592,-0.0189401283860207,-0.0108147943392396,-0.0209774579852819,0.0323349647223949
945,-0.0557226836681366,-0.0319109670817852,-0.0170427672564983,-0.00839790608733892,-0.0163118876516819,0.0371593087911606
946,-0.0560672990977764,-0.0292309802025557,-0.0136799234896898,-0.00603540893644094,-0.0123567506670952,0.0414330586791039
947,-0.0545544065535069,-0.0239571910351515,-0.00847918912768364,-0.00326077314093709,-0.00792265590280294,0.0450796112418175
948,-0.052338358014822,-0.0175279509276152,-0.00315622123889625,-0.000765117642004043,-0.00364679400809109,0.0467579551041126
949,-0.0518255159258842,-0.0122648710384965,-0.000768009631428868,-0.000305981142446399,-0.00265948032028973,0.0455049015581608
950,-0.0524942502379417,-0.00840219669044018,-3.01091185974656E-05,-0.00129920127801597,-0.00490740733221173,0.0424017645418644
951,-0.0517674833536148,-0.00471410015597939,0.00258479057811201,-0.00165256683249027,-0.00674836849793792,0.0397754944860935
952,-0.0498776473104954,-0.000776277971453965,0.00542232021689415,-0.00110805360600352,-0.00729037309065461,0.0406111963093281
953,-0.0493368878960609,0.000998706091195345,0.00423669535666704,-0.00152298039756715,-0.00814805738627911,0.0426903031766415
954,-0.0514713227748871,-0.00179523241240531,-0.00220064492896199,-0.0044794506393373,-0.0105022983625531,0.0405564345419407
955,-0.056751798838377,-0.00863629207015038,-0.0126659581437707,-0.0105464337393641,-0.0160346813499928,0.032466184347868
956,-0.0633751899003983,-0.0157766230404377,-0.0231535322964191,-0.0175434444099665,-0.0235336013138294,0.0208991318941116
957,-0.0684081166982651,-0.0198721867054701,-0.0301509983837605,-0.022308673709631,-0.0296928640455008,0.00850122142583132
958,-0.0715415701270103,-0.0222928058356047,-0.0345992632210255,-0.0250266585499048,-0.0340482965111732,-0.00463686743751168
959,-0.0734410136938095,-0.0252713207155466,-0.0382502377033234,-0.026576541364193,-0.0371225588023663,-0.0172014031559229
960,-0.0747486427426338,-0.0282249785959721,-0.0416900962591171,-0.0266338940709829,-0.0391357094049454,-0.0255979262292385
961,-0.0758796557784081,-0.0300997421145439,-0.0453594736754894,-0.0262269843369722,-0.0405643060803413,-0.0283596105873585
962,-0.0762753114104271,-0.0309726223349571,-0.0492225475609303,-0.0270894449204206,-0.0415228381752968,-0.0273230746388435
963,-0.0771280601620674,-0.0315049216151237,-0.0539059117436409,-0.0290244072675705,-0.043134331703186,-0.0237170681357384
964,-0.080543652176857,-0.0315355323255062,-0.0600865408778191,-0.0299996919929981,-0.046449325978756,-0.0167922601103783
965,-0.0858029946684837,-0.0293661095201969,-0.065938375890255,-0.0282013714313507,-0.0499221533536911,-0.00749454833567142
966,-0.0916563868522644,-0.024892894551158,-0.0692513361573219,-0.024043969810009,-0.0524783805012703,-0.000367395725334063
967,-0.0991415157914162,-0.0223668403923512,-0.0711869522929192,-0.0207044277340174,-0.0557649247348309,-0.000336199271259829
968,-0.108872577548027,-0.0261180270463228,-0.0747603476047516,-0.0213806834071875,-0.0606510676443577,-0.00817198771983385
969,-0.118963621556759,-0.0352411568164825,-0.0811107382178307,-0.0264305546879768,-0.0655167475342751,-0.0210100598633289
970,-0.126399457454681,-0.043970450758934,-0.0885656550526619,-0.0328019931912422,-0.0683140084147453,-0.0339133329689503
971,-0.129701420664787,-0.047623049467802,-0.094663955271244,-0.0366387143731117,-0.0690257027745247,-0.0421350672841072
972,-0.129830196499825,-0.0470930971205235,-0.0984200462698936,-0.0371636673808098,-0.069350466132164,-0.0453448183834553
973,-0.127750545740128,-0.0452294871211052,-0.0993840545415878,-0.0358124300837517,-0.0696415454149246,-0.0455098487436771
974,-0.123416878283024,-0.0433755032718182,-0.0972551256418228,-0.0333972796797752,-0.0690881982445717,-0.0426448620855808
975,-0.116325184702873,-0.0421129800379276,-0.0923676490783691,-0.029980855062604,-0.0663352534174919,-0.036511093378067
976,-0.107864834368229,-0.0413657985627651,-0.0860765352845192,-0.0265969913452864,-0.0615774989128113,-0.0298414770513773
977,-0.102002575993538,-0.0402468331158161,-0.0808209627866745,-0.024445278570056,-0.0573623143136501,-0.0255827121436596
978,-0.100624114274979,-0.0381980799138546,-0.0778264850378037,-0.0229594297707081,-0.0541892014443874,-0.0227276608347893
979,-0.101652860641479,-0.0352268554270267,-0.0753816962242126,-0.0208648405969143,-0.0509314872324467,-0.0175604950636625
980,-0.103127881884575,-0.032952968031168,-0.0707115009427071,-0.0184297058731318,-0.0480116531252861,-0.0112195191904902
981,-0.10529238730669,-0.0336715802550316,-0.0642634630203247,-0.0174994003027678,-0.0462479069828987,-0.00986987538635731
982,-0.106245778501034,-0.0353607945144176,-0.057789757847786,-0.0177145078778267,-0.0428151451051235,-0.0131550170481205
