,AF3,AF4,Fp1,Fp2,AF7,AF8
0,-0.00390946539118886,-0.000335948716383427,-0.0115001946687698,-0.0140162659808993,0.0136483972892165,-0.0155067648738623
1,-0.0134231597185135,-0.0074331178329885,-0.0175195429474115,-0.0210888758301735,0.0084571884945035,-0.0175889320671558
2,-0.0215220097452402,-0.01638456992805,-0.0226480327546597,-0.0274433847516775,0.00298106390982866,-0.0200951248407364
3,-0.0253599528223276,-0.0227500405162573,-0.0240892246365547,-0.0297943148761988,0.000117837240395602,-0.0196858197450638
4,-0.0241243578493595,-0.023545678704977,-0.0203728601336479,-0.027118930593133,0.000993887195363641,-0.0145008713006973
5,-0.0198409706354141,-0.0197462346404791,-0.0133191403001547,-0.0215279534459114,0.00362541037611663,-0.00594731792807579
6,-0.0154207656159997,-0.0156636592000723,-0.00680094677954912,-0.0164660904556513,0.00514139281585813,0.00165267998818308
7,-0.0129800783470273,-0.0142760304734111,-0.00417161826044321,-0.0139190778136253,0.00263666897080839,0.00563659844920039
8,-0.0137507235631347,-0.0161958206444979,-0.00713133066892624,-0.0149680767208338,-0.00541612366214395,0.00560273742303252
9,-0.016917048022151,-0.0222786385565996,-0.0146423270925879,-0.0202821809798479,-0.0166651252657175,0.000135840455186553
10,-0.0190119277685881,-0.0304989460855722,-0.0227176807820797,-0.0271667391061783,-0.0259206499904394,-0.00869083870202303
11,-0.017950689420104,-0.0361614115536213,-0.028013713657856,-0.0315384604036808,-0.0305323973298073,-0.0145154679194093
12,-0.015438174828887,-0.0386825688183308,-0.0305771678686142,-0.033078346401453,-0.0321163646876812,-0.0167169105261564
13,-0.0146368723362684,-0.0409693121910095,-0.0325941741466522,-0.0341601371765137,-0.0339077226817608,-0.0192597545683384
14,-0.0171003118157387,-0.0442783087491989,-0.0356873273849487,-0.0365008935332298,-0.0374286472797394,-0.0235407575964928
15,-0.0221562702208757,-0.0480155646800995,-0.0399860329926014,-0.0403989143669605,-0.0416714735329151,-0.0292284898459911
16,-0.0274721328169107,-0.0507645569741726,-0.0445027463138103,-0.0447379089891911,-0.044889647513628,-0.03481575101614
17,-0.0303315985947847,-0.0508867762982845,-0.047738078981638,-0.0477465428411961,-0.0457113310694695,-0.0380996465682983
18,-0.031080013141036,-0.0484689325094223,-0.0495205000042915,-0.048826340585947,-0.0454428121447563,-0.038670752197504
19,-0.0315739028155804,-0.0449674502015114,-0.0500663928687572,-0.0483804866671562,-0.0459616519510746,-0.0375980399549007
20,-0.0309458654373884,-0.0411647260189056,-0.0478545017540455,-0.046016801148653,-0.0451117306947708,-0.0351128280162811
21,-0.0281418636441231,-0.0368959493935108,-0.0421452187001705,-0.0413438826799393,-0.0408110842108727,-0.0306932907551527
22,-0.0251470301300287,-0.0322648510336876,-0.035311471670866,-0.0360259413719177,-0.0356124974787235,-0.0252738539129496
23,-0.0243027489632368,-0.0283238962292671,-0.0302611403167248,-0.0322956331074238,-0.0328213647007942,-0.0210795849561691
24,-0.0262730531394482,-0.0262452326714993,-0.0282228495925665,-0.0306258518248796,-0.0332769639790058,-0.019513351842761
25,-0.0303177423775196,-0.0260503068566322,-0.0286088567227125,-0.0301172416657209,-0.036229569464922,-0.0204654335975647
26,-0.0330932661890984,-0.025955818593502,-0.0285274758934975,-0.0289112944155931,-0.038650531321764,-0.0218630712479353
27,-0.0321616418659687,-0.0244905147701502,-0.0259722210466862,-0.0258820839226246,-0.0380158796906471,-0.021236402913928
28,-0.0304912738502026,-0.0230027474462986,-0.0231897961348295,-0.0229938458651304,-0.0365220233798027,-0.0196229182183743
29,-0.0308668743818998,-0.0226443242281675,-0.0216863732784987,-0.0219052564352751,-0.0356014929711819,-0.0191136319190264
30,-0.0324977822601795,-0.0224394053220749,-0.0194433014839888,-0.0214918553829193,-0.0336525924503803,-0.0189012009650469
31,-0.0339787118136883,-0.0214736424386501,-0.0150941293686628,-0.0206086318939924,-0.0302207488566637,-0.017871119081974
32,-0.034479171037674,-0.0201081689447165,-0.0101806484162807,-0.0199173483997583,-0.0260391533374786,-0.0168607011437416
33,-0.0362746939063072,-0.0212159529328346,-0.00933342706412077,-0.022295331582427,-0.0248379334807396,-0.0187238436192274
34,-0.0413639098405838,-0.0261774472892284,-0.0151406899094582,-0.0286015961319208,-0.0296647064387798,-0.0244492944329977
35,-0.0462232232093811,-0.0309901125729084,-0.0233844351023436,-0.0346270389854908,-0.0361378602683544,-0.029950050637126
36,-0.0481168702244759,-0.0326350182294846,-0.0295232534408569,-0.0375538691878319,-0.039729405194521,-0.0318402834236622
37,-0.0481059774756432,-0.0319999419152737,-0.0331795699894428,-0.0385326743125916,-0.0409768596291542,-0.0305798556655645
38,-0.0458337776362896,-0.0298632383346558,-0.0343006402254105,-0.0379530973732471,-0.0397097803652287,-0.0271949078887701
39,-0.0408430360257626,-0.0267732199281454,-0.0329732932150364,-0.035261046141386,-0.0355672761797905,-0.0221783667802811
40,-0.0346434786915779,-0.023866543546319,-0.0303424727171659,-0.0310428366065025,-0.0306613110005856,-0.0164400599896908
41,-0.0280450228601694,-0.0217863116413355,-0.0269221160560846,-0.0267608650028706,-0.0262265373021364,-0.0121130757033825
42,-0.0218634475022554,-0.0201745890080929,-0.0232425592839718,-0.0238978192210197,-0.0221136249601841,-0.0103557528927922
43,-0.0185543075203896,-0.0191773194819689,-0.020819365978241,-0.0234638284891844,-0.0192674603313208,-0.0106758894398808
44,-0.0195184610784054,-0.0195600036531687,-0.0210080835968256,-0.0253784712404013,-0.0190869569778442,-0.0127786733210087
45,-0.0228193420916796,-0.0204884447157383,-0.0233396403491497,-0.0281958393752575,-0.0216127838939428,-0.015403913334012
46,-0.0253569446504116,-0.0200341492891312,-0.0259812194854021,-0.0303222332149744,-0.0257213395088911,-0.0167345367372036
47,-0.0261740125715733,-0.0178374201059341,-0.0281013399362564,-0.0317931436002254,-0.0305404905229807,-0.0174397826194763
48,-0.0266546681523323,-0.0158903915435076,-0.0300729312002659,-0.033931665122509,-0.035525057464838,-0.0197477769106627
49,-0.0282205156981945,-0.0159779619425535,-0.0320323817431927,-0.0369125939905643,-0.0394612066447735,-0.0241200309246778
50,-0.031060429289937,-0.0173125304281712,-0.0336639545857906,-0.0391951240599155,-0.0413757860660553,-0.028638930991292
51,-0.0339998938143253,-0.0170543827116489,-0.0340013317763805,-0.0387678369879723,-0.0413441509008408,-0.0296712480485439
52,-0.0347462929785252,-0.0134096378460526,-0.031389344483614,-0.0345598310232162,-0.0389289744198322,-0.024933947250247
53,-0.0323149375617504,-0.00809336267411709,-0.0256814397871494,-0.0280140955001116,-0.0339153073728085,-0.0166223831474781
54,-0.0287439376115799,-0.00452937977388501,-0.0197096932679415,-0.022594666108489,-0.0286061055958271,-0.0094550522044301
55,-0.0272145066410303,-0.00442725094035268,-0.0167892761528492,-0.0209000483155251,-0.0266098752617836,-0.0065695964731276
56,-0.0290167424827814,-0.00663268333300948,-0.0174435265362263,-0.0228665787726641,-0.029052609577775,-0.00778699107468128
57,-0.0319446995854378,-0.00824629794806242,-0.0190192759037018,-0.0257039032876492,-0.0327884703874588,-0.0104624386876822
58,-0.0332422405481339,-0.00746612995862961,-0.018954848870635,-0.0263490956276655,-0.034601803869009,-0.0117631126195192
59,-0.032846212387085,-0.00478976359590888,-0.0170715264976025,-0.0242847893387079,-0.034841526299715,-0.0100976563990116
60,-0.0316946841776371,-0.00112042389810085,-0.014203411526978,-0.0206543747335672,-0.0345964506268501,-0.00529044074937701
61,-0.0300628039985895,0.00228900648653507,-0.0112932696938515,-0.0166364386677742,-0.0336860381066799,0.000768298981711268
62,-0.0283937640488148,0.00307094561867416,-0.00961002986878157,-0.013392448425293,-0.0321926437318325,0.00546633778139949
63,-0.0269376989454031,-0.000276341859716922,-0.0101545201614499,-0.0121492147445679,-0.0305199362337589,0.00722975190728903
64,-0.0254382453858852,-0.00704522943124175,-0.0126308603212237,-0.0131631726399064,-0.0287058744579554,0.00561304669827223
65,-0.0244006831198931,-0.0155341681092978,-0.0157858785241842,-0.0153838163241744,-0.0266339778900146,0.00157165352720767
66,-0.0243606716394424,-0.0238779783248901,-0.0187967885285616,-0.0177964605391026,-0.0238628778606653,-0.0029783935751766
67,-0.0248091612011194,-0.0311158448457718,-0.0212079044431448,-0.0202942751348019,-0.0198492053896189,-0.00681082997471094
68,-0.0255273841321468,-0.0371272079646587,-0.0227119326591492,-0.022674486041069,-0.0155813302844763,-0.00912927277386189
69,-0.0278491862118244,-0.0416790992021561,-0.0248109195381403,-0.0244403872638941,-0.0141414226964116,-0.00924226734787226
70,-0.0321544297039509,-0.0446747876703739,-0.0288690440356731,-0.0250910371541977,-0.0166818555444479,-0.00711278943344951
71,-0.0355502627789974,-0.0458494462072849,-0.0333930142223835,-0.0239064451307058,-0.0204014126211405,-0.00289543508552015
72,-0.0356683395802975,-0.0460780113935471,-0.0370160080492496,-0.0219436679035425,-0.0229483861476183,0.001695801387541
73,-0.0338233225047588,-0.0475336946547031,-0.0402001030743122,-0.0217576883733273,-0.0250746048986912,0.00381989520974457
74,-0.03238545358181,-0.0511680543422699,-0.0438090972602367,-0.0243622362613678,-0.0283222775906324,0.00244874227792025
75,-0.0316637083888054,-0.0555586256086826,-0.0479396283626556,-0.0285382103174925,-0.0324297733604908,-0.000786731543485075
76,-0.0302397459745407,-0.0586068034172058,-0.0511525869369507,-0.0325237140059471,-0.0355598218739033,-0.0046278121881187
77,-0.0283425878733397,-0.060510940849781,-0.0529289022088051,-0.0361018590629101,-0.0376705415546894,-0.00953685119748116
78,-0.0279835611581802,-0.0629297494888306,-0.0543681494891644,-0.0394923835992813,-0.0410231985151768,-0.0146466298028827
79,-0.0284181535243988,-0.0655912756919861,-0.054288424551487,-0.0411224998533726,-0.0456424541771412,-0.0178243648260832
80,-0.0264788251370192,-0.0666323229670525,-0.0508577972650528,-0.0392967574298382,-0.0493371225893497,-0.0179365705698729
81,-0.022062985226512,-0.0662755519151688,-0.0458180606365204,-0.0348189920186996,-0.0520118065178394,-0.0159575399011374
82,-0.0178841464221478,-0.0658742785453796,-0.0416821241378784,-0.0297296941280365,-0.0548279136419296,-0.0129388319328427
83,-0.0156529657542706,-0.0656470507383347,-0.0392557941377163,-0.0256968643516302,-0.0576833486557007,-0.00936355255544186
84,-0.0157373212277889,-0.0657973960042,-0.0388023778796196,-0.0235147010535002,-0.060252457857132,-0.00655336026102304
85,-0.0164425428956747,-0.0657944902777672,-0.0392497181892395,-0.0221525002270937,-0.0619745254516602,-0.00458468962460756
86,-0.0158194247633219,-0.0656847655773163,-0.039332989603281,-0.0212474763393402,-0.0619353130459785,-0.00331868324428797
87,-0.0149320000782609,-0.0673671886324883,-0.0395295061171055,-0.022241247817874,-0.060680877417326,-0.00396221783012152
88,-0.0154192419722676,-0.0713704153895378,-0.0404815301299095,-0.0255480241030455,-0.0605737864971161,-0.00676601054146886
89,-0.0168337393552065,-0.0759313330054283,-0.0417232178151608,-0.0296890456229448,-0.0631849616765976,-0.0103451162576675
90,-0.0168116390705109,-0.0783232152462006,-0.0414282530546188,-0.0316828973591328,-0.0660794526338577,-0.0119374897330999
91,-0.014660825021565,-0.0780298188328743,-0.039164487272501,-0.0306104868650436,-0.0668709874153137,-0.01093431096524
92,-0.0125803453847766,-0.0773006752133369,-0.0365419909358025,-0.0286696907132864,-0.0669946894049644,-0.00994059629738331
93,-0.0107581941410899,-0.0766987353563309,-0.0330174416303635,-0.0263639483600855,-0.0666272789239883,-0.00953667145222425
94,-0.00908019859343767,-0.0768544971942902,-0.0292508564889431,-0.0243202429264784,-0.0653794035315514,-0.0100433519110084
95,-0.00985856726765633,-0.0793791264295578,-0.029109226539731,-0.0247412752360106,-0.0662302896380425,-0.0127114243805408
96,-0.0124888774007559,-0.0818037763237953,-0.0322497524321079,-0.0261302404105663,-0.0698898136615753,-0.0144796129316092
97,-0.0146039836108685,-0.0811816528439522,-0.0351066887378693,-0.0258531738072634,-0.0730450078845024,-0.0127974888309836
98,-0.0168937258422375,-0.0791342854499817,-0.0367418937385082,-0.0252050254493952,-0.0741085410118103,-0.0111854169517756
99,-0.0193471368402243,-0.0768029317259789,-0.0364026427268982,-0.0249295085668564,-0.072369322180748,-0.0115041937679052
100,-0.02149891667068,-0.0731061697006226,-0.0339155197143555,-0.0237604826688766,-0.0681255087256432,-0.0105470111593604
101,-0.0252733994275332,-0.0691580474376678,-0.0317895151674747,-0.0223913695663214,-0.0643457025289536,-0.00733486050739884
102,-0.0311881918460131,-0.0676295757293701,-0.0314438119530678,-0.0224585607647896,-0.0623196437954903,-0.00533895939588547
103,-0.037672147154808,-0.0694205388426781,-0.032373208552599,-0.0243906378746033,-0.0611315481364727,-0.00730137061327696
104,-0.0429312437772751,-0.0727641806006432,-0.0333666950464249,-0.0270019788295031,-0.059578362852335,-0.0121076786890626
105,-0.0466562360525131,-0.0757507160305977,-0.0338642634451389,-0.0289684273302555,-0.0572473667562008,-0.0173336882144213
106,-0.0502617880702019,-0.0781887471675873,-0.0349379293620586,-0.0302200578153133,-0.0552375875413418,-0.0212953612208366
107,-0.053378090262413,-0.0799982324242592,-0.0370746403932571,-0.0306806936860085,-0.0540578737854958,-0.0226803161203861
108,-0.0553495325148106,-0.0818245485424995,-0.040178045630455,-0.0309639237821102,-0.0535566806793213,-0.022716024890542
109,-0.057623703032732,-0.0837178453803062,-0.0440015867352486,-0.0315286293625832,-0.0538665913045406,-0.0232332423329353
110,-0.0600375942885876,-0.0830704718828201,-0.0467556491494179,-0.0308868885040283,-0.0540499016642571,-0.0230359677225351
111,-0.0609610676765442,-0.0783712640404701,-0.0468829274177551,-0.0285920538008213,-0.0533708408474922,-0.0208785142749548
112,-0.0612473413348198,-0.0714343264698982,-0.045411828905344,-0.0265509020537138,-0.05344008654356,-0.0177746247500181
113,-0.0611676797270775,-0.0648983120918274,-0.0429989509284496,-0.0259185303002596,-0.0533628240227699,-0.0163751933723688
114,-0.0594307146966457,-0.0602407939732075,-0.0397315248847008,-0.0262541081756353,-0.0502514541149139,-0.0174283497035503
115,-0.0575268305838108,-0.0579315945506096,-0.0383864119648933,-0.0271803252398968,-0.0459403991699219,-0.018092256039381
116,-0.0570959933102131,-0.0572150386869907,-0.0407074205577374,-0.0278345383703709,-0.0428896695375443,-0.0168759562075138
117,-0.0576210767030716,-0.0557205639779568,-0.0448330491781235,-0.0267023909837008,-0.0406690798699856,-0.0142147233709693
118,-0.0589869692921638,-0.0517273060977459,-0.0488866120576859,-0.023711109533906,-0.0396373607218266,-0.0106057012453675
119,-0.0613844245672226,-0.0458389595150948,-0.0526204183697701,-0.0206663869321346,-0.0409021526575089,-0.00746506731957197
120,-0.0631920024752617,-0.0389676727354527,-0.0554057657718658,-0.019189927726984,-0.043192133307457,-0.00590177532285452
121,-0.0622872672975063,-0.0314855426549912,-0.0561248585581779,-0.0193935949355364,-0.0438762530684471,-0.00559628289192915
122,-0.0591310150921345,-0.0246861986815929,-0.0554681420326233,-0.0208071544766426,-0.0428385213017464,-0.00610358826816082
123,-0.0547550097107887,-0.0194164924323559,-0.0543893426656723,-0.0225349720567465,-0.0407955124974251,-0.00700343679636717
124,-0.0496719405055046,-0.0153693333268166,-0.0528648346662521,-0.0237299278378487,-0.0379089489579201,-0.00770372850820422
125,-0.0450131967663765,-0.0123537462204695,-0.0507612973451614,-0.024200202897191,-0.035349577665329,-0.00802086014300585
126,-0.0401444025337696,-0.00900321174412966,-0.0469532087445259,-0.0233177151530981,-0.0330491848289967,-0.00722244661301374
127,-0.0341610871255398,-0.00444397563114762,-0.0416863113641739,-0.0216063000261784,-0.0307319369167089,-0.00550891365855932
128,-0.0280324835330248,0.000170728380908258,-0.0371325872838497,-0.0205718632787466,-0.0294215232133865,-0.00401833141222596
129,-0.0234166905283928,0.00379611272364855,-0.034230463206768,-0.0202672462910414,-0.0296491663902998,-0.00280295708216727
130,-0.0219385996460915,0.00536774843931198,-0.0332854837179184,-0.0202150456607342,-0.0318102911114693,-0.00180709734559059
131,-0.0226877052336931,0.00470463093370199,-0.033558014780283,-0.0193622410297394,-0.0349774770438671,-0.000211104998015799
132,-0.0217140018939972,0.0044749635271728,-0.0318640768527985,-0.0155511721968651,-0.0357878245413303,0.00379560282453895
133,-0.0170009080320597,0.00634495355188847,-0.0268674921244383,-0.00916462764143944,-0.0328864604234695,0.00883098319172859
134,-0.0109779397025704,0.00780244776979089,-0.0213197842240334,-0.00409094430506229,-0.0294224452227354,0.0105970641598105
135,-0.00686276471242309,0.00680821808055043,-0.0178761091083288,-0.00268706888891757,-0.0284920483827591,0.0086734825745225
136,-0.00523806782439351,0.00430817063897848,-0.01704459823668,-0.00408780947327614,-0.0296340435743332,0.00604060757905245
137,-0.00420866021886468,0.00106328481342644,-0.0182165708392859,-0.00659111049026251,-0.0304893124848604,0.00380151276476681
138,-0.00225718365982175,-0.00290660024620593,-0.0203852504491806,-0.00870705116540194,-0.0299177169799805,0.00224113371223211
139,0.000301716645481065,-0.00692678894847631,-0.022413793951273,-0.00964911840856075,-0.0282741095870733,0.00186592014506459
140,0.00271636759862304,-0.00969955418258905,-0.0235053449869156,-0.0093639399856329,-0.0260301344096661,0.0025018120650202
141,0.00487608509138227,-0.0106037044897676,-0.023230342194438,-0.00774128548800945,-0.0232420284301043,0.00389618379995227
142,0.0067872442305088,-0.0106472838670015,-0.0214483998715878,-0.00461273454129696,-0.0201147813349962,0.00581497326493263
143,0.00837303139269352,-0.0106684854254127,-0.0186475794762373,-0.000291064323391765,-0.0171294957399368,0.00787822250276804
144,0.0100777326151729,-0.0103736761957407,-0.0152172269299626,0.00435712793841958,-0.0142508940771222,0.00943007506430149
145,0.0126642594113946,-0.00884572509676218,-0.010663578286767,0.00922678038477898,-0.0107341948896647,0.0108420858159661
146,0.0152735719457269,-0.00600719777867198,-0.00520948274061084,0.0145417880266905,-0.00650954572483897,0.0132371420040727
147,0.0155332116410136,-0.00417013093829155,-0.000711831613443792,0.0187871064990759,-0.00286807725206017,0.0156706906855106
148,0.0135445604100823,-0.00473655248060822,0.00215790001675487,0.0210820734500885,-0.000157699701958336,0.0174980163574219
149,0.0117155518382788,-0.00645079975947738,0.00411277497187257,0.0221745893359184,0.00226831948384643,0.0199361201375723
150,0.0106527879834175,-0.00831207353621721,0.00468876352533698,0.0216506663709879,0.00388138904236257,0.0226110089570284
151,0.00967864319682121,-0.00906344130635262,0.00374321639537811,0.0197027008980513,0.00387861696071923,0.024916872382164
152,0.00778187857940793,-0.00888268277049065,0.00143807765562087,0.0167327914386988,0.00189189717639238,0.0252087600529194
153,0.00381381623446941,-0.0097423242405057,-0.00273065525107086,0.0119386836886406,-0.00216892710886896,0.0216134842485189
154,-0.00116688618436456,-0.011693743057549,-0.00740837818011642,0.00602521747350693,-0.00662532029673457,0.015523498877883
155,-0.00533594377338886,-0.0149253914132714,-0.0104036927223206,8.60108120832592E-05,-0.00862862262874842,0.00783063843846321
156,-0.00821765139698982,-0.01907311193645,-0.0108792772516608,-0.00457708816975355,-0.00662349909543991,0.00045440043322742
157,-0.0103406440466642,-0.0224427860230207,-0.00978674739599228,-0.00654994416981936,-0.00240048486739397,-0.00340308621525764
158,-0.0125813065096736,-0.0247926861047745,-0.00970094744116068,-0.00643980177119374,0.000115052964247298,-0.00328399823047221
159,-0.0143569195643067,-0.026294955983758,-0.0113781997933984,-0.00474932510405779,2.57996744039701E-05,0.000128618485177867
160,-0.0138872247189283,-0.0269654206931591,-0.0129058221355081,-0.00127534044440836,7.68084501032718E-05,0.00597713328897953
161,-0.0119280992075801,-0.028395239263773,-0.0143641838803887,0.00178581697400659,0.00104491680394858,0.011293763294816
162,-0.0114692263305187,-0.0321900695562363,-0.0180943943560123,0.00146528566256166,0.000370231457054615,0.0129434866830707
163,-0.0128945950418711,-0.0369135066866875,-0.0235482100397348,-0.00151317939162254,-0.00265845470130444,0.0122352046892047
164,-0.0143294585868716,-0.0408066622912884,-0.0279598962515593,-0.00464744120836258,-0.00571549916639924,0.0126240672543645
165,-0.0137417074292898,-0.0433983989059925,-0.0297728460282087,-0.00675480393692851,-0.00649887742474675,0.0157186519354582
166,-0.0083563607186079,-0.042779590934515,-0.0276802722364664,-0.00619786325842142,-0.00328250881284475,0.0216808635741472
167,0.00273955310694873,-0.0372777916491032,-0.0209412518888712,-0.000977177289314568,0.00497464183717966,0.0297329258173704
168,0.0170048885047436,-0.0282230693846941,-0.0105406027287245,0.00843351986259222,0.0171793252229691,0.0379702933132648
169,0.0299179814755917,-0.0194532107561827,0.000115214621473569,0.0180309265851974,0.0288919638842344,0.0431908965110779
170,0.0380228124558926,-0.014166422188282,0.00709219835698605,0.0235089175403118,0.0358908697962761,0.042705126106739
171,0.0410558395087719,-0.0122503405436873,0.00952211674302816,0.0238961260765791,0.0376443490386009,0.0370758697390556
172,0.0404470637440681,-0.0125497039407492,0.00835839379578829,0.0205043312162161,0.0356848575174809,0.0292989276349545
173,0.0390006192028522,-0.0152967358008027,0.00534565839916468,0.0151164345443249,0.0335010811686516,0.0214259549975395
174,0.0388402156531811,-0.0202308986335993,0.00315324519760907,0.00992308929562569,0.0343109555542469,0.0144995916634798
175,0.0392428636550903,-0.0245225038379431,0.0033188359811902,0.00734036741778255,0.0369483232498169,0.0109098646789789
176,0.0383491553366184,-0.0260103736072779,0.00467020412907004,0.00776891922578216,0.0376364402472973,0.0121917678043246
177,0.0343295820057392,-0.0261708255857229,0.00446645729243755,0.00873027741909027,0.0336451083421707,0.0162680242210627
178,0.0275743920356035,-0.0261492896825075,0.00231219292618334,0.00865871179848909,0.025791285559535,0.0206494368612766
179,0.021736865863204,-0.0239427946507931,0.00145222351420671,0.00916042272001505,0.018814729526639,0.0260227043181658
180,0.0187937263399363,-0.018194729462266,0.00426426157355309,0.0118528734892607,0.0165313705801964,0.0337459109723568
181,0.0173115395009518,-0.0101043386384845,0.00961438659578562,0.0159969367086887,0.0190431717783213,0.0426365882158279
182,0.0163245536386967,-0.00157956557814032,0.0148040587082505,0.0196164827793837,0.0251512210816145,0.0496897399425507
183,0.0162546318024397,0.00657249335199595,0.0180731937289238,0.0214354153722525,0.0329824946820736,0.0540670268237591
184,0.0179497543722391,0.0156239457428455,0.020036656409502,0.0222049001604319,0.0407261475920677,0.0586414895951748
185,0.0216257646679878,0.02621204033494,0.0223161578178406,0.023692449554801,0.0486016720533371,0.064850389957428
186,0.026079261675477,0.0357494577765465,0.0258119963109493,0.0267504882067442,0.0569646656513214,0.0696654543280602
187,0.0296490080654621,0.0403951145708561,0.030243469402194,0.0303932465612888,0.0634800866246223,0.0689701959490776
188,0.031013997271657,0.0389854535460472,0.0341746620833874,0.0328181013464928,0.0659963265061378,0.0626190006732941
189,0.0303574148565531,0.0351554676890373,0.0367138981819153,0.0340881757438183,0.0667431280016899,0.0562441870570183
190,0.029400460422039,0.0335553623735905,0.0380567722022533,0.035293024033308,0.0683452934026718,0.0552388057112694
191,0.0285149067640305,0.0343184992671013,0.0375676192343235,0.0357006713747978,0.0681569874286652,0.0582661181688309
192,0.0270877350121737,0.0341214500367641,0.0344130136072636,0.0339147374033928,0.0625772699713707,0.0601762719452381
193,0.0267874300479889,0.031764779239893,0.0301418229937553,0.0302188061177731,0.0540637485682964,0.0583126880228519
194,0.0291982088238001,0.0296362526714802,0.0274077747017145,0.0263586156070232,0.0486846566200256,0.0548177510499954
195,0.0331997312605381,0.0304541364312172,0.0278703402727842,0.0243992302566767,0.0498586930334568,0.0541645064949989
196,0.0372897945344448,0.0348843112587929,0.0319716073572636,0.0254287999123335,0.0561340749263763,0.0586257241666317
197,0.0404081009328365,0.0414464883506298,0.0383804738521576,0.0286257155239582,0.0624399036169052,0.0664493069052696
198,0.0427239537239075,0.0486692674458027,0.0457831919193268,0.033325083553791,0.0658134147524834,0.07493507117033
199,0.0456976927816868,0.0560207217931747,0.0545482113957405,0.0400860905647278,0.0694443956017494,0.0834374576807022
200,0.0486675314605236,0.0618763789534569,0.0642504543066025,0.0475886277854443,0.0775950998067856,0.0915448665618896
201,0.0505517199635506,0.0642404779791832,0.0731570199131966,0.0528188161551952,0.0897316187620163,0.0979735478758812
202,0.0516058728098869,0.0628471449017525,0.0797682628035545,0.0543138012290001,0.10052926838398,0.102693267166615
203,0.0498073361814022,0.0580178424715996,0.0825201496481895,0.0522217787802219,0.104387633502483,0.105780266225338
204,0.0442592613399029,0.051546286791563,0.0814147219061852,0.0482955612242222,0.10069016367197,0.106928646564484
205,0.0382102131843567,0.0462544448673725,0.0784904286265373,0.0450056195259094,0.0919864922761917,0.106349989771843
206,0.0342809334397316,0.0432486198842525,0.0756205394864082,0.0436180010437965,0.0811711400747299,0.104206442832947
207,0.0322365276515484,0.042926512658596,0.0737256482243538,0.0442535057663918,0.0719853192567825,0.101972371339798
208,0.0316521637141705,0.0445597842335701,0.073357105255127,0.0457931756973267,0.0677293986082077,0.100550062954426
209,0.0330257453024387,0.045330073684454,0.0745324343442917,0.0466391183435917,0.0682826563715935,0.0989409610629082
210,0.0350161865353584,0.0429282449185848,0.0760172829031944,0.0465515032410622,0.0698165744543076,0.0981666073203087
211,0.0352577790617943,0.0384133718907833,0.0773405432701111,0.0466582216322422,0.0716652870178223,0.100969366729259
212,0.0346447937190533,0.0360258258879185,0.0810698643326759,0.0488238036632538,0.0788133516907692,0.108225502073765
213,0.0361450985074043,0.0383722968399525,0.0898720845580101,0.0543760135769844,0.0924794748425484,0.118236742913723
214,0.0406675450503826,0.0438964702188969,0.102428182959557,0.0624596551060677,0.10604602098465,0.128202676773071
215,0.0466114655137062,0.0507371723651886,0.115109704434872,0.0712989270687103,0.113263100385666,0.1368767619133
216,0.0502401404082775,0.057168934494257,0.124117121100426,0.0784033164381981,0.112916439771652,0.142968982458115
217,0.0488247536122799,0.0604911223053932,0.126842275261879,0.0811999291181564,0.107012704014778,0.144188106060028
218,0.0450131520628929,0.0596699342131615,0.124572612345219,0.0802144929766655,0.100014261901379,0.1416175365448
219,0.0444117970764637,0.056170042604208,0.120529353618622,0.0773253887891769,0.0982782691717148,0.137199014425278
220,0.0491784475743771,0.0536294542253017,0.117195576429367,0.0736371129751205,0.106684118509293,0.130889311432838
221,0.0553222708404064,0.0554668307304382,0.116271197795868,0.0707375630736351,0.122486770153046,0.124502748250961
222,0.0583327002823353,0.0610037855803967,0.118268430233002,0.0699869692325592,0.138014763593674,0.121054239571095
223,0.0592122040688992,0.0676122903823853,0.122580736875534,0.0718895494937897,0.149929717183113,0.122878283262253
224,0.0601823665201664,0.0739207118749619,0.127209529280663,0.0759865790605545,0.155614838004112,0.130465433001518
225,0.0599636286497116,0.0799894109368324,0.1307153403759,0.0818120911717415,0.150083154439926,0.142009362578392
226,0.0579693913459778,0.0875408872961998,0.133735939860344,0.0905546098947525,0.135393127799034,0.157006308436394
227,0.0559828914701939,0.097110278904438,0.135816723108292,0.102106116712093,0.119587451219559,0.175221025943756
228,0.0543384253978729,0.105582349002361,0.134591519832611,0.112511493265629,0.10626557469368,0.191972672939301
229,0.0528150647878647,0.110606230795383,0.130189463496208,0.118383385241032,0.0959972217679024,0.201989039778709
230,0.0523724034428597,0.113344714045525,0.125658228993416,0.120190769433975,0.0902718678116798,0.205398038029671
231,0.0532563775777817,0.114874377846718,0.122719697654247,0.119704492390156,0.0895653665065765,0.204947993159294
232,0.0542945563793182,0.114233590662479,0.12028394639492,0.117240488529205,0.0923945605754852,0.201028272509575
233,0.0544782169163227,0.110364936292171,0.116950899362564,0.112070292234421,0.0967558547854424,0.192573145031929
234,0.0545194372534752,0.104331754148006,0.113710194826126,0.105100326240063,0.102339349687099,0.181479722261429
235,0.0554731264710426,0.0987694188952446,0.112748511135578,0.0992759540677071,0.110697261989117,0.172730728983879
236,0.0560370050370693,0.0944206342101097,0.113723963499069,0.0955085754394531,0.121333755552769,0.168267950415611
237,0.0543450117111206,0.0898835808038712,0.113016575574875,0.0916604697704315,0.128314167261124,0.165712311863899
238,0.0517774634063244,0.084695927798748,0.107788145542145,0.0864720195531845,0.12667328119278,0.165022745728493
239,0.0506337955594063,0.0793356820940971,0.0990048125386238,0.0801816210150719,0.119200743734837,0.167244911193848
240,0.0512331537902355,0.0755654275417328,0.0911853834986687,0.074572429060936,0.112497881054878,0.169918209314346
241,0.0531208403408527,0.0761934891343117,0.0882825180888176,0.0729115232825279,0.11002342402935,0.171167850494385
242,0.0563224516808987,0.0824121907353401,0.0905067846179008,0.0770539492368698,0.11189603805542,0.172852888703346
243,0.0593046210706234,0.0915966033935547,0.0949126407504082,0.0841945558786392,0.116064466536045,0.175881639122963
244,0.0586913824081421,0.0985494330525398,0.0976578593254089,0.0886242166161537,0.118635289371014,0.17769119143486
245,0.0538307167589664,0.100461192429066,0.0969280749559402,0.0883592367172241,0.116929464042187,0.177356585860252
246,0.0471929386258125,0.0983621627092361,0.0928443148732185,0.0853229686617851,0.110459513962269,0.176841512322426
247,0.041863102465868,0.0953674614429474,0.0875351801514626,0.0820346549153328,0.101883724331856,0.178081601858139
248,0.0400296114385128,0.0937507972121239,0.0836299359798431,0.080702155828476,0.0962452664971352,0.18167045712471
249,0.0417065545916557,0.0926983505487442,0.0813028290867805,0.0816068351268768,0.0965656042098999,0.186007410287857
250,0.0431581698358059,0.0898127779364586,0.0789510160684586,0.0818971171975136,0.100383825600147,0.187681078910828
251,0.0395951345562935,0.0842574387788773,0.0766154676675797,0.07890884578228,0.102766700088978,0.184412494301796
252,0.0318964459002018,0.0781500935554504,0.0773032456636429,0.0744578912854195,0.10293211042881,0.177947700023651
253,0.0242833960801363,0.0734572261571884,0.0812758281826973,0.0713293999433517,0.101860016584396,0.171342998743057
254,0.019339831545949,0.0702419653534889,0.0847602933645248,0.0695604011416435,0.0994502678513527,0.166580513119698
255,0.0177284106612206,0.0684607028961182,0.0857190266251564,0.0684884712100029,0.0971707850694656,0.165049001574516
256,0.0168071556836367,0.0679730176925659,0.0845119282603264,0.0681286081671715,0.0957266762852669,0.166343703866005
257,0.0137578370049596,0.0684291794896126,0.0825304090976715,0.0686980411410332,0.0943038091063499,0.1687902957201
258,0.0100306319072843,0.0695547163486481,0.0818490236997604,0.0695573017001152,0.0942026898264885,0.170362800359726
259,0.0083579532802105,0.0708211362361908,0.0833737403154373,0.0696745738387108,0.0970159247517586,0.169387340545654
260,0.00874592363834381,0.0717487633228302,0.0856493338942528,0.0688891038298607,0.100844018161297,0.166829466819763
261,0.0101613122969866,0.072536364197731,0.0872269943356514,0.0680791065096855,0.103807516396046,0.165922805666924
262,0.0131946736946702,0.0739637017250061,0.0893162712454796,0.0688691735267639,0.107838854193687,0.169041275978088
263,0.0183931868523359,0.0755042880773544,0.0931843444705009,0.0717544183135033,0.113998770713806,0.174849897623062
264,0.0242121107876301,0.0751160234212875,0.0978129804134369,0.0752294436097145,0.119666643440723,0.179946199059486
265,0.0285353139042854,0.0720904394984245,0.102041684091091,0.0777389854192734,0.122849605977535,0.183139309287071
266,0.0301899667829275,0.0672451257705688,0.10519215464592,0.0783690363168716,0.123814761638641,0.184504464268684
267,0.0284050330519676,0.0616013705730438,0.106166213750839,0.0768506079912186,0.122441790997982,0.184330224990845
268,0.0241168718785048,0.0561137348413467,0.104894503951073,0.0743711143732071,0.118650436401367,0.183856666088104
269,0.0205633882433176,0.0515951961278915,0.103040009737015,0.0729949697852135,0.114340655505657,0.184148550033569
270,0.0197861678898335,0.0492990016937256,0.102121576666832,0.0739729553461075,0.111240789294243,0.185704454779625
271,0.0216696206480265,0.050137497484684,0.102897770702839,0.0771044045686722,0.110328786075115,0.188087165355682
272,0.0243728421628475,0.0525276586413383,0.104566156864166,0.0805590227246284,0.111935064196587,0.18969514966011
273,0.0246648080646992,0.053321223706007,0.104188151657581,0.0818499997258186,0.113708205521107,0.189291924238205
274,0.0215879064053297,0.0513271354138851,0.100158780813217,0.0801809132099152,0.112520828843117,0.187538608908653
275,0.0169195532798767,0.0479821898043156,0.0939956530928612,0.0767163708806038,0.107605382800102,0.186400905251503
276,0.0117967631667852,0.0442851446568966,0.0874357223510742,0.0723529532551765,0.100170783698559,0.185425326228142
277,0.00737588945776224,0.041668351739645,0.0820502415299416,0.0684673115611076,0.0928068906068802,0.184446394443512
278,0.00576362758874893,0.042937096208334,0.0795304924249649,0.0680013746023178,0.0882964730262756,0.187270864844322
279,0.00646971398964524,0.0461054295301437,0.0787646397948265,0.070433609187603,0.086631141602993,0.192935317754745
280,0.00796709395945072,0.0474273450672627,0.0786142572760582,0.0728446766734123,0.087067998945713,0.196630269289017
281,0.0108378175646067,0.0484745986759663,0.0804558172821999,0.0752571672201157,0.0903935059905052,0.198489725589752
282,0.0143544496968389,0.0514306202530861,0.0836358442902565,0.077933169901371,0.0955816134810448,0.200570404529572
283,0.0161485727876425,0.0546834915876389,0.0855911448597908,0.0795078054070473,0.0997369140386581,0.202876508235931
284,0.0164615102112293,0.0563216395676136,0.0864329114556313,0.0800400450825691,0.102552406489849,0.205159306526184
285,0.0177036188542843,0.0573568306863308,0.0882300958037376,0.0812770426273346,0.106615647673607,0.208050981163979
286,0.0189676471054554,0.0583673007786274,0.0903053730726242,0.0828268602490425,0.112342171370983,0.210671126842499
287,0.0162935387343168,0.0574789978563786,0.0900973081588745,0.0820497199892998,0.11663281172514,0.210454761981964
288,0.00924780312925577,0.0546013936400414,0.0877811536192894,0.0786653235554695,0.117635175585747,0.206969752907753
289,0.00193933059927076,0.0532999150454998,0.0858553797006607,0.0758331194519997,0.117534689605236,0.203333452343941
290,-0.00304157426580787,0.0553813986480236,0.0854282826185226,0.0755957886576653,0.11885692179203,0.201936736702919
291,-0.00715038040652871,0.0579060912132263,0.0853229835629463,0.0766532570123672,0.121016681194305,0.201904803514481
292,-0.0118342647328973,0.0580925941467285,0.0845249071717262,0.0773640722036362,0.122428245842457,0.20158825814724
293,-0.0159979443997145,0.0559839271008968,0.0833932682871819,0.0777091756463051,0.122432738542557,0.200495257973671
294,-0.0185391642153263,0.0518232882022858,0.0814780443906784,0.0772954151034355,0.119769997894764,0.198349818587303
295,-0.020360242575407,0.0454300865530968,0.0772987753152847,0.0746622756123543,0.113275907933712,0.194094121456146
296,-0.0225973092019558,0.0377438887953758,0.0712258666753769,0.0702054351568222,0.104494377970696,0.187963306903839
297,-0.0259361695498228,0.0300515238195658,0.0649848207831383,0.0656028389930725,0.0959236994385719,0.180804684758186
298,-0.0304850321263075,0.023201672360301,0.0598728246986866,0.0614596717059612,0.088604100048542,0.172127231955528
299,-0.0352556183934212,0.0178278032690287,0.056332029402256,0.0578748770058155,0.0819726064801216,0.162807464599609
300,-0.0391178838908672,0.0140410549938679,0.0539446249604225,0.0550273656845093,0.0753798112273216,0.155557334423065
301,-0.041434533894062,0.0106248669326305,0.0523376055061817,0.0527843646705151,0.0698089525103569,0.150867909193039
302,-0.0416550524532795,0.00668757781386375,0.0513423308730125,0.0508195348083973,0.0664550140500069,0.1459801197052
303,-0.0384679697453976,0.0046109426766634,0.0512898527085781,0.0500803627073765,0.0662248283624649,0.14030422270298
304,-0.0313737988471985,0.00662151444703341,0.0529524236917496,0.0520603023469448,0.069417916238308,0.136830598115921
305,-0.0228190179914236,0.0109832491725683,0.056116484105587,0.0563839077949524,0.0737757608294487,0.136283472180367
306,-0.0160388294607401,0.0150840971618891,0.0595456585288048,0.0613015815615654,0.0762708410620689,0.136359885334969
307,-0.0122242867946625,0.0182525403797627,0.0620591267943382,0.065312996506691,0.0762367248535156,0.135386869311333
308,-0.0114201074466109,0.0199532993137836,0.0623265728354454,0.0668380260467529,0.0746031180024147,0.131894886493683
309,-0.013121590949595,0.0196410734206438,0.0595087483525276,0.0647549256682396,0.0720749646425247,0.125246271491051
310,-0.0159065257757902,0.0180859286338091,0.0545038357377052,0.0594341047108173,0.0692865028977394,0.117108657956123
311,-0.0194906331598759,0.0155643802136183,0.0485403649508953,0.0517600029706955,0.0659038573503494,0.108758233487606
312,-0.0240229498594999,0.0121804755181074,0.0424252897500992,0.0435089319944382,0.0611440166831017,0.1014294475317
313,-0.0285777468234301,0.00904288794845343,0.0366225913167,0.036600399762392,0.0554122850298882,0.0967150330543518
314,-0.0329598858952522,0.00605221837759018,0.0310692749917507,0.0311423633247614,0.0494916141033173,0.0935908704996109
315,-0.0373303666710854,0.00193125731311738,0.0259314365684986,0.0265438407659531,0.0447175391018391,0.0897817015647888
316,-0.0405168235301971,-0.00169624597765505,0.0223068092018366,0.0235119629651308,0.0430397279560566,0.0863920003175735
317,-0.0420241057872772,-0.0030615758150816,0.0210060216486454,0.0219323728233576,0.044565211981535,0.0843211263418198
318,-0.0432311967015266,-0.00431351363658905,0.021093625575304,0.0196624826639891,0.0468656867742538,0.0809301733970642
319,-0.0445218160748482,-0.00656715873628855,0.0215698629617691,0.0165996924042702,0.0477085933089256,0.0759523510932922
320,-0.0446318425238132,-0.00782173499464989,0.0226901713758707,0.0150290075689554,0.0467710867524147,0.072122648358345
321,-0.0430627837777138,-0.00676594395190477,0.0241853147745132,0.0155449789017439,0.0445381961762905,0.070724181830883
322,-0.0414016917347908,-0.00540957320481539,0.0241151452064514,0.0157354418188334,0.0403397046029568,0.0695773139595985
323,-0.0412042886018753,-0.00626080995425582,0.0216282419860363,0.0138294650241733,0.0340796113014221,0.0660234615206718
324,-0.0417825803160667,-0.00799697544425726,0.0186386741697788,0.0116491541266441,0.0286933425813913,0.0614443048834801
325,-0.0427165739238262,-0.00868923217058182,0.0160743743181229,0.0109794568270445,0.0255744792521,0.0579698197543621
326,-0.044563140720129,-0.00984075665473938,0.013011310249567,0.010915219783783,0.0225830785930157,0.054510060697794
327,-0.0449513047933578,-0.012233235873282,0.0104852980002761,0.0111275417730212,0.0206053480505943,0.0506381131708622
328,-0.0401215516030788,-0.0128281582146883,0.0110154086723924,0.0131476242095232,0.0233079046010971,0.0488403625786304
329,-0.0310430247336626,-0.00948383565992117,0.0154151972383261,0.0179548095911741,0.0305329747498035,0.0506482161581516
330,-0.022896233946085,-0.0047776666469872,0.0219078324735165,0.0241994503885508,0.0383774824440479,0.053916335105896
331,-0.0191850531846285,-0.00235697557218373,0.0274550579488277,0.0294064730405808,0.0426287539303303,0.0560558512806892
332,-0.019949758425355,-0.00348816951736808,0.0298431012779474,0.0317439585924149,0.0412941910326481,0.056518230587244
333,-0.0238416865468025,-0.00807987153530121,0.0285217966884375,0.0304634310305119,0.0355212427675724,0.0545561201870441
334,-0.0284450966864824,-0.0138889374211431,0.0250221230089664,0.0273101627826691,0.0286907702684402,0.0507023632526398
335,-0.0315876640379429,-0.0178366117179394,0.0211754254996777,0.0251586381345987,0.0235839709639549,0.0475666411221027
336,-0.0340780429542065,-0.0199154485017061,0.0165282860398293,0.0243115182965994,0.0189419835805893,0.0458007752895355
337,-0.0378908067941666,-0.0224441140890121,0.010299707762897,0.0228619650006294,0.0121318642050028,0.0432315394282341
338,-0.0424995198845863,-0.0267191901803017,0.00372420297935605,0.0196443255990744,0.00404738821089268,0.0387593097984791
339,-0.0452034883201122,-0.0309296529740095,-0.000714118941687047,0.0156026957556605,-0.00199777912348509,0.0347704254090786
340,-0.0449139215052128,-0.0325641669332981,-0.00194747804198414,0.0118362000212073,-0.00469808373600245,0.0325333997607231
341,-0.042615994811058,-0.0309286806732416,-0.00063090305775404,0.00902689527720213,-0.00491861207410693,0.0307443533092737
342,-0.0396095700562,-0.0272993631660938,0.00169506599195302,0.00765633815899491,-0.00398856541141868,0.0287826079875231
343,-0.0368176996707916,-0.0237271301448345,0.00338659575209022,0.00734629668295383,-0.00318967644125223,0.027099983766675
344,-0.034154936671257,-0.0206233263015747,0.00440825754776597,0.00809031911194324,-0.00281966873444617,0.0267579089850187
345,-0.0320217683911324,-0.017652178183198,0.0048845736309886,0.00990869384258986,-0.0030582754407078,0.028196532279253
346,-0.0311162322759628,-0.0148070706054568,0.00457959761843085,0.0122376978397369,-0.00359487975947559,0.0307701695710421
347,-0.0310836061835289,-0.0121327312663198,0.00381580553948879,0.0146088451147079,-0.00341487722471356,0.0330827608704567
348,-0.0321102738380432,-0.0104285413399339,0.00222486187703907,0.0161044169217348,-0.00310845742933452,0.0334739685058594
349,-0.0346612371504307,-0.010571863502264,-0.000806911324616522,0.0153864407911897,-0.0038538093212992,0.031219245865941
350,-0.0370995029807091,-0.0115009676665068,-0.0038377468008548,0.0129910800606012,-0.00498974556103349,0.0272623542696238
351,-0.0370272807776928,-0.0108959171921015,-0.004252003505826,0.0110924150794744,-0.004830292891711,0.0231464728713036
352,-0.0348263569176197,-0.00823217909783125,-0.00228388048708439,0.0103390887379646,-0.00388406775891781,0.0204445905983448
353,-0.0318703949451447,-0.00493675610050559,1.19772275866126E-05,0.0103077450767159,-0.00332057569175959,0.0192966796457767
354,-0.0278942845761776,-0.00230409461073577,0.00243959529325366,0.0108937583863735,-0.00219806097447872,0.0176296960562468
355,-0.0243577882647514,-0.00117650104220957,0.00443476438522339,0.0107873547822237,-0.00166500045452267,0.0142425484955311
356,-0.0234789457172155,-0.00110036053229123,0.00564336404204369,0.00893653836101294,-0.00380996195599437,0.00934866815805435
357,-0.0244285613298416,0.00069205230101943,0.00768460659310222,0.006851508282125,-0.00729152839630842,0.00476899230852723
358,-0.0254071541130543,0.00588011043146253,0.0103003475815058,0.0057241260074079,-0.0103073548525572,0.00250005349516869
359,-0.0251287072896957,0.012596620246768,0.0116670541465282,0.00487474538385868,-0.0124310795217752,0.00167889322619885
360,-0.0228669364005327,0.0186856370419264,0.0116817289963365,0.00416889926418662,-0.0138793652877212,0.0015780187677592
361,-0.0189549010246992,0.0240194872021675,0.0116536524146795,0.00467795925214887,-0.0152753749862313,0.0034741391427815
362,-0.0135036734864116,0.0292209256440401,0.0131335211917758,0.00745773827657104,-0.0159147512167692,0.00795859657227993
363,-0.00692989490926266,0.0339830741286278,0.0161572471261024,0.0118862651288509,-0.014539466239512,0.0140473013743758
364,-0.00131890177726746,0.0362679995596409,0.0182329285889864,0.0152403488755226,-0.0118158925324678,0.0187908262014389
365,0.00118204695172608,0.0337081030011177,0.0168782602995634,0.0147812459617853,-0.00961108133196831,0.0178842414170504
366,0.00102727895136923,0.028009407222271,0.0132020264863968,0.0109136719256639,-0.00857054628431797,0.0117586068809032
367,0.00138315069489181,0.0247367899864912,0.0117800608277321,0.00799741689115763,-0.00681465165689588,0.00669084023684263
368,0.00409706495702267,0.0259091909974813,0.0153565667569637,0.00900943484157324,-0.00261302245780826,0.00567800085991621
369,0.0068183564580977,0.0275225881487131,0.0208836067467928,0.0112286619842052,0.00206733820959926,0.00508246291428804
370,0.00597202125936747,0.0258520320057869,0.0232655238360167,0.0106292003765702,0.00385409174486995,0.00152325548697263
371,0.000626764900516719,0.0211326647549868,0.0204600915312767,0.00637120008468628,0.0014063318958506,-0.00460912240669131
372,-0.00738396728411317,0.0146308150142431,0.0130336945876479,-0.000543811300303787,-0.00423723086714745,-0.0123677682131529
373,-0.0144217871129513,0.0082492008805275,0.00334654492326081,-0.00801732577383518,-0.00963045097887516,-0.0206090938299894
374,-0.0175864212214947,0.0046095191501081,-0.00531437620520592,-0.0135401878505945,-0.0123238498345017,-0.0271524284034967
375,-0.0163574833422899,0.00442599039524794,-0.0108867892995477,-0.0161690041422844,-0.0127625437453389,-0.0308386478573084
376,-0.0118180140852928,0.00716391671448946,-0.0132099082693458,-0.0164282098412514,-0.0127875478938222,-0.0320872589945793
377,-0.00771737610921264,0.0111810760572553,-0.0150884110480547,-0.0162201132625341,-0.0157641917467117,-0.0329196564853191
378,-0.00781557336449623,0.0131242936477065,-0.0198032464832067,-0.0175190549343824,-0.022533206269145,-0.0362152904272079
379,-0.0107890516519547,0.0126555440947413,-0.0262098778039217,-0.0193165037781,-0.0285374540835619,-0.0418901592493057
380,-0.0129619594663382,0.012965489178896,-0.0310863479971886,-0.0196528919041157,-0.030372453853488,-0.0472307577729225
381,-0.0141371423378587,0.0141791207715869,-0.0346608906984329,-0.0197798572480679,-0.0314563624560833,-0.0516912490129471
382,-0.0151637047529221,0.0143942274153233,-0.0386373959481716,-0.0212429631501436,-0.0353219136595726,-0.055860560387373
383,-0.01424549985677,0.0142566561698914,-0.0415668375790119,-0.0223772749304771,-0.0388472378253937,-0.0588125288486481
384,-0.0101833492517471,0.0150312138721347,-0.0408014953136444,-0.0210724081844091,-0.0375290848314762,-0.0591530911624432
385,-0.00571622746065259,0.0151298465207219,-0.0376117080450058,-0.0184730459004641,-0.0324821546673775,-0.0577184520661831
386,-0.00426296982914209,0.0120499525219202,-0.0357892699539661,-0.0173106621950865,-0.0285343881696463,-0.0576640293002129
387,-0.00529516721144319,0.00692289369180799,-0.0359581373631954,-0.0176772158592939,-0.0274551995098591,-0.0595561936497688
388,-0.00740614859387279,0.00175648916047066,-0.0371272154152393,-0.0188424605876207,-0.028477169573307,-0.0622705481946468
389,-0.00994402449578047,-0.00311342626810074,-0.0388531945645809,-0.0208073034882545,-0.0301392916589975,-0.066529892385006
390,-0.0107991546392441,-0.00645760213956237,-0.039268683642149,-0.0221201088279486,-0.0295391585677862,-0.0720649212598801
391,-0.00896064843982458,-0.00742848217487335,-0.0372844077646732,-0.0217207260429859,-0.0255267731845379,-0.0767278447747231
392,-0.00576660921797156,-0.00640731630846858,-0.0341653302311897,-0.0202994886785746,-0.0200293138623238,-0.0787311792373657
393,-0.00188214448280633,-0.00312725966796279,-0.0305407010018826,-0.0179543625563383,-0.0147879663854837,-0.0774479508399963
394,0.0025858951266855,0.0019973567686975,-0.0264897141605616,-0.0143000856041908,-0.0103425718843937,-0.0734281986951828
395,0.00591649580746889,0.00565746333450079,-0.023645369336009,-0.0110663082450628,-0.00776273710653186,-0.0704271048307419
396,0.00692519173026085,0.00511057022958994,-0.0228778515011072,-0.0100687863305211,-0.00737377488985658,-0.0722258538007736
397,0.00730624701827765,0.0020174237433821,-0.0226245149970055,-0.0101134506985545,-0.00738809304311872,-0.0762820392847061
398,0.00890951044857502,-0.00187648274004459,-0.0219677444547415,-0.0105137173086405,-0.00672964472323656,-0.0797154232859612
399,0.0117323324084282,-0.00672911712899804,-0.022046472877264,-0.0120284678414464,-0.006714619230479,-0.0828546658158302
400,0.0149005381390452,-0.011915298178792,-0.0237770657986403,-0.0141913993284106,-0.00868471059948206,-0.0852250754833221
401,0.0183029137551785,-0.015334571711719,-0.0257421266287565,-0.0153106776997447,-0.0116546619683504,-0.0855461359024048
402,0.0227349549531937,-0.0153626911342144,-0.0258965734392405,-0.0142682855948806,-0.0136125097051263,-0.0834554210305214
403,0.0275280307978392,-0.0138362087309361,-0.0244247727096081,-0.0123356161639094,-0.0147180976346135,-0.0811076015233994
404,0.0319532938301563,-0.0112627353519201,-0.0216412972658873,-0.0099886367097497,-0.0161187723278999,-0.0787420123815537
405,0.0365415289998055,-0.00543227046728134,-0.0173772480338812,-0.00601425440981984,-0.0176609512418509,-0.0737927332520485
406,0.0409011580049992,0.00124438444618136,-0.0133209973573685,-0.00183209171518683,-0.0188392214477062,-0.0682696253061295
407,0.044069480150938,0.00449925567954779,-0.0114841451868415,1.83384890988236E-05,-0.0195349510759115,-0.0662996917963028
408,0.0453134588897228,0.00429417379200459,-0.0126548912376165,-0.000968840380664915,-0.0204135030508041,-0.0682281628251076
409,0.0443845763802528,0.00284060393460095,-0.0161802656948566,-0.00400792621076107,-0.0218928139656782,-0.0722939968109131
410,0.0423868745565414,0.00269492389634252,-0.0196544975042343,-0.00678347516804934,-0.0225842334330082,-0.0753649324178696
411,0.0413703136146069,0.00545711535960436,-0.0202459786087275,-0.00603351881727576,-0.0202381331473589,-0.074019268155098
412,0.0424925982952118,0.0103930896148086,-0.0167207922786474,-0.000651238835416734,-0.0146029246971011,-0.0675874501466751
413,0.0454421788454056,0.016168599948287,-0.009846281260252,0.00762753095477819,-0.00823372881859541,-0.0577405095100403
414,0.0505864471197128,0.0225453916937113,-6.78556098137051E-05,0.0164589732885361,-0.00194267346523702,-0.047036949545145
415,0.0576450563967228,0.0287014544010162,0.0111025553196669,0.0231144111603498,0.00524817081168294,-0.0396947786211967
416,0.063710443675518,0.031975157558918,0.0194451324641705,0.0246587488800287,0.0119235785678029,-0.04015738889575
417,0.0672213360667229,0.0308792684227228,0.0233720429241657,0.0213633049279451,0.0163496341556311,-0.0478272326290607
418,0.0695402249693871,0.0277988500893116,0.0252231247723103,0.0173867829144001,0.0185327380895615,-0.0561602748930454
419,0.0724622681736946,0.0270176641643047,0.0275895688682795,0.0170300733298063,0.0208415519446135,-0.0592717975378037
420,0.07561906427145,0.0296284202486277,0.0308768805116415,0.0206166002899408,0.0258176289498806,-0.0574875324964523
421,0.0768576934933662,0.0330009162425995,0.0331746079027653,0.0246316697448492,0.0320345535874367,-0.0546112023293972
422,0.0754706114530563,0.0350659787654877,0.0333176553249359,0.0263722464442253,0.0365593768656254,-0.0528853870928288
423,0.0719535201787949,0.034725297242403,0.0316859409213066,0.0257203746587038,0.0382112413644791,-0.0535310581326485
424,0.0664621740579605,0.0310186445713043,0.0284167882055044,0.0231878515332937,0.0371617823839188,-0.0577325373888016
425,0.0592050664126873,0.0247752740979195,0.0235203187912703,0.019527368247509,0.0341144800186157,-0.0641506463289261
426,0.0511968769133091,0.0180083774030209,0.0179035421460867,0.0163172446191311,0.0306148417294025,-0.0695109814405441
427,0.0442006178200245,0.0116829369217157,0.0129084978252649,0.014564641751349,0.0290649645030499,-0.0725791156291962
428,0.0385728776454926,0.00536820106208324,0.00846541672945023,0.0131099866703153,0.0294898170977831,-0.0750724822282791
429,0.0326808989048004,-0.00142334401607513,0.00295809679664671,0.0104663334786892,0.0288168843835592,-0.0786019787192345
430,0.0278891026973724,-0.00581153808161616,-0.002408467233181,0.00894048716872931,0.0273493193089962,-0.0805137604475021
431,0.0276529472321272,-0.00415339507162571,-0.00468581030145288,0.0117178410291672,0.029021181166172,-0.0775753706693649
432,0.0308430772274733,0.00169612641911954,-0.00461288867518306,0.017303042113781,0.0338568314909935,-0.0715281516313553
433,0.0330910310149193,0.00693950708955526,-0.00440076738595963,0.0220294632017612,0.0372046940028667,-0.0658214688301086
434,0.0316235311329365,0.00881216302514076,-0.00459794141352177,0.0242077633738518,0.0356548279523849,-0.0621071457862854
435,0.0273922570049763,0.00741964625194669,-0.00450363475829363,0.0242968425154686,0.0308963749557734,-0.0610613636672497
436,0.0235148798674345,0.00476594967767596,-0.00337770697660744,0.0230110697448254,0.0269389431923628,-0.0624854750931263
437,0.0224422141909599,0.00353687070310116,-0.000799296656623483,0.0214713662862778,0.026480520144105,-0.0636888816952705
438,0.0240092482417822,0.00476950313895941,0.00263197533786297,0.0208267569541931,0.0295313559472561,-0.063075952231884
439,0.0255898591130972,0.00712232664227486,0.00472186971455812,0.0203639008104801,0.0329292602837086,-0.0624571740627289
440,0.0252562165260315,0.008749277330935,0.00415492663159966,0.0188908856362104,0.0330204926431179,-0.0634384155273438
441,0.0234187822788954,0.00927968695759773,0.00197664718143642,0.0167548768222332,0.0293182283639908,-0.0653601214289665
442,0.0220486596226692,0.0107952132821083,0.000257083098404109,0.0156889129430056,0.0248577557504177,-0.065932385623455
443,0.0223707817494869,0.0155175467953086,0.000216908301808871,0.016955828294158,0.022246278822422,-0.0635827705264091
444,0.0238871462643147,0.0228873230516911,0.00154348916839808,0.0196124222129583,0.0211018323898315,-0.0597020760178566
445,0.0252135060727596,0.0299270637333393,0.00295666884630919,0.0211628936231136,0.0201574694365263,-0.0587032400071621
446,0.0243525337427855,0.0344389155507088,0.00306336022913456,0.0199703648686409,0.0187397729605436,-0.0624540969729424
447,0.0205773506313562,0.0364269018173218,0.00186916859820485,0.0168534722179174,0.0167031195014715,-0.0677099823951721
448,0.0166127756237984,0.0373943969607353,0.00151266192551702,0.0149409081786871,0.015392174012959,-0.0703360065817833
449,0.0154175395146012,0.038880281150341,0.00323262927122414,0.016579657793045,0.0160430371761322,-0.0685476288199425
450,0.0163153596222401,0.04051748290658,0.00540050538256764,0.0202239993959665,0.0181699134409428,-0.0647911205887794
451,0.0180618427693844,0.0415339693427086,0.00714291213080287,0.0233517959713936,0.0219678189605474,-0.0622524060308933
452,0.0215307995676994,0.042285930365324,0.00919992197304964,0.025494672358036,0.0276194736361504,-0.0611861199140549
453,0.0263711158186197,0.0430147126317024,0.0107073066756129,0.0265025813132524,0.0325233414769173,-0.060742374509573
454,0.0304336864501238,0.043485201895237,0.0101053863763809,0.0259535741060972,0.0338375829160213,-0.0602768994867802
455,0.0340920761227608,0.0439201518893242,0.00803160388022661,0.0247251912951469,0.0321986898779869,-0.0592041462659836
456,0.038756612688303,0.0444555915892124,0.00611677393317223,0.0241080038249493,0.0296310819685459,-0.0575323589146137
457,0.0431377924978733,0.0432856567203999,0.00427003717049956,0.0232322365045547,0.0264322031289339,-0.0570287741720676
458,0.0464266985654831,0.0391941331326962,0.00245183217339218,0.0211381278932095,0.0234783608466387,-0.0585530810058117
459,0.0489898696541786,0.033268503844738,0.00137328635901213,0.0186314955353737,0.021401533856988,-0.0608568005263805
460,0.0499221011996269,0.0260495152324438,-0.000155383109813556,0.0156947933137417,0.0178358219563961,-0.0639172121882439
461,0.0495790988206863,0.018848842009902,-0.002812584862113,0.0125109506770968,0.0124941300600767,-0.0675220414996147
462,0.0499243922531605,0.0141878565773368,-0.00498650781810284,0.0104793775826693,0.0085414731875062,-0.07000982016325
463,0.0514127686619759,0.0121892029419541,-0.00613720063120127,0.00979023706167936,0.00690384535118937,-0.0704546049237251
464,0.053916372358799,0.0115291541442275,-0.00678047584369779,0.0100375739857554,0.00634353375062346,-0.0682699754834175
465,0.0581086315214634,0.012037337757647,-0.00649591162800789,0.0115746250376105,0.00679474975913763,-0.0627686157822609
466,0.0636352151632309,0.0133707821369171,-0.00507374061271548,0.0142922336235642,0.00879939552396536,-0.0553174428641796
467,0.0681500360369682,0.0140643892809749,-0.00425248220562935,0.0169145185500383,0.0112493960186839,-0.049402292817831
468,0.0685797929763794,0.0122731067240238,-0.0070350100286305,0.0172534957528114,0.0112019153311849,-0.0479587502777576
469,0.0644105896353722,0.00692359358072281,-0.0135536240413785,0.0139771476387978,0.00790871400386095,-0.0517476946115494
470,0.0585550107061863,-0.000645803811494261,-0.0204072091728449,0.00829836819320917,0.00405365694314241,-0.0590650513768196
471,0.0533568598330021,-0.00819688569754362,-0.0257431585341692,0.00205446174368262,0.00109501706901938,-0.0674796029925346
472,0.0490855500102043,-0.0145353116095066,-0.0298232212662697,-0.00357983959838748,-0.00189812656026334,-0.0748992562294006
473,0.045344702899456,-0.0187835786491632,-0.0325617045164108,-0.0076122903265059,-0.00593357346951962,-0.0791909098625183
474,0.0408468320965767,-0.0210955366492271,-0.0345043875277042,-0.00988055020570755,-0.0115144839510322,-0.0791704431176186
475,0.0348190739750862,-0.0227487701922655,-0.0364637412130833,-0.0110485749319196,-0.0175649505108595,-0.0761349201202393
476,0.0298674032092094,-0.0241078734397888,-0.036840558052063,-0.0117347147315741,-0.0203227754682302,-0.0734430924057961
477,0.0282726548612118,-0.0250352174043655,-0.0341967232525349,-0.0125113632529974,-0.0186624806374311,-0.0722127705812454
478,0.0278770495206118,-0.0261000394821167,-0.0305849388241768,-0.013835764490068,-0.0167296007275581,-0.0707159265875816
479,0.0254771541804075,-0.0278072319924831,-0.0283580385148525,-0.0158491339534521,-0.0176316313445568,-0.0690596699714661
480,0.0196735393255949,-0.0301920380443335,-0.0281905140727758,-0.0184716023504734,-0.0214090775698423,-0.0685523748397827
481,0.0112024340778589,-0.03286212682724,-0.0297255963087082,-0.0208652075380087,-0.0263709276914597,-0.0690915212035179
482,0.00300031062215567,-0.0339814946055412,-0.0309188310056925,-0.0210912618786097,-0.0294569805264473,-0.0691902488470078
483,-0.00328804203309119,-0.0326130799949169,-0.0307092368602753,-0.0188037343323231,-0.0302938520908356,-0.068109966814518
484,-0.0087892385199666,-0.0307709611952305,-0.0307143572717905,-0.0161846056580544,-0.0316743850708008,-0.0673187524080276
485,-0.0137922931462526,-0.0297810677438974,-0.0313907787203789,-0.0143559901043773,-0.0335337184369564,-0.0677621811628342
486,-0.0179036408662796,-0.029820553958416,-0.0317701883614063,-0.0131739424541593,-0.0333264693617821,-0.0698532462120056
487,-0.0216668378561735,-0.0315231122076511,-0.0318481177091599,-0.0125818336382508,-0.0313161425292492,-0.0737103298306465
488,-0.0242465566843748,-0.0339151807129383,-0.0307955220341682,-0.0114731853827834,-0.0288583021610975,-0.0766813382506371
489,-0.0243910532444716,-0.0359969176352024,-0.0277058649808168,-0.0100026214495301,-0.0259437542408705,-0.0774659663438797
490,-0.0240598097443581,-0.0389068797230721,-0.0250182375311852,-0.0105354012921453,-0.0241983607411385,-0.0782012268900871
491,-0.0260768067091703,-0.0429430305957794,-0.0254300013184547,-0.0133729176595807,-0.0257983356714249,-0.079218327999115
492,-0.0301208049058914,-0.04671236500144,-0.0282124485820532,-0.0166440531611443,-0.0296834949404001,-0.0791209116578102
493,-0.0331649705767632,-0.048430185765028,-0.03042121976614,-0.0187515579164028,-0.0328364558517933,-0.0777404606342316
494,-0.032964464277029,-0.0471787787973881,-0.0301941093057394,-0.0193242728710175,-0.0338163152337074,-0.0765690952539444
495,-0.0296899359673262,-0.0436057299375534,-0.0285364557057619,-0.0190428402274847,-0.0335211530327797,-0.0768502429127693
496,-0.0247949920594692,-0.0394226089119911,-0.0276349019259214,-0.0194083843380213,-0.0334509201347828,-0.0789430662989616
497,-0.0199116803705692,-0.0351574830710888,-0.0285520385950804,-0.0210895463824272,-0.0347772277891636,-0.0817793160676956
498,-0.0164078902453184,-0.0293739028275013,-0.0304535832256079,-0.0217364095151424,-0.0379552990198135,-0.0810690596699715
499,-0.0163633935153484,-0.023325165733695,-0.0325488038361073,-0.0197032745927572,-0.0430543385446072,-0.0744228586554527
500,-0.019947187975049,-0.0194335710257292,-0.0339929834008217,-0.0157418325543404,-0.0486723631620407,-0.0642249956727028
501,-0.0241936519742012,-0.0179473832249641,-0.0333165265619755,-0.0116190081462264,-0.0519806817173958,-0.0552642196416855
502,-0.02787921205163,-0.0204246807843447,-0.0311187468469143,-0.0116469990462065,-0.0523266866803169,-0.0540681481361389
503,-0.0319732166826725,-0.0282842144370079,-0.0303306821733713,-0.0201333444565535,-0.0517369918525219,-0.0644734799861908
504,-0.0366789847612381,-0.0389554463326931,-0.033359419554472,-0.0357463508844376,-0.0525775291025639,-0.0830689817667007
505,-0.0410528741776943,-0.0484780296683311,-0.0392715148627758,-0.0517717190086842,-0.055233221501112,-0.101965732872486
506,-0.0434791333973408,-0.055235356092453,-0.0440280623733997,-0.0620393380522728,-0.0575129128992558,-0.11507735401392
507,-0.0422611981630325,-0.0589944310486317,-0.0442061387002468,-0.0647571608424187,-0.0571608766913414,-0.121126927435398
508,-0.0374981462955475,-0.0592651553452015,-0.039986178278923,-0.0618416965007782,-0.053763285279274,-0.122286356985569
509,-0.0316311083734035,-0.0563630498945713,-0.0341815799474716,-0.056606613099575,-0.0482889860868454,-0.121096454560757
510,-0.0272765252739191,-0.0523320771753788,-0.0297950264066458,-0.0522971302270889,-0.0427459217607975,-0.119664944708347
511,-0.024647131562233,-0.0476041696965694,-0.0273393727838993,-0.049582339823246,-0.0390941277146339,-0.117739409208298
512,-0.022417489439249,-0.0411145016551018,-0.0251515042036772,-0.0469824820756912,-0.0385448038578033,-0.113828264176846
513,-0.0207232944667339,-0.0352850630879402,-0.0234876796603203,-0.0454567335546017,-0.0418792366981506,-0.111206330358982
514,-0.0201711989939213,-0.0331847220659256,-0.0243784971535206,-0.0469441600143909,-0.0477260649204254,-0.113165535032749
515,-0.0200361963361502,-0.0348333716392517,-0.028778251260519,-0.0513129495084286,-0.052893940359354,-0.118070088326931
516,-0.0192951057106256,-0.0384957790374756,-0.0353462211787701,-0.0571606121957302,-0.0557758882641792,-0.123804651200771
517,-0.0186690986156464,-0.0422393232584,-0.0422039441764355,-0.0632078424096107,-0.0580230690538883,-0.129444658756256
518,-0.0190471913665533,-0.0444006137549877,-0.0481745488941669,-0.0677365362644196,-0.0613853931427002,-0.13312965631485
519,-0.0187258645892143,-0.0437425263226032,-0.0514618009328842,-0.0683189928531647,-0.064071848988533,-0.132580503821373
520,-0.0160280633717775,-0.0403779931366444,-0.0514195933938026,-0.064665362238884,-0.0637414827942848,-0.128293097019196
521,-0.0111416233703494,-0.0343926139175892,-0.0486992336809635,-0.0580852814018726,-0.0598231591284275,-0.121556475758553
522,-0.00481714960187674,-0.0265931189060211,-0.0432377755641937,-0.0500099770724773,-0.0527418069541454,-0.112921543419361
523,0.00238598487339914,-0.018964746966958,-0.0349700450897217,-0.0417279377579689,-0.0443349927663803,-0.102622248232365
524,0.0089982720091939,-0.0133797591552138,-0.0262803602963686,-0.0346057526767254,-0.0379937775433064,-0.0916743502020836
525,0.0129423309117556,-0.0125825321301818,-0.0213547758758068,-0.0311446506530046,-0.0365847274661064,-0.0846908539533615
526,0.0141888093203306,-0.0178012121468782,-0.0212815813720226,-0.0324749574065208,-0.0387651845812798,-0.0850535854697227
527,0.0138254640623927,-0.0255107004195452,-0.0237333178520203,-0.0364501476287842,-0.0408424623310566,-0.0891028940677643
528,0.0128778414800763,-0.0301722325384617,-0.025810269638896,-0.0392484739422798,-0.040663368999958,-0.0898358523845673
529,0.0117777837440372,-0.0307120196521282,-0.0256303008645773,-0.0387841798365116,-0.0386018119752407,-0.0851426497101784
530,0.00942581240087748,-0.0305131915956736,-0.0236801356077194,-0.0362684316933155,-0.0373481400310993,-0.0783864110708237
531,0.00473734550178051,-0.0323208943009377,-0.022034240886569,-0.0343713872134686,-0.0390642620623112,-0.0735057815909386
532,-0.0017356388270855,-0.0369397886097431,-0.0225068982690573,-0.0353268757462502,-0.0429779812693596,-0.0727610215544701
533,-0.00769110722467303,-0.043303120881319,-0.0249802507460117,-0.038969811052084,-0.0464095138013363,-0.0749536007642746
534,-0.0113259414210916,-0.0495025366544724,-0.0279363989830017,-0.0433586575090885,-0.0482239909470081,-0.0774282589554787
535,-0.0129763390868902,-0.0544872991740704,-0.031095989048481,-0.0474976263940334,-0.0499427057802677,-0.0794573053717613
536,-0.0128591069951653,-0.0574267730116844,-0.0347484908998013,-0.0506017319858074,-0.0521799027919769,-0.0804917886853218
537,-0.0100647350773215,-0.0577441044151783,-0.0377990081906319,-0.0510932058095932,-0.0531419552862644,-0.0790941193699837
538,-0.00463377544656396,-0.056099209934473,-0.0387950800359249,-0.0485088042914867,-0.0513848438858986,-0.0753097906708717
539,0.00155644677579403,-0.0539255440235138,-0.0379250757396221,-0.0447495020925999,-0.0480345003306866,-0.0712613612413406
540,0.00637145200744271,-0.052588913589716,-0.0369953736662865,-0.0426630601286888,-0.0460105016827583,-0.069381058216095
541,0.00961901247501373,-0.0522563233971596,-0.0368589125573635,-0.0433068424463272,-0.0466775484383106,-0.0707389265298843
542,0.0124205080792308,-0.0519116446375847,-0.0365076661109924,-0.0454813539981842,-0.0481533296406269,-0.0741339847445488
543,0.0144474152475595,-0.0512507297098637,-0.0356795229017735,-0.0479537397623062,-0.0483191199600697,-0.0773302242159843
544,0.0154592031612992,-0.0503308326005936,-0.0346092395484447,-0.0493738651275635,-0.0466889180243015,-0.0780511572957039
545,0.0167208146303892,-0.0493522137403488,-0.0328845493495464,-0.0484384782612324,-0.0445328615605831,-0.0750219076871872
546,0.0183002185076475,-0.0498587898910046,-0.0312210842967033,-0.0461408644914627,-0.0447310656309128,-0.0701097398996353
547,0.0202575176954269,-0.0520751178264618,-0.030298849567771,-0.0437775738537312,-0.047023069113493,-0.0656812936067581
548,0.0237707141786814,-0.0539734847843647,-0.0294544827193022,-0.0409885160624981,-0.0476111993193626,-0.0624745525419712
549,0.0294434260576963,-0.0539100132882595,-0.0270514711737633,-0.0370447635650635,-0.0445075556635857,-0.0608382523059845
550,0.0370450727641582,-0.0513792410492897,-0.0216529574245214,-0.0317512452602386,-0.0386174917221069,-0.0593056194484234
551,0.0440743677318096,-0.0484421029686928,-0.0156704895198345,-0.0270044486969709,-0.0328653454780579,-0.0565901137888432
552,0.0471219345927238,-0.0480267703533173,-0.0134393591433764,-0.0254138503223658,-0.0304676368832588,-0.0542499274015427
553,0.0457352511584759,-0.0497316941618919,-0.0155828250572085,-0.0268946383148432,-0.0320756882429123,-0.0536383390426636
554,0.0422165431082249,-0.0506840348243713,-0.0195167362689972,-0.0294588953256607,-0.0360766910016537,-0.0541100166738033
555,0.0402959175407887,-0.0474524646997452,-0.0218713711947203,-0.0307578649371862,-0.0394193977117538,-0.053682055324316
556,0.0425844676792622,-0.0383240915834904,-0.0199952609837055,-0.0291673913598061,-0.0387716889381409,-0.0510285422205925
557,0.0479018464684486,-0.026194604113698,-0.0142157580703497,-0.0255385190248489,-0.0333954617381096,-0.0471504032611847
558,0.0532563515007496,-0.0155584141612053,-0.00752499001100659,-0.0220237001776695,-0.0261715762317181,-0.0426876470446587
559,0.0569717846810818,-0.00720159010961652,-0.00188611843623221,-0.019178194925189,-0.0208587739616632,-0.0365731120109558
560,0.0580374002456665,0.000291542848572135,0.00243287743069232,-0.0169017743319273,-0.0191276464611292,-0.0299192797392607
561,0.0542120598256588,0.00604063831269741,0.00398330157622695,-0.0166489277034998,-0.0223116092383862,-0.0263452362269163
562,0.045008085668087,0.00847818143665791,0.0021193923894316,-0.0187799371778965,-0.0300110839307308,-0.0268474034965038
563,0.0339837968349457,0.00830607954412699,-0.000563486362807453,-0.0216222144663334,-0.0376460738480091,-0.0299607329070568
564,0.0250760279595852,0.00742683978751302,-0.00177010952029377,-0.0242579150944948,-0.041479405015707,-0.034995011985302
565,0.0202002581208944,0.00820851884782314,-0.000993113149888814,-0.02592458948493,-0.0406529121100903,-0.0396407507359982
566,0.0194337237626314,0.0119743896648288,0.00204421044327319,-0.0254849903285503,-0.0350324735045433,-0.0395828559994698
567,0.0201061107218266,0.0164695791900158,0.00632593594491482,-0.0237999763339758,-0.0274679437279701,-0.0346479937434196
568,0.0183065794408321,0.0172020345926285,0.00920898281037807,-0.0238986257463694,-0.0233702603727579,-0.0307667888700962
569,0.013315737247467,0.0128217069432139,0.0096535524353385,-0.0265958737581968,-0.0247648153454065,-0.0324097983539104
570,0.00810561235994101,0.00735635124146938,0.00953428819775581,-0.0286852773278952,-0.0292801316827536,-0.0372520759701729
571,0.00457701692357659,0.00448743067681789,0.00931312888860703,-0.028838574886322,-0.0346740782260895,-0.0417234860360622
572,0.00234962184913456,0.00382276042364538,0.0074310670606792,-0.0295784957706928,-0.0395487025380135,-0.0458902232348919
573,0.00158170366194099,0.00420121708884835,0.00441907485947013,-0.0321371853351593,-0.0414691865444183,-0.0503874011337757
574,0.00250617298297584,0.00650992756709456,0.00198429310694337,-0.0347909927368164,-0.0398447029292583,-0.0534098856151104
575,0.00492690736427903,0.0123061928898096,0.00103317073080689,-0.0352808199822903,-0.0370701923966408,-0.0526720024645329
576,0.00922751240432262,0.0210958905518055,0.00198672385886312,-0.033080667257309,-0.034547470510006,-0.0484273359179497
577,0.0146430302411318,0.0308020506054163,0.00401096371933818,-0.0293588954955339,-0.0328183099627495,-0.0425416007637978
578,0.0191301666200161,0.0396043881773949,0.00580697692930698,-0.0250507313758135,-0.0325270108878613,-0.0360345095396042
579,0.0219609476625919,0.0462057814002037,0.007493254262954,-0.0203530862927437,-0.0327723808586597,-0.0292753111571074
580,0.0220980811864138,0.0486514121294022,0.00852139387279749,-0.0173118747770786,-0.0333271808922291,-0.0250296723097563
581,0.0187385901808739,0.0462374463677406,0.00762651348486543,-0.0184762869030237,-0.0347992479801178,-0.026298763230443
582,0.0141204744577408,0.0419865883886814,0.00580091960728168,-0.0224196873605251,-0.0363111831247807,-0.03082918189466
583,0.0103796105831862,0.0400340184569359,0.00481471605598927,-0.0253951419144869,-0.0371280275285244,-0.0338431969285011
584,0.00752837723121047,0.0420029275119305,0.00497568631544709,-0.0258909035474062,-0.0372805260121822,-0.0342472195625305
585,0.00504320720210671,0.0462207160890102,0.00581920146942139,-0.0249237380921841,-0.0365683808922768,-0.0333821251988411
586,0.00280162948183715,0.0504078939557076,0.00715605542063713,-0.0232824999839067,-0.0346682406961918,-0.0309898070991039
587,0.00119677733164281,0.0531505830585957,0.00877780187875032,-0.0214761514216661,-0.0321865640580654,-0.0280330069363117
588,-0.000535531842615455,0.0532353855669498,0.00909670162945986,-0.0212202109396458,-0.0316690132021904,-0.0278720632195473
589,-0.00354457297362387,0.0516055189073086,0.00707492558285594,-0.0228749550879002,-0.03443992882967,-0.0308852102607489
590,-0.00592615827918053,0.0520109347999096,0.00529878633096814,-0.0231823436915874,-0.0379011631011963,-0.033177524805069
591,-0.00610996736213565,0.0551851764321327,0.00533279264345765,-0.0208309534937143,-0.0405577942728996,-0.0329339131712914
592,-0.00604889495298266,0.057330247014761,0.00433368189260364,-0.0192651003599167,-0.044509194791317,-0.0320535115897655
593,-0.00668005039915442,0.0565980784595013,0.000694546732120216,-0.0208910275250673,-0.0503195188939571,-0.0310132894665003
594,-0.00725838262587786,0.0535420961678028,-0.00444054743275046,-0.0256074238568544,-0.056391928344965,-0.030270317569375
595,-0.00815020501613617,0.0482079014182091,-0.0101565616205335,-0.0326262973248959,-0.0619023777544498,-0.0318861268460751
596,-0.0102641377598047,0.0411034151911736,-0.0159966684877872,-0.0401506498456001,-0.0674430504441261,-0.0355544798076153
597,-0.0132906809449196,0.0332095585763454,-0.0211996845901012,-0.0462139248847961,-0.0737892761826515,-0.038901325315237
598,-0.0157107729464769,0.0254247337579727,-0.0246141515672207,-0.0497356168925762,-0.0798360556364059,-0.040876641869545
599,-0.0164346024394035,0.0186570007354021,-0.0262884944677353,-0.0506814233958721,-0.083565965294838,-0.0420143790543079
600,-0.0148287964984775,0.0131913181394339,-0.0273730047047138,-0.0496263802051544,-0.0839159190654755,-0.0432937666773796
601,-0.0119440406560898,0.00770607450976968,-0.029241394251585,-0.0481392182409763,-0.0824935659766197,-0.0458831824362278
602,-0.0113073699176311,0.000803948554676026,-0.0331080555915833,-0.0482051074504852,-0.0836006179451942,-0.0494549386203289
603,-0.0148257054388523,-0.00627246173098683,-0.0384856499731541,-0.0501314476132393,-0.0895648077130318,-0.0519030913710594
604,-0.0202233828604221,-0.0105146262794733,-0.0432659313082695,-0.0527980141341686,-0.0967853367328644,-0.0519698858261108
605,-0.023986604064703,-0.00976990349590778,-0.0456004664301872,-0.0544335022568703,-0.0996735244989395,-0.0494921207427979
606,-0.0260566882789135,-0.00574878510087729,-0.0467109605669975,-0.0547741912305355,-0.0986961349844933,-0.0463273078203201
607,-0.0285127572715282,-0.00227158330380917,-0.0490315370261669,-0.0551561117172241,-0.0975185558199883,-0.0452926196157932
608,-0.0299627725034952,0.000666049716528505,-0.0513114109635353,-0.05489382147789,-0.094844825565815,-0.0456915646791458
609,-0.0277613643556833,0.00490191439166665,-0.0512696616351604,-0.0529755353927612,-0.0889427661895752,-0.0455121546983719
610,-0.0226332601159811,0.00993690825998783,-0.0488900393247604,-0.0501692183315754,-0.0831447243690491,-0.0442864410579205
611,-0.0171564649790525,0.0136223221197724,-0.0453251414000988,-0.0480047911405563,-0.0809561461210251,-0.0432882681488991
612,-0.0138401705771685,0.0139987841248512,-0.042425025254488,-0.047944076359272,-0.0827181711792946,-0.0442066006362438
613,-0.0127677181735635,0.0117922695353627,-0.0405766740441322,-0.0487178005278111,-0.0861601307988167,-0.0453539229929447
614,-0.01215058285743,0.00896336976438761,-0.0389906652271748,-0.0475996471941471,-0.0889767557382584,-0.0443657636642456
615,-0.0123556740581989,0.00494453450664878,-0.0392919778823853,-0.0454863123595715,-0.0918562859296799,-0.0431507229804993
616,-0.0132121602073312,-0.000729482620954514,-0.0424955077469349,-0.044871598482132,-0.0949119403958321,-0.0445694848895073
617,-0.0128075368702412,-0.00634816754609346,-0.0465393699705601,-0.0462944246828556,-0.0960769429802895,-0.049059271812439
618,-0.0114661511033773,-0.0117068355903029,-0.0503024309873581,-0.0499799847602844,-0.0944319516420364,-0.056546576321125
619,-0.0093546137213707,-0.0159216206520796,-0.0534674003720284,-0.0542971305549145,-0.0895053595304489,-0.0637451559305191
620,-0.00405838619917631,-0.0150369238108397,-0.0536689944565296,-0.0548760890960693,-0.080075278878212,-0.0641871988773346
621,0.00388593459501863,-0.00773707823827863,-0.0490443669259548,-0.050077598541975,-0.0670709609985352,-0.0562507174909115
622,0.0100126946344972,0.00285398541018367,-0.040985818952322,-0.0425831265747547,-0.0541735850274563,-0.044595081359148
623,0.0120137091726065,0.0124321607872844,-0.0325131304562092,-0.0354453399777412,-0.0442371405661106,-0.0352927669882774
624,0.0107038328424096,0.0179923251271248,-0.026011161506176,-0.029469421133399,-0.0384757444262505,-0.0308375526219606
625,0.00781424436718225,0.0194825325161219,-0.0220778249204159,-0.0238459650427103,-0.0369825474917889,-0.0287372097373009
626,0.00479287793859839,0.0186200216412544,-0.0200964547693729,-0.0188033413141966,-0.0387043133378029,-0.0265369340777397
627,0.00150666409172118,0.0155769819393754,-0.0199472866952419,-0.0161618776619434,-0.0426814332604408,-0.0254985168576241
628,-0.00207499717362225,0.0103832772001624,-0.0211134180426598,-0.0165041200816631,-0.0474519841372967,-0.0267675910145044
629,-0.00392263196408749,0.00570807047188282,-0.0214948672801256,-0.0179331377148628,-0.0504635833203793,-0.0281558707356453
630,-0.00230764574371278,0.00320466584526002,-0.0197882801294327,-0.018827186897397,-0.0497339777648449,-0.0281137991696596
631,0.00260131410323083,0.00260732392780483,-0.0163800287991762,-0.0184641070663929,-0.0447598174214363,-0.026893736794591
632,0.00825493689626455,0.00311010307632387,-0.0133380619809031,-0.0170119293034077,-0.0389161743223667,-0.0243344809859991
633,0.0106363454833627,0.00230265292339027,-0.0138027584180236,-0.0165965873748064,-0.0375067144632339,-0.0211570616811514
634,0.00984280742704868,0.000129544787341729,-0.017109552398324,-0.0178088080137968,-0.0393450707197189,-0.0185273177921772
635,0.0100430808961391,0.00045480442349799,-0.0188808385282755,-0.0179682224988937,-0.0388210564851761,-0.0160453226417303
636,0.0128968646749854,0.0051940749399364,-0.0174531061202288,-0.0147328907623887,-0.0353911891579628,-0.0121948858723044
637,0.0164570882916451,0.0110439108684659,-0.0154126938432455,-0.00931735057383776,-0.0328724347054958,-0.00711946142837405
638,0.0182882789522409,0.0125023359432817,-0.015711709856987,-0.00593775883316994,-0.0339383035898209,-0.00412252778187394
639,0.0157744288444519,0.00618814723566175,-0.0200499221682549,-0.00863990467041731,-0.0402127802371979,-0.00668079918250442
640,0.00778711214661598,-0.00633756536990404,-0.0288256462663412,-0.0178856905549765,-0.0513533130288124,-0.0146885048598051
641,-0.00259767682291567,-0.0193749982863665,-0.0395637899637222,-0.0294486470520496,-0.0632380694150925,-0.0244156960397959
642,-0.012453880161047,-0.0292139034718275,-0.0494601987302303,-0.0392541140317917,-0.072836622595787,-0.0333893373608589
643,-0.0216852258890867,-0.0362539738416672,-0.0580085292458534,-0.0466003455221653,-0.0805780440568924,-0.0417163781821728
644,-0.0294352676719427,-0.0412946715950966,-0.0649875774979591,-0.0515897758305073,-0.0867422223091125,-0.0482886917889118
645,-0.033906102180481,-0.0447395741939545,-0.0699866712093353,-0.054233256727457,-0.0906697884202003,-0.0525647364556789
646,-0.0350923538208008,-0.0468783937394619,-0.0731217414140701,-0.0552482679486275,-0.0923497900366783,-0.0558291412889957
647,-0.0343012139201164,-0.0471704117953777,-0.074370875954628,-0.0553242452442646,-0.0923969522118568,-0.0575500279664993
648,-0.0314799584448338,-0.0447423756122589,-0.0727676227688789,-0.0539754554629326,-0.0906500592827797,-0.0555863082408905
649,-0.0258918441832066,-0.0392883121967316,-0.0674810037016869,-0.0500123016536236,-0.0866270139813423,-0.0484891757369041
650,-0.0193727556616068,-0.032962329685688,-0.0606400743126869,-0.0442037731409073,-0.0817638263106346,-0.0381001159548759
651,-0.0150643214583397,-0.0291659235954285,-0.0557751581072807,-0.0390013679862022,-0.0780379772186279,-0.0288622509688139
652,-0.0134580917656422,-0.0276651848107576,-0.0534378103911877,-0.0349226072430611,-0.0754194781184196,-0.0217211786657572
653,-0.0120630348101258,-0.0259110983461142,-0.0512833893299103,-0.0309584029018879,-0.072190172970295,-0.0157896932214499
654,-0.00875203218311071,-0.0237813908606768,-0.0473838336765766,-0.0270944014191628,-0.0668202936649323,-0.0123077947646379
655,-0.0031001572497189,-0.0214912667870522,-0.0412133857607841,-0.0231691151857376,-0.0591638386249542,-0.010171964764595
656,0.00458495412021875,-0.0180252250283957,-0.0328185297548771,-0.0188039932399988,-0.0498825050890446,-0.00749325146898627
657,0.0138524705544114,-0.0120554091408849,-0.0229058843106031,-0.0139897558838129,-0.0395286194980145,-0.00450050411745906
658,0.0234953798353672,-0.00294239982031286,-0.0138827683404088,-0.00908846408128738,-0.0298910830169916,-0.000891130417585373
659,0.0312245525419712,0.00791868846863508,-0.00803063530474901,-0.00479445373639464,-0.0232750345021486,0.00388065469451249
660,0.0365864522755146,0.0198365990072489,-0.00351648032665253,0.000420690572354943,-0.0182346645742655,0.0102062365040183
661,0.0395425967872143,0.0308434348553419,0.00102381478063762,0.00710722338408232,-0.0134021639823914,0.0161143355071545
662,0.0397378914058208,0.0371426939964294,0.00341661437414587,0.0128129804506898,-0.0103220995515585,0.0189309753477573
663,0.0389288552105427,0.0385312251746655,0.00283715571276844,0.0164200700819492,-0.00906467624008656,0.0196491908282042
664,0.0390424430370331,0.037381038069725,0.000655468320474029,0.0182185228914022,-0.00787839200347662,0.0198009610176086
665,0.040895864367485,0.036142636090517,-0.000989142921753228,0.0189089793711901,-0.00518774660304189,0.0203383974730968
666,0.0441221632063389,0.0367635115981102,-0.000371299334801733,0.0200354717671871,-0.000892095384187996,0.0232861656695604
667,0.0471290051937103,0.0396380946040154,0.00239319074898958,0.0226614195853472,0.00309565477073193,0.0297208670526743
668,0.0475898534059525,0.0428100675344467,0.00510624563321471,0.0248372368514538,0.00391570897772908,0.0363852791488171
669,0.0441330038011074,0.0430795699357986,0.00548707088455558,0.0236098766326904,0.00109097349923104,0.0381962098181248
670,0.0387381464242935,0.0399155728518963,0.00390895130112767,0.0196758508682251,-0.00190029025543481,0.0351285114884377
671,0.0351254306733608,0.0363614074885845,0.00240697874687612,0.0158945843577385,-0.00121875153854489,0.0315306112170219
672,0.0347439013421535,0.0351965427398682,0.0020963279530406,0.0136414607986808,0.00329138291999698,0.0301143284887075
673,0.0358904860913754,0.0361528694629669,0.00260756490752101,0.0125470831990242,0.00795100256800652,0.0298077911138535
674,0.0368117019534111,0.0370993204414845,0.00333073735237122,0.0119426334276795,0.00952603667974472,0.028947476297617
675,0.0374749004840851,0.0360150076448917,0.0039299470372498,0.0112229743972421,0.0082438150420785,0.027473634108901
676,0.0389428362250328,0.0320889726281166,0.00425705825909972,0.0102339424192905,0.00652256421744823,0.0259230621159077
677,0.0428164638578892,0.0265717133879662,0.00503370445221663,0.0104336244985461,0.00676146149635315,0.0249899048358202
678,0.0495457872748375,0.0220733284950256,0.00739266071468592,0.013780334033072,0.00985284801572561,0.0260378867387772
679,0.0571301244199276,0.0189774334430695,0.0107290986925364,0.0193192381411791,0.0141228530555964,0.0295678917318583
680,0.0627520456910133,0.0136994449421763,0.0123509056866169,0.0231777615845203,0.0164345558732748,0.0331957451999187
681,0.0657017379999161,0.00390721391886473,0.0113561190664768,0.0234368648380041,0.0171017833054066,0.03432622179389
682,0.0665385499596596,-0.00738609116524458,0.00975038390606642,0.0215849112719297,0.019418153911829,0.0329177118837833
683,0.0644532665610313,-0.0165671072900295,0.00822653155773878,0.0187885891646147,0.0228383615612984,0.0296104121953249
684,0.0599811971187592,-0.0221163760870695,0.00685578444972634,0.0158806759864092,0.0247247368097305,0.0263073407113552
685,0.0562636777758598,-0.023094404488802,0.00755983544513583,0.0148867126554251,0.0254760198295116,0.0265148226171732
686,0.0544667951762676,-0.0206888299435377,0.0105813816189766,0.016246534883976,0.02597825974226,0.0303374752402306
687,0.0535501316189766,-0.0166443213820457,0.0140491612255573,0.0188302192837,0.0261681284755468,0.0358199253678322
688,0.0524832494556904,-0.0117211751639843,0.0163049791008234,0.0211383476853371,0.0256889164447784,0.0419000200927258
689,0.0507079176604748,-0.00683405390009284,0.016694575548172,0.0217799507081509,0.0241863578557968,0.0460820309817791
690,0.0494683720171452,-0.00124880357179791,0.0165265016257763,0.0218580327928066,0.0226131547242403,0.0462771393358707
691,0.0497823171317577,0.00595784746110439,0.016354838386178,0.0226070862263441,0.0210432801395655,0.0426463782787323
692,0.0504767149686813,0.0127681130543351,0.0146669736132026,0.0225209444761276,0.0182384755462408,0.0358809940516949
693,0.0514752864837646,0.0172288436442614,0.0119398375973105,0.0206135772168636,0.0157688856124878,0.0275466926395893
694,0.0537802167236805,0.0195077620446682,0.0102243535220623,0.017806289717555,0.0164792370051146,0.0200952608138323
695,0.0566594451665878,0.0206842347979546,0.00943464320152998,0.0150970024988055,0.0200242940336466,0.015653669834137
696,0.057484645396471,0.0209711734205484,0.00757518690079451,0.0125927058979869,0.0228178147226572,0.0150601724162698
697,0.0538536570966244,0.0189970303326845,0.0035940445959568,0.0099179157987237,0.0218466725200415,0.0170564074069262
698,0.0477070957422256,0.0151018789038062,-0.000355972180841491,0.00790656637400389,0.0186853390187025,0.0197225790470839
699,0.0440272651612759,0.0117961363866925,-0.00163425994105637,0.00744298798963428,0.016798373311758,0.0220354087650776
700,0.0446505434811115,0.010141191072762,-0.000777737761382014,0.00756606226786971,0.0162781793624163,0.0235575288534164
701,0.0468879640102386,0.00897601898759604,-0.000102127261925489,0.00664989370852709,0.0148148089647293,0.0236752387136221
702,0.0473903976380825,0.00713246874511242,-0.000801087240688503,0.00413340562954545,0.0117313200607896,0.0218750704079866
703,0.0458375588059425,0.00589557783678174,-0.00179900729563087,0.00187187222763896,0.00895903445780277,0.0195574257522821
704,0.0437089242041111,0.00771879311650991,-0.00160373002290726,0.0022300120908767,0.00859253946691751,0.0192942339926958
705,0.0401567406952381,0.0115543035790324,-0.00192800990771502,0.00356920133344829,0.0096207344904542,0.0206583086401224
706,0.0331391617655754,0.014185450039804,-0.00566235044971108,0.00254961219616234,0.00906648859381676,0.0215659886598587
707,0.0223579723387957,0.0142739173024893,-0.0126762706786394,-0.000888293259777129,0.00569023750722408,0.021454943343997
708,0.00959000084549189,0.012258012779057,-0.0203555785119534,-0.00454537244513631,0.00086772273061797,0.020277664065361
709,-0.00184950057882816,0.00941314082592726,-0.0256005153059959,-0.00698620546609163,-0.00328607088886201,0.0185308214277029
710,-0.0104451850056648,0.00559198809787631,-0.0279287658631802,-0.00966113992035389,-0.00698707718402147,0.0151905957609415
711,-0.0167381539940834,0.000202540089958347,-0.0291985254734755,-0.0145843541249633,-0.0109706548973918,0.00785510893911123
712,-0.020783307030797,-0.00482581136748195,-0.0302314031869173,-0.0208249501883984,-0.0141696324571967,-0.00293583050370216
713,-0.0225974414497614,-0.00743106054142118,-0.030848665162921,-0.0265438836067915,-0.0164454113692045,-0.013933602720499
714,-0.0208491645753384,-0.00714982580393553,-0.029619250446558,-0.0300072785466909,-0.0170408841222525,-0.0206389594823122
715,-0.0144201470538974,-0.00516999466344714,-0.0254883449524641,-0.0299287270754576,-0.0140540553256869,-0.0202050786465406
716,-0.00743257207795978,-0.00434419699013233,-0.0212069042026997,-0.0275435708463192,-0.00979117304086685,-0.0157632250338793
717,-0.00576915731653571,-0.00490944180637598,-0.0193946044892073,-0.0240596793591976,-0.00886860396713018,-0.0126639027148485
718,-0.0116846105083823,-0.00460296357050538,-0.019403550773859,-0.0202458035200834,-0.013128750026226,-0.0136857153847814
719,-0.0225211847573519,-0.00273514515720308,-0.0199586451053619,-0.0179879106581211,-0.0200126077979803,-0.0188881102949381
720,-0.0315964929759502,0.000759874063078314,-0.0212692804634571,-0.0170335024595261,-0.0227868296205997,-0.0247944612056017
721,-0.0344412550330162,0.00586307141929865,-0.0246765706688166,-0.015097014605999,-0.0167493782937527,-0.0271581225097179
722,-0.0330063961446285,0.0112663190811872,-0.0297311581671238,-0.0127033665776253,-0.00570175750181079,-0.0253310110419989
723,-0.0314806923270226,0.0155042028054595,-0.0339173004031181,-0.0128829581663013,0.00218883692286909,-0.0213746875524521
724,-0.0315253399312496,0.0191394332796335,-0.0347022414207459,-0.015687495470047,0.00376340746879578,-0.0168213248252869
725,-0.0339942499995232,0.0229053236544132,-0.0322303846478462,-0.0188855938613415,0.000420999043853953,-0.0122434087097645
726,-0.0397244058549404,0.0256993658840656,-0.0294644795358181,-0.0214063245803118,-0.00652970280498266,-0.00764431618154049
727,-0.0460865311324596,0.0271814465522766,-0.0274407062679529,-0.0220673400908709,-0.0142345586791635,-0.00287083303555846
728,-0.0488295927643776,0.0281533785164356,-0.0246618743985891,-0.0205352324992418,-0.0189180169254541,0.000213964172871783
729,-0.0479506067931652,0.0279230792075396,-0.021575853228569,-0.0194170661270618,-0.0205798223614693,-0.00138235406484455
730,-0.0464172065258026,0.026381179690361,-0.0194670222699642,-0.0200442094355822,-0.0216850526630878,-0.006582863163203
731,-0.0447731614112854,0.0260184481739998,-0.0172069855034351,-0.0203064866364002,-0.0231815297156572,-0.0102632371708751
732,-0.0414589755237103,0.0280816052109003,-0.0131168235093355,-0.0184472948312759,-0.0238298159092665,-0.0087795052677393
733,-0.0364822521805763,0.0301088597625494,-0.00720131443813443,-0.0141735039651394,-0.0211743153631687,-0.00191552040632814
734,-0.0324902832508087,0.0298148151487112,-0.00224681105464697,-0.00861195288598537,-0.0150538356974721,0.00762112764641643
735,-0.0317760780453682,0.029899375513196,-0.00198970967903733,-0.00475654844194651,-0.00844263285398483,0.0159497540444136
736,-0.0342969782650471,0.0326036922633648,-0.00728286989033222,-0.00549023039638996,-0.00448847794905305,0.0199005361646414
737,-0.0385091081261635,0.0338170900940895,-0.0151586942374706,-0.0105633353814483,-0.0046019246801734,0.0186493154615164
738,-0.0426858477294445,0.0290388055145741,-0.021652402356267,-0.0170710757374763,-0.00816591363400221,0.0144006013870239
739,-0.0458445958793163,0.0192381124943495,-0.0245825294405222,-0.0224227365106344,-0.0130522921681404,0.00904581788927317
740,-0.0481344610452652,0.00793373957276344,-0.0241052098572254,-0.0260105226188898,-0.017098318785429,0.00210754130966961
741,-0.0506024770438671,-0.00302567961625755,-0.0222301036119461,-0.0284684412181377,-0.0196828357875347,-0.00630436139181256
742,-0.053121916949749,-0.0125027159228921,-0.0208658464252949,-0.0297396872192621,-0.021154597401619,-0.0132608450949192
743,-0.0534233152866364,-0.0184722989797592,-0.0199424456804991,-0.0288426075130701,-0.0212212596088648,-0.0158764887601137
744,-0.0501089245080948,-0.0196642279624939,-0.0182871129363775,-0.0252587106078863,-0.0196583531796932,-0.0145974764600396
745,-0.045313186943531,-0.0174262523651123,-0.0159675609320402,-0.0204873401671648,-0.0185817684978247,-0.0123133389279246
746,-0.0409828200936317,-0.0132019463926554,-0.013156252913177,-0.015765842050314,-0.0190398599952459,-0.0105379708111286
747,-0.0365847945213318,-0.00742538180202246,-0.00941927451640368,-0.0108321290463209,-0.0186913684010506,-0.0097032468765974
748,-0.0320626422762871,-0.00136545894201845,-0.00600034324452281,-0.00659025646746159,-0.0163623448461294,-0.0109977750107646
749,-0.0276081394404173,0.00456598121672869,-0.00439336523413658,-0.00387908820994198,-0.0129269734025002,-0.0131359957158566
750,-0.0227272734045982,0.0107812276110053,-0.00409202417358756,-0.00214641098864377,-0.00978787336498499,-0.0128562822937965
751,-0.0172035116702318,0.0159697793424129,-0.00434052851051092,-0.00150861102156341,-0.00815863162279129,-0.0100010214373469
752,-0.0115122888237238,0.0177774857729673,-0.00434415228664875,-0.00231798179447651,-0.0066072721965611,-0.00764767592772841
753,-0.0074200602248311,0.0157649517059326,-0.00307365763001144,-0.00372112146578729,-0.00379533297382295,-0.00717542646452785
754,-0.00692544830963016,0.0125241978093982,-0.00170290458481759,-0.0050233299843967,-0.00234171748161316,-0.00687146978452802
755,-0.0108709689229727,0.00973013322800398,-0.00345370778813958,-0.00767753086984158,-0.00561197148635983,-0.00730397924780846
756,-0.0174321942031384,0.0068050161935389,-0.00944535154849291,-0.0133859729394317,-0.0125766228884459,-0.0117362616583705
757,-0.0223724972456694,0.00539331836625934,-0.0163245312869549,-0.0200343485921621,-0.01879489608109,-0.0185215789824724
758,-0.0237053856253624,0.00787646509706974,-0.0206629298627377,-0.0239750128239393,-0.0228060372173786,-0.0220178179442883
759,-0.0218103509396315,0.0125248664990067,-0.0222748667001724,-0.0247080698609352,-0.0249790288507938,-0.0210443064570427
760,-0.0167892314493656,0.0158850755542517,-0.0220156796276569,-0.0235453508794308,-0.0240612868219614,-0.0181844066828489
761,-0.0102765457704663,0.0160323325544596,-0.0206699259579182,-0.021504744887352,-0.0203778427094221,-0.0157058089971542
762,-0.00566559145227075,0.0120041752234101,-0.0196848921477795,-0.0200697276741266,-0.0165167637169361,-0.0155033906921744
763,-0.00435150740668178,0.00496962666511536,-0.0203526243567467,-0.0204592924565077,-0.0137314954772592,-0.0181241780519485
764,-0.00437614833936095,-0.000931454764213413,-0.0218008309602737,-0.0216526668518782,-0.0113348187878728,-0.0217606034129858
765,-0.00372979766689241,-0.00257493415847421,-0.021839763969183,-0.0214494951069355,-0.0094835227355361,-0.0242865476757288
766,-0.00137943995650858,-0.0001054120293702,-0.0187056306749582,-0.018428647890687,-0.00787978526204824,-0.0247171726077795
767,0.00320835923776031,0.00419664289802313,-0.0129835391417146,-0.0134518770501018,-0.0051200520247221,-0.0233861468732357
768,0.00849747937172651,0.00722230691462755,-0.0086986068636179,-0.00988811254501343,-0.00213335244916379,-0.0221748873591423
769,0.0125412186607718,0.00796057842671871,-0.00903319660574198,-0.00985000096261501,-0.000778842018917203,-0.0221571773290634
770,0.0146540272980928,0.0077661988325417,-0.0133908689022064,-0.0119852162897587,-0.00147326185833663,-0.0226288009434938
771,0.0162644051015377,0.00925443600863218,-0.0185726396739483,-0.0129412282258272,-0.00319803832098842,-0.0216263886541128
772,0.0196075439453125,0.0142332687973976,-0.0218961574137211,-0.0109843537211418,-0.00444900523871183,-0.0175056159496307
773,0.0226977989077568,0.0195543747395277,-0.0247082896530628,-0.00885110069066286,-0.00582887278869748,-0.0124495048075914
774,0.0221807174384594,0.0203290041536093,-0.0297461152076721,-0.00967871677130461,-0.00897596962749958,-0.0103378230705857
775,0.0194923039525747,0.016295438632369,-0.035743024200201,-0.0121087292209268,-0.0128013361245394,-0.0110250674188137
776,0.0185298677533865,0.0106095066294074,-0.039094015955925,-0.0131132556125522,-0.0142046734690666,-0.0111576169729233
777,0.0201120227575302,0.00476673012599349,-0.0397459715604782,-0.0131403263658285,-0.0123741952702403,-0.00965438317507505
778,0.0220989435911179,-0.00232264120131731,-0.0404897518455982,-0.0150222340598702,-0.00867132097482681,-0.00871950574219227
779,0.0236412640661001,-0.0104626063257456,-0.0416879244148731,-0.0187196489423513,-0.00375493918545544,-0.00914621632546186
780,0.0243146028369665,-0.0179359465837479,-0.0420008152723312,-0.021802743896842,0.000465373130282387,-0.00911200512200594
781,0.0222805961966515,-0.0243358239531517,-0.0420264303684235,-0.0240092165768147,0.000681975041516125,-0.00820503570139408
782,0.0170415434986353,-0.030279241502285,-0.044191412627697,-0.0274608712643385,-0.00368192605674267,-0.00884845107793808
783,0.011510856449604,-0.0348264649510384,-0.0490630716085434,-0.0326518192887306,-0.00938545912504196,-0.0119382617995143
784,0.00996515341103077,-0.0354478992521763,-0.05366275832057,-0.0364703871309757,-0.0124689964577556,-0.0141138546168804
785,0.0126699926331639,-0.0329314135015011,-0.0556798540055752,-0.0367509536445141,-0.0122726280242205,-0.013957585208118
786,0.0157047174870968,-0.0315328389406204,-0.0553147904574871,-0.0346482321619987,-0.010643295943737,-0.0138654410839081
787,0.0162775460630655,-0.0330299288034439,-0.0534987039864063,-0.0309898946434259,-0.00912562292069197,-0.0135502861812711
788,0.0145209087058902,-0.0358365997672081,-0.0513027496635914,-0.0253591928631067,-0.00870448630303144,-0.0107148056849837
789,0.0117623740807176,-0.0389329046010971,-0.0492957383394241,-0.0187011957168579,-0.00953138526529074,-0.00617685401812196
790,0.00929551851004362,-0.0423706881701946,-0.0475196801126003,-0.0135015919804573,-0.0104287546128035,-0.00247100158594549
791,0.00720674358308315,-0.0462114289402962,-0.0466136448085308,-0.0117807434871793,-0.0106794303283095,-0.000962385965976864
792,0.00473284954205155,-0.0508216209709644,-0.0475119836628437,-0.0139655917882919,-0.0110492771491408,-0.0019531031139195
793,0.00218096119351685,-0.0560804419219494,-0.0499621480703354,-0.0188778508454561,-0.0114780925214291,-0.00543536152690649
794,-0.000175337991095148,-0.0613338500261307,-0.0524798929691315,-0.0242578033357859,-0.010991976596415,-0.0103251021355391
795,-0.00328494096174836,-0.0660199746489525,-0.0538916327059269,-0.0279203429818153,-0.0103965252637863,-0.013766092248261
796,-0.00755953229963779,-0.0697750151157379,-0.0543218515813351,-0.0293360948562622,-0.0113052353262901,-0.0141857573762536
797,-0.0124076409265399,-0.0727484524250031,-0.0548182874917984,-0.029320377856493,-0.0133099257946014,-0.0127103878185153
798,-0.017545722424984,-0.0754910558462143,-0.0569827258586884,-0.0292830653488636,-0.0155215552076697,-0.0114250918850303
799,-0.0225993879139423,-0.0776877254247665,-0.0617512464523315,-0.0306032449007034,-0.0178202986717224,-0.0119394063949585
800,-0.0268913898617029,-0.0781739354133606,-0.0679000243544579,-0.033098142594099,-0.0196993444114923,-0.01415313500911
801,-0.0303244944661856,-0.0767805352807045,-0.0729730427265167,-0.0354947634041309,-0.0208819806575775,-0.0171218290925026
802,-0.0328754037618637,-0.074826180934906,-0.075669527053833,-0.0370726473629475,-0.0216681361198425,-0.0202429685741663
803,-0.033912505954504,-0.0733872428536415,-0.0766184404492378,-0.0378942117094994,-0.0216175690293312,-0.0226179845631123
804,-0.0329969227313995,-0.0714202076196671,-0.0771968513727188,-0.0378837659955025,-0.0197927672415972,-0.0226754453033209
805,-0.0311288181692362,-0.0678310170769691,-0.0784861147403717,-0.0367017015814781,-0.0169912669807673,-0.0199299287050962
806,-0.0310680363327265,-0.065019465982914,-0.0814276188611984,-0.0362292528152466,-0.0162618365138769,-0.0179745759814978
807,-0.0341180637478828,-0.0646096616983414,-0.0853112637996674,-0.0384410992264748,-0.0187790002673864,-0.0198717340826988
808,-0.0382946617901325,-0.0641341879963875,-0.0879706218838692,-0.0415360145270824,-0.0220449715852737,-0.0232113096863031
809,-0.0424564778804779,-0.0629201754927635,-0.0897155776619911,-0.0437477119266987,-0.0243793614208698,-0.025284992530942
810,-0.0462227426469326,-0.061667013913393,-0.0912020727992058,-0.0443496219813824,-0.0251901391893625,-0.0248529296368361
811,-0.0471003837883472,-0.0578911192715168,-0.0900306850671768,-0.0418157540261745,-0.0228423047810793,-0.0211378801614046
812,-0.0440338514745235,-0.0501426309347153,-0.0853280052542686,-0.0368299894034863,-0.0178751517087221,-0.0160483345389366
813,-0.0396166741847992,-0.0410725995898247,-0.0797301605343819,-0.032049547880888,-0.0137362191453576,-0.0122403539717197
814,-0.0375086255371571,-0.0347671210765839,-0.0760446339845657,-0.0291891023516655,-0.0131812617182732,-0.0108667416498065
815,-0.0395635813474655,-0.0340127013623714,-0.075609877705574,-0.0290590450167656,-0.0160954017192125,-0.0126775680109859
816,-0.0433020368218422,-0.0375304147601128,-0.0768376514315605,-0.0309316013008356,-0.0191540196537972,-0.0173531547188759
817,-0.044573750346899,-0.04108726978302,-0.0768058001995087,-0.0323812216520309,-0.0197601709514856,-0.0220135096460581
818,-0.0421919450163841,-0.0418647639453411,-0.0744727551937103,-0.0315345488488674,-0.0185580607503653,-0.0233636144548655
819,-0.0373761691153049,-0.0395994298160076,-0.0704384371638298,-0.028449259698391,-0.0166432820260525,-0.0204058717936277
820,-0.0323626026511192,-0.0355208963155746,-0.06622314453125,-0.0244458168745041,-0.0148860365152359,-0.0137591827660799
821,-0.0299049858003855,-0.0325781516730785,-0.0636904686689377,-0.0214669667184353,-0.0142293367534876,-0.00686368765309453
822,-0.0297006629407406,-0.0327185355126858,-0.0623883157968521,-0.0197849906980991,-0.0136297922581434,-0.00397530384361744
823,-0.0286503098905087,-0.0353739373385906,-0.0598466508090496,-0.0177656318992376,-0.0112254414707422,-0.00584833323955536
824,-0.0270795132964849,-0.0408308245241642,-0.0568094812333584,-0.0161050446331501,-0.00856956001371145,-0.0117763942107558
825,-0.0268585383892059,-0.0481255352497101,-0.0555501915514469,-0.0155228096991777,-0.00741482246667147,-0.0187671799212694
826,-0.0280665010213852,-0.0549768768250942,-0.0563441962003708,-0.0155307436361909,-0.00708385277539492,-0.0227567367255688
827,-0.0307907182723284,-0.0610270239412785,-0.0585325658321381,-0.0170600507408381,-0.00786047521978617,-0.022774338722229
828,-0.033231757581234,-0.0654421374201775,-0.0597820617258549,-0.0195567160844803,-0.00918329413980246,-0.0196352377533913
829,-0.033181294798851,-0.0668915510177612,-0.0585812591016293,-0.0213552117347717,-0.00944066047668457,-0.0154230035841465
830,-0.0310451835393906,-0.0647206008434296,-0.0559476688504219,-0.0214486736804247,-0.0088685005903244,-0.0111398668959737
831,-0.0274704787880182,-0.0590301528573036,-0.0527322068810463,-0.0188434161245823,-0.00729477545246482,-0.00582946417853236
832,-0.02369125187397,-0.0524787604808807,-0.049903329461813,-0.0145151149481535,-0.00447347667068243,-0.000732981075998396
833,-0.0212486162781715,-0.0483172535896301,-0.0481793805956841,-0.0106507772579789,-0.00172696553636342,0.00186236249282956
834,-0.0194402970373631,-0.0468904078006744,-0.0467454865574837,-0.00783435814082623,0.000803161703515798,0.00218161777593195
835,-0.0182647183537483,-0.0464081205427647,-0.0455655716359615,-0.0058417939580977,0.00288362451829016,0.00225172587670386
836,-0.0191107708960772,-0.0456072948873043,-0.0456334464251995,-0.0051553095690906,0.00324932741932571,0.00265247724018991
837,-0.0220661256462336,-0.0452481210231781,-0.0472826436161995,-0.00684082601219416,0.00197034468874335,0.00147862208541483
838,-0.0255282092839479,-0.0459700860083103,-0.0490756779909134,-0.0105442553758621,0.000569520227145404,-0.00213298900052905
839,-0.0272055380046368,-0.0462344624102116,-0.0486871898174286,-0.0139437690377235,0.000779916124884039,-0.00612541800364852
840,-0.0273345466703177,-0.045357383787632,-0.0466940402984619,-0.0159826073795557,0.00161019712686539,-0.00856440514326096
841,-0.0281890239566565,-0.0448292344808578,-0.0454755760729313,-0.017721876502037,0.000304345798213035,-0.00983072258532047
842,-0.0303007066249847,-0.0453497543931007,-0.0457744896411896,-0.0201576501131058,-0.00375328725203872,-0.0109816081821918
843,-0.0328032709658146,-0.0463068410754204,-0.0469295792281628,-0.0235711615532637,-0.00917392782866955,-0.0127698546275496
844,-0.0355303548276424,-0.0478759445250034,-0.0479933172464371,-0.0274274200201035,-0.0144187239930034,-0.0159687958657742
845,-0.0386801101267338,-0.0507080443203449,-0.0479798540472984,-0.0304156001657248,-0.018895398825407,-0.0202975496649742
846,-0.0416387170553207,-0.0538065731525421,-0.0457074791193008,-0.0312921851873398,-0.0223331246525049,-0.0235828459262848
847,-0.0423459447920322,-0.0549596734344959,-0.0399996973574162,-0.0289854966104031,-0.0227671787142754,-0.0231879744678736
848,-0.0396130047738552,-0.054176639765501,-0.0319703333079815,-0.0242508966475725,-0.0189178716391325,-0.0197968482971191
849,-0.0353861637413502,-0.0534663908183575,-0.0255011394619942,-0.020015362650156,-0.01367880217731,-0.0169039480388165
850,-0.0319086983799934,-0.0532624833285809,-0.0224051158875227,-0.0176423452794552,-0.0105648022145033,-0.0157213937491179
851,-0.0300791822373867,-0.0534514784812927,-0.0213955622166395,-0.0170253179967403,-0.0101675875484943,-0.0156966056674719
852,-0.029657106846571,-0.0551217421889305,-0.0209414176642895,-0.018232936039567,-0.0107919415459037,-0.0176013540476561
853,-0.0301129929721355,-0.0587496273219585,-0.0207599885761738,-0.0207224953919649,-0.0115672191604972,-0.0219992119818926
854,-0.0316242687404156,-0.0620262585580349,-0.021584790199995,-0.0231716837733984,-0.0137032130733132,-0.0265062842518091
855,-0.0336630009114742,-0.0620768144726753,-0.0228168573230505,-0.0244856085628271,-0.0170701146125793,-0.0279247388243675
856,-0.0346825383603573,-0.059180922806263,-0.0224125273525715,-0.0250413212925196,-0.0195846073329449,-0.0266543626785278
857,-0.0335709452629089,-0.0552098341286182,-0.0196117162704468,-0.0257548056542873,-0.019655354321003,-0.0255719050765038
858,-0.0301829054951668,-0.0500815100967884,-0.0155145190656185,-0.0258085187524557,-0.0171382091939449,-0.0247022733092308
859,-0.0266794841736555,-0.0438465774059296,-0.0129142384976149,-0.0252446867525578,-0.0150658302009106,-0.0231615137308836
860,-0.0262527912855148,-0.0389350354671478,-0.0148355634883046,-0.0267815925180912,-0.0176156628876925,-0.0236799661070108
861,-0.0273940470069647,-0.0352486483752728,-0.0194855164736509,-0.0299913920462132,-0.0229613166302443,-0.0268678106367588
862,-0.0270014945417643,-0.0310854762792587,-0.0229263417422771,-0.0320738144218922,-0.027009055018425,-0.0298155229538679
863,-0.0256278514862061,-0.0271791126579046,-0.0245404504239559,-0.0326778069138527,-0.0297899227589369,-0.031558919698
864,-0.024273818358779,-0.0238085370510817,-0.0253552813082933,-0.0325100682675838,-0.0318281725049019,-0.0320477485656738
865,-0.0226783659309149,-0.0203881207853556,-0.0262588765472174,-0.0322298966348171,-0.0325998440384865,-0.0309529285877943
866,-0.0205359254032373,-0.0167927090078592,-0.0276064425706863,-0.0320802628993988,-0.0328652635216713,-0.0282488334923983
867,-0.0179643742740154,-0.0124636515974998,-0.0286701135337353,-0.0314745903015137,-0.0334906913340092,-0.0234002750366926
868,-0.0148258358240128,-0.00709839770570397,-0.0273780319839716,-0.0295074358582497,-0.0325353443622589,-0.0163969919085503
869,-0.0107496790587902,-0.00181072019040585,-0.0223033614456654,-0.025532828643918,-0.0281319450587034,-0.00867145881056786
870,-0.005417016800493,0.00306976051069796,-0.0137741351500154,-0.0191653817892075,-0.0208793077617884,-0.000494141189847142
871,0.000277387181995437,0.00770928477868438,-0.00403458625078201,-0.0118130454793572,-0.0133654149249196,0.00804959423840046
872,0.0032599400728941,0.00988718122243881,0.00238720281049609,-0.00748371612280607,-0.00999160204082727,0.0136175584048033
873,0.00254687340930104,0.00795455649495125,0.00332738342694938,-0.00863839220255613,-0.0113391429185867,0.0134082827717066
874,0.0020268689841032,0.00494338804855943,0.00261229299940169,-0.0122722694650292,-0.0119670359417796,0.0100646978244185
875,0.00548779778182507,0.00578422052785754,0.00453512091189623,-0.0132773527875543,-0.00815977156162262,0.00880861934274435
876,0.0122378366068006,0.0111981425434351,0.00890143867582083,-0.0106675885617733,-0.0021755073685199,0.0110628213733435
877,0.0195955466479063,0.0182217359542847,0.0140585908666253,-0.00656172353774309,0.00250424118712544,0.0144301382824779
878,0.0257303901016712,0.0242424737662077,0.0184630695730448,-0.00294416677206755,0.00523145077750087,0.0165086854249239
879,0.0299397986382246,0.0289636123925447,0.0209165401756763,-0.000366838241461664,0.00766099290922284,0.0169710293412209
880,0.0324488095939159,0.0336501933634281,0.0222702231258154,0.00251934863626957,0.0110105006024241,0.0175091587007046
881,0.0326647348701954,0.0369444563984871,0.0234501976519823,0.0055649965070188,0.0137114292010665,0.0180599801242352
882,0.0299307685345411,0.0366160050034523,0.023917680606246,0.00713293300941586,0.013707191683352,0.0173214729875326
883,0.0255840644240379,0.0336140058934689,0.0230855140835047,0.00696537736803293,0.0114400750026107,0.0155388861894608
884,0.022048145532608,0.0300955567508936,0.0218228232115507,0.00555235706269741,0.0097471484914422,0.0125183640047908
885,0.0211097355931997,0.0280598141252995,0.0221007652580738,0.00429632607847452,0.0111953066661954,0.00877961982041597
886,0.0225374102592468,0.0295727010816336,0.0247487742453814,0.00501745147630572,0.0148487184196711,0.0076678954064846
887,0.0248747020959854,0.0351921133697033,0.0284946579486132,0.00773319415748119,0.0179100707173347,0.0119821391999722
888,0.0272637326270342,0.0419537946581841,0.0313798822462559,0.0106431702151895,0.0194341596215963,0.019346758723259
889,0.0310393981635571,0.0472327880561352,0.0340042524039745,0.0131020015105605,0.021886644884944,0.0249070059508085
890,0.0376026146113873,0.0521867647767067,0.0384831950068474,0.0163829065859318,0.0272582098841667,0.0281932540237904
891,0.0451504476368427,0.0573899000883102,0.0446757301688194,0.0207075942307711,0.0332301929593086,0.0310048963874578
892,0.0514326505362988,0.0612085796892643,0.0510481595993042,0.0247190315276384,0.0369227677583694,0.0321708358824253
893,0.0556235015392303,0.0625723153352737,0.0558607429265976,0.0269865207374096,0.0374367386102676,0.0297630056738853
894,0.0579368993639946,0.062196284532547,0.0580174066126347,0.0271572880446911,0.0353113859891891,0.0242471396923065
895,0.0588647238910198,0.0608972497284412,0.057378813624382,0.0254364535212517,0.0314753763377666,0.0170886013656855
896,0.0578719340264797,0.0586582086980343,0.053960744291544,0.0217891149222851,0.0263684131205082,0.00933129247277975
897,0.0556738488376141,0.0573602430522442,0.0493278093636036,0.0177874341607094,0.021718954667449,0.00270358822308481
898,0.0549361445009708,0.0604567937552929,0.046228040009737,0.0164309851825237,0.0200591683387756,-6.20320352027193E-05
899,0.0558682084083557,0.0678967833518982,0.0444992147386074,0.0180522352457047,0.0205012373626232,0.00138426630292088
900,0.0561153516173363,0.0757165029644966,0.0417432375252247,0.0199222657829523,0.0198594108223915,0.0032651680521667
901,0.054424062371254,0.0801390632987022,0.0375511087477207,0.0199465304613113,0.0174104310572147,0.00143050646875054
902,0.051375936716795,0.0804874151945114,0.033614419400692,0.0184704232960939,0.0147607959806919,-0.00421162182465196
903,0.0486998185515404,0.0794749855995178,0.0318056531250477,0.0172527320683002,0.0132178459316492,-0.00981863494962454
904,0.0483201742172241,0.0800904631614685,0.0327534973621368,0.0174864009022713,0.0130391726270318,-0.0121324323117733
905,0.0505573451519012,0.082394927740097,0.0354854129254818,0.0185038559138775,0.0137197459116578,-0.0119543606415391
906,0.052736509591341,0.0836144536733627,0.0377418361604214,0.0178515017032623,0.0134820779785514,-0.0131147373467684
907,0.0520270392298698,0.0811791643500328,0.0372767150402069,0.0142149534076452,0.0107997208833694,-0.0175640266388655
908,0.0478741191327572,0.0742303431034088,0.0329958572983742,0.00864095985889435,0.00538940262049437,-0.0234104264527559
909,0.0417062900960445,0.0644151121377945,0.0261347256600857,0.00251981150358915,-0.00198916764929891,-0.0282345656305552
910,0.0357795879244804,0.054912094026804,0.0200811699032784,-0.00333367986604571,-0.0090056573972106,-0.0321603827178478
911,0.031254418194294,0.0474724173545837,0.0177818164229393,-0.0078820614144206,-0.0131259802728891,-0.0359176062047482
912,0.0287880692631006,0.042642280459404,0.0200720299035311,-0.00930883456021547,-0.0134042520076036,-0.037952721118927
913,0.0279542449861765,0.0400873720645905,0.0244147330522537,-0.0071741184219718,-0.0114776697009802,-0.0370361879467964
914,0.0260973740369082,0.0384691171348095,0.0265318583697081,-0.00406987126916647,-0.00988083332777023,-0.0346486754715443
915,0.0215330794453621,0.0370822809636593,0.0247842073440552,-0.00277463882230222,-0.00959043763577938,-0.0327477008104324
916,0.015455536544323,0.0363117754459381,0.0208354387432337,-0.00333747873082757,-0.0104774367064238,-0.032089751213789
917,0.00976535677909851,0.0366956889629364,0.0168841630220413,-0.0043496428988874,-0.0118600903078914,-0.0329838134348392
918,0.00558495055884123,0.0387828908860683,0.0140360230579972,-0.00467345071956515,-0.0124249178916216,-0.0345755741000175
919,0.00368122314102948,0.0425886660814285,0.0129945883527398,-0.00331817427650094,-0.0109640173614025,-0.0342514254152775
920,0.00285339169204235,0.045599952340126,0.0131378695368767,-0.00111085677053779,-0.00918950792402029,-0.0318486876785755
921,0.00135704583954066,0.0452447049319744,0.0128367133438587,-0.000337340286932886,-0.00971804838627577,-0.0310783423483372
922,0.000309191993437707,0.0431191213428974,0.0120687615126371,-0.00126733724027872,-0.0120284464210272,-0.0333082936704159
923,0.000650353613309562,0.0421870909631252,0.0112363118678331,-0.0027800421230495,-0.0156123340129852,-0.0354281105101109
924,0.00174577382858843,0.0431526675820351,0.0106617650017142,-0.00371675519272685,-0.0203468259423971,-0.0343974903225899
925,0.00321393460035324,0.04506691172719,0.0109670897945762,-0.00302316248416901,-0.0240696296095848,-0.0301186703145504
926,0.00594102870672941,0.0479712300002575,0.0130026331171393,0.000622315390501171,-0.0236552488058805,-0.0232008043676615
927,0.01073282584548,0.0526806302368641,0.0170570369809866,0.0076510040089488,-0.0189503207802773,-0.0141336480155587
928,0.015801390632987,0.0578771270811558,0.0209606643766165,0.015152595937252,-0.0141622154042125,-0.0056391847319901
929,0.0189603958278894,0.0610538981854916,0.0226680245250463,0.0196132659912109,-0.0118524516001344,-0.000805327435955405
930,0.0196855887770653,0.0613510608673096,0.0222763568162918,0.0202270895242691,-0.0107044158503413,-8.36849067127332E-05
931,0.0181456450372934,0.0601336881518364,0.021168889477849,0.0188984274864197,-0.00973496213555336,-0.000842289708089083
932,0.0149744004011154,0.0584487915039063,0.0209317598491907,0.0177199523895979,-0.00904820766299963,-0.00067071698140353
933,0.0114956712350249,0.0557251162827015,0.0214591305702925,0.0168792530894279,-0.00838499423116446,-0.000132454748381861
934,0.00899962987750769,0.0519524067640305,0.0218695402145386,0.0162426829338074,-0.00751423090696335,4.46591002400965E-05
935,0.0072765601798892,0.0478608459234238,0.0219199284911156,0.015766890719533,-0.00683259777724743,0.000144686171552166
936,0.00603799801319838,0.0446352064609528,0.0221239402890205,0.0155006209388375,-0.00639204308390617,0.000653288268949836
937,0.00663559697568417,0.0441247001290321,0.0241322983056307,0.0162000358104706,-0.00439108861610293,0.0021921512670815
938,0.00915077328681946,0.046270128339529,0.0283483043313026,0.0177537929266691,0.000233524959185161,0.00460540037602186
939,0.0121686393395066,0.0491400323808193,0.0334992446005344,0.0197938866913319,0.0059318351559341,0.00781925115734339
940,0.0140942754223943,0.0505680181086063,0.0380527675151825,0.0218023005872965,0.0103770671412349,0.0114359343424439
941,0.013187269680202,0.0492406822741032,0.0406092964112759,0.0224839989095926,0.0122640496119857,0.014160524122417
942,0.00996594224125147,0.0469991527497768,0.0418517291545868,0.0219540167599916,0.0121245142072439,0.0162029750645161
943,0.00575532298535109,0.0457826890051365,0.0423381738364697,0.020303288474679,0.0098065659403801,0.0173479001969099
944,0.000120684591820464,0.0442419797182083,0.0402699075639248,0.0164032801985741,0.0044236034154892,0.0157509725540876
945,-0.00716412207111716,0.0403274670243263,0.034365575760603,0.0102206459268928,-0.0034726217854768,0.0109235737472773
946,-0.0142555739730597,0.0345264226198196,0.0260325539857149,0.00370732578448951,-0.0117075424641371,0.0044059818610549
947,-0.0185709614306688,0.0299442391842604,0.0185036826878786,-0.000476532179163769,-0.0169896706938744,-0.00151014805305749
948,-0.0195810869336128,0.0288298334926367,0.0136060686782002,-0.00167512660846114,-0.0183108188211918,-0.00523957563564181
949,-0.0194622967392206,0.0299523919820786,0.0101703535765409,-0.00203050649724901,-0.0187167376279831,-0.00698977941647172
950,-0.0198570415377617,0.0311814043670893,0.00690380576997995,-0.00296111777424812,-0.0206594318151474,-0.00738865463063121
951,-0.019775191321969,0.0324945561587811,0.00434253318235278,-0.00334645505063236,-0.0230743382126093,-0.00550545752048492
952,-0.0189525466412306,0.0331793241202831,0.0022093472070992,-0.00367644499056041,-0.0251173190772533,-0.00223057135008276
953,-0.0185727700591087,0.0314087085425854,-0.000582436216063797,-0.00625530863180757,-0.027374217286706,-0.0010359724983573
954,-0.0185476075857878,0.0280959140509367,-0.00367013644427061,-0.0108486097306013,-0.0296828523278236,-0.00297450297512114
955,-0.0193443540483713,0.0247709956020117,-0.0076227905228734,-0.0164046920835972,-0.0327857211232185,-0.00717425532639027
956,-0.0224746726453304,0.0212467405945063,-0.0138841765001416,-0.0230687521398067,-0.0382307879626751,-0.0127952648326755
957,-0.0278139188885689,0.0179500542581081,-0.0214393641799688,-0.0298616141080856,-0.0458051711320877,-0.0185722261667252
958,-0.0347078777849674,0.0152905751019716,-0.028458958491683,-0.0353674180805683,-0.0547856204211712,-0.0238055512309074
959,-0.041605819016695,0.013143084011972,-0.033969271928072,-0.03886653855443,-0.0635655969381332,-0.0273157302290201
960,-0.0454233251512051,0.0123984208330512,-0.0366561599075794,-0.0395784415304661,-0.0688251033425331,-0.0274260602891445
961,-0.0468578487634659,0.0120972227305174,-0.0370695404708385,-0.0389940105378628,-0.0704236105084419,-0.0260030329227448
962,-0.0492233894765377,0.0103159593418241,-0.0382032692432404,-0.0396226868033409,-0.0713914707303047,-0.0257760155946016
963,-0.0521379336714745,0.00837322976440191,-0.0414714775979519,-0.0412053167819977,-0.0723202601075172,-0.0260207913815975
964,-0.0532104447484016,0.00754781579598784,-0.0453537926077843,-0.0427807010710239,-0.0714168325066566,-0.0270291808992624
965,-0.052494827657938,0.00651775905862451,-0.0485100634396076,-0.0446110889315605,-0.0694257169961929,-0.0311691854149103
966,-0.0514104701578617,0.00513070076704025,-0.0506611317396164,-0.0465077832341194,-0.0690132528543472,-0.0380093082785606
967,-0.0501411370933056,0.00542663782835007,-0.0508521422743797,-0.0472328700125217,-0.0699673518538475,-0.0450028851628304
968,-0.0492792166769505,0.0078343702480197,-0.0490417405962944,-0.0464717783033848,-0.0712243616580963,-0.0510511957108974
969,-0.0492885112762451,0.0109835024923086,-0.0458419173955917,-0.0447478219866753,-0.0723996162414551,-0.0552742667496204
970,-0.0492426156997681,0.0134483771398664,-0.0417835041880608,-0.0428341217339039,-0.0724398344755173,-0.0569043904542923
971,-0.048362173140049,0.01528584305197,-0.0379028283059597,-0.0414874516427517,-0.0703314915299416,-0.0559081360697746
972,-0.0459074303507805,0.0189976952970028,-0.0337752029299736,-0.0398443378508091,-0.0651868730783463,-0.0514752417802811
973,-0.0417546443641186,0.0252902451902628,-0.028442345559597,-0.0372324921190739,-0.0574875213205814,-0.0446011126041412
974,-0.0369438305497169,0.0311345774680376,-0.0227192584425211,-0.0347425527870655,-0.0495350658893585,-0.0387495346367359
975,-0.032879825681448,0.0339535139501095,-0.0182853620499372,-0.0332891717553139,-0.0436360277235508,-0.0356391668319702
976,-0.0308659486472607,0.0337640382349491,-0.0161109417676926,-0.0326691791415215,-0.0411537624895573,-0.0340927839279175
977,-0.0307906456291676,0.0317201688885689,-0.0155197633430362,-0.032409343868494,-0.0410440564155579,-0.0328614935278893
978,-0.0304321479052305,0.0294315312057734,-0.0142232663929462,-0.0321146436035633,-0.0396921932697296,-0.0322298556566238
979,-0.0288710426539183,0.0281753297895193,-0.0114812832325697,-0.0313272252678871,-0.0363086313009262,-0.0313587412238121
980,-0.0284430608153343,0.0276861302554607,-0.00971999671310186,-0.0300316512584686,-0.0346346125006676,-0.0282069221138954
981,-0.0288921818137169,0.0283351019024849,-0.00916559062898159,-0.0273561254143715,-0.0348244570195675,-0.0226557515561581
982,-0.0271791070699692,0.0300879888236523,-0.00794488564133644,-0.0229717344045639,-0.0331764817237854,-0.0177241116762161
983,-0.024207653477788,0.02968979626894,-0.00756351323798299,-0.0201549082994461,-0.030144028365612,-0.0177581869065762
984,-0.0220845732837915,0.0264256112277508,-0.00896180421113968,-0.0201840065419674,-0.0282296352088451,-0.0216462258249521
985,-0.0205324552953243,0.0238174702972174,-0.0101254843175411,-0.0196651630103588,-0.0281999818980694,-0.0229233391582966
