,AF3,AF4,Fp1,Fp2,AF7,AF8
0,-0.010396134108305,-0.0287786591798067,-0.0524597801268101,-0.0620611980557442,-0.0932722613215446,-0.148809999227524
1,-0.00914932508021593,-0.0283852089196444,-0.0534439608454704,-0.0654848888516426,-0.0952732637524605,-0.149390175938606
2,-0.00771039817482233,-0.0303651206195354,-0.0533172339200974,-0.0714476555585861,-0.0985575914382935,-0.155614092946053
3,-0.00606055930256844,-0.0329521894454956,-0.0530641749501228,-0.0778425857424736,-0.101384706795216,-0.163600280880928
4,-0.00404924573376775,-0.0343014374375343,-0.0538865365087986,-0.0824882164597511,-0.101342961192131,-0.169801220297813
5,-0.00268320180475712,-0.033508226275444,-0.056891705840826,-0.0847289189696312,-0.0998559966683388,-0.17221012711525
6,-0.00244121276773512,-0.0306751392781734,-0.0611114166676998,-0.084704302251339,-0.0987062454223633,-0.171227514743805
7,-0.00208051525987685,-0.0266950335353613,-0.0641659423708916,-0.0827628895640373,-0.0969158262014389,-0.169392555952072
8,-0.000565121881663799,-0.0217239875346422,-0.0650752112269402,-0.0790645852684975,-0.09389378875494,-0.16682380437851
9,0.000788174860645086,-0.0172229986637831,-0.0656525418162346,-0.0751722827553749,-0.0911042094230652,-0.163275137543678
10,-0.000283900793874636,-0.0155196394771338,-0.0679816603660584,-0.0729550421237946,-0.0904755890369415,-0.159802213311195
11,-0.0030202753841877,-0.0161295346915722,-0.0710741654038429,-0.0719690099358559,-0.0918806865811348,-0.156383112072945
12,-0.00487513234838843,-0.0183875262737274,-0.0731211155653,-0.0722230523824692,-0.0937620624899864,-0.1549983471632
13,-0.00417958851903677,-0.021236864849925,-0.0733951553702354,-0.0735881924629211,-0.0946659818291664,-0.156404316425323
14,0.000203204821445979,-0.0217652320861816,-0.0710058212280273,-0.0741034150123596,-0.0925928428769112,-0.157280132174492
15,0.00770165072754025,-0.0197254102677107,-0.0662126466631889,-0.0735448151826859,-0.0865541249513626,-0.15669772028923
16,0.0160924289375544,-0.0168865527957678,-0.0608558505773544,-0.0724928304553032,-0.0785199925303459,-0.155366078019142
17,0.022342324256897,-0.0140053275972605,-0.0575320608913898,-0.0703901648521423,-0.0722679570317268,-0.152749925851822
18,0.0251579042524099,-0.0107365874573588,-0.0579386614263058,-0.0670200064778328,-0.0690774545073509,-0.149027392268181
19,0.0267571266740561,-0.0061054122634232,-0.0614488869905472,-0.0627008005976677,-0.0672296658158302,-0.145067527890205
20,0.0291175711899996,-2.35668903769692E-05,-0.0664436146616936,-0.0578460693359375,-0.0654165893793106,-0.141476556658745
21,0.0324424915015697,0.00670296046882868,-0.0707644671201706,-0.0524285323917866,-0.0627642944455147,-0.138178452849388
22,0.0360859557986259,0.0129436086863279,-0.0730575695633888,-0.0469215549528599,-0.0588978081941605,-0.134941577911377
23,0.0386640429496765,0.0178110301494598,-0.0741562768816948,-0.0427814126014709,-0.0549706108868122,-0.131754711270332
24,0.0393069721758366,0.0207549296319485,-0.0750571191310883,-0.0407142899930477,-0.0519161038100719,-0.129184931516647
25,0.0382455550134182,0.0210638381540775,-0.0759762674570084,-0.0406185835599899,-0.0486152656376362,-0.128514930605888
26,0.0366464108228683,0.0196253545582294,-0.0765856578946114,-0.0416835807263851,-0.043299350887537,-0.129404738545418
27,0.0354519821703434,0.0186256691813469,-0.0766426026821136,-0.0426747500896454,-0.0363967046141624,-0.129752978682518
28,0.0350546464323998,0.0196639988571405,-0.0759502500295639,-0.0425008237361908,-0.0299848057329655,-0.127941906452179
29,0.0363021120429039,0.0233657192438841,-0.0732957571744919,-0.039807241410017,-0.0250370781868696,-0.123562574386597
30,0.0393356122076511,0.0287576653063297,-0.068123996257782,-0.0346273630857468,-0.0212951824069023,-0.117517545819283
31,0.0425908379256725,0.033881202340126,-0.0622653253376484,-0.02938262373209,-0.0187216326594353,-0.111357629299164
32,0.0440743304789066,0.0374629199504852,-0.0581346787512302,-0.025956517085433,-0.0175174735486507,-0.105658814311028
33,0.0426080338656902,0.039018414914608,-0.0569082126021385,-0.0248390007764101,-0.0176381506025791,-0.101229064166546
34,0.038057304918766,0.0378884114325047,-0.0587542951107025,-0.0266047529876232,-0.0191037654876709,-0.100591517984867
35,0.0328855626285076,0.0357732810080051,-0.0613320507109165,-0.0293580368161201,-0.0204160157591105,-0.102717839181423
36,0.0307616405189037,0.0371010862290859,-0.0607717446982861,-0.0290031991899014,-0.0193135198205709,-0.10173561424017
37,0.0319184362888336,0.0427521914243698,-0.056544192135334,-0.0248393081128597,-0.0161563288420439,-0.0953842326998711
38,0.034475140273571,0.0488223023712635,-0.0510600581765175,-0.0199390351772308,-0.0125995799899101,-0.0877638906240463
39,0.0379493460059166,0.0523621588945389,-0.0457055121660233,-0.0163524206727743,-0.0091484859585762,-0.0826446637511253
40,0.041916374117136,0.0532220080494881,-0.040815569460392,-0.0140455001965165,-0.00626960955560207,-0.0803895369172096
41,0.0451841205358505,0.051473006606102,-0.0368284806609154,-0.0127992900088429,-0.00430127047002316,-0.0805654525756836
42,0.0465756878256798,0.0467355884611607,-0.0345340333878994,-0.0130178835242987,-0.00301993335597217,-0.0829698368906975
43,0.0456284545361996,0.0404302664101124,-0.0348218269646168,-0.0150296436622739,-0.00314387655816972,-0.0859478786587715
44,0.0439711473882198,0.0351619273424149,-0.0366491973400116,-0.0176648180931807,-0.00495533691719174,-0.0871550142765045
45,0.0443441234529018,0.0322488620877266,-0.0374374277889729,-0.0191999245434999,-0.006945317145437,-0.0863675773143768
46,0.0469505675137043,0.0321288518607616,-0.0362193621695042,-0.0188626162707806,-0.0089557571336627,-0.0839729830622673
47,0.04941376298666,0.0334968566894531,-0.0339357331395149,-0.017471756786108,-0.0122613031417131,-0.0810664445161819
48,0.050757147371769,0.0340336300432682,-0.0315188281238079,-0.0169289018958807,-0.0162187311798334,-0.0801672786474228
49,0.0516667664051056,0.0331086963415146,-0.0294898599386215,-0.0181899443268776,-0.0191677715629339,-0.0821424350142479
50,0.0526191182434559,0.0309553705155849,-0.0280991941690445,-0.0205683968961239,-0.0197799671441317,-0.0859923362731934
51,0.0537372641265392,0.0277794133871794,-0.0269906893372536,-0.0223681926727295,-0.0175110045820475,-0.0896411314606667
52,0.0548840090632439,0.0242051333189011,-0.0258123837411404,-0.0225360114127398,-0.0136355478316545,-0.0913040935993195
53,0.0556581765413284,0.021911034360528,-0.0248265061527491,-0.0215082466602325,-0.0109520936384797,-0.0900373756885529
54,0.0552769303321838,0.0218977089971304,-0.0246066227555275,-0.0200048685073853,-0.0120508000254631,-0.0852183103561401
55,0.0532652772963047,0.0224791448563337,-0.0256470944732428,-0.0181108545511961,-0.0167547259479761,-0.07831159979105
56,0.0497617684304714,0.0219888538122177,-0.0281025245785713,-0.0154998181387782,-0.0226173959672451,-0.0714450404047966
57,0.0453462488949299,0.0205538365989923,-0.0314339101314545,-0.0121391033753753,-0.0274148639291525,-0.0650123730301857
58,0.0414221659302711,0.0186538435518742,-0.0345532894134521,-0.00868147984147072,-0.0297461971640587,-0.0590609349310398
59,0.039080660790205,0.016676003113389,-0.0372977517545223,-0.0067062908783555,-0.0295972432941198,-0.054309818893671
60,0.0379813425242901,0.0143125979229808,-0.040692612528801,-0.0081856707111001,-0.028366819024086,-0.0525018498301506
61,0.0369466654956341,0.00946653448045254,-0.0453922264277935,-0.0138776237145066,-0.0279626417905092,-0.0555746294558048
62,0.0355649217963219,0.000742098316550255,-0.0504436530172825,-0.0220025200396776,-0.0295634344220161,-0.0623948983848095
63,0.0339166149497032,-0.00985455699265003,-0.0545910857617855,-0.0297337342053652,-0.0328428186476231,-0.0692980661988258
64,0.031791727989912,-0.0184621661901474,-0.0573527663946152,-0.0350431278347969,-0.0361738540232182,-0.073128268122673
65,0.0295215807855129,-0.0234355367720127,-0.058365598320961,-0.0369761511683464,-0.0373539291322231,-0.0729411095380783
66,0.028036929666996,-0.0259740985929966,-0.0576764605939388,-0.0359725765883923,-0.0352752543985844,-0.070053793489933
67,0.027914522215724,-0.0274010170251131,-0.0559079274535179,-0.0337085723876953,-0.0310691725462675,-0.0663035660982132
68,0.0276181101799011,-0.0289730355143547,-0.0547570548951626,-0.0323630608618259,-0.0278540570288897,-0.0632050037384033
69,0.0249403603374958,-0.0316233448684216,-0.0555779002606869,-0.0326017029583454,-0.0277275796979666,-0.0610350109636784
70,0.0206246115267277,-0.0345714502036572,-0.0569013804197311,-0.0326084569096565,-0.0294487942010164,-0.0580051392316818
71,0.0181150939315557,-0.0358708947896957,-0.0557295493781567,-0.0297437906265259,-0.0301392208784819,-0.0515241213142872
72,0.0188482031226158,-0.0353553667664528,-0.0515281669795513,-0.0235081203281879,-0.0285136811435223,-0.0411892347037792
73,0.0198833346366882,-0.0351140610873699,-0.047247476875782,-0.0164289996027946,-0.0262222941964865,-0.0297522023320198
74,0.0192513018846512,-0.0358408875763416,-0.0446097627282143,-0.0106665696948767,-0.0244325548410416,-0.0203169472515583
75,0.0184382759034634,-0.036534383893013,-0.0420261360704899,-0.00701718591153622,-0.021883238106966,-0.014792243950069
76,0.0186481289565563,-0.0364966206252575,-0.0382496528327465,-0.00598085857927799,-0.0174118932336569,-0.0131487483158708
77,0.0198964960873127,-0.0357000716030598,-0.0347990766167641,-0.00696795154362917,-0.011763883754611,-0.0129082575440407
78,0.0214656870812178,-0.0353619195520878,-0.0340946950018406,-0.0087062967941165,-0.00710862502455711,-0.0117516806349158
79,0.0226499978452921,-0.0363919623196125,-0.0359079241752625,-0.00998534820973873,-0.00397457089275122,-0.00920938048511744
80,0.0230093020945787,-0.0383769497275352,-0.0380959734320641,-0.0107681155204773,-0.00139122875407338,-0.0066562294960022
81,0.021962221711874,-0.0404191538691521,-0.0392381846904755,-0.0117338104173541,0.000334611744619906,-0.0053211678750813
82,0.0205504428595304,-0.0408390089869499,-0.0384609811007977,-0.0117995161563158,0.00173550366889685,-0.00355323613621295
83,0.0201990082859993,-0.0392419956624508,-0.035725824534893,-0.00959885865449905,0.00456160632893443,0.000381109392037615
84,0.0196904446929693,-0.0376914516091347,-0.0333608686923981,-0.00665457500144839,0.00742657482624054,0.00493515282869339
85,0.018332751467824,-0.0365345552563667,-0.0333741791546345,-0.00490841688588262,0.00808754749596119,0.00852647982537746
86,0.0180440302938223,-0.0340276546776295,-0.0339954718947411,-0.00361327338032424,0.00817378610372543,0.0117955785244703
87,0.0191160999238491,-0.0301984138786793,-0.0329780168831348,-0.00169503432698548,0.00932993832975626,0.0153507236391306
88,0.0199928004294634,-0.0261217392981052,-0.0303446650505066,0.000445525191025808,0.0107935424894094,0.0191283579915762
89,0.019513588398695,-0.022915918380022,-0.027626421302557,0.00128990889061242,0.011752369813621,0.0222112517803907
90,0.0182562507688999,-0.0204707663506269,-0.0258093290030956,0.000786001386586577,0.0126641541719437,0.0246438458561897
91,0.0185884349048138,-0.0166830401867628,-0.0240910276770592,0.00150897121056914,0.0150214871391654,0.0286278538405895
92,0.0200800821185112,-0.0120407296344638,-0.022922458127141,0.00403988640755415,0.018454710021615,0.0341195426881313
93,0.019568981602788,-0.00991571415215731,-0.0244504082947969,0.00569462357088923,0.0204233787953854,0.0379136241972446
94,0.0156722702085972,-0.0118348654359579,-0.0289661698043346,0.00457183038815856,0.0195884983986616,0.0379013791680336
95,0.00974810123443604,-0.0158001445233822,-0.0334981828927994,0.00213668332435191,0.0176155567169189,0.0359105616807938
96,0.00481222104281187,-0.0185510963201523,-0.0341865941882133,0.00103312684223056,0.0177460182458162,0.0350542888045311
97,0.0021276727784425,-0.0199972912669182,-0.0303533375263214,0.00102564913686365,0.0207554772496223,0.0346724539995193
98,-6.46961198071949E-05,-0.022433165460825,-0.025096207857132,0.000130357584566809,0.0242032390087843,0.032512404024601
99,-0.00258718733675778,-0.0258295778185129,-0.021471880376339,-0.00186359975486994,0.0263667646795511,0.0291891619563103
100,-0.00432324968278408,-0.0287084672600031,-0.0200273990631104,-0.0033428268507123,0.0272332429885864,0.027122849598527
101,-0.00472967093810439,-0.0310557968914509,-0.0197044294327497,-0.00315907434560359,0.0269808154553175,0.0277064964175224
102,-0.00412431033328176,-0.0340636000037193,-0.0196545273065567,-0.0022580383811146,0.0257749520242214,0.0295423995703459
103,-0.00256217480637133,-0.0382010601460934,-0.0194609928876162,-0.00176014844328165,0.0242716837674379,0.0306282956153154
104,0.000305791472783312,-0.0423907414078712,-0.0183380041271448,-0.000970948080066592,0.0238166805356741,0.031421422958374
105,0.00373235135339201,-0.0458328798413277,-0.0164726674556732,0.000642839819192886,0.0244975388050079,0.0328218825161457
106,0.00672290520742536,-0.0478054843842983,-0.014726378954947,0.00310388160869479,0.0253066476434469,0.0351683050394058
107,0.00985284056514502,-0.0464915223419666,-0.0125738028436899,0.00708243483677506,0.0260287616401911,0.0397961623966694
108,0.012720818631351,-0.0420496538281441,-0.00997643265873194,0.0119954040274024,0.0256562512367964,0.0468856915831566
109,0.0138572389259934,-0.0374811254441738,-0.00803558155894279,0.015826903283596,0.0239692013710737,0.0534759014844894
110,0.0133555475622416,-0.034457128494978,-0.00667019141837955,0.0178566742688417,0.0229376349598169,0.0572829768061638
111,0.012556635774672,-0.0317070782184601,-0.00444265641272068,0.0197523348033428,0.0235070865601301,0.0598939657211304
112,0.0121992537751794,-0.0290161073207855,-0.000933926727157086,0.022353071719408,0.0249267555773258,0.0625631734728813
113,0.0111364359036088,-0.0288702584803104,0.0013900384074077,0.0232418719679117,0.0255582164973021,0.0632762014865875
114,0.00862178299576044,-0.0321926847100258,0.000529443495906889,0.0207536108791828,0.0248689614236355,0.0606883689761162
115,0.00482873897999525,-0.0383165627717972,-0.00277268188074231,0.0155505780130625,0.0232711192220449,0.0553429909050465
116,-5.23031885677483E-05,-0.0464129410684109,-0.00652681989595294,0.00910974387079477,0.0211173575371504,0.0486638098955154
117,-0.00364637840539217,-0.0536885410547256,-0.00799783319234848,0.00453503942117095,0.0210301522165537,0.0437986925244331
118,-0.00448928587138653,-0.0573138333857059,-0.00687902513891459,0.00402619782835245,0.0243206154555082,0.0434774830937386
119,-0.0053401137702167,-0.0575196072459221,-0.0066532171331346,0.005968670360744,0.0271304659545422,0.0470191836357117
120,-0.00843251682817936,-0.0571736507117748,-0.0094114551320672,0.00760363880544901,0.0263216849416494,0.0510696806013584
121,-0.0122705809772015,-0.0580353587865829,-0.012760884128511,0.00853610690683126,0.0239865761250257,0.053830374032259
122,-0.0146977612748742,-0.0592390820384026,-0.013218330219388,0.0097051402553916,0.0240706838667393,0.0560556389391422
123,-0.0155314821749926,-0.0599407032132149,-0.0101173501461744,0.0107929334044456,0.0277521666139364,0.058010034263134
124,-0.0160792898386717,-0.0600301995873451,-0.0057343477383256,0.0109371654689312,0.031798854470253,0.059855293482542
125,-0.0168551430106163,-0.0587532967329025,-0.00200389674864709,0.0106903426349163,0.0330781042575836,0.0626581013202667
126,-0.01802858710289,-0.0569005608558655,0.000289216375676915,0.00996953528374434,0.0320855230093002,0.0646868422627449
127,-0.0198741387575865,-0.0574181973934174,0.000855296733789146,0.00743961241096258,0.0310639087110758,0.062321737408638
128,-0.0196001026779413,-0.0592040531337261,0.00227275840006769,0.00510493153706193,0.033201552927494,0.057578906416893
129,-0.0158895328640938,-0.0591346435248852,0.00602265493944287,0.00525991851463914,0.0384612455964088,0.0547563210129738
130,-0.0118359327316284,-0.0576146841049194,0.00984562374651432,0.00654862448573112,0.0432355739176273,0.0540135614573956
131,-0.00979934725910425,-0.0555786266922951,0.0119240889325738,0.00732191791757941,0.0456022918224335,0.0541004240512848
132,-0.0108251553028822,-0.0534103699028492,0.0109894452616572,0.00630613742396235,0.04470619186759,0.0540705733001232
133,-0.0142585476860404,-0.0503938458859921,0.00789355393499136,0.00418424187228084,0.0412478893995285,0.0551490262150764
134,-0.018293734639883,-0.0455290898680687,0.00559903681278229,0.00317389494739473,0.0376140177249908,0.0589890405535698
135,-0.022210692986846,-0.0400657504796982,0.00468287942931056,0.0034143019001931,0.0344321131706238,0.0640642717480659
136,-0.0252952929586172,-0.035073034465313,0.0041745719499886,0.00447985716164112,0.0313218273222446,0.0694354251027107
137,-0.0273855775594711,-0.0309985764324665,0.00362644856795669,0.00595507957041264,0.0283301062881947,0.074867270886898
138,-0.029378404840827,-0.0286316387355328,0.00311596551910043,0.00685875490307808,0.0254749394953251,0.079166978597641
139,-0.0311615113168955,-0.0274765696376562,0.00348963867872953,0.00738176237791777,0.0231514200568199,0.0827098861336708
140,-0.0310311578214169,-0.0264689177274704,0.00563777750357986,0.00800522044301033,0.0230780523270369,0.0847007855772972
141,-0.0275363884866238,-0.024960033595562,0.00901735574007034,0.00838257744908333,0.0271019395440817,0.0829448252916336
142,-0.0212297737598419,-0.0215990878641605,0.011888193897903,0.00887100957334042,0.0346375294029713,0.0794008150696754
143,-0.0146290473639965,-0.0158782880753279,0.0136055164039135,0.0105848396196961,0.0430029183626175,0.077584944665432
144,-0.0099154943600297,-0.00915388390421867,0.0151027729734778,0.0142673272639513,0.0496837124228477,0.0786938294768333
145,-0.00612549064680934,-0.00249408045783639,0.0180183500051498,0.0196298658847809,0.0546732731163502,0.0822412073612213
146,-0.0018721871310845,0.00330846942961216,0.0226822011172771,0.0247488636523485,0.0588934756815434,0.0861397609114647
147,0.00113471155054867,0.00728738168254495,0.0272865425795317,0.0278524477034807,0.0613541677594185,0.088664211332798
148,0.00093307759379968,0.00897421967238188,0.0305406004190445,0.0292856991291046,0.0610196776688099,0.089957021176815
149,-0.00187773874495178,0.0086413100361824,0.0323753617703915,0.0303087625652552,0.0583258531987667,0.0909450128674507
150,-0.00400724913924932,0.00889004208147526,0.0342610105872154,0.0329640582203865,0.0556824058294296,0.0937671586871147
151,-0.00316014979034662,0.0125210490077734,0.0382483378052711,0.0389655493199825,0.0558464117348194,0.100439585745335
152,-0.00157108390703797,0.0193233527243137,0.0430660247802734,0.0468970164656639,0.0581241995096207,0.11003015935421
153,-0.00220918119885027,0.0273328572511673,0.044975284487009,0.0534464493393898,0.0601066872477531,0.119087032973766
154,-0.00468014134094119,0.0336986742913723,0.0423007309436798,0.0562967024743557,0.0615833587944508,0.123425975441933
155,-0.00616588769480586,0.0369729921221733,0.036733441054821,0.0558407641947269,0.0641353949904442,0.121921427547932
156,-0.00562890758737922,0.0377605110406876,0.0301805268973112,0.0538875237107277,0.0676514282822609,0.117102667689323
157,-0.0046169557608664,0.0363008677959442,0.0234845262020826,0.0513800568878651,0.0703808814287186,0.111116781830788
158,-0.00424829544499516,0.0325279943645,0.0175009705126286,0.0483826920390129,0.071675144135952,0.104241013526917
159,-0.00443858886137605,0.0275092273950577,0.0130772842094302,0.0451674535870552,0.0720027685165405,0.0967355743050575
160,-0.00399477640166879,0.0229559764266014,0.0112103978171945,0.0426390171051025,0.0726072117686272,0.0897256135940552
161,-0.00155189412180334,0.0197353586554527,0.012468870729208,0.0414488315582275,0.0747919455170631,0.0840860456228256
162,0.00232427497394383,0.0178917199373245,0.0157950595021248,0.0414569079875946,0.0780536979436874,0.0797109082341194
163,0.00493464758619666,0.0160188395529985,0.0183529667556286,0.0416432917118073,0.080143041908741,0.0748520568013191
164,0.00505537819117308,0.0132500557228923,0.0188817624002695,0.0422962419688702,0.080159917473793,0.0698754712939262
165,0.00462684920057654,0.011822490952909,0.0189828108996153,0.0452737733721733,0.079338476061821,0.0683775022625923
166,0.00490883132442832,0.0132962437346578,0.0195885375142097,0.0499044992029667,0.0787180960178375,0.0702169016003609
167,0.00390822812914848,0.0148114496842027,0.019535306841135,0.0527364909648895,0.0777936652302742,0.0707010477781296
168,-0.000273810670478269,0.0129790650680661,0.0179914589971304,0.0519973300397396,0.0755202025175095,0.0670982226729393
169,-0.00559377297759056,0.00922690890729427,0.0168965570628643,0.0496025383472443,0.0729850977659225,0.0611976645886898
170,-0.00895999930799007,0.00699188141152263,0.0185071658343077,0.0475293323397636,0.0722209140658379,0.0552739277482033
171,-0.0113432388752699,0.00647126883268356,0.0212679207324982,0.0447017140686512,0.0718258619308472,0.0485745780169964
172,-0.0148174725472927,0.00669768219813704,0.02295639552176,0.0403809882700443,0.0698509365320206,0.0402003675699234
173,-0.0180661622434855,0.0082792229950428,0.0245654713362455,0.0367863066494465,0.067959226667881,0.0319506675004959
174,-0.018725261092186,0.0115745114162564,0.0276208762079477,0.0359905809164047,0.0684608593583107,0.0259885061532259
175,-0.0151085825636983,0.0167539697140455,0.0330658815801144,0.0387235395610332,0.0727302134037018,0.0237906165421009
176,-0.00746285310015082,0.0237898025661707,0.0406452566385269,0.0444118194282055,0.079989567399025,0.0260091125965118
177,0.00224365130998194,0.0315421409904957,0.0485058575868607,0.050905954092741,0.087813526391983,0.0314195826649666
178,0.0116882435977459,0.037815798074007,0.0549941062927246,0.0557199269533157,0.0942774564027786,0.0369546040892601
179,0.0178077947348356,0.0408579520881176,0.0590147189795971,0.0575396195054054,0.0971958488225937,0.0401409640908241
180,0.0196307972073555,0.0414944477379322,0.0605515651404858,0.057317741215229,0.0963950380682945,0.0414243750274181
181,0.0191125795245171,0.0416248701512814,0.0605098530650139,0.05699173361063,0.0941869094967842,0.0423833504319191
182,0.0180246829986572,0.041765071451664,0.0593743845820427,0.0572411082684994,0.0918237119913101,0.0429388843476772
183,0.0171063952147961,0.0411010198295116,0.0576288625597954,0.0573720522224903,0.0899065956473351,0.0414761491119862
184,0.016962792724371,0.0395158752799034,0.0562824830412865,0.0570406019687653,0.0893182903528214,0.0383789800107479
185,0.0179632604122162,0.0378420203924179,0.055613100528717,0.0563494488596916,0.0897874608635902,0.0360147096216679
186,0.0186750758439302,0.0348624400794506,0.0543797761201859,0.0539865531027317,0.0897494331002235,0.0337533243000507
187,0.0175064187496901,0.0291627813130617,0.0516431741416454,0.0490512438118458,0.0881062299013138,0.0296289697289467
188,0.0154142994433641,0.023227870464325,0.048526506870985,0.0436014868319035,0.0853739380836487,0.0252294186502695
189,0.0143627244979143,0.021231759339571,0.0477396212518215,0.0408303700387478,0.0836956351995468,0.0236820634454489
190,0.0149342939257622,0.0238868445158005,0.0507039092481136,0.0417977087199688,0.0853419080376625,0.0253777485340834
191,0.0157335009425879,0.0276406835764647,0.0552200302481651,0.0442966297268867,0.0898241177201271,0.0278487075120211
192,0.0155380656942725,0.0296596940606833,0.0587174594402313,0.0459030047059059,0.0946562588214874,0.0292545072734356
193,0.0146820656955242,0.0296260621398687,0.0608624070882797,0.0463005267083645,0.0977215021848679,0.0292367152869701
194,0.0141180390492082,0.0285282339900732,0.0624794438481331,0.0467773601412773,0.0980987548828125,0.0290617626160383
195,0.0147681217640638,0.0289023891091347,0.0649173781275749,0.0490667261183262,0.096993699669838,0.0316927433013916
196,0.0171291679143906,0.033249169588089,0.0695201084017754,0.0540503151714802,0.0974575132131577,0.0384204499423504
197,0.0189105197787285,0.0394356735050678,0.0745376199483871,0.0589679963886738,0.0995992794632912,0.0453090108931065
198,0.0169999282807112,0.0425379164516926,0.0766029432415962,0.0595858171582222,0.100423015654087,0.0471293590962887
199,0.0124662825837731,0.0414051935076714,0.0761182755231857,0.0559991225600243,0.0995880216360092,0.043957881629467
200,0.00769086508080363,0.0377100557088852,0.0748192816972733,0.0505737885832787,0.0983037874102592,0.0388752929866314
201,0.00282784085720778,0.0326994322240353,0.072667732834816,0.0445758067071438,0.0968066081404686,0.0335165821015835
202,-0.00246181851252913,0.0271587986499071,0.069739505648613,0.0390690267086029,0.0951842963695526,0.0281307231634855
203,-0.00733534106984735,0.0232846233993769,0.0675439536571503,0.0359048619866371,0.0939120575785637,0.0240549053996801
204,-0.011764470487833,0.0227619223296642,0.0669340267777443,0.0355929397046566,0.0931026861071587,0.0225110910832882
205,-0.0171978529542685,0.0242444705218077,0.066740870475769,0.0364331267774105,0.0920973122119904,0.0222513377666473
206,-0.0230319742113352,0.0268979631364346,0.0663886815309525,0.0373611897230148,0.0909249261021614,0.0223954059183598
207,-0.027704942971468,0.0309327952563763,0.0661272257566452,0.03801579028368,0.0896243005990982,0.0234845262020826
208,-0.0310741178691387,0.0358202159404755,0.0661642998456955,0.0383122675120831,0.0884479880332947,0.0258531216531992
209,-0.0330617465078831,0.041305597871542,0.0670599341392517,0.0390702821314335,0.0885718017816544,0.0291260723024607
210,-0.0340430922806263,0.0471717566251755,0.0683797150850296,0.0406223423779011,0.0893087387084961,0.0317883305251598
211,-0.0348314829170704,0.0526585876941681,0.0694897994399071,0.0423270650207996,0.0888233259320259,0.0321135632693768
212,-0.0364365577697754,0.0566190928220749,0.0700430944561958,0.0430009961128235,0.0859433189034462,0.0289786253124475
213,-0.0394342914223671,0.0581423044204712,0.0692401006817818,0.041677687317133,0.0804562568664551,0.0221379902213812
214,-0.0423165187239647,0.0570049807429314,0.0669301897287369,0.038516778498888,0.0741259008646011,0.0129127437248826
215,-0.0432173572480679,0.0534029975533485,0.0637600645422935,0.0345993675291538,0.069045402109623,0.00355058955028653
216,-0.0417075455188751,0.0490966662764549,0.0610021390020847,0.0317731201648712,0.0658790022134781,-0.0030105069745332
217,-0.0396006479859352,0.0454057939350605,0.0587832666933537,0.030218617990613,0.0632867366075516,-0.00618008011952043
218,-0.0394670478999615,0.0413186326622963,0.0566022321581841,0.0283786468207836,0.0598405338823795,-0.00854452606290579
219,-0.0405172556638718,0.0374272242188454,0.0562762208282948,0.0266755539923906,0.056972436606884,-0.0105200782418251
220,-0.0405627861618996,0.0350343212485313,0.0589401945471764,0.0259225387126207,0.0563290789723396,-0.0113516813144088
221,-0.0401935912668705,0.0329187624156475,0.0624365471303463,0.0249730795621872,0.0566391311585903,-0.0121632684022188
222,-0.0405694097280502,0.0300444681197405,0.0646013915538788,0.0230492576956749,0.0562084317207336,-0.0140532571822405
223,-0.0413272902369499,0.0268506649881601,0.0650540143251419,0.0205972474068403,0.0548579059541225,-0.0169165711849928
224,-0.0420470647513866,0.023315379396081,0.0637446343898773,0.0174864958971739,0.0527680516242981,-0.0206562466919422
225,-0.0421328730881214,0.0196576155722141,0.0613629184663296,0.0141077842563391,0.050374373793602,-0.0250722263008356
226,-0.0401770807802677,0.0175267420709133,0.0599418915808201,0.0127862999215722,0.0490304306149483,-0.0284224599599838
227,-0.0357612557709217,0.0174564719200134,0.0602525509893894,0.0145695321261883,0.0496119260787964,-0.0293156672269106
228,-0.0314118005335331,0.0172977261245251,0.0600646883249283,0.0171997994184494,0.0502994209527969,-0.0287412405014038
229,-0.0294837336987257,0.0162423364818096,0.0578824356198311,0.0188266169279814,0.0493601411581039,-0.027827862650156
230,-0.0296959392726421,0.0149068599566817,0.0545831471681595,0.0192705504596233,0.0471316203474998,-0.0274386592209339
231,-0.0310742016881704,0.0125344404950738,0.0506932027637959,0.0183170232921839,0.0439116768538952,-0.028625413775444
232,-0.0323186218738556,0.0098837548866868,0.0469021536409855,0.0167044624686241,0.0403466485440731,-0.0301426593214273
233,-0.0322100259363651,0.00848990958184004,0.0447831340134144,0.0153060080483556,0.038042638450861,-0.030280401930213
234,-0.0303950868546963,0.00824121292680502,0.045166339725256,0.0142754502594471,0.0383919402956963,-0.0288573298603296
235,-0.0268555916845798,0.0091720363125205,0.0474877581000328,0.0144000835716724,0.0415662005543709,-0.0252724979072809
236,-0.0229527037590742,0.00969042256474495,0.0492157898843288,0.0152431558817625,0.0451419204473495,-0.0208708513528109
237,-0.021008986979723,0.00669196201488376,0.047642707824707,0.0148846236988902,0.0454632043838501,-0.0189173109829426
238,-0.0203474070876837,0.00150221737567335,0.0440732277929783,0.0138258524239063,0.0426193363964558,-0.0184030141681433
239,-0.017634617164731,-0.000814049912150949,0.0426039211452007,0.0148748876526952,0.0403532683849335,-0.0150670958682895
240,-0.0113625088706613,0.00211482984013855,0.0451386533677578,0.0192944202572107,0.0406579673290253,-0.00762716447934508
241,-0.00361994770355523,0.00808115862309933,0.0492484346032143,0.0250422172248363,0.0416592173278332,0.000786798947956413
242,0.00224977498874068,0.0132439285516739,0.0511419251561165,0.0290133580565453,0.0410084202885628,0.00605411129072309
243,0.00569537468254566,0.0165632944554091,0.0500882193446159,0.0301732514053583,0.039331391453743,0.00760838063433766
244,0.00928466767072678,0.0202315878123045,0.0484610535204411,0.0299844946712255,0.0395704060792923,0.00851698033511639
245,0.0145311560481787,0.0252334624528885,0.0481627769768238,0.0299900956451893,0.0434967502951622,0.0107956174761057
246,0.0198189187794924,0.0295889098197222,0.0484944023191929,0.0297915283590555,0.0494984574615955,0.0131770875304937
247,0.0233137309551239,0.0319138132035732,0.0488273724913597,0.0294864289462566,0.0553838685154915,0.0151847321540117
248,0.0247467365115881,0.0335098691284657,0.0498020350933075,0.0306232087314129,0.0601240284740925,0.018545638769865
249,0.0237870663404465,0.0347292795777321,0.0504812635481358,0.0325954705476761,0.0622083134949207,0.022701658308506
250,0.0217523705214262,0.0358240492641926,0.0508081540465355,0.0347883440554142,0.0621229037642479,0.0269965473562479
251,0.0214287061244249,0.0386957898736,0.0530340634286404,0.038483988493681,0.0623880513012409,0.0328462608158588
252,0.0224815178662539,0.0417798906564713,0.0565214529633522,0.0422561764717102,0.0630325749516487,0.0386903397738934
253,0.0223308205604553,0.0415142104029655,0.0577866584062576,0.0433580875396729,0.0618464387953281,0.0419628135859966
254,0.0200725700706244,0.0384643897414207,0.0551130659878254,0.0423295199871063,0.0575701557099819,0.0441959239542484
255,0.016734728589654,0.0349279418587685,0.0496825613081455,0.0409168601036072,0.0513132847845554,0.0474209301173687
256,0.0137132499366999,0.0312780663371086,0.0435006320476532,0.0392975509166718,0.0450326651334763,0.0508432053029537
257,0.0123400576412678,0.0282765049487352,0.0381340384483337,0.0374987609684467,0.0401904918253422,0.0538175255060196
258,0.0130536817014217,0.0269192513078451,0.0344561487436295,0.0358418673276901,0.037947129458189,0.0561884753406048
259,0.0143229113891721,0.0261212289333344,0.0316661447286606,0.0337330065667629,0.0377665273845196,0.0566611401736736
260,0.0146485585719347,0.0253366157412529,0.0291294194757938,0.0312355719506741,0.0383727364242077,0.0555661395192146
261,0.014296549372375,0.0255787055939436,0.0277349930256605,0.0291585214436054,0.0400529615581036,0.05446857213974
262,0.0134060876443982,0.0267625581473112,0.0272164735943079,0.0272213742136955,0.0426381677389145,0.0530538074672222
263,0.0109739135950804,0.0276827421039343,0.0256521478295326,0.0250854343175888,0.0440659932792187,0.0505134798586369
264,0.00644942931830883,0.026993939653039,0.022600220516324,0.0231057312339544,0.0431359373033047,0.0470671392977238
265,0.00203720992431045,0.0254543479532003,0.020921828225255,0.0226746127009392,0.0420677810907364,0.0453407354652882
266,0.000344587664585561,0.025302292779088,0.0230554137378931,0.0250261854380369,0.0431186072528362,0.048038300126791
267,-0.000633122457657009,0.0256308615207672,0.0266667865216732,0.0283412523567677,0.0437090508639812,0.0530488528311253
268,-0.0033458024263382,0.0249488167464733,0.0287065431475639,0.0304287038743496,0.0412083268165588,0.0573647394776344
269,-0.0061815045773983,0.0248786304146051,0.0298501271754503,0.0319131314754486,0.0379004962742329,0.0611868239939213
270,-0.00778066040948033,0.0271234922111034,0.031076131388545,0.0337005965411663,0.0360281206667423,0.065787672996521
271,-0.00865222420543432,0.0303450990468264,0.031740590929985,0.0346980169415474,0.0352850630879402,0.0702113881707191
272,-0.00946738850325346,0.0311612822115421,0.0312140230089426,0.0327060893177986,0.0349031575024128,0.0714818835258484
273,-0.00996087305247784,0.0289812367409468,0.030268669128418,0.0280342251062393,0.0350952483713627,0.0706746131181717
274,-0.00968095008283854,0.0255642086267471,0.0298143271356821,0.0232017915695906,0.0362694710493088,0.0710302889347076
275,-0.00933001097291708,0.0216834023594856,0.0288883987814188,0.0194690153002739,0.0372918210923672,0.0727540776133537
276,-0.0089660407975316,0.0183533001691103,0.0270645916461945,0.0170406568795443,0.0374575518071651,0.0754226595163345
277,-0.00846580788493156,0.0158336833119392,0.0250899065285921,0.0151828182861209,0.0370669774711132,0.078381322324276
278,-0.00864756666123867,0.0132334139198065,0.0229322724044323,0.0127638662233949,0.0359578095376492,0.0804487615823746
279,-0.00887279212474823,0.011327893473208,0.0212665349245071,0.0106220012530684,0.0352094657719135,0.0824222266674042
280,-0.00746502261608839,0.0117892725393176,0.0213648490607738,0.0106643429026008,0.0365654341876507,0.086162731051445
281,-0.00537799997255206,0.0137747600674629,0.0219605956226587,0.0123002724722028,0.0381336621940136,0.0907787829637527
282,-0.00541708618402481,0.0136741660535336,0.0203616358339787,0.0127294436097145,0.0360727198421955,0.0932076498866081
283,-0.00753160193562508,0.00896669272333384,0.0162619519978762,0.0104423137381673,0.0305218547582626,0.0920870006084442
284,-0.00936026684939861,0.000332258583512157,0.0112402392551303,0.00530571117997169,0.0244256444275379,0.0874632522463799
285,-0.0103521179407835,-0.00939724873751402,0.0061001880094409,-0.00242114393040538,0.0189224518835545,0.0794160738587379
286,-0.010384694673121,-0.0159318912774324,0.00189476553350687,-0.0101219518110156,0.0148414419963956,0.0709479078650475
287,-0.0076964795589447,-0.0159802939742804,0.000848323223181069,-0.0135402232408524,0.0145933702588081,0.0674254596233368
288,-0.00198047677986324,-0.0106854364275932,0.00362268323078752,-0.011605080217123,0.0188775062561035,0.0700681209564209
289,0.00366450240835547,-0.00422528944909573,0.00820980872958899,-0.00743091572076082,0.0244473181664944,0.0749839171767235
290,0.00652407901361585,0.000467854872113094,0.0126985535025597,-0.00385883799754083,0.0283783227205276,0.0786304697394371
291,0.00752211036160588,0.00324977212585509,0.0168808400630951,-0.000692022556904703,0.0316150672733784,0.0811994671821594
292,0.0073530157096684,0.00413175532594323,0.0197973288595676,0.00241574319079518,0.0340067744255066,0.0841327905654907
293,0.00411216076463461,0.00144736154470593,0.0193413998931646,0.00372862443327904,0.0325410179793835,0.0861883834004402
294,-0.00249392073601484,-0.00442788377404213,0.0159113053232431,0.00259801954962313,0.0268561020493507,0.0861776620149612
295,-0.0101182824000716,-0.00968385115265846,0.011955595575273,0.000512514496222138,0.0194614008069038,0.0857769101858139
296,-0.01600007340312,-0.0113185290247202,0.00907060783356428,-0.00112735468428582,0.0133885703980923,0.0866624042391777
297,-0.0193017907440662,-0.00991823151707649,0.00761722540482879,-0.00202777842059731,0.0106417424976826,0.0882930159568787
298,-0.0220826659351587,-0.00815871357917786,0.00650555687025189,-0.00320469494909048,0.00969017669558525,0.0888108909130096
299,-0.0246484335511923,-0.00701931491494179,0.00499595841392875,-0.0050782891921699,0.00913055334240198,0.0872368887066841
300,-0.0241762362420559,-0.00535264238715172,0.00454113213345408,-0.00627740938216448,0.0106318425387144,0.0846487805247307
301,-0.0204822085797787,-0.00397089123725891,0.00570411328226328,-0.00637261290103197,0.0139263123273849,0.082404188811779
302,-0.0161177851259708,-0.00569609738886356,0.00657920399680734,-0.00706520862877369,0.0165674779564142,0.0803134366869926
303,-0.0119894463568926,-0.0113636180758476,0.00562541466206312,-0.00974150653928518,0.0178194083273411,0.0772881060838699
304,-0.00739169167354703,-0.0188722833991051,0.00335933337919414,-0.0132095208391547,0.018316674977541,0.0732345953583717
305,-0.00138402241282165,-0.0248140227049589,0.00182758015580475,-0.0146796014159918,0.0195071995258331,0.0701472908258438
306,0.00501922564581037,-0.028317529708147,0.00104243867099285,-0.01423554494977,0.0213974937796593,0.0683415457606316
307,0.0102744800969958,-0.0300922617316246,-0.0006059879087843,-0.013501662760973,0.0232202764600515,0.066826656460762
308,0.0156684909015894,-0.0283990297466516,-0.00203331583179533,-0.0113903693854809,0.0266376547515392,0.068291001021862
309,0.0212051849812269,-0.0228428803384304,-0.00232834205962718,-0.00765198981389403,0.0314863361418247,0.0740506425499916
310,0.0242100656032562,-0.0161339323967695,-0.00297706481069326,-0.00445915665477514,0.0346282832324505,0.0803263038396835
311,0.0235428456217051,-0.0106467641890049,-0.00505387224256992,-0.00298192887566984,0.0346536338329315,0.0845845937728882
312,0.0202102195471525,-0.00745985517278314,-0.00813839305192232,-0.00265109562315047,0.032631978392601,0.0875228643417358
313,0.0161007791757584,-0.00622978992760181,-0.0106241721659899,-0.00237245485186577,0.0308096427470446,0.0895789563655853
314,0.01229237485677,-0.0059238919056952,-0.0111175859346986,-0.00154411478433758,0.0298962574452162,0.0906296297907829
315,0.00959194917231798,-0.00488885305821896,-0.00877001695334911,0.000581520143896341,0.0289430413395166,0.0917548313736916
316,0.0101535152643919,-0.00134389568120241,-0.00301949447020888,0.00454564625397325,0.029186362400651,0.093668095767498
317,0.0129403946921229,0.00241347751580179,0.00308336014859378,0.00776436366140842,0.0308912079781294,0.0935945063829422
318,0.0140167828649282,0.0022281794808805,0.00480807200074196,0.00738634122535586,0.0310571156442165,0.0891041830182076
319,0.0131149245426059,-0.00142582901753485,0.00248123658820987,0.0048239454627037,0.0290155299007893,0.0823618024587631
320,0.0119555508717895,-0.00550992088392377,-0.00043162438669242,0.00246200547553599,0.0268191751092672,0.0762625113129616
321,0.0109709911048412,-0.00827333051711321,-0.00238258601166308,0.000779741094447672,0.0253306571394205,0.0717377960681915
322,0.0099714882671833,-0.0106182228773832,-0.00392683781683445,-0.00120218563824892,0.0239091254770756,0.067574754357338
323,0.00823977310210466,-0.0148840257897973,-0.00623562699183822,-0.00504311779513955,0.0212617814540863,0.0617845021188259
324,0.00564240524545312,-0.0200913362205029,-0.00914944242686033,-0.0099579319357872,0.01675209030509,0.0564206838607788
325,0.00314273219555616,-0.0231101717799902,-0.0108622321859002,-0.0130437100306153,0.0115932989865541,0.0551582388579845
326,0.001356718596071,-0.0235534720122814,-0.0107173779979348,-0.0134123712778091,0.0071007376536727,0.0568528547883034
327,0.000827138603199273,-0.0224836207926273,-0.00933956261724234,-0.0120763955637813,0.00404260447248816,0.0586367025971413
328,0.00192200241144747,-0.0206253714859486,-0.00738454097881913,-0.0100971963256598,0.00267349812202156,0.0595455542206764
329,0.00370565359480679,-0.0189024657011032,-0.0056380620226264,-0.00832963641732931,0.00217158580198884,0.0591380931437016
330,0.00563013460487127,-0.0174447149038315,-0.00415872735902667,-0.00650764722377062,0.00202509784139693,0.0580843910574913
331,0.00752374343574047,-0.0171328727155924,-0.00377245456911623,-0.00522277690470219,0.00190590496640652,0.056605014950037
332,0.00805383920669556,-0.0196296945214272,-0.00576472701504827,-0.00625066086649895,0.00115337618626654,0.0536257214844227
333,0.00653010560199618,-0.0239202212542295,-0.00917976349592209,-0.00907390005886555,-0.000670584617182612,0.05018300563097
334,0.00400013290345669,-0.0277285277843475,-0.0127797611057758,-0.0120362062007189,-0.00350570003502071,0.047799076884985
335,0.00182909669820219,-0.0300724226981401,-0.0170623492449522,-0.0149386525154114,-0.00640458520501852,0.0458253473043442
336,-0.000887673697434366,-0.0318932384252548,-0.0241799727082253,-0.0190961454063654,-0.00974091235548258,0.0430326722562313
337,-0.00471557909622788,-0.0339910797774792,-0.0342992544174194,-0.0247681699693203,-0.0138745745643973,0.0392527803778648
338,-0.00690215965732932,-0.0346398092806339,-0.0437795780599117,-0.029663534834981,-0.0167289953678846,0.0361201241612434
339,-0.006870545912534,-0.03338223695755,-0.0514580868184567,-0.0329284034669399,-0.0189473945647478,0.0349349789321423
340,-0.0067129242233932,-0.0322959721088409,-0.0589064732193947,-0.0358417555689812,-0.0229466743767262,0.0345056168735027
341,-0.00630182540044189,-0.0314451530575752,-0.0649329945445061,-0.0382110364735127,-0.026660680770874,0.0336995460093021
342,-0.00555846281349659,-0.0295672584325075,-0.067990243434906,-0.0394353866577148,-0.028181254863739,0.0319437831640244
343,-0.0060392040759325,-0.0273205451667309,-0.0692340731620789,-0.0401354767382145,-0.0295706558972597,0.028422961011529
344,-0.00661963038146496,-0.0248042047023773,-0.0689572095870972,-0.0397571176290512,-0.0307954363524914,0.0249232389032841
345,-0.00537492660805583,-0.0215433519333601,-0.0671358853578568,-0.0377713181078434,-0.0305186398327351,0.0236828606575727
346,-0.00351248122751713,-0.0195479057729244,-0.0658451020717621,-0.0358946733176708,-0.0301747303456068,0.0235777534544468
347,-0.00181570963468403,-0.0200246497988701,-0.0658000186085701,-0.0346499346196651,-0.0303238667547703,0.0241113882511854
348,0.000501183909364045,-0.0210719797760248,-0.0659816861152649,-0.0327057912945747,-0.0301403291523457,0.0266586672514677
349,0.00372074521146715,-0.020805187523365,-0.065758153796196,-0.0295140687376261,-0.0293857418000698,0.0313910730183125
350,0.00732015073299408,-0.0187174435704947,-0.0652885884046555,-0.0252596903592348,-0.0285522360354662,0.0379715003073215
351,0.00996176805347204,-0.0151850571855903,-0.0653967410326004,-0.0207550637423992,-0.0287253987044096,0.045111395418644
352,0.0101000890135765,-0.0123494481667876,-0.0667102634906769,-0.0180144906044006,-0.0298578534275293,0.0494307763874531
353,0.00768237840384245,-0.0124443378299475,-0.0689573362469673,-0.0182482209056616,-0.0304881632328033,0.0488925538957119
354,0.00485086301341653,-0.0139815248548985,-0.0708147883415222,-0.0201470386236906,-0.029510460793972,0.0452896878123283
355,0.00338170654140413,-0.0140139637514949,-0.0719315707683563,-0.0226200856268406,-0.0275081340223551,0.0407413654029369
356,0.00345750595442951,-0.0121595934033394,-0.0729134008288383,-0.0254387483000755,-0.0250205285847187,0.0360240526497364
357,0.00319639570079744,-0.0107672167941928,-0.0748112201690674,-0.0286786947399378,-0.0229793060570955,0.0316845066845417
358,0.000401322409743443,-0.0123730916529894,-0.0784403160214424,-0.0328252352774143,-0.0227571949362755,0.027444651350379
359,-0.0037839722353965,-0.0170923192054033,-0.0820918008685112,-0.0370100997388363,-0.0232349447906017,0.022450253367424
360,-0.00655186735093594,-0.0220792572945356,-0.083236888051033,-0.0389060191810131,-0.0225715078413486,0.0183700025081635
361,-0.00708544300869107,-0.0245518982410431,-0.0820007249712944,-0.0373919159173965,-0.0208195354789495,0.0180493704974651
362,-0.00739512639120221,-0.0264356285333633,-0.0813179388642311,-0.0351599976420403,-0.0194400958716869,0.0195226948708296
363,-0.00877567753195763,-0.0303811132907867,-0.0823701471090317,-0.0350150689482689,-0.0184115562587976,0.0197613444179296
364,-0.00972054619342089,-0.0351176224648952,-0.0832937434315681,-0.0358529724180698,-0.016073876991868,0.0197228509932756
365,-0.00925072003155947,-0.0382997430860996,-0.0828494057059288,-0.0354245640337467,-0.0126366354525089,0.021165307611227
366,-0.00897579174488783,-0.0385830588638783,-0.081587016582489,-0.0333980023860931,-0.00985214300453663,0.0241180527955294
367,-0.0118314521387219,-0.0370007678866386,-0.0812279507517815,-0.0318178199231625,-0.00935492757707834,0.0265268106013536
368,-0.0192778613418341,-0.0360167771577835,-0.0830036252737045,-0.0325363501906395,-0.0127552887424827,0.0264942161738873
369,-0.0293941963464022,-0.0366543903946877,-0.0863298997282982,-0.0346758738160133,-0.0199309326708317,0.0247695669531822
370,-0.0377534553408623,-0.0378468595445156,-0.0893668606877327,-0.0357575565576553,-0.0274689365178347,0.0239910297095776
371,-0.0414211563766003,-0.0387074686586857,-0.0911173298954964,-0.0351016335189343,-0.0324200429022312,0.0247631072998047
372,-0.0412741228938103,-0.0400376655161381,-0.0925910025835037,-0.0346064455807209,-0.0355010405182838,0.0244148578494787
373,-0.0382779128849506,-0.0413543879985809,-0.0935085117816925,-0.0343911983072758,-0.0370578840374947,0.0225239973515272
374,-0.032058198004961,-0.0407303385436535,-0.0911262035369873,-0.0322742573916912,-0.0349323824048042,0.022027775645256
375,-0.0251516047865152,-0.038969811052084,-0.085450641810894,-0.0288781877607107,-0.0300485081970692,0.0232541505247355
376,-0.0221293065696955,-0.0388770923018456,-0.0801315233111382,-0.0275239273905754,-0.0267723742872477,0.0227043703198433
377,-0.0238481592386961,-0.0407563671469688,-0.0768695697188377,-0.0288309957832098,-0.0259588696062565,0.0187342930585146
378,-0.027911938726902,-0.0422041602432728,-0.0747701302170753,-0.0299793016165495,-0.0263065621256828,0.0142328245565295
379,-0.0324204228818417,-0.0412895865738392,-0.0734577775001526,-0.0290762800723314,-0.0284792743623257,0.0123689193278551
380,-0.0373006500303745,-0.0389423221349716,-0.0737563148140907,-0.0277268271893263,-0.0333912372589111,0.0122595112770796
381,-0.0425948686897755,-0.0367181785404682,-0.0759977623820305,-0.0279964581131935,-0.0400580689311028,0.0116234282031655
382,-0.0466895513236523,-0.0337551906704903,-0.0787622332572937,-0.0291463825851679,-0.045382484793663,0.0107136564329267
383,-0.0480338223278522,-0.0285398829728365,-0.080539308488369,-0.0296345762908459,-0.0472561717033386,0.0105167692527175
384,-0.045496117323637,-0.0205565672367811,-0.0801768749952316,-0.0285262204706669,-0.0453849025070667,0.0119414580985904
385,-0.0391675271093845,-0.0110057424753904,-0.076831690967083,-0.0257959924638271,-0.0397486388683319,0.0154008865356445
386,-0.0318512916564941,-0.00263832556083798,-0.0718230083584785,-0.0227656718343496,-0.0317625813186169,0.0193061232566834
387,-0.0262624844908714,0.00317776645533741,-0.0677482262253761,-0.0201697386801243,-0.0242090001702309,0.0227814093232155
388,-0.0228917896747589,0.00682555697858334,-0.0656065419316292,-0.018177816644311,-0.0185356326401234,0.0255246106535196
389,-0.0213018860667944,0.00867150165140629,-0.0647315010428429,-0.017656285315752,-0.0142251588404179,0.0249625500291586
390,-0.021663935855031,0.00959382578730583,-0.0648297891020775,-0.0188880171626806,-0.0115415612235665,0.0200264509767294
391,-0.0242493264377117,0.0102618066594005,-0.06661157310009,-0.0213956199586391,-0.0122501719743013,0.0127323279157281
392,-0.0271642152220011,0.0113791963085532,-0.069113627076149,-0.0239552035927773,-0.0160157270729542,0.00588366994634271
393,-0.0271616447716951,0.0145131070166826,-0.0692276284098625,-0.0245980024337769,-0.0189422983676195,0.00272122211754322
394,-0.0228046774864197,0.0196489579975605,-0.0653233155608177,-0.0222001951187849,-0.0171261541545391,0.00447852769866586
395,-0.0158211141824722,0.0251640174537897,-0.0588995851576328,-0.0169057734310627,-0.0110687855631113,0.00989813264459372
396,-0.0099840946495533,0.0296014696359634,-0.0529352463781834,-0.0101277884095907,-0.00504358252510428,0.0174460764974356
397,-0.00785730313509703,0.0322311855852604,-0.0494869947433472,-0.00398632511496544,-0.00207631778903306,0.025124566629529
398,-0.00979082845151424,0.0327130258083344,-0.0497026555240154,-0.000631305039860308,-0.00294021121226251,0.0298172235488892
399,-0.0140116708353162,0.03154256939888,-0.0532109551131725,-0.000718921248335391,-0.00676937121897936,0.0301978029310703
400,-0.0171202030032873,0.0301772635430098,-0.0571647435426712,-0.00254885689355433,-0.0105176847428083,0.0278397966176271
401,-0.0172068793326616,0.0293857771903276,-0.0586797967553139,-0.00407961802557111,-0.0113267283886671,0.0247789192944765
402,-0.0146178724244237,0.0297126974910498,-0.0565421618521214,-0.00366035685874522,-0.00853963103145361,0.0233953278511763
403,-0.0102278525009751,0.0318863689899445,-0.0511287339031696,-0.000237717642448843,-0.00301394681446254,0.0255701225250959
404,-0.00644328678026795,0.0342360995709896,-0.0455419458448887,0.00445646001026034,0.00223895581439137,0.0298053007572889
405,-0.0050710728392005,0.0347090326249599,-0.0426090732216835,0.00802722945809364,0.00481901131570339,0.0335572510957718
406,-0.00390908727422357,0.0344837941229343,-0.0409387834370136,0.0109936101362109,0.00669336831197143,0.0368379540741444
407,-0.0014086018782109,0.0340704806149006,-0.0391119830310345,0.0136404428631067,0.00963173434138298,0.0394216105341911
408,0.000535975501406938,0.0314129814505577,-0.0383928455412388,0.0142607595771551,0.0121318185701966,0.0394512973725796
409,-0.000371634145267308,0.0247643273323774,-0.0406264327466488,0.0112664932385087,0.0118683641776443,0.0354893803596497
410,-0.00359452981501818,0.015430448576808,-0.0454993471503258,0.00588872609660029,0.00908241700381041,0.0291419476270676
411,-0.00663073640316725,0.00740183750167489,-0.0499781519174576,0.00180484540760517,0.00663585821166635,0.0237994082272053
412,-0.00848773960024118,0.0030829671304673,-0.051647026091814,0.000878136430401355,0.00618430227041245,0.0204169042408466
413,-0.00968071259558201,0.00172807392664254,-0.0503369122743607,0.0022133537568152,0.00704963132739067,0.0185553152114153
414,-0.0106565793976188,0.00108928058762103,-0.0475798137485981,0.00399618363007903,0.00767713645473123,0.0176671985536814
415,-0.0102904615923762,0.000173039341461845,-0.0442028269171715,0.00600550882518291,0.00796490721404552,0.0179809927940369
416,-0.00740501238033175,-0.000825496157631278,-0.0397228710353374,0.00884389691054821,0.00881251599639654,0.0201955698430538
417,-0.00253634504042566,-0.00192142301239073,-0.0344052352011204,0.0116311591118574,0.0105345863848925,0.0230004768818617
418,0.00310912472195923,-0.00263324333354831,-0.0290485080331564,0.013830104842782,0.013104323297739,0.0247271116822958
419,0.00837342906743288,-0.00269384146668017,-0.0243266019970179,0.0158971082419157,0.0160467233508825,0.0249684490263462
420,0.0117924427613616,-0.0030695665627718,-0.020838150754571,0.0173364356160164,0.0182102099061012,0.0236999746412039
421,0.0115717714652419,-0.00499093625694513,-0.0189406611025333,0.0167307499796152,0.017855441197753,0.0211227834224701
422,0.00798993557691574,-0.00830619782209396,-0.0183308906853199,0.013962535187602,0.0145164746791124,0.0178329069167376
423,0.00477921403944492,-0.0108065465465188,-0.0175266265869141,0.0115994038060308,0.0103986579924822,0.0159786753356457
424,0.00544563354924321,-0.010362895205617,-0.01476348657161,0.0121094938367605,0.00800410285592079,0.0177772659808397
425,0.00912915263324976,-0.00781550258398056,-0.0102474670857191,0.0146464090794325,0.00711937062442303,0.0216249953955412
426,0.011477904394269,-0.00636886293068528,-0.00716910185292363,0.0157692953944206,0.00503640156239271,0.0228245314210653
427,0.00991928763687611,-0.0073327636346221,-0.00837723352015018,0.0135506186634302,-8.41504006530158E-05,0.0191800557076931
428,0.00725283473730087,-0.00711643230170012,-0.0119524113833904,0.0107350442558527,-0.00666155945509672,0.0141274090856314
429,0.00746094714850187,-0.00214264844544232,-0.0140402931720018,0.0102131357416511,-0.0118591114878654,0.0111186960712075
430,0.0117371147498488,0.00663477927446365,-0.0129423355683684,0.0119159054011106,-0.0138712506741285,0.010721268132329
431,0.0181816667318344,0.0148115558549762,-0.00958774983882904,0.0136006772518158,-0.0133315036073327,0.010493085719645
432,0.0236549507826567,0.018738878890872,-0.00594292907044292,0.012701278552413,-0.012166865170002,0.00709973042830825
433,0.0269453935325146,0.0190220735967159,-0.002600152278319,0.010093804448843,-0.0108921667560935,0.00231511192396283
434,0.0275692921131849,0.017369220033288,-0.000155755929881707,0.00776817789301276,-0.0107507854700089,-0.00109368492849171
435,0.0259146261960268,0.0153818018734455,0.00137521477881819,0.0063248653896153,-0.0125796673819423,-0.00284173246473074
436,0.0241917055100203,0.0149144176393747,0.00347362575121224,0.00558583065867424,-0.0144124981015921,-0.00332553498446941
437,0.0233552623540163,0.0154931889846921,0.00653113797307014,0.00428267614915967,-0.0149162709712982,-0.00400804122909904
438,0.0225214064121246,0.0163019374012947,0.0103984931483865,0.00214518536813557,-0.0146093172952533,-0.00503076892346144
439,0.021553372964263,0.0186363123357296,0.0153100797906518,0.00105624820571393,-0.0132357114925981,-0.00447743479162455
440,0.0207116641104221,0.0224073063582182,0.0202673450112343,0.00184791372157633,-0.0100775230675936,-0.0022587557323277
441,0.0190626159310341,0.0258155930787325,0.0232086684554815,0.00353641691617668,-0.00713527761399746,0.000557032530196011
442,0.0151010248810053,0.0273731853812933,0.0229303389787674,0.00484358938410878,-0.00782917905598879,0.00319431186653674
443,0.00830428116023541,0.0254090074449778,0.0202847998589277,0.00442912522703409,-0.0122156366705894,0.00308464304544032
444,0.00110057624988258,0.0209202077239752,0.0181487016379833,0.00273816334083676,-0.0167294889688492,-0.000847325020004064
445,-0.00282470509409904,0.0170682556927204,0.0189975891262293,0.00130404031369835,-0.0183572843670845,-0.00625810958445072
446,-0.00315353274345398,0.0137855662032962,0.0223304070532322,2.17431606870377E-05,-0.0173197314143181,-0.011633699759841
447,-0.0017533345380798,0.00967790372669697,0.0265290159732103,-0.00112012086901814,-0.0152636617422104,-0.0160105861723423
448,-0.000393044523661956,0.0048163877800107,0.0301000028848648,-0.00204423256218433,-0.0136381713673472,-0.0191084891557693
449,-0.00152694608550519,-0.00132761616259813,0.0312210153788328,-0.00433544488623738,-0.0137137193232775,-0.0232634358108044
450,-0.00598653964698315,-0.00873755477368832,0.0301072262227535,-0.00821402668952942,-0.0153602752834558,-0.028535844758153
451,-0.0116690788418055,-0.015608100220561,0.0290802679955959,-0.0116470493376255,-0.0169804487377405,-0.0315948911011219
452,-0.0162947904318571,-0.0202718637883663,0.0294299609959126,-0.013544331304729,-0.0176189336925745,-0.0313233472406864
453,-0.0198470484465361,-0.0233915001153946,0.0303122214972973,-0.0149599080905318,-0.0179993715137243,-0.0300110727548599
454,-0.0232189949601889,-0.0272658057510853,0.0314064621925354,-0.0172075610607862,-0.018048083409667,-0.0302601084113121
455,-0.0259166453033686,-0.0323007479310036,0.03373958542943,-0.0200393591076136,-0.0168354138731956,-0.0327402465045452
456,-0.0256948154419661,-0.035289466381073,0.0384941548109055,-0.021230498328805,-0.0136842504143715,-0.035089299082756
457,-0.0210818219929934,-0.0331102646887302,0.0457555539906025,-0.0188750140368938,-0.00829910207539797,-0.0345117747783661
458,-0.0149088008329272,-0.0267499648034573,0.0526201240718365,-0.0139385862275958,-0.00344832520931959,-0.0312699563801289
459,-0.0118368957191706,-0.0194574892520905,0.0554248541593552,-0.00895438622683287,-0.00336093781515956,-0.027521800249815
460,-0.0141328712925315,-0.0148516185581684,0.0529891327023506,-0.00663988245651126,-0.00919468700885773,-0.0258067809045315
461,-0.0205695759505033,-0.014503039419651,0.0474479123950005,-0.00755926966667175,-0.0186629872769117,-0.0265018530189991
462,-0.0276268161833286,-0.0158897060900927,0.0422349125146866,-0.00926218181848526,-0.0284249503165483,-0.0271208174526691
463,-0.0319373309612274,-0.0159520544111729,0.0394222587347031,-0.00952523946762085,-0.0348928011953831,-0.0262035932391882
464,-0.0325350016355515,-0.0142952026799321,0.039163488894701,-0.00843310076743364,-0.035577803850174,-0.025073504075408
465,-0.0310538336634636,-0.0119594251736999,0.0405316539108753,-0.00722275488078594,-0.031680840998888,-0.025698184967041
466,-0.0300607327371836,-0.0105732064694166,0.0421314723789692,-0.00699262833222747,-0.0276481322944164,-0.0290401671081781
467,-0.030250295996666,-0.0116444900631905,0.0432510450482368,-0.00833754427731037,-0.026368485763669,-0.0345948822796345
468,-0.0286870673298836,-0.0138902319595218,0.0463771931827068,-0.00981689430773258,-0.0248169768601656,-0.0393758453428745
469,-0.0235415026545525,-0.0150178866460919,0.0542819015681744,-0.00932293757796288,-0.0189432129263878,-0.0407382696866989
470,-0.0170286819338799,-0.0142576191574335,0.0657011345028877,-0.00627006543800235,-0.0100712850689888,-0.0384640954434872
471,-0.0119204549118876,-0.0118176797404885,0.0765799582004547,-0.0018032849766314,-0.00247542653232813,-0.0335670672357082
472,-0.00963751133531332,-0.00887064170092344,0.0833872929215431,0.00178093370050192,0.00130110792815685,-0.0282560419291258
473,-0.00960007775574923,-0.00566680962219834,0.0863038152456284,0.00453226827085018,0.0019732522778213,-0.0231117382645607
474,-0.00988583825528622,-0.000956564908847213,0.0880957767367363,0.00836055539548397,0.00165921018924564,-0.0168171133846045
475,-0.0105200549587607,0.00437502469867468,0.088973730802536,0.0119884200394154,0.000542466121260077,-0.0112107452005148
476,-0.012831786647439,0.00799118913710117,0.0871913880109787,0.0126304617151618,-0.00205996097065508,-0.00986339803785086
477,-0.015980513766408,0.0104201287031174,0.0834912210702896,0.0107644451782107,-0.00485883466899395,-0.0126218376681209
478,-0.0183458905667067,0.0132295144721866,0.0796487405896187,0.00852122809737921,-0.00670368270948529,-0.0167735647410154
479,-0.0196498055011034,0.0166798830032349,0.0762336626648903,0.00704074185341597,-0.00779851200059056,-0.0203407537192106
480,-0.0189964920282364,0.0211888775229454,0.0747492015361786,0.00746044889092445,-0.00698219519108534,-0.0218879524618387
481,-0.0160173680633307,0.0258915945887566,0.0762419775128365,0.00972171779721975,-0.00363327306695282,-0.0213375743478537
482,-0.0136469788849354,0.0283792577683926,0.0783096626400948,0.0112036727368832,-0.000352254399331287,-0.0205019898712635
483,-0.0141484281048179,0.0283701252192259,0.0787210538983345,0.0106065608561039,0.00122935092076659,-0.0201838761568069
484,-0.015639154240489,0.0286186542361975,0.0783770158886909,0.010169236920774,0.00279082800261676,-0.0191048569977283
485,-0.0161565020680428,0.0305214244872332,0.0777338445186615,0.0113204121589661,0.00501927314326167,-0.016996257007122
486,-0.0157459769397974,0.0322950109839439,0.0760501101613045,0.0123161235824227,0.00692834006622434,-0.0161050613969564
487,-0.0132150584831834,0.0341693870723248,0.0750223994255066,0.0124422209337354,0.0097514446824789,-0.0167179796844721
488,-0.00783706363290548,0.0374771729111671,0.0766530334949493,0.0128727741539478,0.0149387707933784,-0.0166265610605478
489,-0.00142096821218729,0.0410092771053314,0.080412745475769,0.0139745324850082,0.0213766060769558,-0.0147526664659381
490,0.00424325373023748,0.0432960987091064,0.0849708840250969,0.0150147583335638,0.0270652193576097,-0.0111236944794655
491,0.00814940594136715,0.0439357869327068,0.0888532623648643,0.0152143705636263,0.0304524190723896,-0.00653535546734929
492,0.00942205265164375,0.0427692234516144,0.0906883105635643,0.0141913881525397,0.0309689287096262,-0.00335735990665853
493,0.00860009249299765,0.0406479239463806,0.0907840505242348,0.0126573257148266,0.0297992900013924,-0.00287201930768788
494,0.00792217906564474,0.0405935719609261,0.0906122624874115,0.0125578762963414,0.028895128518343,-0.00186412816401571
495,0.00742141949012876,0.0427900142967701,0.0895784348249435,0.0132553381845355,0.0275166593492031,0.00137011997867376
496,0.00612341333180666,0.0442439690232277,0.0871066749095917,0.0130406562238932,0.0241746064275503,0.00487042404711246
497,0.0044954284094274,0.0435148701071739,0.0840622708201408,0.0119353821501136,0.0189873576164246,0.00785084161907434
498,0.00187277258373797,0.0397338084876537,0.0793117433786392,0.00898867566138506,0.0119046848267317,0.00912349950522184
499,-0.00126396236009896,0.0342811830341816,0.0727389007806778,0.00472606485709548,0.005382489413023,0.0076881074346602
500,-0.00153762474656105,0.0318407379090786,0.0676392391324043,0.00323164998553693,0.00358855305239558,0.0064084748737514
501,0.00230183824896812,0.0343438237905502,0.0655709132552147,0.00661581475287676,0.00652691582217813,0.0082028741016984
502,0.00756292510777712,0.0382213927805424,0.0646289512515068,0.0118514327332377,0.0110587393864989,0.0110363196581602
503,0.0118670957162976,0.039845485240221,0.0634245499968529,0.0153292715549469,0.0153674529865384,0.011591948568821
504,0.0144259491935372,0.0389566048979759,0.0619019046425819,0.0158523712307215,0.0181317739188671,0.00944386888295412
505,0.0150848273187876,0.0369599424302578,0.0602946951985359,0.0132421534508467,0.0182240717113018,0.00613418268039823
506,0.0155838979408145,0.035698376595974,0.0602237023413181,0.00872899778187275,0.017716147005558,0.00353838689625263
507,0.0180264450609684,0.0359865054488182,0.0633743926882744,0.00474076578393579,0.0195234324783087,0.00244209542870522
508,0.0216905996203423,0.0365337207913399,0.0684278160333633,0.00225787376984954,0.0229531470686197,0.00222192564979196
509,0.025257321074605,0.036712110042572,0.0727523043751717,0.00126667402219027,0.0261045023798943,0.00254296348430216
510,0.0285841207951307,0.0373832508921623,0.0749987810850143,0.0018589572282508,0.0280757080763578,0.00413030525669456
511,0.0314057022333145,0.0381567217409611,0.0749008059501648,0.00314384535886347,0.027968792244792,0.00697655184194446
512,0.0348694622516632,0.0386595204472542,0.0741098821163177,0.00470888428390026,0.0269012749195099,0.0107904095202684
513,0.0396617166697979,0.0394987538456917,0.0738566219806671,0.00681978184729815,0.0263081472367048,0.0160585697740316
514,0.0432455763220787,0.039896335452795,0.0723501518368721,0.00837136525660753,0.0251525845378637,0.021866274997592
515,0.0433688312768936,0.0377874784171581,0.0680854395031929,0.00759888906031847,0.0228240359574556,0.0255816802382469
516,0.0417056493461132,0.0337805971503258,0.0633355602622032,0.0052023041062057,0.0210028570145369,0.0268310997635126
517,0.0409015901386738,0.0302045941352844,0.0608525648713112,0.00275908526964486,0.0203772988170385,0.0262438096106052
518,0.0413893982768059,0.0270211230963469,0.0606310069561005,-0.000218022149056196,0.0202191509306431,0.0227496903389692
519,0.0442332029342651,0.0250129867345095,0.0631349459290504,-0.00241897138766944,0.0225791931152344,0.0176053214818239
520,0.04967175796628,0.0259120129048824,0.0680367201566696,-0.00169052847195417,0.0279701072722673,0.0134236831218004
521,0.055281113833189,0.0291142202913761,0.072635181248188,0.00148146890569478,0.032582014799118,0.01141965854913
522,0.0592008084058762,0.0328750796616077,0.0750879421830177,0.00585668720304966,0.034035537391901,0.0122737241908908
523,0.0606483705341816,0.0355245694518089,0.0749967321753502,0.0103650484234095,0.032613392919302,0.015919292345643
524,0.0603301487863064,0.0363411270081997,0.0737238228321075,0.0145478965714574,0.030575729906559,0.0213559735566378
525,0.0605237931013107,0.0361644886434078,0.0737213045358658,0.018969751894474,0.0306363571435213,0.0270664468407631
526,0.0632489547133446,0.0364980585873127,0.0757484287023544,0.024045443162322,0.0332677736878395,0.0323519930243492
527,0.0684965252876282,0.0374917015433311,0.0782714486122131,0.0284160654991865,0.0372160822153091,0.0363963469862938
528,0.0739602297544479,0.0378078669309616,0.0796561911702156,0.0299847349524498,0.0407194867730141,0.0374046489596367
529,0.0776828154921532,0.037071455270052,0.0798012688755989,0.028957974165678,0.0424951873719692,0.0356723107397556
530,0.0791783854365349,0.0357626639306545,0.0791933462023735,0.0271717943251133,0.0425466150045395,0.0332251638174057
531,0.0781423076987267,0.0336489491164684,0.0781027600169182,0.0250219572335482,0.0417746417224407,0.0301558542996645
532,0.0747251734137535,0.0312995910644531,0.076973669230938,0.0223528314381838,0.0405938290059567,0.0268930569291115
533,0.0701148211956024,0.0304806083440781,0.0763586759567261,0.0204240847378969,0.0389887318015099,0.0258330851793289
534,0.0659130215644836,0.0317181013524532,0.0770190805196762,0.0205295104533434,0.0383626632392406,0.0275649521499872
535,0.0631049498915672,0.0336431860923767,0.079229973256588,0.0223537497222424,0.0400446094572544,0.0306310914456844
536,0.0600800924003124,0.0335872024297714,0.0808367878198624,0.023337310180068,0.0416749231517315,0.0329210981726646
537,0.0540370605885983,0.0298814531415701,0.0791027694940567,0.0210644248872995,0.0395301692187786,0.0328376665711403
538,0.0446947030723095,0.0235171932727098,0.0733785256743431,0.0159797575324774,0.032921839505434,0.0303731970489025
539,0.0345811545848846,0.0161807388067245,0.0650804340839386,0.0100742848590016,0.0241863839328289,0.0262204986065626
540,0.0265934765338898,0.00969277322292328,0.0570325776934624,0.00522796437144279,0.0162150040268898,0.0219441223889589
541,0.0212641432881355,0.00571396946907043,0.0512905977666378,0.00230739684775472,0.00994530692696571,0.0187175758183002
542,0.01832390204072,0.00507353153079748,0.048943217843771,0.00133040559012443,0.00585234258323908,0.0163903329521418
543,0.0173649769276381,0.00623393943533301,0.0495971143245697,0.000930996669922024,0.00399978738278151,0.0137114860117435
544,0.0161414332687855,0.00504866521805525,0.0505084134638309,-0.00138055928982794,0.00216345698572695,0.00884708296507597
545,0.0134261976927519,0.000299603532766923,0.0499310195446014,-0.00580348586663604,-0.00113662448711693,0.00263371248729527
546,0.0101128360256553,-0.00523361563682556,0.0482503436505795,-0.0100574782118201,-0.0048969853669405,-0.00186180649325252
547,0.00690454477444291,-0.00900749024003744,0.0464704297482967,-0.012254917062819,-0.00747099192813039,-0.00337559031322598
548,0.00539615470916033,-0.00883667543530464,0.0467342510819435,-0.0111837470903993,-0.00677042035385966,-0.00255630305036902
549,0.00685353064909577,-0.00399673264473677,0.0499615967273712,-0.00684219505637884,-0.00238655810244381,-0.000261175475316122
550,0.00948759354650974,0.0031710839830339,0.0536193959414959,-0.00145273527596146,0.00232779234647751,0.00261677708476782
551,0.0121576525270939,0.0111693842336535,0.0561170615255833,0.00354458554647863,0.00522667914628983,0.00653787329792976
552,0.0153953637927771,0.018992131575942,0.0582671426236629,0.00794922187924385,0.00748624000698328,0.011961524374783
553,0.017848365008831,0.0233340635895729,0.0599995441734791,0.0100390017032623,0.00926519092172384,0.0163680594414473
554,0.018134955316782,0.0231739059090614,0.0607383660972118,0.0088912770152092,0.00972646102309227,0.0177591983228922
555,0.0173966493457556,0.0215804874897003,0.0608095303177834,0.00650604255497456,0.00946238078176975,0.0171589385718107
556,0.0172660015523434,0.0216746367514133,0.0611863546073437,0.00535272248089314,0.0096242930740118,0.0164981558918953
557,0.017902135848999,0.0238586477935314,0.0628664866089821,0.00604199012741447,0.0106447236612439,0.0167631600052118
558,0.0176047310233116,0.0253989901393652,0.065004326403141,0.00669134827330709,0.0117237577214837,0.0168874133378267
559,0.0156696848571301,0.0240580402314663,0.0657577887177467,0.00551240192726254,0.0129363359883428,0.0160074699670076
560,0.0141975590959191,0.021219540387392,0.0653054565191269,0.0033965352922678,0.0159341841936111,0.015443928539753
561,0.0142266806215048,0.019005075097084,0.0644119828939438,0.00161893002223223,0.0202553737908602,0.0156429819762707
562,0.015057360753417,0.0177750512957573,0.063133679330349,0.000473165942821652,0.0242295730859041,0.0153595851734281
563,0.0168493669480085,0.0179590974003077,0.0619969740509987,0.000629190355539322,0.0279094520956278,0.0146653717383742
564,0.0191608723253012,0.0197496265172958,0.0610988549888134,0.0021313161123544,0.0312034487724304,0.0143190827220678
565,0.0197698604315519,0.0209614392369986,0.0596544332802296,0.00334283849224448,0.0325089804828167,0.0136373387649655
566,0.0180732812732458,0.0197257325053215,0.0575216896831989,0.00324424053542316,0.0314353220164776,0.0126724513247609
567,0.0164388213306665,0.0164518598467112,0.0555027686059475,0.00264295539818704,0.0299529731273651,0.0129150990396738
568,0.0166169200092554,0.0120113333687186,0.0541906580328941,0.00270717917010188,0.0294455830007792,0.0148030556738377
569,0.0189472213387489,0.00857008527964354,0.0543504990637302,0.00473350007086992,0.0304122306406498,0.018647713586688
570,0.0229324493557215,0.00822085049003363,0.0562068559229374,0.00869622081518173,0.0333051830530167,0.024221071973443
571,0.0264916233718395,0.010309268720448,0.0581170953810215,0.0126925520598888,0.037104282528162,0.0296320673078299
572,0.0273997392505407,0.013005506247282,0.0582207553088665,0.0152175920084119,0.0395498834550381,0.0327991172671318
573,0.0252614561468363,0.014521243982017,0.0558006167411804,0.0154699459671974,0.0392612479627132,0.0323473773896694
574,0.0214100200682878,0.0139004131779075,0.0510268583893776,0.0131302485242486,0.0363458581268787,0.0288778264075518
575,0.0175654832273722,0.0124677531421185,0.0448320247232914,0.00932371057569981,0.0316207185387611,0.0253428518772125
576,0.0158779602497816,0.0122969690710306,0.0395201407372952,0.00624624034389853,0.0276100039482117,0.024267990142107
577,0.01732930354774,0.0126970987766981,0.0371857769787312,0.00489458721131086,0.0269974619150162,0.0250519067049026
578,0.0200087334960699,0.0116107128560543,0.0371824242174625,0.00476339412853122,0.0289169196039438,0.026398416608572
579,0.0220771338790655,0.0102389426901937,0.0377012491226196,0.00577198620885611,0.0307375770062208,0.0299710463732481
580,0.0229642707854509,0.010623193345964,0.0376322865486145,0.00771812116727233,0.0310755744576454,0.0364830456674099
581,0.0219435766339302,0.0106060598045588,0.036213506013155,0.00868929456919432,0.0301466584205627,0.0412935055792332
582,0.0200354736298323,0.0079950513318181,0.0346653498709202,0.00797067116945982,0.0300264321267605,0.0416604392230511
583,0.0193556491285563,0.0038285399787128,0.0348415449261665,0.00721299089491367,0.0319005399942398,0.0402455925941467
584,0.0189069248735905,-0.00159324670676142,0.0351540148258209,0.00674128206446767,0.0332773625850677,0.0385178774595261
585,0.0168701689690351,-0.00876630656421185,0.0334139950573444,0.005899662617594,0.0319951549172401,0.0363022089004517
586,0.0135729098692536,-0.0171028412878513,0.0294177681207657,0.0044005592353642,0.0286680776625872,0.0338477715849876
587,0.0102355610579252,-0.0253554284572601,0.0238532684743404,0.00203835405409336,0.0247169025242329,0.0308740604668856
588,0.00851078983396292,-0.0317536778748035,0.0188250690698624,-0.000361103797331452,0.0220718383789063,0.0265271738171577
589,0.00861308444291353,-0.0349106602370739,0.0156214786693454,-0.00205110758543015,0.0211866237223148,0.020696884021163
590,0.00915894750505686,-0.0351028889417648,0.0131117813289166,-0.00315533275716007,0.0203168392181396,0.0152693623676896
591,0.010175708681345,-0.0330706760287285,0.0105557199567556,-0.00295501435175538,0.0189272593706846,0.0128540778532624
592,0.0123884854838252,-0.0289771389216185,0.00805792212486267,-0.000903840234968811,0.0177619773894548,0.0139638651162386
593,0.0155077902600169,-0.0237307455390692,0.00608806079253554,0.00192064279690385,0.0174903385341167,0.0169226918369532
594,0.0188017506152391,-0.0188765358179808,0.00545999500900507,0.00456053763628006,0.0181893222033978,0.020307395607233
595,0.0213223900645971,-0.0158649180084467,0.00565182836726308,0.00645779632031918,0.0185616537928581,0.0230199173092842
596,0.0219082366675138,-0.0160765331238508,0.00487080309540033,0.00669108889997005,0.0169916711747646,0.0235566645860672
597,0.0197731088846922,-0.0194559302181005,0.00213749660179019,0.00518752075731754,0.0127735137939453,0.0213650073856115
598,0.0153212640434504,-0.0242845769971609,-0.00162347068544477,0.0028131736908108,0.0070646321401,0.0174204166978598
599,0.0103828385472298,-0.0287108197808266,-0.00461146840825677,0.000784311385359615,0.00241523468866944,0.0140921082347631
600,0.00693615758791566,-0.0317562706768513,-0.00620161695405841,0.000107143685454503,0.000477848487207666,0.0129994917660952
601,0.00469503318890929,-0.0342311970889568,-0.00819056760519743,-0.000657074269838631,0.000388955260859802,0.0119248405098915
602,0.00278046354651451,-0.0367221459746361,-0.0117529854178429,-0.0033416086807847,0.000833919853903353,0.00829705037176609
603,0.00170252833049744,-0.0383294112980366,-0.0156251937150955,-0.00712135573849082,0.00200919038616121,0.00264180940575898
604,0.00133531168103218,-0.0389370769262314,-0.0187340714037418,-0.0102735431864858,0.0039879553951323,-0.00336150545626879
605,0.00083683046977967,-0.0391354747116566,-0.020575262606144,-0.0114747220650315,0.00642262771725655,-0.00775100803002715
606,0.000244114504312165,-0.0385503619909287,-0.0207344256341457,-0.0100736068561673,0.00925571750849485,-0.00901072937995195
607,0.000614453398156911,-0.0368994064629078,-0.0194330457597971,-0.00694618001580238,0.0125202778726816,-0.00768978288397193
608,0.00217757583595812,-0.0355229377746582,-0.0175501722842455,-0.00380896357819438,0.0154755897819996,-0.00566295720636845
609,0.00452237855643034,-0.0343809239566326,-0.0152008198201656,-0.000491797283757478,0.0178019981831312,-0.00302902469411492
610,0.00711209140717983,-0.0320408567786217,-0.0121502401307225,0.00389786087907851,0.0201217215508223,0.000898630183655769
611,0.00888110976666212,-0.0290317852050066,-0.00899936910718679,0.00822563283145428,0.0223394203931093,0.00479091145098209
612,0.00959980674088001,-0.0266621727496386,-0.00633358862251043,0.010594392195344,0.0245663691312075,0.00680531701073051
613,0.00889254547655582,-0.0259392056614161,-0.00506199290975928,0.00983860064297915,0.0269787255674601,0.00549626629799604
614,0.00749507267028093,-0.0258394032716751,-0.00462476257234812,0.00779973575845361,0.0302243530750275,0.00158372579608113
615,0.00734765361994505,-0.0238875225186348,-0.0032354025170207,0.0079919844865799,0.0345675088465214,-0.00139013363514096
616,0.00749379629269242,-0.0206730738282204,-0.00141090282704681,0.0106166694313288,0.0374003425240517,-0.00117036316078156
617,0.00608070567250252,-0.0190101079642773,-0.000418906362028793,0.0132397674024105,0.0364106819033623,0.00113960460294038
618,0.00428117299452424,-0.0191483851522207,0.000398767151637003,0.0147371049970388,0.0330459401011467,0.00378021690994501
619,0.00336005538702011,-0.0193669907748699,0.00109350157435983,0.0151105392724276,0.0291154682636261,0.00601501343771815
620,0.00245137000456452,-0.0200537052005529,5.06948344991542E-05,0.0139396479353309,0.0242664478719234,0.00667833909392357
621,0.0019124997779727,-0.0218141060322523,-0.00263006216846406,0.011823576875031,0.0191516205668449,0.00562203349545598
622,0.00297794886864722,-0.0235081780701876,-0.00591629557311535,0.00989192724227905,0.0151245249435306,0.00417784135788679
623,0.00467963982373476,-0.025056840851903,-0.0102197024971247,0.00777841825038195,0.0118523063138127,0.0023605702444911
624,0.00545984879136086,-0.0275660809129477,-0.0156611036509275,0.00452009588479996,0.0092524690553546,-0.000520908914040774
625,0.00507372850552201,-0.0307214949280024,-0.0209615882486105,0.000583071785513312,0.00811415538191795,-0.00399270793423057
626,0.00372603605501354,-0.032540325075388,-0.0249979794025421,-0.00208535906858742,0.00804438441991806,-0.00627087336033583
627,0.00248181307688355,-0.031198700889945,-0.0271810870617628,-0.00179623218718916,0.00846041087061167,-0.00565401744097471
628,0.00254286034032702,-0.0266567673534155,-0.0275407545268536,0.00128068844787776,0.00898229144513607,-0.0022140140645206
629,0.00255616125650704,-0.0222075190395117,-0.0277344603091478,0.00435262219980359,0.00791469682008028,0.00132585177198052
630,-5.78658509766683E-05,-0.0223063733428717,-0.0298315435647964,0.00382035505026579,0.00366715621203184,0.00117545400280505
631,-0.00423485646024346,-0.0271699670702219,-0.0330559983849525,-0.000251259974902496,-0.00192602060269564,-0.00284464587457478
632,-0.00673406198620796,-0.0337741859257221,-0.0349961966276169,-0.00464646797627211,-0.00552088115364313,-0.00763342343270779
633,-0.00770683912560344,-0.0402185209095478,-0.035854633897543,-0.00788403116166592,-0.00726982019841671,-0.0112285949289799
634,-0.00883253291249275,-0.0452993400394917,-0.0367577150464058,-0.0100063672289252,-0.00861470773816109,-0.0131453704088926
635,-0.0107202958315611,-0.0484189167618752,-0.0377277582883835,-0.0113356504589319,-0.00957964733242989,-0.0136686880141497
636,-0.0131114749237895,-0.050208043307066,-0.0383881889283657,-0.012168999761343,-0.0095252925530076,-0.01340167876333
637,-0.0141412680968642,-0.0509608127176762,-0.0372205972671509,-0.0111926635727286,-0.00676192995160818,-0.0122196469455957
638,-0.0127801699563861,-0.0511482544243336,-0.0334440693259239,-0.0075978091917932,-0.00111632817424834,-0.0098641999065876
639,-0.0100589981302619,-0.0515462793409824,-0.0283293556421995,-0.00263001676648855,0.00514403823763132,-0.00622891774401069
640,-0.00667973887175322,-0.0510966666042805,-0.0226970165967941,0.00275326962582767,0.0109959961846471,-0.000809478980954736
641,-0.00355038628913462,-0.0484064593911171,-0.0170647986233234,0.0075122956186533,0.0164742022752762,0.00535060884431005
642,-0.0035444600507617,-0.0453355573117733,-0.0137067157775164,0.00852570310235024,0.0196190644055605,0.00760236522182822
643,-0.00858520530164242,-0.0443736165761948,-0.0147191537544131,0.003930295817554,0.0181106347590685,0.0039697615429759
644,-0.0161416102200747,-0.0450373440980911,-0.0189025793224573,-0.00377711560577154,0.0131687317043543,-0.00176167115569115
645,-0.0212251879274845,-0.0456334613263607,-0.0227032005786896,-0.0101757720112801,0.0090375142171979,-0.00661746133118868
646,-0.0219157766550779,-0.045211423188448,-0.0246823616325855,-0.0127630205824971,0.00761715043336153,-0.00933470204472542
647,-0.0206799581646919,-0.044376578181982,-0.0265698954463005,-0.012849947437644,0.00695217028260231,-0.00985465105623007
648,-0.0198329742997885,-0.0440850965678692,-0.0295375138521194,-0.0130788944661617,0.00629865378141403,-0.0101286638528109
649,-0.0200258698314428,-0.0442021004855633,-0.0335558131337166,-0.0146106192842126,0.00656237965449691,-0.0113820368424058
650,-0.0217632167041302,-0.0444172509014606,-0.0386496745049953,-0.0171615686267614,0.0071812286041677,-0.0135258911177516
651,-0.0247131437063217,-0.0445593968033791,-0.044177383184433,-0.0198212154209614,0.00700707128271461,-0.0161821935325861
652,-0.0273160748183727,-0.0444062612950802,-0.0482769720256329,-0.0215011220425367,0.00606655236333609,-0.0185338519513607
653,-0.0285941362380981,-0.0443580374121666,-0.050009161233902,-0.0218491237610579,0.005046505946666,-0.020386403426528
654,-0.0290740914642811,-0.0455729775130749,-0.0508617386221886,-0.0218920148909092,0.00461443047970533,-0.0230414476245642
655,-0.0299232490360737,-0.0481516383588314,-0.0521033629775047,-0.0225365776568651,0.0048614926636219,-0.0265687014907599
656,-0.0321667529642582,-0.0509535148739815,-0.0532670356333256,-0.0241501312702894,0.00468693766742945,-0.0301179978996515
657,-0.0358126573264599,-0.0539654232561588,-0.0538203008472919,-0.0272330697625875,0.00360941141843796,-0.0351489931344986
658,-0.0399948209524155,-0.0575299523770809,-0.0545030757784843,-0.0313208401203156,0.00217610341496766,-0.0424991399049759
659,-0.0438124500215054,-0.0608346685767174,-0.0561446957290173,-0.0347688347101212,0.000693047419190407,-0.0500558651983738
660,-0.0467776618897915,-0.0635772943496704,-0.0581445470452309,-0.0364840291440487,-2.06234508368652E-05,-0.0559675469994545
661,-0.0496478788554668,-0.0671621412038803,-0.0598329864442348,-0.0369165539741516,0.000464056764030829,-0.0604496262967587
662,-0.0530670955777168,-0.0722526758909225,-0.0609637722373009,-0.0364128649234772,0.00126282300334424,-0.063203327357769
663,-0.0561483502388,-0.0772981271147728,-0.0611041784286499,-0.0343941487371922,0.00181876355782151,-0.0627212151885033
664,-0.0580333657562733,-0.0807265639305115,-0.0608113408088684,-0.031197952106595,0.00240079034119844,-0.0594599545001984
665,-0.0587799809873104,-0.08256446570158,-0.0613764375448227,-0.0282495524734259,0.00312531623058021,-0.0561495162546635
666,-0.058492936193943,-0.0835506692528725,-0.0630490556359291,-0.0260213892906904,0.00370159232988954,-0.0545779392123222
667,-0.057294387370348,-0.0833084732294083,-0.0648148879408836,-0.0239499006420374,0.00390037591569126,-0.0539998970925808
668,-0.0557818673551083,-0.0810777097940445,-0.0655569210648537,-0.0221132673323154,0.00367058184929192,-0.0532010719180107
669,-0.0538601465523243,-0.076626256108284,-0.0644860565662384,-0.0208324752748013,0.00374394166283309,-0.0518195256590843
670,-0.0514153577387333,-0.0704043582081795,-0.061848122626543,-0.0204020589590073,0.00479731801897287,-0.05019361525774
671,-0.0500671081244946,-0.0640491023659706,-0.0589269436895847,-0.0210882164537907,0.00582331418991089,-0.0492051541805267
672,-0.0506736561655998,-0.0588592104613781,-0.0555458031594753,-0.0216578170657158,0.00599414529278874,-0.0486236810684204
673,-0.0509239695966244,-0.0543720312416554,-0.0503572300076485,-0.020000072196126,0.00644076382741332,-0.0467737428843975
674,-0.0493407137691975,-0.0505873262882233,-0.044266726821661,-0.0165420360863209,0.00737897539511323,-0.044043343514204
675,-0.0476353690028191,-0.0483739972114563,-0.039506483823061,-0.0136406421661377,0.00687685376033187,-0.0419514924287796
676,-0.0467172376811504,-0.0464716218411922,-0.036627970635891,-0.0115659665316343,0.00478149531409144,-0.0393939018249512
677,-0.0459257140755653,-0.0428731963038445,-0.0351659692823887,-0.00887045450508595,0.00299994670785964,-0.0350206531584263
678,-0.045527808368206,-0.0378684140741825,-0.0352301746606827,-0.00546584324911237,0.00186896848026663,-0.0298413597047329
679,-0.0457992069423199,-0.0329404100775719,-0.0366069376468658,-0.0025044942740351,0.00118120783008635,-0.0256325658410788
680,-0.0454310514032841,-0.0287281051278114,-0.0377269275486469,-0.000284271693089977,0.00235611153766513,-0.0229211822152138
681,-0.0430603139102459,-0.0250432249158621,-0.0378438159823418,0.00128576450515538,0.00603169854730368,-0.0215599723160267
682,-0.0377693325281143,-0.0203867144882679,-0.0373443067073822,0.00306245591491461,0.0112592643126845,-0.0205422844737768
683,-0.0296952053904533,-0.0136982630938292,-0.0366132669150829,0.00615116115659475,0.0168620888143778,-0.0185979455709457
684,-0.0215983483940363,-0.00761542050167918,-0.0370525270700455,0.00888306368142366,0.0213204156607389,-0.0173609219491482
685,-0.0168953761458397,-0.00542287947610021,-0.0404610484838486,0.00877181813120842,0.0231614597141743,-0.0192260146141052
686,-0.016658678650856,-0.00627664336934686,-0.0466492138803005,0.00641780160367489,0.0221755336970091,-0.0227756407111883
687,-0.0192145574837923,-0.00710809137672186,-0.0531011149287224,0.00432807765901089,0.0199449732899666,-0.0247115287929773
688,-0.0217731893062592,-0.00609662989154458,-0.0570219121873379,0.00444004405289888,0.0187971591949463,-0.0232504140585661
689,-0.0224573090672493,-0.00327305309474468,-0.0576248206198215,0.007189498282969,0.0199640356004238,-0.0188022423535585
690,-0.0213896725326777,0.00064563233172521,-0.0568317286670208,0.0111800534650683,0.0223413519561291,-0.01288085244596
691,-0.0198881849646568,0.00620533991605043,-0.0566921569406986,0.0151930581778288,0.0236357413232327,-0.00557464733719826
692,-0.018780967220664,0.0128422193229198,-0.0570049434900284,0.01869404502213,0.0235701147466898,0.00171073747333139
693,-0.0172754675149918,0.0186426918953657,-0.056132972240448,0.0211557876318693,0.0246255043894053,0.00585062429308891
694,-0.0131958266720176,0.0247555822134018,-0.0522842109203339,0.0240719690918922,0.0293320845812559,0.00852547027170658
695,-0.00660866079851985,0.0318445712327957,-0.0458006747066975,0.0285473484545946,0.0370182059705257,0.0123899867758155
696,-0.0012676507467404,0.036591824144125,-0.0403120256960392,0.03213045373559,0.0435864590108395,0.0155270583927631
697,0.000435196299804375,0.0363404676318169,-0.0392894148826599,0.0322123691439629,0.0457553453743458,0.0152634419500828
698,7.98051041783765E-05,0.0320003218948841,-0.0427724048495293,0.029080955311656,0.0440973378717899,0.0111297303810716
699,-0.000583575398195535,0.0265061538666487,-0.0483920648694038,0.0246988050639629,0.0407670550048351,0.00520867435261607
700,-0.0022242022678256,0.0215603765100241,-0.0544723123311996,0.0200933404266834,0.0367922931909561,-0.000340661441441625
701,-0.00447822222486138,0.0181965101510286,-0.0596497841179371,0.0166051238775253,0.0335552655160427,-0.00367006263695657
702,-0.00546423299238086,0.0170898716896772,-0.0625050067901611,0.0157332886010408,0.0325694270431995,-0.003729447722435
703,-0.00566809345036745,0.016672920435667,-0.0638122856616974,0.0161682460457087,0.0327117927372456,-0.00258114840835333
704,-0.00560165802016854,0.016770439222455,-0.0643875300884247,0.0169602986425161,0.0328731834888458,-0.00129081751219928
705,-0.0034810968209058,0.019615663215518,-0.0629008263349533,0.0192757714539766,0.0344610661268234,0.00211876025423408
706,0.000421344477217644,0.0246422998607159,-0.0593202784657478,0.0222254935652018,0.0372656844556332,0.00788314919918776
707,0.00298841181211174,0.0278155393898487,-0.0556828789412975,0.0230838060379028,0.0384992584586143,0.0128092849627137
708,0.00235669198445976,0.0258360113948584,-0.0528771467506886,0.0206185970455408,0.0366516560316086,0.01391492318362
709,0.000485344644403085,0.0198155995458364,-0.0494986735284328,0.016399011015892,0.0336376689374447,0.0121680097654462
710,0.00124872790183872,0.0143997427076101,-0.0437779277563095,0.0135909961536527,0.0328299291431904,0.0113665647804737
711,0.00481353001669049,0.0121139930561185,-0.0365302562713623,0.0132209667935967,0.0337212830781937,0.0131524717435241
712,0.00782322697341442,0.0114417923614383,-0.0300670955330133,0.013417380861938,0.0335069857537746,0.0156692769378424
713,0.00888588465750217,0.0105098802596331,-0.0248861983418465,0.0127736078575253,0.0325124859809875,0.0171733386814594
714,0.00795094855129719,0.00805061776190996,-0.0215187836438417,0.0108703318983316,0.0310595072805882,0.0168635360896587
715,0.00442859623581171,0.00320646609179676,-0.0214802734553814,0.0074424808844924,0.0279631353914738,0.0142194731160998
716,0.000119252559670713,-0.00189255410805345,-0.023299552500248,0.00449386378750205,0.0250809285789728,0.0114802150055766
717,-0.00324342795647681,-0.00476635387167335,-0.0246170461177826,0.00353123224340379,0.0240253135561943,0.0106309289112687
718,-0.00690283859148622,-0.00642111850902438,-0.0255526080727577,0.00292829284444451,0.0222046561539173,0.00983975920826197
719,-0.0110414447262883,-0.00840344186872244,-0.0260318219661713,0.00179149734321982,0.0181575380265713,0.00774822011590004
720,-0.0144105786457658,-0.0107415374368429,-0.0255456641316414,0.000384726969059557,0.0135764898732305,0.00512520037591457
721,-0.0170649699866772,-0.0137665700167418,-0.0247022155672312,-0.00170534977223724,0.00950247421860695,0.00243202433921397
722,-0.0192776322364807,-0.0176239963620901,-0.0236463379114866,-0.00433197151869535,0.00608553038910031,0.000192873951164074
723,-0.0198691990226507,-0.0203714147210121,-0.0212847571820021,-0.00592010281980038,0.00414253864437342,-0.000114089489215985
724,-0.0186838377267122,-0.0210266094654799,-0.0182672552764416,-0.0060520232655108,0.00327836349606514,0.00151316809933633
725,-0.0171684101223946,-0.0210251919925213,-0.0165444165468216,-0.00602502143010497,0.002520811278373,0.00347081595100462
726,-0.0153374401852489,-0.0205989088863134,-0.0158048179000616,-0.00613547768443823,0.00282816169783473,0.00529587687924504
727,-0.013101639226079,-0.0197763051837683,-0.0154195316135883,-0.00671686651185155,0.00385528174228966,0.00691210012882948
728,-0.0116274962201715,-0.0195738021284342,-0.0159598458558321,-0.00870987866073847,0.00332355359569192,0.00802877265959978
729,-0.0109904743731022,-0.018679853528738,-0.0163899436593056,-0.0110672628507018,0.00140664633363485,0.0100231459364295
730,-0.0111318873241544,-0.0161512270569801,-0.0157324615865946,-0.0129751143977046,-0.000279377069091424,0.0131547627970576
731,-0.0128353601321578,-0.0136459842324257,-0.0151983583346009,-0.0155343394726515,-0.00189879431854934,0.0150261372327805
732,-0.0153449019417167,-0.0114717008545995,-0.0148656042292714,-0.0182366520166397,-0.00404383661225438,0.0151910101994872
733,-0.0174272246658802,-0.00921884179115295,-0.0131309740245342,-0.0196081511676311,-0.00596655672416091,0.0150094628334045
734,-0.0184812415391207,-0.00690588681027293,-0.00902451295405626,-0.0191599875688553,-0.00608293805271387,0.0153261180967093
735,-0.0178947634994984,-0.00486815255135298,-0.00325426971539855,-0.0167270731180906,-0.0037134166341275,0.016405126079917
736,-0.0163098312914371,-0.00420011673122644,0.00180646358057857,-0.0131611665710807,5.55594342586119E-05,0.0175422392785549
737,-0.0150425685569644,-0.00446693319827318,0.00445127999410033,-0.00983155984431505,0.00341842859052122,0.0184738039970398
738,-0.014197813346982,-0.00411354284733534,0.0053119114600122,-0.00736583117395639,0.00535204680636525,0.0197189599275589
739,-0.0127671118825674,-0.00260181888006628,0.00610851543024182,-0.00588679546490312,0.00670353043824434,0.0207225885242224
740,-0.0100488746538758,0.000286434427835047,0.00766940973699093,-0.00496115908026695,0.00881385337561369,0.0210024900734425
741,-0.00684775039553642,0.00380521011538804,0.00935382768511772,-0.00403584958985448,0.0113232545554638,0.0215783305466175
742,-0.00475776055827737,0.0059512727893889,0.010227388702333,-0.00308112101629376,0.0130723314359784,0.0231311935931444
743,-0.00383817916736007,0.00644564116373658,0.0104196248576045,-0.00167871441226453,0.0143784573301673,0.0254290942102671
744,-0.00298302969895303,0.00634956546127796,0.0105201667174697,0.000359739846317098,0.0162020791321993,0.0279080495238304
745,-0.00258531747385859,0.00516538927331567,0.00996891409158707,0.00132941675838083,0.0181364212185144,0.0288539733737707
746,-0.00347195682115853,0.0021901756990701,0.0082485293969512,7.6330492447596E-05,0.0195403695106506,0.0266776438802481
747,-0.00522627308964729,-0.00132059468887746,0.00618660822510719,-0.00201855134218931,0.0203503463417292,0.0225360691547394
748,-0.00711614917963743,-0.00367544637992978,0.00477976724505425,-0.00353354355320334,0.0207624342292547,0.0190576985478401
749,-0.00806875340640545,-0.00476276315748692,0.00507757160812616,-0.00431316858157516,0.0217551849782467,0.017296152189374
750,-0.00675645377486944,-0.00471337512135506,0.00816048122942448,-0.00408383272588253,0.0240286700427532,0.0171430110931396
751,-0.00302305887453258,-0.0026264435146004,0.0138650955632329,-0.00253643561154604,0.0273041073232889,0.0184309799224138
752,0.00139037042390555,0.00141568132676184,0.0207429118454456,-0.000416029244661331,0.0305890198796988,0.0204177442938089
753,0.00381398503668606,0.00522810826078057,0.0267022270709276,0.000799993926193565,0.0319481045007706,0.0215515028685331
754,0.00309555814601481,0.0069588222540915,0.0300035253167152,0.000583103799726814,0.030461935326457,0.0209973007440567
755,0.00102343293838203,0.00799782946705818,0.0307897366583347,0.000884417910128832,0.0279776323586702,0.0207991823554039
756,-9.57970332819968E-05,0.010144910775125,0.0306523200124502,0.00332878506742418,0.0271982569247484,0.022255090996623
757,-0.000150155261508189,0.0122808665037155,0.0307461731135845,0.00688526127487421,0.0285366084426641,0.0238822903484106
758,-0.000485562981339172,0.0129733076319098,0.0310484729707241,0.00994254369288683,0.0299454666674137,0.0250321254134178
759,-0.00255231140181422,0.01143844332546,0.030623447149992,0.0109062185510993,0.029340211302042,0.025302316993475
760,-0.00665385462343693,0.00745509611442685,0.0289907120168209,0.00892818998545408,0.0264621526002884,0.0238618459552526
761,-0.0120191220194101,0.00238275085575879,0.0269218273460865,0.00510246539488435,0.0226137060672045,0.0209846924990416
762,-0.0171767435967922,-0.00141363206785172,0.026340588927269,0.00181351089850068,0.019705880433321,0.018584780395031
763,-0.0204000174999237,-0.00273373047821224,0.0285131055861712,0.000295305653708056,0.0184301752597094,0.0177673976868391
764,-0.0213979594409466,-0.00202647689729929,0.0317620895802975,-0.000790174992289394,0.0177891626954079,0.0171248037368059
765,-0.0207147896289825,0.000977409188635647,0.0338288247585297,-0.00241555832326412,0.0174726881086826,0.0161320641636848
766,-0.0191406439989805,0.00622867234051228,0.0342861488461494,-0.00363928941078484,0.0172466021031141,0.0152273075655103
767,-0.0177344456315041,0.0112076932564378,0.0338754765689373,-0.00441241450607777,0.0164094809442759,0.0128583628684282
768,-0.0165095124393702,0.0133587243035436,0.0338006727397442,-0.00584425358101726,0.0154960714280605,0.00811195466667414
769,-0.0142899639904499,0.0126939434558153,0.0350399389863014,-0.00736505119130015,0.0157859344035387,0.00331823853775859
770,-0.010740127414465,0.0103844376280904,0.037177499383688,-0.0075889159925282,0.0168089233338833,0.000577563303522766
771,-0.00645234854891896,0.00785862654447556,0.0390771627426147,-0.00606954330578446,0.0171428564935923,0.000503871706314385
772,-0.00130052038002759,0.00683173537254334,0.0408555939793587,-0.00282906065694988,0.0174369309097528,0.00336775253526866
773,0.00470936764031649,0.00821540504693985,0.043097335845232,0.00176538561936468,0.0188732333481312,0.00887615233659744
774,0.0102623142302036,0.0112729268148541,0.0450444407761097,0.00630013179033995,0.0210979245603085,0.0149242635816336
775,0.013898778706789,0.0138211948797107,0.0453140065073967,0.00877033080905676,0.0227992553263903,0.0180365946143866
776,0.0160179063677788,0.0147339450195432,0.0443779490888119,0.00919633265584707,0.0232463926076889,0.0181840620934963
777,0.0190136209130287,0.0158309191465378,0.0451720133423805,0.0101545080542564,0.0239648278802633,0.0193678848445416
778,0.0241965092718601,0.0190996993333101,0.0490556582808495,0.0129954274743795,0.0265303142368793,0.0233295373618603
779,0.0287388004362583,0.0221702829003334,0.0525330007076263,0.0150253288447857,0.0291338842362165,0.0264741089195013
780,0.0294355824589729,0.0216375291347504,0.0523138158023357,0.0138965509831905,0.0295435562729836,0.0257267467677593
781,0.0273211225867271,0.0180983692407608,0.0500026978552341,0.0112962229177356,0.0290149860084057,0.0224516596645117
782,0.0246448293328285,0.0125990370288491,0.0481622777879238,0.00897274632006884,0.0292808916419744,0.0182879660278559
783,0.0226153992116451,0.00566170131787658,0.0478487499058247,0.00753437168896198,0.0304282158613205,0.0140399979427457
784,0.0215078853070736,-0.000316581397783011,0.0496122874319553,0.00801354087889194,0.0323009230196476,0.0115209789946675
785,0.0195893570780754,-0.00388754904270172,0.0526222996413708,0.00945943500846624,0.0337972827255726,0.0110517824068666
786,0.0163584835827351,-0.00476021552458405,0.0559772402048111,0.0101937437430024,0.0345747582614422,0.0114018367603421
787,0.0146976932883263,-0.00139514834154397,0.0599618926644325,0.0114400135353208,0.0366191789507866,0.0133036635816097
788,0.0158746857196093,0.00607795920222998,0.0636236146092415,0.0144201219081879,0.0399897061288357,0.0170290376991034
789,0.0181743707507849,0.0142455026507378,0.0652338787913322,0.0174574740231037,0.0431479178369045,0.0189776942133904
790,0.0203886777162552,0.0200533457100391,0.0646805763244629,0.0184701140969992,0.0464286133646965,0.0168106872588396
791,0.0217248219996691,0.0228631254285574,0.0624131858348846,0.0174437556415796,0.0495639853179455,0.0131795452907681
792,0.0220766477286816,0.02367546223104,0.059203676879406,0.0166698358952999,0.0514560267329216,0.0118075963109732
793,0.023101607337594,0.0241368096321821,0.0570060573518276,0.018864618614316,0.0527397841215134,0.0148222027346492
794,0.024208614602685,0.0239611063152552,0.0557331331074238,0.0228615514934063,0.052860964089632,0.0202249214053154
795,0.0228558052331209,0.0219303146004677,0.0533081144094467,0.0250296983867884,0.0502121783792973,0.0235708858817816
796,0.020887391641736,0.0198904257267714,0.0507287569344044,0.0253309179097414,0.0474573820829391,0.0242995377629995
797,0.02215626090765,0.0209070760756731,0.050830814987421,0.0264029912650585,0.0484119243919849,0.0250617992132902
798,0.0252334605902433,0.0245090965181589,0.0531086660921574,0.02851234190166,0.0511128269135952,0.0266856905072927
799,0.02663304656744,0.0275326110422611,0.0550447404384613,0.0300494655966759,0.0520441085100174,0.0278670899569988
800,0.0269149001687765,0.0289031770080328,0.056313157081604,0.0308230891823769,0.0522196739912033,0.0284291505813599
801,0.0271516181528568,0.0288225281983614,0.0573365949094296,0.0307958573102951,0.0529759116470814,0.0282578431069851
802,0.0266819782555103,0.0259476453065872,0.0573743246495724,0.0291877705603838,0.0537302009761333,0.025534501299262
803,0.0258204564452171,0.0195114184170961,0.0561293251812458,0.0263729467988014,0.0548269338905811,0.0193860363215208
804,0.0249355509877205,0.0118284858763218,0.0537960380315781,0.0238477513194084,0.0556504651904106,0.0124616101384163
805,0.0225478764623404,0.00562809500843287,0.0496477410197258,0.0218617655336857,0.0528553947806358,0.00779412221163511
806,0.0187166053801775,0.00139192852657288,0.0442121177911758,0.0198393128812313,0.046221911907196,0.00547029543668032
807,0.0167704671621323,-0.000909611349925399,0.0407267734408379,0.0190685782581568,0.0410951115190983,0.0051481407135725
808,0.0181973278522491,-0.00209360290318727,0.0409644618630409,0.0206692162901163,0.0408619828522205,0.00649585761129856
809,0.0208463929593563,-0.00449222465977073,0.0426957458257675,0.0229021776467562,0.0431247241795063,0.00769531633704901
810,0.0231570936739445,-0.00857018586248159,0.0431498102843761,0.0237619988620281,0.0446234606206417,0.00778285367414355
811,0.0251905396580696,-0.0127824060618877,0.0416093207895756,0.022970849648118,0.0445285886526108,0.00718729151412845
812,0.0263153407722712,-0.0171881541609764,0.0384199395775795,0.0206883307546377,0.0433356687426567,0.00529725197702646
813,0.0254645142704248,-0.0228018760681152,0.034483402967453,0.0175098273903131,0.0416765287518501,0.00154999864753336
814,0.0233917441219091,-0.0279891882091761,0.0318027064204216,0.0157817769795656,0.0404374673962593,-0.00143222603946924
815,0.0221340134739876,-0.0296549126505852,0.0316951759159565,0.0172961130738258,0.0403339490294456,-0.000308677699649706
816,0.0226993691176176,-0.0272874608635902,0.032890971750021,0.0207291357219219,0.0412113666534424,0.00447965739294887
817,0.0253274254500866,-0.0226983074098825,0.034086599946022,0.0245775021612644,0.0431759506464005,0.0104388659819961
818,0.0284873191267252,-0.018487635999918,0.0344790257513523,0.0279846657067537,0.0449072793126106,0.0154094146564603
819,0.0294795408844948,-0.0161923002451658,0.0330813713371754,0.0296528358012438,0.0438394322991371,0.0181904919445515
820,0.0272801890969276,-0.0161146577447653,0.0301448032259941,0.0290482062846422,0.0395195446908474,0.0184551272541285
821,0.0222847424447536,-0.0189967453479767,0.0267228055745363,0.0263200365006924,0.0329833962023258,0.0159752331674099
822,0.0159344356507063,-0.0245053954422474,0.0237852372229099,0.0219820197671652,0.0259299725294113,0.0112741943448782
823,0.0097033716738224,-0.0308324377983809,0.0217827744781971,0.0168602075427771,0.0197893343865871,0.00557821290567517
824,0.00383339775726199,-0.0362426228821278,0.0205323584377766,0.0117674311622977,0.0143590578809381,0.000133314460981637
825,-0.0015286086127162,-0.0395663529634476,0.0201947782188654,0.00758907990530133,0.00948511529713869,-0.00396506022661924
826,-0.00529462331905961,-0.0396199226379395,0.0221274774521589,0.0054199188016355,0.00663633365184069,-0.00533803459256887
827,-0.00631471676751971,-0.0356240943074226,0.0273016486316919,0.00572302658110857,0.00759005127474666,-0.00331510254181921
828,-0.00499624572694302,-0.0293062087148428,0.0335409119725227,0.00725133949890733,0.0117808664217591,1.27833454826032E-05
829,-0.00312582030892372,-0.0236449912190437,0.0370725952088833,0.0084704402834177,0.0161023028194904,0.00223546987399459
830,-0.00184837728738785,-0.0199412256479263,0.0365989618003368,0.00928419921547174,0.0181740745902061,0.00341171980835497
831,-0.00148398487363011,-0.0185064915567636,0.0326629541814327,0.00937840342521667,0.0175635442137718,0.00351226376369596
832,-0.00290175271220505,-0.0198831595480442,0.0253336895257235,0.00709614716470242,0.0143231824040413,0.000907110515981913
833,-0.00681761978194118,-0.0229663290083408,0.0156080508604646,0.00203884532675147,0.00928068347275257,-0.00436291703954339
834,-0.0130746979266405,-0.0255218278616667,0.00564968818798661,-0.0039275442250073,0.00369936367496848,-0.00987259857356548
835,-0.0198987443000078,-0.0262049492448568,-0.00265390682034194,-0.00781034352257848,-0.00102155690547079,-0.0131194982677698
836,-0.0248119831085205,-0.0249651074409485,-0.00856983847916126,-0.00800409913063049,-0.00387340923771262,-0.0136650688946247
837,-0.0285184551030397,-0.0241113435477018,-0.0137673364952207,-0.00688176276162267,-0.00650878110900521,-0.0144298803061247
838,-0.0325756184756756,-0.0244424808770418,-0.0190834328532219,-0.00680575333535671,-0.00997027568519115,-0.0167206879705191
839,-0.0352315194904804,-0.0227413326501846,-0.0216330550611019,-0.00632844539359212,-0.0113828694447875,-0.0176123268902302
840,-0.0341282747685909,-0.016830924898386,-0.0192893836647272,-0.00369098992086947,-0.00868092104792595,-0.015379817225039
841,-0.0294912829995155,-0.00788748171180487,-0.0142702804878354,5.03553455928341E-05,-0.00451820949092507,-0.0116257704794407
842,-0.0243403054773808,0.00147216545883566,-0.0105733489617705,0.00261097494512796,-0.00317228119820356,-0.00848983321338892
843,-0.0215117018669844,0.00950974225997925,-0.00916373357176781,0.00329329608939588,-0.00497593730688095,-0.00648282608017325
844,-0.0206557586789131,0.0160240158438683,-0.00789676234126091,0.00295881205238402,-0.00624637026339769,-0.00530062802135944
845,-0.021382037550211,0.0200056694447994,-0.00680059986189008,0.00126076524611562,-0.00551506225019693,-0.00607783673331141
846,-0.0246615186333656,0.020260876044631,-0.00805059261620045,-0.00269508920609951,-0.00446751527488232,-0.0101659670472145
847,-0.0291699599474669,0.0190305896103382,-0.0110310930758715,-0.00689610512927175,-0.0030771114397794,-0.0154923787340522
848,-0.0315911471843719,0.0202898178249598,-0.0123106529936194,-0.00777586456388235,0.000591097807046026,-0.0178478043526411
849,-0.0305697172880173,0.0247990339994431,-0.00996849965304136,-0.00454948842525482,0.00695909094065428,-0.0161687396466732
850,-0.0273792911320925,0.0306707378476858,-0.00503800017759204,0.000852878205478191,0.0146171767264605,-0.0121314264833927
851,-0.0236759595572948,0.0364323146641254,0.000333378935465589,0.00638812221586704,0.0215943492949009,-0.00670607900246978
852,-0.0200098641216755,0.0414666645228863,0.00478799222037196,0.0111023308709264,0.0266511738300323,-0.000419815682107583
853,-0.0164929181337357,0.0452373921871185,0.00796161498874426,0.0146658830344677,0.0297062080353498,0.00527255702763796
854,-0.0145348338410258,0.0462869219481945,0.00913801696151495,0.0159376449882984,0.0301801655441523,0.00806408282369375
855,-0.0143972272053361,0.0443506129086018,0.00884037651121616,0.0147740356624126,0.0290315691381693,0.00776116084307432
856,-0.0145294861868024,0.0411654151976109,0.00858539808541536,0.0127466470003128,0.028470216318965,0.00637868791818619
857,-0.0150903668254614,0.0380890257656574,0.00833805557340384,0.0105923656374216,0.0282881390303373,0.00529605941846967
858,-0.0172956455498934,0.0360808484256268,0.00784483086317778,0.00844347197562456,0.0275722946971655,0.0052740853279829
859,-0.0210908968001604,0.0352933555841446,0.0072856075130403,0.006760457996279,0.0264303535223007,0.00607376871630549
860,-0.0246372651308775,0.0349200367927551,0.00684105325490236,0.00604096008464694,0.0255941934883595,0.00678431103006005
861,-0.0258317478001118,0.0341631472110748,0.0070908279158175,0.00622217450290918,0.0259830243885517,0.00626005511730909
862,-0.0253940150141716,0.0327085629105568,0.00804999750107527,0.00659410189837217,0.0269612465053797,0.00428927643224597
863,-0.0259221028536558,0.0309348236769438,0.00905214063823223,0.00658607017248869,0.0267086736857891,0.00259211705997586
864,-0.0270517077296972,0.029466075822711,0.0102344267070293,0.00631700595840812,0.0253036636859179,0.001890450832434
865,-0.0258915908634663,0.0292313098907471,0.0122808739542961,0.00655171228572726,0.024810554459691,0.0022288344334811
866,-0.02223133854568,0.030229851603508,0.01440070848912,0.00700432667508721,0.025991078466177,0.00330371083691716
867,-0.0185165256261826,0.0308650247752666,0.014660581946373,0.00621643476188183,0.0275596212595701,0.00302017270587385
868,-0.0166751425713301,0.0296397749334574,0.0121798766776919,0.00354335340671241,0.0282213427126408,-0.000260896078543738
869,-0.0171896331012249,0.0276494175195694,0.00805336143821478,0.000187567507964559,0.0286147389560938,-0.00477181561291218
870,-0.019526494666934,0.0276229679584503,0.00443668384104967,-0.00175475620198995,0.030495323240757,-0.0070216809399426
871,-0.0232012942433357,0.0294951796531677,0.00183341011870652,-0.00184142752550542,0.0334175266325474,-0.00640444923192263
872,-0.0273580085486174,0.031299389898777,-0.000771336490288377,-0.000853414472658187,0.035523533821106,-0.00427372520789504
873,-0.0314286202192307,0.0315736904740334,-0.00355784711427987,0.000236715350183658,0.0358484610915184,-0.00200181687250733
874,-0.0353391021490097,0.0301146991550922,-0.00568861002102494,0.000416113965911791,0.0348603688180447,-0.000726177066098899
875,-0.0387008972465992,0.0278397426009178,-0.0070061250589788,-0.00073698628693819,0.0336389057338238,-0.000605000182986259
876,-0.0399369671940804,0.0267489030957222,-0.00643486762419343,-0.00152497470844537,0.0342817455530167,-0.000144806748721749
877,-0.0369929857552052,0.0291433501988649,-0.00182884966488928,0.000515638268552721,0.0388234741985798,0.002473363885656
878,-0.0322874300181866,0.0332495830953121,0.00400830758735538,0.00323794479481876,0.0438761562108994,0.00552883837372065
879,-0.0303417574614286,0.0351129956543446,0.00601992150768638,0.00247972551733255,0.0441388189792633,0.0057957754470408
880,-0.0307391155511141,0.0343000590801239,0.00462746992707253,-0.00159028510097414,0.0400969460606575,0.00300414580851793
881,-0.0288408249616623,0.033893670886755,0.00429632840678096,-0.00496453698724508,0.0369424261152744,0.000360627484042197
882,-0.0229651723057032,0.0355162769556046,0.00622787699103355,-0.005411506164819,0.0369185917079449,0.000636445765849203
883,-0.0166753251105547,0.0374965667724609,0.00746606010943651,-0.00471910182386637,0.0369976721704006,0.00267914030700922
884,-0.0126718189567328,0.0388849936425686,0.0067264037206769,-0.00467414828017354,0.0354988239705563,0.00393570819869637
885,-0.010265345685184,0.040623527020216,0.00514995818957686,-0.00495087169110775,0.0336248464882374,0.00372573523782194
886,-0.00757019361481071,0.0439249910414219,0.0045144185423851,-0.00400715786963701,0.032432209700346,0.00387595407664776
887,-0.00385312736034393,0.0482513234019279,0.00581086101010442,-0.00126168492715806,0.0322796702384949,0.00562635250389576
888,-0.000458251568488777,0.0507411174476147,0.00718388427048922,0.00126060808543116,0.0321766771376133,0.00690545793622732
889,0.00167317513842136,0.0497053824365139,0.00649880012497306,0.0017691042739898,0.031135655939579,0.00573436822742224
890,0.0027653865981847,0.0464111752808094,0.00395192345604301,0.00104736629873514,0.0290170796215534,0.00283333449624479
891,0.00286538735963404,0.0429762974381447,0.000439771421952173,0.000164793222211301,0.0252341013401747,-0.000431505963206291
892,0.00266008288599551,0.0411119312047958,-0.00268173287622631,-0.000191901388461702,0.0206084027886391,-0.00277692568488419
893,0.00338517362251878,0.0412886738777161,-0.00371650978922844,0.000883578963112086,0.0174107048660517,-0.0032976963557303
894,0.0054005766287446,0.0422340221703053,-0.00255184294655919,0.00274956994690001,0.0162164680659771,-0.00287090707570314
895,0.00816491432487965,0.0431099161505699,-0.000410990527598187,0.00387514126487076,0.0161280483007431,-0.00323206675238907
896,0.0110265268012881,0.044341791421175,0.00225274451076984,0.00415493035688996,0.0170253105461597,-0.00499771814793348
897,0.0132889011874795,0.0456956103444099,0.00575324846431613,0.00422543101012707,0.0190223790705204,-0.00769502250477672
898,0.0148139167577028,0.0467122681438923,0.0105658303946257,0.00493623455986381,0.0219444688409567,-0.0100536737591028
899,0.0165376458317041,0.0481326915323734,0.0170297268778086,0.00749717466533184,0.0264884885400534,-0.0105639705434442
900,0.0179511029273272,0.0495502986013889,0.0231344811618328,0.0111903222277761,0.0320838131010532,-0.0100510055199265
901,0.0165028497576714,0.0484536662697792,0.0248537212610245,0.0129611818119884,0.035616148263216,-0.0105993337929249
902,0.0113029722124338,0.0441031195223331,0.0205698870122433,0.0108905266970396,0.0348694883286953,-0.0122383385896683
903,0.00464380439370871,0.0390322990715504,0.0129842162132263,0.00618430972099304,0.030707536265254,-0.0139842005446553
904,-0.000129508291138336,0.0367253422737122,0.00676787411794066,0.00240318523719907,0.0260690804570913,-0.0141005385667086
905,-0.00235142582096159,0.0371866412460804,0.00413658143952489,0.00147059245500714,0.022607833147049,-0.0114812906831503
906,-0.00414422899484634,0.0367754139006138,0.00377673772163689,0.00158822117373347,0.0196905955672264,-0.00831774808466434
907,-0.00581880332902074,0.0341673940420151,0.00452425424009562,0.00123003835324198,0.0178181808441877,-0.00692164013162255
908,-0.00688648596405983,0.029969634488225,0.00505989883095026,2.76334994850913E-05,0.0171103775501251,-0.00817651953548193
909,-0.00837249960750341,0.0240151900798082,0.00339998677372932,-0.00242330995388329,0.0156343057751656,-0.0130002368241549
910,-0.00965368468314409,0.017539206892252,0.000532958889380097,-0.00493664154782891,0.0139678781852126,-0.0208494588732719
911,-0.00930167641490698,0.0128979524597526,-0.00135404616594315,-0.00595312286168337,0.0142943626269698,-0.0295012090355158
912,-0.00870985444635153,0.0107959927991033,-0.00324614788405597,-0.00628505740314722,0.0151982018724084,-0.0369009077548981
913,-0.00897290278226137,0.0108797298744321,-0.00585840083658695,-0.00676977215334773,0.0150297423824668,-0.0414243340492249
914,-0.00833017844706774,0.0130048152059317,-0.00669715646654367,-0.00605512410402298,0.0158850904554129,-0.0421848706901073
915,-0.00653728190809488,0.015306762419641,-0.00469343084841967,-0.00415438506752253,0.0188793260604143,-0.0409891083836555
916,-0.00650102598592639,0.0142937880009413,-0.00223881821148098,-0.00379009125754237,0.0214811936020851,-0.0418694280087948
917,-0.0100481631234288,0.00912365969270468,-0.00181646388955414,-0.00655050482600927,0.0212900936603546,-0.0465133748948574
918,-0.0145012764260173,0.00387889123521745,-0.00265378504991531,-0.0103366607800126,0.0194750130176544,-0.0520361065864563
919,-0.0163022577762604,0.00283335149288177,-0.00225414615124464,-0.0122583545744419,0.0183745268732309,-0.0552357211709023
920,-0.0170703399926424,0.00466469489037991,-0.00133038184139878,-0.0132622784003615,0.0169374905526638,-0.0568834021687508
921,-0.0198240224272013,0.00544776581227779,-0.00216166023164988,-0.0156151596456766,0.0135181695222855,-0.0588983632624149
922,-0.0227941498160362,0.00402724277228117,-0.00379799352958798,-0.0182716716080904,0.010186773724854,-0.0608466416597366
923,-0.0240430701524019,0.000767106248531491,-0.00459693418815732,-0.0198229551315308,0.00880349613726139,-0.0623561814427376
924,-0.024416197091341,-0.00355768180452287,-0.00501989806070924,-0.0205308794975281,0.00872876215726137,-0.0639008954167366
925,-0.0234959367662668,-0.00655004382133484,-0.00525334244593978,-0.0198438726365566,0.00967683456838131,-0.0645705237984657
926,-0.0207333210855722,-0.00660819793120027,-0.0047258441336453,-0.0175342783331871,0.0112885497510433,-0.063409298658371
927,-0.0174631010740995,-0.00469198171049356,-0.00342968804761767,-0.0149097489193082,0.0126099558547139,-0.0610179156064987
928,-0.0140871936455369,-0.00191301002632827,-0.0013702092692256,-0.0124587863683701,0.0132726244628429,-0.0577831640839577
929,-0.00897796079516411,0.00139957491774112,0.00248086964711547,-0.00905937049537897,0.0143371308222413,-0.0530444979667664
930,-0.00217890460044146,0.00404944736510515,0.00804897118359804,-0.00471668131649494,0.0166951548308134,-0.0472857691347599
931,0.00375118805095553,0.00446366658434272,0.0129596618935466,-0.00140440522227436,0.018958568572998,-0.0423148311674595
932,0.00802641827613115,0.00259139016270638,0.0165566932410002,7.13732442818582E-05,0.0203049201518297,-0.0391295216977596
933,0.0116178197786212,-0.000632537761703134,0.0199748296290636,0.000481756374938414,0.0216272883117199,-0.0375242196023464
934,0.014141752384603,-0.00459555257111788,0.022596662864089,0.000122230456327088,0.0227297600358725,-0.0366858392953873
935,0.014029304496944,-0.00950441509485245,0.0228522680699825,-0.00101372017525136,0.0221054330468178,-0.0359898991882801
936,0.0118224676698446,-0.0148827824741602,0.0214487686753273,-0.00143615819979459,0.0200617536902428,-0.0341168120503426
937,0.00896039325743914,-0.0202146898955107,0.01996242813766,-0.000316214602207765,0.0180954299867153,-0.0312019325792789
938,0.00486855441704392,-0.0258659496903419,0.0182941295206547,0.000632032519206405,0.0161408446729183,-0.0301105640828609
939,-6.61867215967504E-06,-0.0305127054452896,0.0166178457438946,0.000765113218221813,0.0141765028238297,-0.0307853128761053
940,-0.00401091855019331,-0.0328171700239182,0.015500326640904,0.000979799311608076,0.0124754961580038,-0.0305225215852261
941,-0.00622102431952953,-0.032344039529562,0.01532824896276,0.00199731043539941,0.0112332031130791,-0.0280047655105591
942,-0.00742119085043669,-0.0293423067778349,0.0157310869544744,0.00339106889441609,0.0100279934704304,-0.0241384655237198
943,-0.00924143195152283,-0.0258249621838331,0.0154215302318335,0.00388915254734457,0.00785718578845263,-0.0208528768271208
944,-0.0108575243502855,-0.0232118014246225,0.0146645614877343,0.00339901982806623,0.0056822532787919,-0.0188382491469383
945,-0.0095732631161809,-0.0205391626805067,0.0155046312138438,0.00370342144742608,0.00613081967458129,-0.0168617032468319
946,-0.00563676981255412,-0.016980953514576,0.0178456082940102,0.00591546390205622,0.00900815706700087,-0.0138594713062048
947,-0.00304724648594856,-0.0141532253473997,0.0186540018767118,0.00853032805025578,0.0101583506911993,-0.0106756640598178
948,-0.00397002464160323,-0.0135993948206306,0.017049603164196,0.0102854697033763,0.00795592460781336,-0.00811843574047089
949,-0.00738641060888767,-0.0155612258240581,0.0146810365840793,0.0106816459447145,0.00460260082036257,-0.00669924914836884
950,-0.0108809256926179,-0.0189349427819252,0.0133601650595665,0.00972301885485649,0.00181513372808695,-0.00592143181711435
951,-0.0112826880067587,-0.0207499153912067,0.0147379552945495,0.00913643091917038,0.000719300471246243,-0.00342809455469251
952,-0.00734355160966516,-0.0190710909664631,0.0184572450816631,0.0101382359862328,0.0020034103654325,0.00126926775556058
953,-0.00121979240793735,-0.0150916064158082,0.0223586577922106,0.0116236219182611,0.00460690492764115,0.005640281829983
954,0.00486564636230469,-0.00999364349991083,0.0261253844946623,0.0128477932885289,0.00791896414011717,0.00896129291504622
955,0.0101978154852986,-0.00402235612273216,0.0307595543563366,0.0140942931175232,0.012290389277041,0.0125308204442263
956,0.012952265329659,0.000314712611725554,0.0344945192337036,0.0140580013394356,0.015571509487927,0.0147639634087682
957,0.0108881313353777,-0.000344396044965833,0.034145288169384,0.0109968706965446,0.0147366998717189,0.0126079320907593
958,0.00408756313845515,-0.00657514622434974,0.0292666479945183,0.0051606073975563,0.00960998889058828,0.00598765537142754
959,-0.00509101105853915,-0.0160342156887054,0.0220594853162766,-0.00140517810359597,0.00240911217406392,-0.002346595749259
960,-0.0146385580301285,-0.0260064415633678,0.0142992911860347,-0.00722103239968419,-0.00480287335813046,-0.0105030508711934
961,-0.023114800453186,-0.0340535789728165,0.00744315842166543,-0.0112627018243074,-0.0101703759282827,-0.0172115787863731
962,-0.0295516699552536,-0.0388391837477684,0.0027179135940969,-0.0127179296687245,-0.0127150164917111,-0.0205829013139009
963,-0.0349029563367367,-0.0413797572255135,-0.000581343774683774,-0.0128993401303887,-0.0142019111663103,-0.0203988794237375
964,-0.0403550900518894,-0.042931005358696,-0.00327229127287865,-0.0134090445935726,-0.0164890326559544,-0.0180241893976927
965,-0.045728724449873,-0.0445668548345566,-0.00505376141518354,-0.0148224523290992,-0.0189857520163059,-0.0158596336841583
966,-0.0505551472306252,-0.0467919558286667,-0.00618028547614813,-0.0173102375119925,-0.0206964612007141,-0.0152187207713723
967,-0.0552399642765522,-0.0489793755114079,-0.00802892539650202,-0.0206809975206852,-0.0223283860832453,-0.0149427009746432
968,-0.0595977120101452,-0.050567988306284,-0.0112029472365975,-0.0241672694683075,-0.0243518650531769,-0.0138092832639813
969,-0.0628139078617096,-0.0516046173870564,-0.0152839105576277,-0.0267735365778208,-0.0266336929053068,-0.0119039909914136
970,-0.064229778945446,-0.0520225912332535,-0.0193456895649433,-0.0279988925904036,-0.0287188366055489,-0.0102582462131977
971,-0.0632603690028191,-0.0514681562781334,-0.022481307387352,-0.0282526444643736,-0.0300728417932987,-0.00970355793833733
972,-0.0604844689369202,-0.0500584319233894,-0.0249900668859482,-0.0285724774003029,-0.0315364710986614,-0.00990449916571379
973,-0.0566624253988266,-0.0476120784878731,-0.0265987310558558,-0.0288483053445816,-0.0329691208899021,-0.00935405492782593
974,-0.052007082849741,-0.0444113276898861,-0.0260270107537508,-0.0282710995525122,-0.0329084023833275,-0.00748046766966581
975,-0.0474030934274197,-0.042230661958456,-0.0231976546347141,-0.0269605927169323,-0.0314672663807869,-0.00548190576955676
976,-0.0435377880930901,-0.0422123223543167,-0.0190585050731897,-0.0252293311059475,-0.0292504876852036,-0.00380512629635632
977,-0.0402332991361618,-0.0433335416018963,-0.0146920885890722,-0.0232000891119242,-0.0259011648595333,-0.00153037870768458
978,-0.0384154543280602,-0.0448342151939869,-0.011985132470727,-0.022237429395318,-0.0223579648882151,0.000357541051926091
979,-0.0388789474964142,-0.0466044954955578,-0.0122496355324984,-0.0234769769012928,-0.0203989595174789,-0.000189193291589618
980,-0.0397162698209286,-0.0460423082113266,-0.013572946190834,-0.0247052386403084,-0.0190761741250753,-0.00131383468396962
981,-0.0384107939898968,-0.0399885289371014,-0.0122118173167109,-0.0223381035029888,-0.0151500655338168,0.00103869894519448
982,-0.0351227931678295,-0.0297131706029177,-0.00729519221931696,-0.0163789056241512,-0.00800473056733608,0.00687890127301216
983,-0.0319420993328094,-0.0202748011797667,-0.00184814701788127,-0.0107772257179022,-0.00106134556699544,0.0120360068976879
984,-0.0296693798154593,-0.014328308403492,0.00176175776869059,-0.00805183406919241,0.00308886193670332,0.0139351598918438
985,-0.0274625513702631,-0.0102869542315602,0.00409883866086602,-0.00681436480954289,0.00514848437160254,0.0140405809506774
986,-0.0243945177644491,-0.00618005031719804,0.00681589264422655,-0.00475117051973939,0.00722783617675304,0.0152224022895098
