,AF3,AF4,Fp1,Fp2,AF7,AF8
0,-0.0153482612222433,-0.053803063929081,-0.0419289842247963,-0.0298824869096279,0.000130016836919822,-0.0383665598928928
1,-0.0160908345133066,-0.0525336675345898,-0.0397138893604279,-0.0308768153190613,0.00176670704968274,-0.0399062894284725
2,-0.0173522774130106,-0.0522854290902615,-0.041087981313467,-0.0339067466557026,0.000685589679051191,-0.0435685068368912
3,-0.0182157959789038,-0.0533818602561951,-0.0439438745379448,-0.0379012525081635,-0.000660833902657032,-0.0479083769023418
4,-0.0186767578125,-0.0563342683017254,-0.0471253655850887,-0.0423224121332169,-0.000956864678300917,-0.0515703968703747
5,-0.0186314694583416,-0.0598730035126209,-0.0500715374946594,-0.0462794527411461,-0.000623029889538884,-0.0529917031526566
6,-0.0178073570132256,-0.0611603558063507,-0.0521681718528271,-0.0483659729361534,0.000446129852207378,-0.0516616553068161
7,-0.0177933890372515,-0.0604565478861332,-0.0542118847370148,-0.0491386763751507,0.0008966836030595,-0.050487793982029
8,-0.0187990851700306,-0.0602194853127003,-0.0560690835118294,-0.0491835810244083,0.00113515567500144,-0.0519200600683689
9,-0.0189492013305426,-0.0590069405734539,-0.0566373392939568,-0.047000378370285,0.0028546426910907,-0.0526578016579151
10,-0.0178421456366777,-0.0544407330453396,-0.0566170588135719,-0.0421221293509007,0.00461592664942145,-0.0485004633665085
11,-0.0163848772644997,-0.0495360344648361,-0.0578646622598171,-0.0373364463448524,0.00404369225725532,-0.0419346615672112
12,-0.015435129404068,-0.0487873032689095,-0.0615911185741425,-0.0359862484037876,0.000706908642314374,-0.0385541990399361
13,-0.0148376515135169,-0.0520328059792519,-0.0665415897965431,-0.0376658700406551,-0.00346743012778461,-0.0396783798933029
14,-0.0141479978337884,-0.0561736337840557,-0.0700940042734146,-0.0397019125521183,-0.00604793475940824,-0.0433929115533829
15,-0.0147628476843238,-0.0593628026545048,-0.0722316801548004,-0.041284341365099,-0.00768957706168294,-0.0474153868854046
16,-0.0173732489347458,-0.0612333826720715,-0.0742523744702339,-0.0426679216325283,-0.00999084487557411,-0.0500773377716541
17,-0.0201003812253475,-0.0619454421103001,-0.0755734443664551,-0.0436142273247242,-0.0121245887130499,-0.051513098180294
18,-0.0212379731237888,-0.0618270076811314,-0.075040876865387,-0.0437072962522507,-0.0129403918981552,-0.0517119094729424
19,-0.0205919593572617,-0.0614872202277184,-0.0723021179437637,-0.0424496456980705,-0.0117709282785654,-0.0496639907360077
20,-0.0187709648162127,-0.061592809855938,-0.0677123069763184,-0.0395551547408104,-0.00817161705344915,-0.045311838388443
21,-0.0168676096946001,-0.0624959617853165,-0.0626730844378471,-0.0359345749020576,-0.00374442362226546,-0.0404810421168804
22,-0.0167404934763908,-0.0649599805474281,-0.0593755170702934,-0.0337721593677998,-0.00173139199614525,-0.0375038869678974
23,-0.0194609016180038,-0.06917355209589,-0.0590928047895432,-0.0345137231051922,-0.00379634136334062,-0.0373093821108341
24,-0.0226589441299438,-0.0723984614014626,-0.0596682503819466,-0.0361522622406483,-0.00716508598998189,-0.0379617586731911
25,-0.0234529878944159,-0.0715016350150108,-0.0580654479563236,-0.0357328541576862,-0.00791497062891722,-0.0365265719592571
26,-0.022666621953249,-0.0675090476870537,-0.0549527630209923,-0.0339594446122646,-0.00622196635231376,-0.0334644615650177
27,-0.0216508284211159,-0.0633579790592194,-0.0518871657550335,-0.0324074774980545,-0.00344483274966478,-0.0307334810495377
28,-0.0200453829020262,-0.0603849850594997,-0.0487226694822311,-0.0310133397579193,0.000150903826579452,-0.0286925155669451
29,-0.017471456900239,-0.058780625462532,-0.0452326387166977,-0.0299472976475954,0.00391718838363886,-0.0274568703025579
30,-0.0140057066455483,-0.0580355450510979,-0.0416333861649036,-0.0292981211096048,0.0075015458278358,-0.026971273124218
31,-0.0105114877223969,-0.0571697987616062,-0.0384423471987247,-0.0283332802355289,0.0104504497721791,-0.0261356793344021
32,-0.00893442798405886,-0.0559314489364624,-0.0365231931209564,-0.0272881519049406,0.0110661769285798,-0.0240146107971668
33,-0.0105296019464731,-0.0550836101174355,-0.0364409275352955,-0.0274296887218952,0.00829055439680815,-0.0208806600421667
34,-0.0134882461279631,-0.054904866963625,-0.0372808985412121,-0.0287282224744558,0.00414455961436033,-0.0178858805447817
35,-0.0164429228752851,-0.0565088279545307,-0.0381432548165321,-0.031078239902854,9.32913171709515E-05,-0.0185432340949774
36,-0.0210390817373991,-0.0618229024112225,-0.0394675843417645,-0.0351134203374386,-0.00461960909888148,-0.0265118405222893
37,-0.0269227679818869,-0.0683836489915848,-0.0410452410578728,-0.0390972644090652,-0.0088592441752553,-0.0379719361662865
38,-0.0311283394694328,-0.0710608661174774,-0.0416080430150032,-0.0400212928652763,-0.0109408013522625,-0.0449197962880135
39,-0.033084511756897,-0.0691660493612289,-0.0411249436438084,-0.0381561443209648,-0.011942395940423,-0.0455579571425915
40,-0.0335557758808136,-0.0656285211443901,-0.0402073636651039,-0.0358967334032059,-0.0127234486863017,-0.0435055531561375
41,-0.0321923270821571,-0.0623224601149559,-0.0384690500795841,-0.0343404784798622,-0.0128392847254872,-0.0410767495632172
42,-0.0293422359973192,-0.0586119592189789,-0.0358826704323292,-0.033107902854681,-0.0128970695659518,-0.0368828438222408
43,-0.026599083095789,-0.0532866641879082,-0.0337503999471664,-0.0317485891282558,-0.0134421633556485,-0.0304460469633341
44,-0.0252469424158335,-0.0473207421600819,-0.0336915515363216,-0.0308232232928276,-0.0147817097604275,-0.0259179007261992
45,-0.025033388286829,-0.0430857054889202,-0.0358237214386463,-0.0311438124626875,-0.017130495980382,-0.0267554949969053
46,-0.0245962683111429,-0.0413665026426315,-0.0382514484226704,-0.0322443656623363,-0.0189073160290718,-0.0309589263051748
47,-0.0239230040460825,-0.0417248606681824,-0.0397354699671268,-0.0335557423532009,-0.0191173031926155,-0.035216324031353
48,-0.0247195120900869,-0.0441194549202919,-0.0413064323365688,-0.035833828151226,-0.0192975215613842,-0.0390746332705021
49,-0.0281200390309095,-0.0482283905148506,-0.044277373701334,-0.0395257212221622,-0.0213526133447886,-0.0432848408818245
50,-0.0342906042933464,-0.0536342673003674,-0.0491455942392349,-0.0441916361451149,-0.0262499134987593,-0.04776331782341
51,-0.0411487258970737,-0.0586310066282749,-0.0539984777569771,-0.0478965602815151,-0.0312720872461796,-0.0502579361200333
52,-0.0446309335529804,-0.0604682005941868,-0.0549427904188633,-0.047930121421814,-0.0306908003985882,-0.048504613339901
53,-0.0437771901488304,-0.0597823895514011,-0.0517682433128357,-0.044813834130764,-0.023868340998888,-0.043487761169672
54,-0.0419125445187092,-0.0607019439339638,-0.0485272407531738,-0.0419765636324883,-0.0167530402541161,-0.0382630452513695
55,-0.0417858064174652,-0.0656597912311554,-0.0475735440850258,-0.0413958951830864,-0.0135492281988263,-0.034881953150034
56,-0.0431577488780022,-0.0726294219493866,-0.047699972987175,-0.0424436591565609,-0.012823305092752,-0.0340228118002415
57,-0.0450606308877468,-0.0787013843655586,-0.0479045324027538,-0.0446822419762611,-0.0120283151045442,-0.0370430983603001
58,-0.0471590086817741,-0.0831454694271088,-0.0489336550235748,-0.0481792651116848,-0.0115284807980061,-0.0434196405112743
59,-0.0485498234629631,-0.0847910419106483,-0.050414189696312,-0.0508528351783752,-0.0122817037627101,-0.0486544445157051
60,-0.0488385483622551,-0.0829147696495056,-0.0513394363224506,-0.0510599948465824,-0.0139497946947813,-0.0501743406057358
61,-0.0491834469139576,-0.0796893835067749,-0.052294384688139,-0.0501129776239395,-0.0162267461419106,-0.0498571321368217
62,-0.0501096323132515,-0.0769884586334229,-0.0537364259362221,-0.0492873303592205,-0.0184459201991558,-0.0495371706783772
63,-0.0511049143970013,-0.0746529847383499,-0.0552350282669067,-0.0486076734960079,-0.0199598651379347,-0.0490331426262856
64,-0.0502246245741844,-0.0709932148456573,-0.0556507259607315,-0.0472782328724861,-0.0199000108987093,-0.0469070710241795
65,-0.0456662029027939,-0.0659096762537956,-0.0546794794499874,-0.0454457215964794,-0.017904844135046,-0.0433813706040382
66,-0.0398413203656673,-0.0630152225494385,-0.0548707470297813,-0.0452373996376991,-0.0165813267230988,-0.0414029955863953
67,-0.0359380580484867,-0.0634183809161186,-0.0573932826519012,-0.0469741374254227,-0.0173843558877707,-0.0421735718846321
68,-0.03333530575037,-0.0632751435041428,-0.0594192370772362,-0.0478911735117435,-0.0177392661571503,-0.0431138053536415
69,-0.0302899479866028,-0.059971921145916,-0.0588633306324482,-0.0457067899405956,-0.0159866157919168,-0.0403961166739464
70,-0.0269723013043404,-0.054884497076273,-0.0568617582321167,-0.0408408232033253,-0.0137175787240267,-0.0334187373518944
71,-0.0245211254805326,-0.0504011064767838,-0.0550510212779045,-0.0354028791189194,-0.012747067026794,-0.0263596214354038
72,-0.023397222161293,-0.0481785126030445,-0.0540600195527077,-0.0315863415598869,-0.0135965188965201,-0.0237816907465458
73,-0.022134093567729,-0.0476084016263485,-0.0532343871891499,-0.029658230021596,-0.0148655790835619,-0.0249694343656302
74,-0.0185359362512827,-0.0461872704327106,-0.0513571687042713,-0.0278752986341715,-0.0142865413799882,-0.0254660565406084
75,-0.0137007739394903,-0.0444784462451935,-0.0491632334887981,-0.0259346570819616,-0.0131707051768899,-0.0241987220942974
76,-0.00987997930496931,-0.0446799136698246,-0.0473480224609375,-0.0243537072092295,-0.0139750316739082,-0.0222782995551825
77,-0.00783843826502562,-0.0476924553513527,-0.045331921428442,-0.0231504458934069,-0.0166024919599295,-0.0207994394004345
78,-0.00780006451532245,-0.0532892867922783,-0.0430385880172253,-0.0224092099815607,-0.0204288437962532,-0.0211944077163935
79,-0.00819042883813381,-0.0583625286817551,-0.0396835766732693,-0.0210210792720318,-0.0238564144819975,-0.0221286844462156
80,-0.00723353354260325,-0.0600173734128475,-0.0351667962968349,-0.0187561884522438,-0.0249354112893343,-0.0219877865165472
81,-0.00591501733288169,-0.0600490383803844,-0.0327706672251225,-0.0184827391058207,-0.0247515942901373,-0.0227344892919064
82,-0.00543187605217099,-0.061484694480896,-0.0347136408090591,-0.0219311285763979,-0.0246588550508022,-0.0257508587092161
83,-0.00542740896344185,-0.0645148456096649,-0.0390708409249783,-0.0269555021077394,-0.024150712415576,-0.0292098205536604
84,-0.00612123962491751,-0.068109504878521,-0.0432149991393089,-0.030879907310009,-0.0234781503677368,-0.0318810865283012
85,-0.00729204388335347,-0.0706927105784416,-0.045485433191061,-0.0322841219604015,-0.0227793902158737,-0.0331580191850662
86,-0.00831104069948196,-0.0714492425322533,-0.0463703498244286,-0.0314209870994091,-0.0222522635012865,-0.0322127938270569
87,-0.00912757590413094,-0.0706369504332542,-0.0469577237963676,-0.0289597399532795,-0.0223062131553888,-0.0283284615725279
88,-0.00919786468148232,-0.0674348771572113,-0.0467151030898094,-0.0245775859802961,-0.0227436777204275,-0.0207108967006207
89,-0.00846718810498714,-0.0621384754776955,-0.0465713739395142,-0.0198733787983656,-0.0241082757711411,-0.0113935368135571
90,-0.00692172441631556,-0.0569986999034882,-0.0477640256285667,-0.0176003314554691,-0.0260119456797838,-0.00456353556364775
91,-0.00324719399213791,-0.0531388744711876,-0.0480587296187878,-0.0176470037549734,-0.0258449707180262,-0.00223465193994343
92,0.00183087028563023,-0.0507531799376011,-0.045735776424408,-0.0189836863428354,-0.0228603817522526,-0.00405074143782258
93,0.00398837262764573,-0.0510984323918819,-0.043714988976717,-0.0229256134480238,-0.0204293001443148,-0.0100992824882269
94,0.000890794501174241,-0.0542846620082855,-0.0448623634874821,-0.0297551192343235,-0.021147258579731,-0.0193070005625486
95,-0.00453851139172912,-0.0570840500295162,-0.0470490753650665,-0.0358343981206417,-0.0228507071733475,-0.0272137466818094
96,-0.00892817229032516,-0.0559821799397469,-0.0474174469709396,-0.0379858277738094,-0.0232277400791645,-0.0302965603768826
97,-0.0123418858274817,-0.0506602562963963,-0.0475534871220589,-0.0375601388514042,-0.0239247530698776,-0.0293164197355509
98,-0.0153683060780168,-0.0430877543985844,-0.0495933070778847,-0.0373216159641743,-0.0264022052288055,-0.0267615579068661
99,-0.017097495496273,-0.0356123670935631,-0.0522667095065117,-0.0375600345432758,-0.0290865954011679,-0.0247428063303232
100,-0.0163543671369553,-0.0293332375586033,-0.0531555823981762,-0.0369207449257374,-0.0294486284255981,-0.0242571737617254
101,-0.0128318406641483,-0.0229753479361534,-0.0512747541069984,-0.0344268828630447,-0.0264109689742327,-0.0243551563471556
102,-0.00831176340579987,-0.0160066820681095,-0.0480333566665649,-0.0310399811714888,-0.0216039773076773,-0.024118984118104
103,-0.00587920472025871,-0.0108060194179416,-0.0461754910647869,-0.0290156956762075,-0.0180868171155453,-0.0237510912120342
104,-0.00621146755293012,-0.00851726718246937,-0.0466766357421875,-0.0292668286710978,-0.0169587153941393,-0.0231680870056152
105,-0.00735031813383102,-0.00750600267201662,-0.0484486557543278,-0.0314806886017323,-0.0172120705246925,-0.0229518357664347
106,-0.00802128855139017,-0.00669593829661608,-0.050321027636528,-0.034981444478035,-0.0184979438781738,-0.024338211864233
107,-0.00806996878236532,-0.00610833754763007,-0.0512552037835121,-0.0383369810879231,-0.020476408302784,-0.0273047294467688
108,-0.00855636317282915,-0.00642040092498064,-0.0513085722923279,-0.0410654619336128,-0.0223418716341257,-0.0315176919102669
109,-0.0103973317891359,-0.00704118981957436,-0.0508401654660702,-0.0431136451661587,-0.0236653797328472,-0.0350755527615547
110,-0.013499447144568,-0.00637473026290536,-0.0495395623147488,-0.0437634997069836,-0.0242636669427156,-0.0352547131478786
111,-0.0183528754860163,-0.00592446187511086,-0.048310611397028,-0.0437041483819485,-0.0245661847293377,-0.0338943339884281
112,-0.0240043438971043,-0.00706821167841554,-0.0479568317532539,-0.0436623841524124,-0.0254294686019421,-0.0336437486112118
113,-0.0285255573689938,-0.00867616292089224,-0.0486603677272797,-0.0438860021531582,-0.0282161049544811,-0.0339228548109531
114,-0.0321893133223057,-0.0109628001227975,-0.0511298961937428,-0.0455822013318539,-0.0344467759132385,-0.0349362455308437
115,-0.0351758264005184,-0.0141256004571915,-0.0540939942002296,-0.0484347380697727,-0.0428728684782982,-0.0374719500541687
116,-0.035513237118721,-0.0159018151462078,-0.0542780309915543,-0.0503915660083294,-0.0481096692383289,-0.0407585874199867
117,-0.0323858968913555,-0.0143367014825344,-0.0509509444236755,-0.0500673688948154,-0.046469684690237,-0.0429830141365528
118,-0.0278058722615242,-0.0105131901800632,-0.0466521866619587,-0.0472008921205997,-0.0405532866716385,-0.0430115461349487
119,-0.0239586587995291,-0.00721134478226304,-0.0431896783411503,-0.0427647307515144,-0.0342680066823959,-0.0420590862631798
120,-0.0217580255120993,-0.00600675167515874,-0.0409690104424953,-0.03895628079772,-0.0294560957700014,-0.0424102656543255
121,-0.0207773577421904,-0.00588021846488118,-0.0400686226785183,-0.0371712259948254,-0.0271489452570677,-0.0440981835126877
122,-0.020722284913063,-0.00532946363091469,-0.0401307605206966,-0.0369567424058914,-0.0274692829698324,-0.0450270250439644
123,-0.0221256576478481,-0.004602269269526,-0.0411905758082867,-0.0381423979997635,-0.0294574126601219,-0.0451122745871544
124,-0.0233930982649326,-0.00324700074270368,-0.042371578514576,-0.03979317471385,-0.0312640331685543,-0.0448293164372444
125,-0.0218281541019678,4.18173294747248E-05,-0.0411970056593418,-0.0390794388949871,-0.0313476286828518,-0.0427424311637878
126,-0.0184102263301611,0.00358100398443639,-0.0372840650379658,-0.0359383337199688,-0.0300001129508018,-0.040057547390461
127,-0.0169649142771959,0.00390119897201657,-0.0339351184666157,-0.0341701880097389,-0.0292623452842236,-0.0404023937880993
128,-0.0186090972274542,0.00120284757576883,-0.0337887182831764,-0.0357275605201721,-0.0306553300470114,-0.0432455465197563
129,-0.0209517069160938,-0.000748519087210298,-0.0357170514762402,-0.0383695513010025,-0.0336856245994568,-0.0447209589183331
130,-0.0222866181284189,-0.000437337497714907,-0.0379569679498672,-0.039745457470417,-0.0375112444162369,-0.0440273433923721
131,-0.0225378572940826,0.000366411142749712,-0.0402270518243313,-0.0399342477321625,-0.0415822565555573,-0.0430173277854919
132,-0.0217762514948845,0.000666844134684652,-0.0421354062855244,-0.0398973152041435,-0.0447989292442799,-0.0420331321656704
133,-0.0204301439225674,0.00105382711626589,-0.0432054735720158,-0.0401748605072498,-0.0462025217711926,-0.0403478629887104
134,-0.0181711781769991,0.00240235566161573,-0.0427810437977314,-0.0402934178709984,-0.0449275001883507,-0.0374747291207314
135,-0.0138383796438575,0.00552283693104982,-0.0400802046060562,-0.0392923504114151,-0.0405538342893124,-0.0330006033182144
136,-0.00875120423734188,0.00937435310333967,-0.0361424125730991,-0.0373605825006962,-0.0353909470140934,-0.0283316299319267
137,-0.00647049909457564,0.0106696514412761,-0.0333417765796185,-0.0358788333833218,-0.033448401838541,-0.0261844843626022
138,-0.00866821967065334,0.00777781894430518,-0.0332122258841991,-0.035850502550602,-0.0366318672895432,-0.0268504656851292
139,-0.0131501164287329,0.00310319242998958,-0.0351096503436565,-0.0371290892362595,-0.0426662787795067,-0.0292549580335617
140,-0.0164095032960176,-6.57479540677741E-06,-0.0368087477982044,-0.0392738319933414,-0.0469684526324272,-0.0335354134440422
141,-0.017303703352809,-0.00104512018151581,-0.0377699993550777,-0.0426746197044849,-0.0476029552519321,-0.0401382297277451
142,-0.0172064807265997,-0.00127906759735197,-0.0396835952997208,-0.0477038249373436,-0.0467712543904781,-0.0477725006639957
143,-0.0176026280969381,-0.000996037153527141,-0.0429078005254269,-0.0526464954018593,-0.0473166964948177,-0.0514250211417675
144,-0.0180426128208637,0.000145865109516308,-0.0452106706798077,-0.0548302009701729,-0.0489686615765095,-0.0472808033227921
145,-0.016752514988184,0.00227745249867439,-0.0447655618190765,-0.0536978021264076,-0.0491514578461647,-0.0396828837692738
146,-0.0133128091692925,0.00583921046927571,-0.0425827316939831,-0.0509927235543728,-0.0469138771295547,-0.0355561785399914
147,-0.00886956509202719,0.0118888467550278,-0.0402406044304371,-0.0481503680348396,-0.0427892506122589,-0.0351408533751965
148,-0.0044227191247046,0.0205808151513338,-0.0374916829168797,-0.0447174794971943,-0.037242341786623,-0.0343306325376034
149,-0.00140888278838247,0.0297246854752302,-0.0340866334736347,-0.040029551833868,-0.0321939066052437,-0.0319084227085114
150,-0.00158684689085931,0.0365667417645454,-0.031247440725565,-0.0352422297000885,-0.0303579960018396,-0.0297328047454357
151,-0.00429922249168158,0.0406110286712646,-0.0297483708709478,-0.0322868302464485,-0.0315601080656052,-0.0287089683115482
152,-0.00710721593350172,0.0435360260307789,-0.0286960825324059,-0.0316197946667671,-0.0330011323094368,-0.0280203316360712
153,-0.00910275988280773,0.045953955501318,-0.027683611959219,-0.0327774621546268,-0.0331369303166866,-0.0277195069938898
154,-0.0109987026080489,0.0465508364140987,-0.0276224799454212,-0.0352743454277515,-0.032934382557869,-0.0288345068693161
155,-0.0137306684628129,0.0445554852485657,-0.0294550526887178,-0.0383537076413631,-0.034267745912075,-0.0313472896814346
156,-0.0170560162514448,0.0410642214119434,-0.032843604683876,-0.0407509356737137,-0.0370791219174862,-0.033903144299984
157,-0.0188354253768921,0.0383371226489544,-0.0350087285041809,-0.0407292395830154,-0.0388768240809441,-0.0347143672406673
158,-0.0183556322008371,0.0370958633720875,-0.0341908000409603,-0.0387508273124695,-0.0388876311480999,-0.0336788706481457
159,-0.0177004188299179,0.0356746129691601,-0.0327412113547325,-0.0376883298158646,-0.038534089922905,-0.0329756587743759
160,-0.0174005962908268,0.0340503081679344,-0.0321647152304649,-0.037684690207243,-0.0371746905148029,-0.0338119752705097
161,-0.0167848281562328,0.0333161540329456,-0.0318247489631176,-0.0370981730520725,-0.0344450399279594,-0.0360815078020096
162,-0.0166111923754215,0.0325665287673473,-0.0323371030390263,-0.0367299169301987,-0.0327621623873711,-0.0397294387221336
163,-0.0167953614145517,0.0314438305795193,-0.0337484925985336,-0.0375308729708195,-0.0327377244830132,-0.04338788241148
164,-0.0163263995200396,0.03037378937006,-0.0350552685558796,-0.0391085259616375,-0.0331535525619984,-0.0456215515732765
165,-0.0141549790278077,0.0298286322504282,-0.0352471359074116,-0.040056187659502,-0.0325469225645065,-0.0459267720580101
166,-0.0099961906671524,0.0306686963886023,-0.0338439010083675,-0.0393560118973255,-0.0293655227869749,-0.0448875054717064
167,-0.00617113895714283,0.0321294814348221,-0.0322561636567116,-0.0383104085922241,-0.024899635463953,-0.0441606752574444
168,-0.00503444438800216,0.0326427407562733,-0.0321963876485825,-0.0382144786417484,-0.0218051541596651,-0.0438739396631718
169,-0.00544152222573757,0.032895389944315,-0.0329706594347954,-0.037944383919239,-0.0197573099285364,-0.0416614450514317
170,-0.00548927485942841,0.0337429419159889,-0.0328421704471111,-0.0362970605492592,-0.0173918046057224,-0.0367186516523361
171,-0.0056058713234961,0.0333300940692425,-0.0319978967308998,-0.0343879163265228,-0.0155448857694864,-0.0323180258274078
172,-0.00622209021821618,0.0298168063163757,-0.0316139422357082,-0.0334155634045601,-0.0153081612661481,-0.0307797212153673
173,-0.00650112750008702,0.0241246186196804,-0.0316929332911968,-0.0329845510423183,-0.0161141585558653,-0.0305372886359692
174,-0.00484661571681499,0.0193320941179991,-0.030791474506259,-0.0318298600614071,-0.0160022601485252,-0.0287813264876604
175,-0.000728505605366081,0.0170830115675926,-0.0285031907260418,-0.029841611161828,-0.0141548151150346,-0.024797922000289
176,0.00333383516408503,0.0158204510807991,-0.0269562937319279,-0.0289768390357494,-0.0128511348739266,-0.0210728794336319
177,0.00453145243227482,0.0134847313165665,-0.028083523735404,-0.0305287223309278,-0.0145299769937992,-0.0200298801064491
178,0.00310035655274987,0.00981906428933144,-0.0313306264579296,-0.0334875732660294,-0.0184114780277014,-0.021342633292079
179,0.000867140362970531,0.00590392434969544,-0.035046823322773,-0.0363385826349258,-0.0220991540700197,-0.0231536645442247
180,-0.00144500646274537,0.00226420629769564,-0.03880924731493,-0.0389214716851711,-0.0247539915144444,-0.0242234040051699
181,-0.00350279128178954,-0.00134701014030725,-0.0426630601286888,-0.0413116253912449,-0.0266428422182798,-0.0248100310564041
182,-0.00424678763374686,-0.00448536965996027,-0.0452125109732151,-0.0423804670572281,-0.02754195779562,-0.0254745874553919
183,-0.00256460555829108,-0.00540698133409023,-0.0446864254772663,-0.0409995466470718,-0.0270335748791695,-0.0253080576658249
184,0.00221228133887053,-0.00282724131830037,-0.040864247828722,-0.0374642908573151,-0.0246182214468718,-0.023072199895978
185,0.00906467437744141,0.00152200821321458,-0.0354363806545734,-0.033337090164423,-0.0205972474068403,-0.0196924973279238
186,0.014624192379415,0.00363843329250813,-0.0313364863395691,-0.0307099986821413,-0.0179531201720238,-0.0179681591689587
187,0.017304377630353,0.0020654599647969,-0.0294291842728853,-0.0299666002392769,-0.0179304778575897,-0.019231241196394
188,0.019431559368968,-0.000565127818845212,-0.0271695181727409,-0.0291027911007404,-0.0170735418796539,-0.0212469976395369
189,0.0226405840367079,-0.00229358510114253,-0.0230012126266956,-0.0269201677292585,-0.0137955928221345,-0.0208292249590158
190,0.026391264051199,-0.00369041925296187,-0.0179551262408495,-0.0235309097915888,-0.0101203471422195,-0.0176456179469824
191,0.0289938226342201,-0.00606201868504286,-0.0140674756839871,-0.0200682934373617,-0.00835742522031069,-0.0153033742681146
192,0.0278916843235493,-0.00977710168808699,-0.0134362950921059,-0.0184458438307047,-0.0105995461344719,-0.0170150995254517
193,0.0231936387717724,-0.0127950059249997,-0.0155917955562472,-0.018563024699688,-0.016079343855381,-0.0209892392158508
194,0.0175014119595289,-0.013595649972558,-0.0181411802768707,-0.019302012398839,-0.0211839638650417,-0.0246794950217009
195,0.0130656389519572,-0.0124862911179662,-0.0190255120396614,-0.019998162984848,-0.0228540468961,-0.0276880860328674
196,0.0116646885871887,-0.00914955046027899,-0.0168698076158762,-0.0196884404867888,-0.0198241770267487,-0.0291876792907715
197,0.0119889937341213,-0.00492958026006818,-0.0137269478291273,-0.0190458334982395,-0.0151679096743464,-0.0294207483530045
198,0.0117959147319198,-0.00165518873836845,-0.0123273143544793,-0.0187544077634811,-0.0128633892163634,-0.0285512283444405
199,0.0125563703477383,0.00174276914913207,-0.0114743802696466,-0.0172562170773745,-0.0117263188585639,-0.0248616617172956
200,0.0145833306014538,0.00469330558553338,-0.0106556946411729,-0.0149431424215436,-0.0105806114152074,-0.0192032810300589
201,0.014960658736527,0.00391748687252402,-0.0115585057064891,-0.0143069857731462,-0.0113342478871346,-0.0150072611868382
202,0.0128105711191893,-0.000938678917009383,-0.0137935895472765,-0.0155540062114596,-0.0143082896247506,-0.0136849517002702
203,0.00965245347470045,-0.00677458755671978,-0.0157481953501701,-0.0171446911990643,-0.0184579528868198,-0.0142273735255003
204,0.00704233068972826,-0.0107737295329571,-0.0164062269032002,-0.018230864778161,-0.0224584639072418,-0.0151606295257807
205,0.00600347435101867,-0.0118984328582883,-0.0149754704907537,-0.0184497386217117,-0.0246841851621866,-0.0154773211106658
206,0.00630887551233172,-0.0109402649104595,-0.0122015113011003,-0.0176201090216637,-0.0252396184951067,-0.0155766503885388
207,0.00701414700597525,-0.009361800737679,-0.010152542963624,-0.0158968940377235,-0.0250941663980484,-0.0163389183580875
208,0.00717018265277147,-0.00842770934104919,-0.0105338674038649,-0.0141510795801878,-0.0247211288660765,-0.0178159642964602
209,0.00671293074265122,-0.00861823838204145,-0.0132657121866941,-0.0137158362194896,-0.0238453354686499,-0.0201649069786072
210,0.0062478194013238,-0.00942067429423332,-0.0165775623172522,-0.0153555739670992,-0.0221756063401699,-0.0237136650830507
211,0.00522989360615611,-0.0106491670012474,-0.0197251196950674,-0.0189838483929634,-0.0211459379643202,-0.0277741868048906
212,0.00397603865712881,-0.0113853011280298,-0.0224752463400364,-0.0231028385460377,-0.0213398449122906,-0.031171940267086
213,0.00427649589255452,-0.00967867113649845,-0.023970564827323,-0.0258873645216227,-0.0215939320623875,-0.0337806530296803
214,0.00580881396308541,-0.00549203064292669,-0.0246423985809088,-0.02735261246562,-0.0218835920095444,-0.036168560385704
215,0.00686965184286237,-0.00100988277699798,-0.0255168583244085,-0.0285938791930676,-0.0225137528032064,-0.0383897982537746
216,0.00721074966713786,0.00193592731375247,-0.0266459733247757,-0.0299588069319725,-0.0236604064702988,-0.0396928004920483
217,0.00812972895801067,0.0034062450286001,-0.0270953346043825,-0.0307496748864651,-0.0250128973275423,-0.0393252596259117
218,0.0104269264265895,0.00372389773838222,-0.0261235535144806,-0.0306716877967119,-0.025624081492424,-0.0378813371062279
219,0.0130596598610282,0.00231864815577865,-0.0242927111685276,-0.0303627271205187,-0.0258060749620199,-0.0368240475654602
220,0.014586191624403,-0.00117902108468115,-0.0229754783213139,-0.0305056665092707,-0.0266853291541338,-0.037620771676302
221,0.0144639909267426,-0.00620917649939656,-0.0237054396420717,-0.0316194333136082,-0.0293158851563931,-0.0411898382008076
222,0.0136793572455645,-0.0105410860851407,-0.0262460187077522,-0.033274482935667,-0.033587533980608,-0.0458416156470776
223,0.0135810831561685,-0.0123137440532446,-0.0284594986587763,-0.0342757105827332,-0.0381571762263775,-0.0484273135662079
224,0.0130609814077616,-0.013371822424233,-0.0294962450861931,-0.0349196717143059,-0.0427457429468632,-0.0489997863769531
225,0.0104873180389404,-0.0164352934807539,-0.0299002323299646,-0.0361783169209957,-0.0474023632705212,-0.0499228648841381
226,0.0068782102316618,-0.0208405815064907,-0.0296704582870007,-0.0370753966271877,-0.0508336462080479,-0.0512204617261887
227,0.00385357299819589,-0.0248374231159687,-0.0284323077648878,-0.0365575924515724,-0.0517669729888439,-0.0519541129469872
228,0.00189948710612953,-0.0277101285755634,-0.0256226323544979,-0.0349998585879803,-0.0501809120178223,-0.0520341992378235
229,0.000978788360953331,-0.0290131252259016,-0.0214604958891869,-0.0330310091376305,-0.0472963154315948,-0.0510744787752628
230,0.00105064839590341,-0.0290800295770168,-0.0173605866730213,-0.031472135335207,-0.0441572703421116,-0.0491699539124966
231,0.00199552369304001,-0.0288706235587597,-0.0145469391718507,-0.0311196818947792,-0.0412587858736515,-0.0469891838729382
232,0.00319152744486928,-0.0291467010974884,-0.0138203855603933,-0.0321476124227047,-0.0397473350167274,-0.0449986271560192
233,0.0039370353333652,-0.0300958510488272,-0.0149322738870978,-0.0341046527028084,-0.0405581668019295,-0.0437680371105671
234,0.00422247033566237,-0.0308503117412329,-0.0160266272723675,-0.0359698347747326,-0.0426872298121452,-0.0432431660592556
235,0.00422349479049444,-0.0304808784276247,-0.0158074703067541,-0.0366819351911545,-0.044331032782793,-0.0419801697134972
236,0.00353664276190102,-0.0300352703779936,-0.0149407563731074,-0.0361170805990696,-0.045145396143198,-0.0397184863686562
237,0.00275448011234403,-0.0310608651489019,-0.0136881805956364,-0.0345059633255005,-0.0449641793966293,-0.0377051383256912
238,0.00379937211982906,-0.0328426025807858,-0.0115049574524164,-0.031940545886755,-0.0432524941861629,-0.0358015149831772
239,0.0064284116961062,-0.0346792563796043,-0.00974368769675493,-0.0297697503119707,-0.0413554832339287,-0.0342049486935139
240,0.00834476295858622,-0.0372035726904869,-0.00967242475599051,-0.0295396726578474,-0.0405572652816772,-0.0342232100665569
241,0.00823279563337564,-0.040163267403841,-0.0100672915577888,-0.0310639850795269,-0.040319349616766,-0.0356847271323204
242,0.00604674499481916,-0.042210016399622,-0.00960100907832384,-0.0330508537590504,-0.0408137887716293,-0.0369559340178967
243,0.00211928831413388,-0.0424561947584152,-0.00835683383047581,-0.0346713624894619,-0.0428673252463341,-0.0371945053339005
244,-0.00316230650059879,-0.0412944220006466,-0.00673901662230492,-0.03612906858325,-0.0456047244369984,-0.0375063866376877
245,-0.00801201816648245,-0.0385135412216187,-0.00421330751851201,-0.0365647077560425,-0.0464793220162392,-0.0377106517553329
246,-0.010684872046113,-0.0335411317646503,-0.000798741762991995,-0.0351232849061489,-0.0445405282080173,-0.0365880466997623
247,-0.0114546613767743,-0.0268721599131823,0.00229799444787204,-0.0329059809446335,-0.0412593968212605,-0.0348786786198616
248,-0.0110749620944262,-0.0197655726224184,0.00433287117630243,-0.0309866592288017,-0.0380695872008801,-0.033971294760704
249,-0.00969966966658831,-0.014000391587615,0.00528938602656126,-0.0294664371758699,-0.0352759063243866,-0.034375037997961
250,-0.00733269937336445,-0.0102671887725592,0.00541012967005372,-0.0281975865364075,-0.0332268886268139,-0.0351046286523342
251,-0.00577179994434118,-0.00954306963831186,0.00388949061743915,-0.0285992510616779,-0.0339859426021576,-0.03611820936203
252,-0.00684354966506362,-0.0131541201844811,0.000281277345493436,-0.0316352620720863,-0.0378498286008835,-0.0383812487125397
253,-0.00875847786664963,-0.0185818932950497,-0.00263436138629913,-0.0342090725898743,-0.0406132936477661,-0.0403529815375805
254,-0.00871416553854942,-0.0212240274995565,-0.00149332755245268,-0.0332705266773701,-0.0386385694146156,-0.0399794094264507
255,-0.00762161798775196,-0.0198823809623718,0.002973563503474,-0.0300036445260048,-0.0336918085813522,-0.0376108810305595
256,-0.008291220292449,-0.0162767916917801,0.00712169287726283,-0.0266602281481028,-0.0299310348927975,-0.034253790974617
257,-0.0100598046556115,-0.0113120088353753,0.00947488378733397,-0.0233758054673672,-0.0277795102447271,-0.0298192948102951
258,-0.0116146979853511,-0.00618987251073122,0.0100966980680823,-0.0205242056399584,-0.0262886248528957,-0.0253122318536043
259,-0.0139672234654427,-0.00301800086162984,0.0087546743452549,-0.0195957198739052,-0.0261998008936644,-0.0228925179690123
260,-0.0163215640932322,-0.00132311356719583,0.00687995040789247,-0.0201236642897129,-0.0271765608340502,-0.0221794154495001
261,-0.0173654202371836,8.78062564879656E-05,0.00562508357688785,-0.0212329477071762,-0.028919754549861,-0.0219274647533894
262,-0.0171637032181025,0.00042007036972791,0.00497328210622072,-0.0232226699590683,-0.0311101358383894,-0.0227329544723034
263,-0.0161045007407665,-0.00152495689690113,0.0049933516420424,-0.0259770955890417,-0.0327472351491451,-0.0258014239370823
264,-0.0158050768077374,-0.00631212815642357,0.00475311931222677,-0.0291624069213867,-0.0342241637408733,-0.0314255952835083
265,-0.0166010968387127,-0.0122205000370741,0.00404220167547464,-0.0315769128501415,-0.0352886356413364,-0.0371847301721573
266,-0.0182328131049871,-0.0177743788808584,0.00296445214189589,-0.0330569334328175,-0.0360455773770809,-0.0411365479230881
267,-0.0214256644248962,-0.0234267935156822,0.00105875870212913,-0.0349864810705185,-0.0382710583508015,-0.044255506247282
268,-0.023978753015399,-0.0273159146308899,0.000141295284265652,-0.0358700156211853,-0.0409606471657753,-0.0458284541964531
269,-0.0232271924614906,-0.0280751045793295,0.00164610310457647,-0.0339691117405891,-0.0416043810546398,-0.0446822829544544
270,-0.0204412173479795,-0.0277304966002703,0.00385678093880415,-0.0309723429381847,-0.0406313203275204,-0.0423866137862206
271,-0.0179981105029583,-0.0274618305265903,0.0049875620752573,-0.0286244992166758,-0.0399984009563923,-0.0402451306581497
272,-0.0167794600129128,-0.0276712216436863,0.00457562459632754,-0.0278376340866089,-0.0402680449187756,-0.0394848696887493
273,-0.0168150011450052,-0.0292717572301626,0.00291610020212829,-0.0293516144156456,-0.0408106334507465,-0.0414460897445679
274,-0.0173704698681831,-0.0314800478518009,0.00104492006357759,-0.0318101160228252,-0.0413229875266552,-0.0445624180138111
275,-0.0171567555516958,-0.0320536307990551,-9.62424383033067E-05,-0.0326755940914154,-0.0417711921036243,-0.046230860054493
276,-0.0155534539371729,-0.0296561550348997,-0.000399763899622485,-0.0308161322027445,-0.0413516759872437,-0.0458331108093262
277,-0.0127148600295186,-0.0245417766273022,9.07456487766467E-05,-0.0265217255800962,-0.0388638824224472,-0.0434829220175743
278,-0.0093153789639473,-0.0177262835204601,0.00113714335020632,-0.0209321677684784,-0.0348555520176888,-0.0388268083333969
279,-0.00675051100552082,-0.0105679174885154,0.00136880553327501,-0.0158267077058554,-0.0316060744225979,-0.0324252285063267
280,-0.00673500401899219,-0.0053733098320663,-0.00100420590024441,-0.0132318595424294,-0.0306687578558922,-0.0273027960211039
281,-0.00974013190716505,-0.00337810418568552,-0.00622593285515904,-0.0140384640544653,-0.0319980718195438,-0.0261568482965231
282,-0.0138248968869448,-0.00219836365431547,-0.0121565433219075,-0.0167237669229507,-0.0341284163296223,-0.0277106463909149
283,-0.0163902379572392,0.00114904448855668,-0.0161592215299606,-0.0191175546497107,-0.0349099710583687,-0.0291683282703161
284,-0.0165178049355745,0.00643561268225312,-0.017374150454998,-0.0204039998352528,-0.0331585854291916,-0.029508113861084
285,-0.0151270302012563,0.0116487788036466,-0.0168240014463663,-0.0205579232424498,-0.0301041547209024,-0.0283033140003681
286,-0.0139769231900573,0.0152594791725278,-0.0164023749530315,-0.0202385541051626,-0.0281768348067999,-0.0256448816508055
287,-0.0139769110828638,0.0168870538473129,-0.0170094445347786,-0.0203122086822987,-0.0279302280396223,-0.0231046807020903
288,-0.0145584270358086,0.0176649391651154,-0.0179159436374903,-0.0206589493900537,-0.0280930083245039,-0.0210676360875368
289,-0.0148913785815239,0.0184481292963028,-0.0182259604334831,-0.0207030568271875,-0.0272511225193739,-0.0187607053667307
290,-0.0148798562586308,0.0190911777317524,-0.0178119279444218,-0.0198744367808104,-0.0251192767173052,-0.0165679957717657
291,-0.0154974265024066,0.0192489512264729,-0.0177629739046097,-0.0185738280415535,-0.0235516335815191,-0.0154238613322377
292,-0.0168744679540396,0.0190719626843929,-0.01876007206738,-0.0176839642226696,-0.0239231865853071,-0.0154148656874895
293,-0.0179065316915512,0.0191558077931404,-0.0200324524194002,-0.0172183495014906,-0.0253135915845633,-0.0159858893603086
294,-0.0181235931813717,0.0198959633708,-0.0208271220326424,-0.0168509315699339,-0.026104811578989,-0.016707468777895
295,-0.017519973218441,0.0216432735323906,-0.0210582595318556,-0.0164687186479568,-0.0253093969076872,-0.0175335574895144
296,-0.0167331881821156,0.024085771292448,-0.0213367193937302,-0.0166439078748226,-0.023416992276907,-0.018164373934269
297,-0.0169941429048777,0.0263688936829567,-0.0224065352231264,-0.0178614277392626,-0.021741321310401,-0.0173653122037649
298,-0.0180311053991318,0.0280973631888628,-0.0240449216216803,-0.0194702763110399,-0.0203753206878901,-0.0153832556679845
299,-0.018540671095252,0.0284610576927662,-0.0252466611564159,-0.0207453854382038,-0.0186180006712675,-0.0149311227723956
300,-0.0191202610731125,0.0253016278147697,-0.0257803872227669,-0.0221482757478952,-0.0172809697687626,-0.0176927801221609
301,-0.0194483976811171,0.0191202666610479,-0.0250149052590132,-0.0231231264770031,-0.016035670414567,-0.0206541996449232
302,-0.0174526665359735,0.0141370398923755,-0.0220031775534153,-0.0217782352119684,-0.0130625832825899,-0.0190549530088902
303,-0.0140581261366606,0.0129033857956529,-0.0179843083024025,-0.0184375233948231,-0.00926663167774677,-0.0124746272340417
304,-0.0120468288660049,0.0146080199629068,-0.0149462828412652,-0.0156547799706459,-0.00686297239735723,-0.00534828053787351
305,-0.0116029214113951,0.0174410697072744,-0.0130628105252981,-0.0144778732210398,-0.0053581977263093,-0.00270678801462054
306,-0.0107835466042161,0.0207667145878077,-0.011292434297502,-0.0130544574931264,-0.00237966072745621,-0.00450017536059022
307,-0.00961802341043949,0.0243432335555553,-0.00992670189589262,-0.0105403373017907,0.00175897346343845,-0.00644481834024191
308,-0.00987213384360075,0.0275182723999023,-0.00999361928552389,-0.00846990011632442,0.00431657396256924,-0.00581731041893363
309,-0.0115005420520902,0.0308995731174946,-0.0108377365395427,-0.0074582970701158,0.00440698582679033,-0.00284756114706397
310,-0.0127720516175032,0.0352471023797989,-0.0114766992628574,-0.00724025955423713,0.00290179485455155,9.12523246370256E-05
311,-0.0131284911185503,0.039334274828434,-0.0125236194580793,-0.00804112106561661,2.60951383097563E-05,0.000364331062883139
312,-0.0124949896708131,0.0427534431219101,-0.0134138949215412,-0.0086332093924284,-0.0029039909131825,-0.00120909651741385
313,-0.0108283003792167,0.0461840033531189,-0.0125247286632657,-0.0074890311807394,-0.00425261305645108,-0.00162465847097337
314,-0.00978870876133442,0.0484051518142223,-0.010786927305162,-0.00577439600601792,-0.00494767352938652,-0.000105681931017898
315,-0.0104528972879052,0.0482035353779793,-0.0100629795342684,-0.00524993566796184,-0.00587416952475905,0.00158295559231192
316,-0.0111322337761521,0.0470425002276897,-0.0100373104214668,-0.00529573485255241,-0.00586439156904817,0.00251522636972368
317,-0.00960582215338945,0.0481634363532066,-0.00884511321783066,-0.00366306910291314,-0.00370474648661911,0.00436920206993818
318,-0.0071203988045454,0.051507081836462,-0.00706242304295301,-0.000998453702777624,-0.00146670255344361,0.00655608950182796
319,-0.00701267039403319,0.053050871938467,-0.00767687195912004,-0.000733918161131442,-0.00235656904987991,0.00489890715107322
320,-0.00946087669581175,0.0517232492566109,-0.0110240671783686,-0.00343151856213808,-0.00543827936053276,-0.00120672816410661
321,-0.0122283091768622,0.0491587109863758,-0.0148166380822659,-0.0072377142496407,-0.00755508756265044,-0.00760368211194873
322,-0.0146296685561538,0.0452104657888412,-0.0178194418549538,-0.0110267689451575,-0.00744125805795193,-0.0108502954244614
323,-0.0172168035060167,0.0400175750255585,-0.0198431108146906,-0.0139412451535463,-0.0057927411980927,-0.0110076023265719
324,-0.0208329986780882,0.0345694459974766,-0.0210085697472095,-0.0164842493832111,-0.0047168517485261,-0.0115301152691245
325,-0.0267663989216089,0.0289043374359608,-0.0224484875798225,-0.02055474370718,-0.0066348472610116,-0.0153360962867737
326,-0.034846480935812,0.0229765512049198,-0.0255136024206877,-0.0261437445878983,-0.0116261690855026,-0.0214751809835434
327,-0.0423249863088131,0.0172114856541157,-0.0294811930507421,-0.0308507345616817,-0.0167384184896946,-0.0275951568037272
328,-0.0475164987146854,0.0117901917546988,-0.0328409597277641,-0.0331865288317204,-0.020183403044939,-0.0325203351676464
329,-0.0514890365302563,0.00646696472540498,-0.0357604287564754,-0.0338264293968678,-0.0226288195699453,-0.0362160354852676
330,-0.0541709288954735,0.00219817063771188,-0.0378042198717594,-0.0328569374978542,-0.0234917942434549,-0.0386399924755096
331,-0.0545634999871254,0.000902724859770387,-0.0378572344779968,-0.0297582801431417,-0.022346843034029,-0.0391329042613506
332,-0.0531024672091007,0.00221723597496748,-0.0362895578145981,-0.025726018473506,-0.0205926466733217,-0.038435522466898
333,-0.0513196885585785,0.00334941549226642,-0.0347888320684433,-0.023260610178113,-0.0197368506342173,-0.0385869145393372
334,-0.0511341094970703,0.00266344263218343,-0.0350311174988747,-0.02341103926301,-0.0203856807202101,-0.0396228544414043
335,-0.053503692150116,0.00106330262497067,-0.036658987402916,-0.0247785001993179,-0.0216981116682291,-0.0406321585178375
336,-0.0572746880352497,0.000880197796504945,-0.0374852381646633,-0.0256166532635689,-0.022315239533782,-0.0414728857576847
337,-0.059394046664238,0.00404487131163478,-0.0355114974081516,-0.0249456651508808,-0.0209052450954914,-0.0410940647125244
338,-0.0580251328647137,0.00900473445653915,-0.0310322176665068,-0.023618696257472,-0.0172834526747465,-0.0390170775353909
339,-0.0542544908821583,0.0121886460110545,-0.0261598713696003,-0.0234877355396748,-0.0128863509744406,-0.0370363332331181
340,-0.0496319755911827,0.0134393023326993,-0.0220843814313412,-0.0240157581865788,-0.00877593550831079,-0.03585135191679
341,-0.0443901121616364,0.0155023634433746,-0.0185334999114275,-0.0234502628445625,-0.00527600897476077,-0.0343986675143242
342,-0.0378676913678646,0.0195055697113276,-0.0146195888519287,-0.0216195043176413,-0.00217165541835129,-0.0329938568174839
343,-0.0307162292301655,0.0238577481359243,-0.0101308710873127,-0.0192697886377573,0.00101518863812089,-0.033131331205368
344,-0.0250513050705194,0.0270552728325129,-0.0058745751157403,-0.0167120061814785,0.00403806334361434,-0.0345332324504852
345,-0.0213741809129715,0.029806062579155,-0.00236492813564837,-0.013563365675509,0.00597856286913157,-0.0341959856450558
346,-0.0190063025802374,0.0325516797602177,-0.000110692722955719,-0.00980051700025797,0.00518224062398076,-0.030540419742465
347,-0.0188082288950682,0.0331533998250961,-0.00074468448292464,-0.00682837143540382,0.000588842842262238,-0.0265011079609394
348,-0.0211245659738779,0.0296709556132555,-0.00489709665998816,-0.00633911602199078,-0.00547342794016004,-0.0255255475640297
349,-0.0234824065119028,0.0236711259931326,-0.0100411586463451,-0.00806890986859798,-0.00964815262705088,-0.0267145317047834
350,-0.0234631393104792,0.0187099166214466,-0.013351708650589,-0.0102598760277033,-0.0114771332591772,-0.0268550235778093
351,-0.0215510334819555,0.0164816677570343,-0.0146846156567335,-0.0120137482881546,-0.0123322531580925,-0.0260197687894106
352,-0.0193427931517363,0.0163826048374176,-0.015153287909925,-0.0130989803001285,-0.0128356833010912,-0.0265660900622606
353,-0.016917435452342,0.0181628819555044,-0.0149601362645626,-0.0129763511940837,-0.0121538499370217,-0.0279434863477945
354,-0.0143370879814029,0.0214107278734446,-0.0136795230209827,-0.0120447250083089,-0.0101134423166513,-0.0279270242899656
355,-0.0134862419217825,0.0229885950684547,-0.0117915971204638,-0.0120690762996674,-0.00843032076954842,-0.027291651815176
356,-0.0152974128723145,0.021016888320446,-0.00992611702531576,-0.0133918933570385,-0.00832031387835741,-0.0274202395230532
357,-0.0177550483494997,0.018763892352581,-0.0074468138627708,-0.0140133490785956,-0.00906350091099739,-0.026623772457242
358,-0.0187405273318291,0.0193076524883509,-0.00381348421797156,-0.0126921655610204,-0.00925101898610592,-0.0239805970340967
359,-0.0182927623391151,0.0214228294789791,-3.91928870158154E-06,-0.0105779878795147,-0.00827395264059305,-0.0217831060290337
360,-0.017543675377965,0.0227997750043869,0.00229894812218845,-0.00934754312038422,-0.00625847233459353,-0.0217556208372116
361,-0.0173302870243788,0.022370669990778,0.00236768461763859,-0.00956390332430601,-0.00389674678444862,-0.0231319200247526
362,-0.0181469209492207,0.0202762689441442,0.000648840970825404,-0.0106774028390646,-0.00255361921153963,-0.0246105957776308
363,-0.0197295509278774,0.0179923195391893,-0.0021664232481271,-0.0116393668577075,-0.0028642239049077,-0.0257278587669134
364,-0.020970867946744,0.0161992553621531,-0.00532821798697114,-0.0120968539267778,-0.00455788383260369,-0.0268107373267412
365,-0.0208792947232723,0.014163383282721,-0.00745246745646,-0.0117653030902147,-0.00659164693206549,-0.0277788322418928
366,-0.0193551704287529,0.0117806093767285,-0.00744059402495623,-0.0102495728060603,-0.00718605890870094,-0.0276962425559759
367,-0.0171952862292528,0.00925701949745417,-0.0057122097350657,-0.00849885959178209,-0.00579789653420448,-0.0265288911759853
368,-0.0149878477677703,0.00656130257993937,-0.00354229053482413,-0.0078190891072154,-0.00384863279759884,-0.0257075130939484
369,-0.0128669729456306,0.00457683298736811,-0.00166611245367676,-0.00771594094112515,-0.00265514082275331,-0.0259316191077232
370,-0.0114917401224375,0.00444618286564946,-0.000386371946660802,-0.00693661952391267,-0.00259084696881473,-0.025780450552702
371,-0.0121570089831948,0.00562363164499402,-0.000921376573387533,-0.00625453656539321,-0.00465902453288436,-0.0232882536947727
372,-0.015175910666585,0.00685090338811278,-0.00397490849718452,-0.00734159909188747,-0.00889101624488831,-0.0188826806843281
373,-0.0188670977950096,0.00785171613097191,-0.00778715824708343,-0.00963773299008608,-0.0127649139612913,-0.0154920956119895
374,-0.0209168922156096,0.00836704950779676,-0.00972530990839005,-0.0106104295700789,-0.0140890032052994,-0.0142340753227472
375,-0.0198125876486301,0.00826314371079206,-0.00846824981272221,-0.0081100994721055,-0.0121588669717312,-0.0123665491119027
376,-0.016151225194335,0.00768302427604795,-0.00510476715862751,-0.00271958904340863,-0.00760840019211173,-0.0082835927605629
377,-0.0127200689166784,0.00601656688377261,-0.00216285209171474,0.00246815872378647,-0.00288618472404778,-0.00424010679125786
378,-0.0114317694678903,0.00276050437241793,-0.000635859498288482,0.0050470968708396,2.21557693294017E-05,-0.0025228129234165
379,-0.0113038355484605,-0.000914174073841423,0.00079864973668009,0.00515298172831535,0.00158518902026117,-0.0030340610537678
380,-0.0114035177975893,-0.00323180784471333,0.00252330652438104,0.00360509403981268,0.00233238935470581,-0.00548069411888719
381,-0.0131338974460959,-0.00507199997082353,0.00272006238810718,-0.000314930599415675,0.00178539857733995,-0.011353574693203
382,-0.0169897377490997,-0.00756592117249966,0.00110377615783364,-0.00613313028588891,0.000618632417172194,-0.0196208246052265
383,-0.0209985487163067,-0.00839391723275185,-0.000210228754440323,-0.0109068118035793,-4.03202466259245E-05,-0.0253923740237951
384,-0.0238902680575848,-0.00589170353487134,-4.82948235003278E-05,-0.013403513468802,-0.000232520556892268,-0.0265795774757862
385,-0.0262187700718641,-0.00166291324421763,0.000564870657399297,-0.0151022272184491,-0.000620567763689905,-0.0258734468370676
386,-0.0283925961703062,0.00269048917107284,0.00059621111722663,-0.0168430376797915,-0.00156666443217546,-0.025696175172925
387,-0.0297681894153357,0.00690743932500482,0.000269164913333952,-0.0179069228470325,-0.00237459456548095,-0.0254894122481346
388,-0.0296355821192265,0.0100274439901114,-0.000189122903975658,-0.0182692557573318,-0.0016413398552686,-0.0242694448679686
389,-0.0287225358188152,0.00997125636786222,-0.000999227864667773,-0.0193346999585629,0.000563860638067126,-0.0230583716183901
390,-0.0286081898957491,0.00668047042563558,-0.00178132113069296,-0.0213445052504539,0.00237999530509114,-0.0227841418236494
391,-0.0299907084554434,0.00226712319999933,-0.00178752397187054,-0.022703355178237,0.00242984760552645,-0.0226580277085304
392,-0.0321636088192463,-0.00152550113853067,-0.000847328105010092,-0.0226010587066412,0.00175322871655226,-0.0220768172293901
393,-0.0336078107357025,-0.0031193932518363,0.000845432514324784,-0.0211830548942089,0.00307149486616254,-0.0206405781209469
394,-0.0335480868816376,-0.00153953384142369,0.00269348057918251,-0.018718933686614,0.00711818179115653,-0.0178579948842525
395,-0.032216053456068,0.00275427801534534,0.00415727263316512,-0.0158811490982771,0.0115691749379039,-0.0143872629851103
396,-0.0306983627378941,0.0087646609172225,0.00473444163799286,-0.0133574521169066,0.0134487012401223,-0.0109937563538551
397,-0.0306477528065443,0.0148281930014491,0.00333714275620878,-0.01186378672719,0.0113672902807593,-0.00770870037376881
398,-0.0321610346436501,0.0191913489252329,-0.000238972424995154,-0.0115205533802509,0.00668708840385079,-0.0046789450570941
399,-0.0332002677023411,0.022341325879097,-0.00411728816106915,-0.0106825781986117,0.00261368625797331,-0.00140230648685247
400,-0.0325179398059845,0.0253603793680668,-0.00640726462006569,-0.00787074770778418,0.000844976049847901,0.00243362481705844
401,-0.0311621762812138,0.0274127926677465,-0.00729501573368907,-0.0040535288862884,0.00052633712766692,0.00532484613358974
402,-0.0301391445100307,0.0277819465845823,-0.00809391029179096,-0.0015820317203179,0.0010659450199455,0.00592133402824402
403,-0.0294718705117702,0.0267270971089602,-0.00978206656873226,-0.00220839865505695,0.00239395163953304,0.0046004531905055
404,-0.0285910721868277,0.0248656012117863,-0.0118266064673662,-0.00514991767704487,0.00449527893215418,0.00318081234581769
405,-0.0276343878358603,0.0230262409895658,-0.0128695722669363,-0.00795591901987791,0.00722760800272226,0.0029531002510339
406,-0.0282111912965775,0.0217548254877329,-0.0120719326660037,-0.0094486540183425,0.00910797156393528,0.00325507810339332
407,-0.0300900209695101,0.0215613916516304,-0.00847385264933109,-0.00939997006207705,0.00931983906775713,0.00413539726287127
408,-0.0309860110282898,0.0224852468818426,-0.00229764473624527,-0.00772088812664151,0.00880490057170391,0.00699713686481118
409,-0.0297970902174711,0.0238222293555737,0.00395298097282648,-0.00494823278859258,0.00823334790766239,0.0114828553050756
410,-0.0266445148736238,0.0246029533445835,0.00828165002167225,-0.00183826906140894,0.00764712179079652,0.0161433182656765
411,-0.0223581772297621,0.023511178791523,0.0105793131515384,0.000791201542597264,0.00696784630417824,0.0208061076700687
412,-0.0179932303726673,0.0194725133478642,0.0114918136969209,0.00206006015650928,0.00626791687682271,0.0249315593391657
413,-0.0129445437341928,0.013552769087255,0.0123712783679366,0.00239464407786727,0.00680888490751386,0.0266432762145996
414,-0.00706304144114256,0.00790685880929232,0.013660978525877,0.00248379516415298,0.00894503202289343,0.0245490446686745
415,-0.00264418963342905,0.00301547814160585,0.0139823965728283,0.00179294461850077,0.0108121698722243,0.0192174222320318
416,-0.000832520832773298,-0.00118806841783226,0.0128708221018314,0.000555363018065691,0.011572202667594,0.0135294888168573
417,0.00014375640603248,-0.00375809799879789,0.0120036974549294,0.000401585275540128,0.0125159388408065,0.0115441400557756
418,0.00213117408566177,-0.00431398116052151,0.0129924714565277,0.00223892601206899,0.0151097187772393,0.014726678840816
419,0.00385960633866489,-0.00469138892367482,0.0143716549500823,0.00457280548289418,0.0181310586631298,0.0194073859602213
420,0.00274319155141711,-0.00696190167218447,0.0132478941231966,0.00550348730757833,0.0186822339892387,0.0212468151003122
421,-0.000123871548566967,-0.00995396170765162,0.0103076556697488,0.00601525278761983,0.0170107837766409,0.0207447465509176
422,-0.00152351416181773,-0.0111344968900085,0.00873410608619452,0.00826452765613794,0.0157075114548206,0.021175442263484
423,-0.000557045103050768,-0.00992183387279511,0.00993864424526691,0.0124147497117519,0.0161582101136446,0.0241807159036398
424,0.00168913905508816,-0.00715087680146098,0.013258689083159,0.0168691743165255,0.0182894375175238,0.0292708855122328
425,0.00334175350144506,-0.0045549925416708,0.01683652959764,0.019433468580246,0.0206033680588007,0.0343262813985348
426,0.00303380959667265,-0.00334340473636985,0.0190074648708105,0.0191625040024519,0.0212863031774759,0.0367901176214218
427,0.000322783482261002,-0.00372158922255039,0.0185708925127983,0.0164142996072769,0.0188444722443819,0.0347914174199104
428,-0.00393984001129866,-0.00508203869685531,0.0154832527041435,0.0121942572295666,0.0133725740015507,0.0288174711167812
429,-0.00728800147771835,-0.00545525411143899,0.012208241969347,0.00847124680876732,0.00791378412395716,0.0222347714006901
430,-0.00808645039796829,-0.0034044343046844,0.0109813082963228,0.00647379644215107,0.00506659736856818,0.0179289802908897
431,-0.00655351858586073,0.000526641961187124,0.0113839879631996,0.00576169556006789,0.00454097893089056,0.0164476800709963
432,-0.00403017131611705,0.00420816941186786,0.0119189890101552,0.00521888677030802,0.00453300820663571,0.0163601934909821
433,-0.0022664968855679,0.00498480023816228,0.0117041226476431,0.00363174732774496,0.00336544145829976,0.0152552286162972
434,-0.00232587452046573,0.00207034917548299,0.0100986612960696,0.000716731417924166,0.000249701726716012,0.0126726981252432
435,-0.00313302502036095,-0.00188140594400465,0.0079881539568305,-0.00176062434911728,-0.00340853724628687,0.0114292437210679
436,-0.00356187950819731,-0.00530711421743035,0.00638485327363014,-0.00313952378928661,-0.00602690130472183,0.0120338629931211
437,-0.00434482982382178,-0.00987959932535887,0.00395976100116968,-0.00484298542141914,-0.00825903378427029,0.0110077587887645
438,-0.00467213150113821,-0.0151692004874349,0.000821594905573875,-0.00628980295732617,-0.00946284551173449,0.00754083134233952
439,-0.00260843569412827,-0.0186234340071678,-0.000888287846464664,-0.00562824029475451,-0.00782938115298748,0.00437618559226394
440,0.00135526992380619,-0.0198037326335907,-0.000801764661446214,-0.00308048585429788,-0.004282689653337,0.00343963131308556
441,0.00473918532952666,-0.0203399416059256,-0.000505111587699503,-0.000659764744341373,-0.00153226836118847,0.00396247627213597
442,0.00614604586735368,-0.0211553908884525,-0.000822818547021598,0.000591467425692827,-0.000459043716546148,0.00423048762604594
443,0.00644594524055719,-0.0216694381088018,-0.00077950645936653,0.00130141782574356,0.000458581664133817,0.00343032833188772
444,0.00644336501136422,-0.0216262359172106,0.000359632511390373,0.00170189130585641,0.00188959669321775,0.00144903035834432
445,0.00650171376764774,-0.020867858082056,0.00271354871802032,0.00210378342308104,0.00319649209268391,0.000353712326614186
446,0.00701597053557634,-0.0188739355653524,0.00640096282586455,0.00328832259401679,0.00423236517235637,0.00236785341985524
447,0.0071262251585722,-0.0163062401115894,0.0104944780468941,0.00508318329229951,0.00503559038043022,0.006041269749403
448,0.00587496440857649,-0.0142677379772067,0.0137548632919788,0.0070584281347692,0.00583044858649373,0.00955830607563257
449,0.00345301046036184,-0.0131030697375536,0.0155793465673923,0.00871567521244287,0.00661923736333847,0.0129608940333128
450,0.00121881964150816,-0.012507114559412,0.0158553943037987,0.0094778249040246,0.00707526784390211,0.0165777429938316
451,0.000268298987066373,-0.0126470569521189,0.0145740285515785,0.00883926637470722,0.00650760950520635,0.0198301579803228
452,-0.000339844584232196,-0.0149157252162695,0.0116573888808489,0.00606086663901806,0.00390455429442227,0.0210426785051823
453,-0.000803855713456869,-0.0184388160705566,0.0087532652541995,0.00270117889158428,0.00108836439903826,0.0205077957361937
454,-0.000219841211219318,-0.0207280050963163,0.00790028274059296,0.00146149389911443,0.000861943059135228,0.0200719330459833
455,0.000505017815157771,-0.0226575657725334,0.00843742303550243,0.0018866891041398,0.00184286257717758,0.0195582173764706
456,0.000987358507700264,-0.0257510114461184,0.00925687421113253,0.00260556116700172,0.00185678724665195,0.0184571724385023
457,0.00332062155939639,-0.0283085182309151,0.0107237547636032,0.00411183387041092,0.00219538365490735,0.0180242378264666
458,0.00795338861644268,-0.0281047448515892,0.0123638575896621,0.00654129078611732,0.00406626937910914,0.0194586738944054
459,0.0122385267168283,-0.0251210238784552,0.0127703817561269,0.00881852954626083,0.00629067281261086,0.0221763011068106
460,0.0144501598551869,-0.0204853564500809,0.0120342019945383,0.0106117911636829,0.00813778582960367,0.0247034300118685
461,0.0146714681759477,-0.0150895556434989,0.0113000711426139,0.0124795716255903,0.00979866366833448,0.0261260960251093
462,0.0134008638560772,-0.00959967169910669,0.0109954895451665,0.0146208722144365,0.0110576804727316,0.0264884307980537
463,0.012038404121995,-0.00472875125706196,0.0111817978322506,0.0169613715261221,0.0119426352903247,0.0267869103699923
464,0.0128258028998971,-0.00017289470997639,0.0126911578699946,0.0201912131160498,0.0135935908183455,0.0287413261830807
465,0.0159153528511524,0.00441320706158876,0.0150854419916868,0.0239971298724413,0.0161444414407015,0.0324908122420311
466,0.0187971089035273,0.00767649710178375,0.015906810760498,0.0260178241878748,0.0177130736410618,0.0354308821260929
467,0.0199576020240784,0.0089554451406002,0.0144593259319663,0.0254387371242046,0.0175214186310768,0.0357984453439713
468,0.0195683445781469,0.00905696675181389,0.0122620295733213,0.0237149950116873,0.016572592779994,0.0343956388533115
469,0.0177358817309141,0.00829632300883532,0.00991201121360064,0.0215522553771734,0.0154747702181339,0.0324954837560654
470,0.0146388933062553,0.00693198246881366,0.00704631814733148,0.0188977792859077,0.013922642916441,0.0310709550976753
471,0.0114258015528321,0.00656176405027509,0.00452790781855583,0.016393193975091,0.0118770059198141,0.0303603783249855
472,0.0088485162705183,0.00849855784326792,0.00316802854649723,0.0143654961138964,0.00943451840430498,0.0291794184595346
473,0.0070802690461278,0.0127834854647517,0.00272830994799733,0.0131966136395931,0.00683317985385656,0.0275568589568138
474,0.00609237421303988,0.0179499890655279,0.00279351556673646,0.0133220944553614,0.00474133295938373,0.0260595940053463
475,0.00474598165601492,0.0210077855736017,0.0028913535643369,0.0136600155383348,0.00348352151922882,0.0234281811863184
476,0.00327285635285079,0.0212333612143993,0.00353524275124073,0.0135600017383695,0.00380971818231046,0.0202958956360817
477,0.0032962542027235,0.020631855353713,0.00523207848891616,0.0131732420995831,0.00592314451932907,0.0192932710051537
478,0.00526073575019836,0.0207664836198092,0.00790244154632092,0.0121910655871034,0.00897548254579306,0.0209660734981298
479,0.0078956475481391,0.0210502650588751,0.0111377313733101,0.0105645563453436,0.0120143564417958,0.0232184007763863
480,0.00912678334861994,0.0197184067219496,0.0131386648863554,0.00850219465792179,0.0135141154751182,0.024100299924612
481,0.00880836416035891,0.0172176212072372,0.0130218304693699,0.00665369583293796,0.0135229798033834,0.0238820556551218
482,0.00818603578954935,0.0156876426190138,0.0120802083984017,0.00602982798591256,0.0137123158201575,0.0240138173103333
483,0.0074885250069201,0.0154129415750504,0.0111529603600502,0.00677978526800871,0.0143562518060207,0.0251593813300133
484,0.00719998590648174,0.0151006504893303,0.0102855786681175,0.00797959882766008,0.0148527156561613,0.0265485513955355
485,0.00905168056488037,0.0148077625781298,0.010550357401371,0.00934891682118177,0.0154469730332494,0.028058011084795
486,0.0126722613349557,0.014900247566402,0.0124900946393609,0.0110482973977923,0.0159915648400784,0.0294926110655069
487,0.0154347335919738,0.0147467628121376,0.0148987742140889,0.0124508943408728,0.0159561038017273,0.0289458017796278
488,0.0169302672147751,0.0144064016640186,0.0175559017807245,0.0134166870266199,0.0165134835988283,0.0258137360215187
489,0.0194714535027742,0.0144652482122183,0.0214318856596947,0.0148835517466068,0.0194063186645508,0.0223498586565256
490,0.0237167906016111,0.0138432392850518,0.0255961064249277,0.0165661256760359,0.0237822346389294,0.0203996580094099
491,0.0272447019815445,0.0106050753965974,0.0277002844959497,0.0168128609657288,0.0268208011984825,0.0195378754287958
492,0.0285830777138472,0.00574606982991099,0.0276963822543621,0.015735674649477,0.0275356508791447,0.0188097171485424
493,0.0279790703207254,0.00184443406760693,0.0270363669842482,0.0145287197083235,0.0264959186315537,0.0173078253865242
494,0.0261064618825912,-0.000484705524286255,0.0263953562825918,0.0137201081961393,0.0245258659124374,0.0152711691334844
495,0.0238420478999615,-0.00259039015509188,0.026050204411149,0.0131903998553753,0.0226997081190348,0.0137525638565421
496,0.0210634022951126,-0.0062071830034256,0.025601964443922,0.0122251249849796,0.0207000430673361,0.0124187637120485
497,0.0175956599414349,-0.0113076381385326,0.0243588667362928,0.0110357739031315,0.0175786856561899,0.0111504467204213
498,0.0148140816017985,-0.0162141192704439,0.0227284952998161,0.0107670156285167,0.0146329971030355,0.0109212473034859
499,0.013954047113657,-0.0200063344091177,0.0216923579573631,0.0114313447847962,0.014165754429996,0.0117757301777601
500,0.0148996217176318,-0.0221107695251703,0.0216953586786985,0.0120930504053831,0.0157731547951698,0.0134486332535744
501,0.0168741941452026,-0.0217524897307158,0.0224194470793009,0.0122541356831789,0.0170320253819227,0.0159655772149563
502,0.0183399058878422,-0.0196361150592566,0.0228836219757795,0.0119355227798224,0.0167426858097315,0.0186527315527201
503,0.0183443836867809,-0.016845328733325,0.0227945018559694,0.0115256104618311,0.0156853049993515,0.0211137514561415
504,0.0180141441524029,-0.0137283839285374,0.0233839266002178,0.0115967374294996,0.0150808887556195,0.0232521761208773
505,0.018899803981185,-0.0106844082474709,0.0254190023988485,0.0123757682740688,0.0153318615630269,0.0247847381979227
506,0.0201441757380962,-0.00829082261770964,0.0271565951406956,0.0126996105536819,0.0156094487756491,0.025312265381217
507,0.0195750184357166,-0.00659856712445617,0.0264536496251822,0.0112809296697378,0.0148737737908959,0.0243723578751087
508,0.0174718052148819,-0.00425507919862866,0.0240892246365547,0.00944172497838736,0.0135800670832396,0.0226204413920641
509,0.0156617779284716,-0.000725495279766619,0.0222920216619968,0.0091169960796833,0.0125466780737042,0.0211637634783983
510,0.013592192903161,0.00157951284199953,0.0209544207900763,0.00955794006586075,0.0110276406630874,0.0198619663715363
511,0.00976427085697651,0.000710717751644552,0.0187725033611059,0.00924556795507669,0.00883577018976212,0.0182032492011786
512,0.00513948919251561,-0.00238852575421333,0.0160401370376349,0.00824609491974115,0.00716491555795074,0.0164770316332579
513,0.00170786445960402,-0.00572514953091741,0.0137761579826474,0.00750805763527751,0.00594952842220664,0.0161221083253622
514,0.000278620631434023,-0.00826388038694859,0.0124799059703946,0.00760326348245144,0.0048711970448494,0.0188714079558849
515,0.000179693219251931,-0.0104381218552589,0.0116455182433128,0.00819614995270967,0.00432567996904254,0.0242591984570026
516,-0.000477143388707191,-0.0128666236996651,0.00999257806688547,0.00848577171564102,0.00312640168704093,0.0290476605296135
517,-0.00329116266220808,-0.0155860334634781,0.00676072016358376,0.00749256834387779,5.72693679714575E-05,0.0297338012605906
518,-0.00673739658668637,-0.0175912417471409,0.0031453927513212,0.00590824941173196,-0.0023435524199158,0.0264453589916229
519,-0.00701945507898927,-0.0168454814702272,0.00170046812854707,0.00639738934114575,-0.000184459480806254,0.0228358767926693
520,-0.0028678416274488,-0.0123323295265436,0.00337985227815807,0.00988379307091236,0.00660202279686928,0.0215945430099964
521,0.00211724522523582,-0.0063522644340992,0.00564672006294131,0.0134270563721657,0.0131425028666854,0.0208196677267551
522,0.00284541817381978,-0.00305755250155926,0.00499480124562979,0.0132083315402269,0.0141001995652914,0.0162500645965338
523,-0.00148805021308362,-0.00358773721382022,0.00148381595499814,0.00961753167212009,0.00946391094475985,0.0082683265209198
524,-0.00792832765728235,-0.00575642054900527,-0.00206267856992781,0.00591026619076729,0.0032203714363277,0.00101070292294025
525,-0.0145264286547899,-0.00787821412086487,-0.00408989284187555,0.0035328206140548,-0.00193594640586525,-0.00376538932323456
526,-0.0206070076674223,-0.0093557657673955,-0.0044088140130043,0.00255451793782413,-0.00556323816999793,-0.00634724926203489
527,-0.0250108744949102,-0.00950072146952152,-0.00268454104661942,0.00308983051218092,-0.00760746188461781,-0.00700576463714242
528,-0.0265236888080835,-0.00818419735878706,0.00090605829609558,0.00455114804208279,-0.00775350304320455,-0.006893799174577
529,-0.025572219863534,-0.00644590333104134,0.00491254217922688,0.00576852960512042,-0.00654118834063411,-0.00788355991244316
530,-0.0245009232312441,-0.00581454299390316,0.00700228987261653,0.00583516992628574,-0.00581547291949391,-0.0109114060178399
531,-0.0242106076329947,-0.00659749936312437,0.00648510083556175,0.00527665298432112,-0.00582536542788148,-0.0151814892888069
532,-0.0232053380459547,-0.0073909480124712,0.00525814015418291,0.00587585801258683,-0.00443520862609148,-0.0185650866478682
533,-0.0215184036642313,-0.00760681787505746,0.00401586666703224,0.00755016459152102,-0.00117357878480107,-0.0199977904558182
534,-0.020881537348032,-0.00822671409696341,0.00182763417251408,0.00842660758644342,0.00209154491312802,-0.0208967253565788
535,-0.0220393594354391,-0.0100231179967523,-0.00110631959978491,0.0073572495020926,0.00390812987461686,-0.0230316817760468
536,-0.0244216546416283,-0.0125730028375983,-0.00344504765234888,0.00463143130764365,0.00447250995784998,-0.0259221754968166
537,-0.0270214844495058,-0.014610649086535,-0.00431200722232461,0.00173355522565544,0.00450987881049514,-0.0275034233927727
538,-0.0289145801216364,-0.0151242483407259,-0.00373376393690705,0.000288342882413417,0.00426643388345838,-0.0264918264001608
539,-0.029031828045845,-0.0135261584073305,-0.00193917728029191,0.00114720209967345,0.00473147863522172,-0.0232171695679426
540,-0.0272921174764633,-0.0103736715391278,0.000184684322448447,0.00332845142111182,0.00685819750651717,-0.0198667030781507
541,-0.0244707986712456,-0.00694677140563726,0.00182005960959941,0.00527357403188944,0.0103804590180516,-0.0181924644857645
542,-0.0215807463973761,-0.00358363683335483,0.00255880155600607,0.00650100316852331,0.0136783057823777,-0.0177062880247831
543,-0.0202699657529593,-0.000149289102409966,0.00172940723132342,0.00714243110269308,0.0149989705532789,-0.0174742266535759
544,-0.020977733656764,0.00271926005370915,-0.000511525839101523,0.00760313263162971,0.0151590527966619,-0.0173113085329533
545,-0.0230705793946981,0.0032374388538301,-0.00345445889979601,0.00753720477223396,0.015428920276463,-0.0184718370437622
546,-0.0250531453639269,0.00158518610987812,-0.00608615390956402,0.00698423478752375,0.0160172134637833,-0.0213081277906895
547,-0.0246803686022758,0.000762381940148771,-0.00696444744244218,0.00743488781154156,0.0173245333135128,-0.0230227112770081
548,-0.0217345580458641,0.00195434177294374,-0.00570573844015598,0.00918778963387012,0.0190248228609562,-0.0223302729427814
549,-0.0173604711890221,0.00433641579002142,-0.00316642527468503,0.0109574822708964,0.0205632168799639,-0.0211365222930908
550,-0.0125487400218844,0.00728818867355585,-0.000680896686390042,0.0116859916597605,0.0217271484434605,-0.0209647919982672
551,-0.00842571351677179,0.00975815858691931,0.000514956656843424,0.0109591968357563,0.0218647308647633,-0.0226610042154789
552,-0.00592788355425,0.0103848418220878,1.63953063747613E-05,0.0093662878498435,0.0201250799000263,-0.0261718314141035
553,-0.00528608774766326,0.00889292825013399,-0.00148086214903742,0.00852830614894629,0.0167884211987257,-0.0298097152262926
554,-0.00614037411287427,0.00600740639492869,-0.00308920512907207,0.00916361249983311,0.0129627641290426,-0.03234001994133
555,-0.00835337769240141,0.00223079440183938,-0.00461574224755168,0.0100602330639958,0.00846544560045004,-0.0342157259583473
556,-0.0109033193439245,-0.000928438559640199,-0.00528391310945153,0.0107066733762622,0.00330033642239869,-0.0352011024951935
557,-0.0120666762813926,-0.00192439067177475,-0.00417128019034863,0.0116184391081333,-0.000858931161928922,-0.0344574861228466
558,-0.0117617147043347,-0.00159689213614911,-0.00178189889993519,0.0123793967068195,-0.00337142776697874,-0.0328058712184429
559,-0.0107849882915616,-0.00101482216268778,0.00121257395949215,0.0128012672066689,-0.00485720206052065,-0.031445637345314
560,-0.00881301239132881,0.000374615221517161,0.00480352155864239,0.0142642864957452,-0.0051918956451118,-0.0298376102000475
561,-0.00582597637549043,0.00277760485187173,0.00846930965781212,0.0177086815237999,-0.0049254079349339,-0.0262845978140831
562,-0.00341268070042133,0.00430937064811587,0.0109034320339561,0.0214428901672363,-0.00553053198382258,-0.0213093161582947
563,-0.00146348914131522,0.00422511575743556,0.0121499747037888,0.0240361392498016,-0.00647433288395405,-0.0175426099449396
564,0.000884206267073751,0.00377448741346598,0.0125571535900235,0.0254157837480307,-0.00721799395978451,-0.0176487639546394
565,0.00178622361272573,0.00313205551356077,0.0112111838534474,0.0246114637702703,-0.00907633267343044,-0.0231301877647638
566,0.00086567725520581,0.00329880602657795,0.00917391665279865,0.0221845600754023,-0.0108920289203525,-0.0308471471071243
567,0.000540112727321684,0.0059815882705152,0.00830170419067144,0.020581504330039,-0.0102621912956238,-0.035371407866478
568,0.00242082960903645,0.0112466346472502,0.00851962249726057,0.0211570672690868,-0.00757208885625005,-0.0344984829425812
569,0.00662353727966547,0.0185597464442253,0.00938160996884108,0.0237816069275141,-0.00446247961372137,-0.029534287750721
570,0.0115951262414455,0.026416577398777,0.00993289239704609,0.0271776299923658,-0.00256062229163945,-0.0239058788865805
571,0.0141731444746256,0.0320406444370747,0.00844954792410135,0.029327904805541,-0.00355669087730348,-0.0210233088582754
572,0.0121952267363667,0.0334204286336899,0.00470346864312887,0.0289619378745556,-0.00758847687393427,-0.0212825667113066
573,0.0079354690387845,0.0312871411442757,0.00130044785328209,0.0273757223039865,-0.0114206578582525,-0.021537909284234
574,0.0051685911603272,0.0273418221622705,0.000325718458043411,0.0264028161764145,-0.0120931314304471,-0.0198359359055758
575,0.00379587174393237,0.0218065958470106,0.000606280285865068,0.0258487444370985,-0.010640793479979,-0.0182204265147448
576,0.00188280246220529,0.0153596503660083,0.000860426691360772,0.0252885352820158,-0.00876608025282621,-0.0182935614138842
577,0.000289256538962945,0.0111026205122471,0.00218415469862521,0.0256961211562157,-0.00559797883033752,-0.0179420355707407
578,0.000776538043282926,0.0112339127808809,0.00527580175548792,0.027381245046854,-0.000980761949904263,-0.0152584463357925
579,0.00282888882793486,0.0141921462491155,0.00843087211251259,0.0288095436990261,0.00192015804350376,-0.0115835480391979
580,0.00556039996445179,0.0179582498967648,0.0101055251434445,0.0292027331888676,0.00153682951349765,-0.00839021895080805
581,0.00842858757823706,0.0218087639659643,0.0100145852193236,0.0290622487664223,-6.82107638567686E-05,-0.00592786818742752
582,0.0100070051848888,0.0235921032726765,0.00756656797602773,0.0273892283439636,-0.00194461888168007,-0.00586309283971787
583,0.0093870647251606,0.0207267682999372,0.002708945190534,0.0227209310978651,-0.00490354234352708,-0.0095880813896656
584,0.0067732878960669,0.0132810603827238,-0.00367575068958104,0.0158433970063925,-0.00918150134384632,-0.0151656754314899
585,0.00292079825885594,0.00315826013684273,-0.0107758808881044,0.00852474942803383,-0.0140928542241454,-0.020361190661788
586,0.000203825169592164,-0.00728721031919122,-0.0168179962784052,0.00243708328343928,-0.018008241429925,-0.0243040267378092
587,0.000589010596740991,-0.0162284262478352,-0.0204601343721151,-0.00129537901375443,-0.020025635138154,-0.0263204611837864
588,0.00322036468423903,-0.0227249246090651,-0.0225099809467793,-0.00252155773341656,-0.0205433759838343,-0.0257563106715679
589,0.00675958953797817,-0.0261418018490076,-0.0233207456767559,-0.00141629856079817,-0.0192096922546625,-0.022111352533102
590,0.0100492732599378,-0.0272907149046659,-0.0228425767272711,0.000971298257354647,-0.0162892863154411,-0.0163893792778254
591,0.0114562967792153,-0.0282261744141579,-0.0221166871488094,0.00316603481769562,-0.0141694135963917,-0.0106454966589808
592,0.0117452340200543,-0.0294681489467621,-0.0212374832481146,0.00521950796246529,-0.0133501375094056,-0.00547567894682288
593,0.0138368457555771,-0.0298336334526539,-0.0194999426603317,0.00801813881844282,-0.0119727253913879,0.000242674490436912
594,0.0186353866010904,-0.028630530461669,-0.0173844136297703,0.0113794784992933,-0.00982446130365133,0.00739075476303697
595,0.0238235034048557,-0.0268436353653669,-0.0162163879722357,0.0138682406395674,-0.00850121583789587,0.0144687695428729
596,0.0266302060335875,-0.0257990304380655,-0.0169636979699135,0.0141633450984955,-0.00932548195123672,0.0183312445878983
597,0.0270815845578909,-0.0248864740133286,-0.0192086435854435,0.0126733677461743,-0.0118799498304725,0.0182729661464691
598,0.02703507989645,-0.0231117308139801,-0.0213048048317432,0.0108242565765977,-0.0144141409546137,0.0167109351605177
599,0.0275720562785864,-0.0212199836969376,-0.0219212658703327,0.00924708507955074,-0.0154182547703385,0.0157834757119417
600,0.0284304581582546,-0.0206580627709627,-0.0215156134217978,0.00752082839608192,-0.0145718120038509,0.0158451702445745
601,0.0278083328157663,-0.0227667447179556,-0.0219184570014477,0.00475253723561764,-0.0133323883637786,0.0160039290785789
602,0.0238139946013689,-0.0280901696532965,-0.0240270663052797,0.000537231739144772,-0.0137353772297502,0.0148556996136904
603,0.0173568818718195,-0.035341888666153,-0.0266188345849514,-0.00374245061539114,-0.0154050718992949,0.0120866689831018
604,0.0116788195446134,-0.0418732911348343,-0.027722829952836,-0.00560965714976192,-0.0157847534865141,0.00956156104803085
605,0.0084795979782939,-0.045697245746851,-0.0269667133688927,-0.00454599596560001,-0.0141463419422507,0.00888452865183353
606,0.00780539214611053,-0.0461664609611034,-0.0244829785078764,-0.00173391995485872,-0.0117639489471912,0.0100365364924073
607,0.0102107934653759,-0.0438114628195763,-0.0196939446032047,0.00188015773892403,-0.00924572069197893,0.0126106357201934
608,0.0152360694482923,-0.0401128344237804,-0.0136787407100201,0.00537450797855854,-0.00690429378300905,0.0160622429102659
609,0.0213134847581387,-0.0361531972885132,-0.00836293678730726,0.00869692768901587,-0.00483270781114697,0.0199930910021067
610,0.0269281063228846,-0.0332799553871155,-0.00490574119612575,0.011793365702033,-0.002701869700104,0.0233015902340412
611,0.0309070982038975,-0.0325846634805202,-0.00374221452511847,0.0138550642877817,-0.000304179702652618,0.0257300771772861
612,0.0333706550300121,-0.0329031720757484,-0.003499127458781,0.0154424700886011,0.00252431724220514,0.0299597419798374
613,0.034797091037035,-0.0328059755265713,-0.00227454863488674,0.0175132937729359,0.00566111691296101,0.0363518670201302
614,0.0353975966572762,-0.0322368964552879,0.000515807361807674,0.019752960652113,0.00895085837692022,0.0409091934561729
615,0.035626158118248,-0.0319475457072258,0.00394101208075881,0.0212364532053471,0.0115697458386421,0.0411426872014999
616,0.0354689620435238,-0.0331390686333179,0.00577705120667815,0.0209410134702921,0.0119069572538137,0.0375348404049873
617,0.0349426679313183,-0.0355989746749401,0.00491880066692829,0.01908372156322,0.0102359093725681,0.0316991023719311
618,0.0348858460783958,-0.0374346934258938,0.00283286138437688,0.0173633638769388,0.00887035112828016,0.0260415263473988
619,0.0359401926398277,-0.0372402183711529,0.0017032049363479,0.0172476898878813,0.00923944544047117,0.0227150302380323
620,0.0377048403024673,-0.0353798344731331,0.0023609281051904,0.018633034080267,0.0109923081472516,0.0222318489104509
621,0.0389936529099941,-0.0331212282180786,0.0039878198876977,0.0200106613337994,0.0131281679496169,0.0233338288962841
622,0.0390013419091702,-0.0305054783821106,0.00578001979738474,0.0206884127110243,0.014899967238307,0.024891959503293
623,0.0383745729923248,-0.0265352390706539,0.00816754344850779,0.0216055121272802,0.0162194855511189,0.0273461621254683
624,0.0381094813346863,-0.0211290940642357,0.0116121442988515,0.0231051649898291,0.0172645188868046,0.0312439892441034
625,0.0376893952488899,-0.0162608399987221,0.0152063285931945,0.0241906326264143,0.0179743189364672,0.0351771488785744
626,0.0367761217057705,-0.0134218735620379,0.0180387198925018,0.0248167403042316,0.018900278955698,0.0378347337245941
627,0.0353338122367859,-0.0126169854775071,0.0190977416932583,0.0248266123235226,0.0196177493780851,0.0390192195773125
628,0.0325185842812061,-0.0141358207911253,0.0170810949057341,0.0229442231357098,0.018262717872858,0.0380098670721054
629,0.0288041923195124,-0.0172560159116983,0.0130604542791843,0.0197840314358473,0.0148783717304468,0.0352922640740871
630,0.0254222881048918,-0.0201561041176319,0.00969934090971947,0.0168891344219446,0.0110460771247745,0.0322566442191601
631,0.0223168302327394,-0.0222093034535646,0.00745898531749845,0.0138287330046296,0.00763057917356491,0.028260063380003
632,0.0191997736692429,-0.0236730985343456,0.00464001251384616,0.009923430159688,0.00507964054122567,0.0222972966730595
633,0.0169791504740715,-0.023368164896965,0.00123988697305322,0.00661085406318307,0.00447769043967128,0.016117449849844
634,0.0164368022233248,-0.01966193318367,-0.00105148286093026,0.00552661484107375,0.00686513120308518,0.0123275276273489
635,0.0167391337454319,-0.0133133614435792,-0.00193244346883148,0.00612834747880697,0.0115331746637821,0.0111680487170815
636,0.0162454172968864,-0.00738056097179651,-0.00232365867123008,0.0069194701500237,0.0161291882395744,0.0112863779067993
637,0.0137157551944256,-0.00470251915976405,-0.0031182358507067,0.00691878702491522,0.0183218475431204,0.0115830060094595
638,0.00888737849891186,-0.00545829208567739,-0.00539139611646533,0.00520362844690681,0.0169473364949226,0.0115075195208192
639,0.00338332168757916,-0.00685136020183563,-0.00915644131600857,0.00179510191082954,0.0131956897675991,0.0116047514602542
640,-0.0002963496663142,-0.00569787714630365,-0.0128354988992214,-0.00158346444368362,0.00980163551867008,0.0127668045461178
641,-0.00204390566796064,-0.00164570938795805,-0.0157249476760626,-0.00368875474669039,0.00766085693612695,0.0137364417314529
642,-0.00313276750966907,0.00384551985189319,-0.0175254121422768,-0.00408495403826237,0.00624120282009244,0.0129203936085105
643,-0.00410965457558632,0.00905394274741411,-0.0179718155413866,-0.00306554860435426,0.00481619639322162,0.0103429686278105
644,-0.00525331124663353,0.0117011656984687,-0.0181275550276041,-0.00236291997134686,0.0021209716796875,0.00621591648086905
645,-0.00552732404321432,0.0118107805028558,-0.0181457530707121,-0.00249653845094144,-0.00139719690196216,0.00206706789322197
646,-0.00439508911222219,0.0107322288677096,-0.0175389926880598,-0.00280414777807891,-0.00438748952001333,-0.000440452829934657
647,-0.00356620526872575,0.00834878068417311,-0.0167083218693733,-0.00343319377861917,-0.00681397365406156,-0.00148043734952807
648,-0.00352997053414583,0.00581907154992223,-0.0153157766908407,-0.00409466214478016,-0.00813432782888412,-0.000761766510549933
649,-0.00329003855586052,0.00455569801852107,-0.0133477952331305,-0.00457732751965523,-0.00765299424529076,0.00216100178658962
650,-0.00391843682155013,0.00290296948514879,-0.0128125315532088,-0.00629487494006753,-0.00687953876331449,0.00537141272798181
651,-0.00608697906136513,-0.000161832649610005,-0.0139318574219942,-0.00936976633965969,-0.00687591219320893,0.00765449600294232
652,-0.00807668827474117,-0.00332315359264612,-0.0144939972087741,-0.0119344713166356,-0.00721881445497274,0.0103020658716559
653,-0.00925399456173182,-0.00570304039865732,-0.0139582855626941,-0.0131486756727099,-0.00794172566384077,0.0135895991697907
654,-0.00947490613907576,-0.00634712260216475,-0.0126820672303438,-0.0130353420972824,-0.00820490811020136,0.0169395133852959
655,-0.00858142971992493,-0.00495008984580636,-0.010968416929245,-0.0121623668819666,-0.00750562129542232,0.0197381228208542
656,-0.0073639489710331,-0.00265329331159592,-0.00947436131536961,-0.0112493904307485,-0.0063936673104763,0.021356675773859
657,-0.00601535942405462,-0.00059895368758589,-0.00821637641638517,-0.0106088221073151,-0.0045804469846189,0.0219740346074104
658,-0.00449085328727961,0.000707252009306103,-0.00713627459481359,-0.0104710534214973,-0.00213640346191823,0.0217622052878141
659,-0.00350513868033886,0.00135402067098767,-0.00697853090241551,-0.0108530661091208,-0.000455896224593744,0.0207497216761112
660,-0.00347854755818844,0.00149977265391499,-0.00830867514014244,-0.011956031434238,-0.000692029774654657,0.0190884917974472
661,-0.00368356425315142,0.00162738282233477,-0.00971844512969255,-0.013393129222095,-0.0018374549690634,0.0173025242984295
662,-0.00436629820615053,0.00166072335559875,-0.00984230544418097,-0.0146226333454251,-0.00214509502984583,0.0156433861702681
663,-0.00687982374802232,0.000649959838483483,-0.00939442124217749,-0.0160486958920956,-0.00131100043654442,0.0134049579501152
664,-0.0102976830676198,-0.00151342432945967,-0.00858597457408905,-0.0173623040318489,0.000435678724898025,0.0105850799009204
665,-0.0128542901948094,-0.00481340335682034,-0.00723804580047727,-0.0180437192320824,0.0026034761685878,0.00764641584828496
666,-0.0144571540877223,-0.00874286331236362,-0.00601047882810235,-0.0183391943573952,0.00453524850308895,0.00486859399825335
667,-0.0161025039851666,-0.0118587678298354,-0.00573982112109661,-0.0187153685837984,0.00515158474445343,0.00226059043779969
668,-0.0185670200735331,-0.0131129641085863,-0.00658269319683313,-0.0194962024688721,0.00345349544659257,-0.000634398718830198
669,-0.0209474172443151,-0.0114916553720832,-0.00722679309546947,-0.0201363824307919,0.000500517489854246,-0.00256151170469821
670,-0.0208033416420221,-0.0057298787869513,-0.00605475343763828,-0.0196429267525673,-0.00103514268994331,-0.00128945906180888
671,-0.0173262357711792,0.00367063819430768,-0.00326960068196058,-0.0178282130509615,5.06352407683153E-05,0.00210632127709687
672,-0.0128323845565319,0.0133416363969445,-0.000689522363245487,-0.0154475383460522,0.00209994800388813,0.0041989772580564
673,-0.00893131271004677,0.021105544641614,0.00091150589287281,-0.0124916713684797,0.00363022228702903,0.00505402777343988
674,-0.00575263798236847,0.0271430592983961,0.00184085790533572,-0.00870540831238031,0.0048066321760416,0.00702541461214423
675,-0.00458869896829128,0.0307479035109282,0.0016971934819594,-0.00567152118310332,0.00511508341878653,0.00910638365894556
676,-0.00654564658179879,0.0305699836462736,0.000105166494904552,-0.00542035792022944,0.00314668333157897,0.00839467067271471
677,-0.0100242057815194,0.0276340022683144,-0.00142700597643852,-0.00710407225415111,-0.000359030178515241,0.00587022956460714
678,-0.0119731947779655,0.0256697852164507,-0.000135486872750334,-0.00702968332916498,-0.00180393154732883,0.00669168727472425
679,-0.0113476347178221,0.0263020116835833,0.00412386748939753,-0.00385257368907332,0.000963108439464122,0.0125358486548066
680,-0.00968679878860712,0.027401115745306,0.00819261744618416,-0.000382943922886625,0.00588048668578267,0.018945500254631
681,-0.00853992253541946,0.0275034233927727,0.00990838184952736,0.00118101469706744,0.00961646530777216,0.022531209513545
682,-0.00921152252703905,0.0264963712543249,0.00912395492196083,0.000841399538330734,0.0100294789299369,0.0236736536026001
683,-0.0125206494703889,0.0240453463047743,0.00640582386404276,-0.0011276634177193,0.00708699179813266,0.0230243597179651
684,-0.0168133117258549,0.020998265594244,0.00325707718729973,-0.00379800773225725,0.00283594103530049,0.0211070813238621
685,-0.0193427707999945,0.0191967356950045,0.0013894229196012,-0.00541205052286386,-0.000957942800596356,0.0193470325320959
686,-0.01897899992764,0.01917271502316,0.00162161362823099,-0.0052451160736382,-0.00331681617535651,0.0189586095511913
687,-0.0174382645636797,0.0187782030552626,0.00277717947028577,-0.00480562401935458,-0.00409349519759417,0.0192848276346922
688,-0.0175420232117176,0.0153249809518456,0.00242397142574191,-0.00622622249647975,-0.0045762681402266,0.0183137115091085
689,-0.019094729796052,0.00978302489966154,0.000202898780116811,-0.0092473179101944,-0.00582448253408074,0.016044557094574
690,-0.0191237740218639,0.00580720230937004,-0.00177826429717243,-0.0113124242052436,-0.00739064253866673,0.0151879331097007
691,-0.0167526323348284,0.00473266327753663,-0.00259879441000521,-0.0113928383216262,-0.0088511249050498,0.0167364962399006
692,-0.0140472305938601,0.00504142232239246,-0.0034831368830055,-0.0112322885543108,-0.0105222314596176,0.01828633248806
693,-0.0114889955148101,0.00607537152245641,-0.00442424369975924,-0.0116557385772467,-0.0114708328619599,0.0182137042284012
694,-0.0079429168254137,0.00823105592280626,-0.00426125526428223,-0.0117225171998143,-0.0105251111090183,0.0172944478690624
695,-0.00399308139458299,0.0110943680629134,-0.00322687858715653,-0.0111302202567458,-0.00829900987446308,0.0164901223033667
696,-0.00193827576003969,0.0133798159658909,-0.00271118758246303,-0.0106563679873943,-0.00671535218134522,0.0156192919239402
697,-0.00335050909779966,0.0138533022254705,-0.00361169944517314,-0.0111591992899776,-0.00717917084693909,0.0138815119862556
698,-0.00681147025898099,0.0129979820922017,-0.00517756585031748,-0.0125596318393946,-0.00847939122468233,0.0116433454677463
699,-0.010075799189508,0.0119278794154525,-0.00635047070682049,-0.0146343046799302,-0.00935988780111074,0.00949515774846077
700,-0.0120924627408385,0.0114380214363337,-0.00651950808241963,-0.0169401802122593,-0.0103390458971262,0.00741561269387603
701,-0.0117958420887589,0.0126948431134224,-0.00525487307459116,-0.0182908810675144,-0.0113500105217099,0.00583020877093077
702,-0.00856718886643648,0.0161473695188761,-0.00323392450809479,-0.0183680728077888,-0.0116706676781178,0.00483402702957392
703,-0.00342423655092716,0.0207680631428957,-0.00203610141761601,-0.0179896429181099,-0.0112308189272881,0.00407677749171853
704,0.00231535104103386,0.0250433329492807,-0.00210291589610279,-0.0175988376140594,-0.0103198159486055,0.00394347961992025
705,0.00788878183811903,0.0276754423975945,-0.00270908907987177,-0.0174685101956129,-0.00977441854774952,0.00450922502204776
706,0.0124768977984786,0.0279105883091688,-0.00352447736077011,-0.0176994483917952,-0.0103564988821745,0.00494513241574168
707,0.0151486834511161,0.0259719789028168,-0.00487979222089052,-0.0176386795938015,-0.0118472157046199,0.00485287932679057
708,0.015429500490427,0.0229757986962795,-0.00689497776329517,-0.0170252919197083,-0.0138485422357917,0.00420153699815273
709,0.014581042341888,0.0207314174622297,-0.00810979027301073,-0.015656977891922,-0.0155746284872293,0.00326976808719337
710,0.0138561893254519,0.0196605026721954,-0.00768937403336167,-0.0139526631683111,-0.0164266377687454,0.00174599781166762
711,0.0125416656956077,0.0178786516189575,-0.0070423842407763,-0.0137681653723121,-0.0170160979032516,-0.00126788124907762
712,0.0102299638092518,0.0143395932391286,-0.00697412574663758,-0.0155818974599242,-0.0182615965604782,-0.00451918411999941
713,0.00849807169288397,0.0103456368669868,-0.0068964478559792,-0.0176548473536968,-0.0197454318404198,-0.00551570160314441
714,0.00862934160977602,0.00714367534965277,-0.00693480204790831,-0.0187336727976799,-0.0202495045959949,-0.00420195981860161
715,0.00983753986656666,0.00505693256855011,-0.00801914650946856,-0.0190363246947527,-0.0200057532638311,-0.00240115798078477
716,0.0115109011530876,0.00478620268404484,-0.00973627809435129,-0.0186256375163794,-0.0196522735059261,-0.00071929709520191
717,0.0134926624596119,0.0060636205598712,-0.0110851554200053,-0.0172107107937336,-0.0193120613694191,0.000913305033463985
718,0.0142651377245784,0.00693925144150853,-0.0125885438174009,-0.0154074029996991,-0.0201275106519461,0.00175410357769579
719,0.0129473805427551,0.00693723699077964,-0.0143994437530637,-0.0138155352324247,-0.0225904695689678,0.00249437661841512
720,0.0108017902821302,0.00776284607127309,-0.0154235446825624,-0.0119449533522129,-0.0247584693133831,0.00509424693882465
721,0.00886732432991266,0.00944402907043695,-0.0162967648357153,-0.010200479067862,-0.0249988436698914,0.00869275629520416
722,0.00678360788151622,0.0095804575830698,-0.0190256088972092,-0.0102046113461256,-0.0242658499628305,0.0107247531414032
723,0.00462600123137236,0.00692471954971552,-0.0234349090605974,-0.0119204167276621,-0.0240669175982475,0.0111027676612139
724,0.00460576266050339,0.00327721005305648,-0.0263390708714724,-0.0125045794993639,-0.0230959672480822,0.0125684533268213
725,0.00863233674317598,0.00121425348334014,-0.0250984076410532,-0.0094178719446063,-0.0189887415617704,0.0169884599745274
726,0.014547505415976,-6.33116578683257E-05,-0.0212700646370649,-0.0042926468886435,-0.0130547769367695,0.0216961745172739
727,0.0183919090777636,-0.00338153913617134,-0.018574446439743,-0.00101254985202104,-0.00899153668433428,0.0220456477254629
728,0.0184351168572903,-0.00923812296241522,-0.0190329309552908,-0.00154060369823128,-0.00871687103062868,0.0164313800632954
729,0.0157188810408115,-0.0155893824994564,-0.0218974221497774,-0.00466208439320326,-0.0112855210900307,0.00875476375222206
730,0.0130262123420835,-0.0197056289762259,-0.0241298023611307,-0.00721097970381379,-0.0136709958314896,0.00498820934444666
731,0.0118081644177437,-0.0204627439379692,-0.0233492311090231,-0.00757818296551704,-0.0137960156425834,0.00591497076675296
732,0.010590884834528,-0.0190085545182228,-0.020584762096405,-0.00670427829027176,-0.0128044439479709,0.00804050825536251
733,0.00866070855408907,-0.0165492501109838,-0.0177283510565758,-0.00529683101922274,-0.0122880702838302,0.009930987842381
734,0.00739919627085328,-0.0136517789214849,-0.0150064751505852,-0.00336075574159622,-0.0122533775866032,0.0119649525731802
735,0.0068356953561306,-0.0116345966234803,-0.0127451186999679,-0.00163243222050369,-0.0130937164649367,0.0130914663895965
736,0.00613622693344951,-0.0110744321718812,-0.0112590901553631,-0.000287922885036096,-0.0148446159437299,0.0125590888783336
737,0.00570392608642578,-0.0101334908977151,-0.00945823453366756,0.00224263896234334,-0.0153521690517664,0.0110711921006441
738,0.00504302745684981,-0.00791526585817337,-0.00743166543543339,0.00590443564578891,-0.0133713418617845,0.00807608012109995
739,0.00286016310565174,-0.00612008152529597,-0.00690135918557644,0.00785411894321442,-0.0104718767106533,0.00253753480501473
740,-0.000788596633356065,-0.0057281362824142,-0.00831801723688841,0.00683786766603589,-0.00942931044846773,-0.00389797519892454
741,-0.00440453784540296,-0.00518360454589128,-0.0104573350399733,0.00482937134802341,-0.011368203908205,-0.0077554821036756
742,-0.00622564321383834,-0.00325239449739456,-0.012145921587944,0.00380906858481467,-0.0144968926906586,-0.00771265337243676
743,-0.00513037759810686,-0.000458967289887369,-0.0127537716180086,0.00427379598841071,-0.0159987043589354,-0.00527654541656375
744,-0.00121106638107449,0.0025581163354218,-0.012183248065412,0.0056762807071209,-0.0143999205902219,-0.00298726302571595
745,0.00349301705136895,0.00527194701135159,-0.0118120703846216,0.00654175644740462,-0.0112139172852039,-0.00339573551900685
746,0.0073960805311799,0.00825445353984833,-0.0124568725004792,0.0066757402382791,-0.00811413396149874,-0.00630137650296092
747,0.00973976776003838,0.0114961145445704,-0.0132607575505972,0.0065906373783946,-0.00539842946454883,-0.00980953313410282
748,0.0097443712875247,0.0130620282143354,-0.0135864820331335,0.00584964128211141,-0.00383487087674439,-0.0132910739630461
749,0.00863191578537226,0.0130271352827549,-0.0131740299984813,0.00510810548439622,-0.00329745025373995,-0.0156238824129105
750,0.00861343834549189,0.0137816006317735,-0.011493381112814,0.00616087252274156,-0.00240106647834182,-0.0149259874597192
751,0.0103236511349678,0.0162744224071503,-0.00796609930694103,0.00972834322601557,-0.000434139365097508,-0.0109023787081242
752,0.012458979152143,0.0189237240701914,-0.00340138119645417,0.0142467077821493,0.0018841769779101,-0.00526450667530298
753,0.013328761793673,0.0200923960655928,0.000168330079759471,0.0170104987919331,0.0031960045453161,-0.000822553178295493
754,0.0126263834536076,0.0201215036213398,0.00181510800030082,0.0169933121651411,0.00345774181187153,-4.49201652372722E-05
755,0.0110607659444213,0.0197213403880596,0.00210851547308266,0.0154292434453964,0.00345826335251331,-0.00298850354738534
756,0.00853253807872534,0.0177176129072905,0.00122659199405462,0.0132110789418221,0.00219970731996,-0.00795375928282738
757,0.00529681239277124,0.0136168282479048,-0.000651988724712282,0.010961358435452,-0.000726659432984889,-0.0127389300614595
758,0.00283632520586252,0.0093300836160779,-0.00222497852519155,0.00980413053184748,-0.00297346105799079,-0.0154747366905212
759,0.00217917701229453,0.00640788255259395,-0.00226456206291914,0.00944868382066488,-0.00300380634143949,-0.0160175077617168
760,0.00374994147568941,0.00507613737136126,-0.00066070567118004,0.00916575361043215,-0.00115023250691593,-0.0148538118228316
761,0.00672010751441121,0.00429749628528953,0.00123811373487115,0.00915876962244511,0.00200866302475333,-0.0127545818686485
762,0.00932347867637873,0.00298305065371096,0.00202653370797634,0.00968368910253048,0.00570143200457096,-0.0104379588738084
763,0.0107802683487535,0.00173748377710581,0.00177888537291437,0.0107066910713911,0.00845730025321245,-0.00752697046846151
764,0.0112593984231353,0.00149869441520423,0.001449657487683,0.0120672173798084,0.00900704506784678,-0.00458588870242238
765,0.0116516938433051,0.00252625090070069,0.00192738696932793,0.0135717932134867,0.00872042030096054,-0.00322877825237811
766,0.0123421745374799,0.00468731392174959,0.00290954299271107,0.0146212698891759,0.00961422175168991,-0.00309146731160581
767,0.011853389441967,0.00709657091647387,0.00266779866069555,0.0144365141168237,0.0102381091564894,-0.00249344226904213
768,0.00963962078094482,0.00907019060105085,0.000565830210689455,0.0132945980876684,0.00841911882162094,-0.00122053921222687
769,0.00657824752852321,0.0103675117716193,-0.00226791808381677,0.0119553590193391,0.00434854906052351,-0.000569124473258853
770,0.00274641416035593,0.00991531554609537,-0.00495567871257663,0.0103027317672968,-0.000786132412031293,-0.00189316901378334
771,-0.00188624393194914,0.00686135748401284,-0.00726393377408385,0.0080065643414855,-0.00588934822008014,-0.00553290918469429
772,-0.00598482554778457,0.00289049022831023,-0.00864283740520477,0.00580183975398541,-0.00966787897050381,-0.0100147072225809
773,-0.0076825087890029,0.000955824798438698,-0.00836628302931786,0.00475586112588644,-0.0110502177849412,-0.0131455427035689
774,-0.00676173716783524,0.00181110214907676,-0.00639358209446073,0.00505609624087811,-0.0102674467489123,-0.0145233329385519
775,-0.00444204965606332,0.00386151298880577,-0.00371313095092773,0.00619034934788942,-0.00864149257540703,-0.0154029289260507
776,-0.00234968983568251,0.00518891680985689,-0.00242193159647286,0.00691535416990519,-0.00829826109111309,-0.0169761348515749
777,-0.00196205731481314,0.00433077476918697,-0.00422518607228994,0.0056612603366375,-0.0113209132105112,-0.0197143759578466
778,-0.00262637436389923,0.00177826930303127,-0.00816064793616533,0.00273065827786922,-0.0169297698885202,-0.0223491247743368
779,-0.00190529634710401,0.000198788271518424,-0.0112097403034568,0.000627962639555335,-0.0211391113698483,-0.0224066525697708
780,0.0010412831325084,0.00084562401752919,-0.0112296957522631,0.000766917015425861,-0.0211609620600939,-0.0187215283513069
781,0.00482965121045709,0.00245236023329198,-0.00852635968476534,0.00211734790354967,-0.0180636346340179,-0.0127002811059356
782,0.00747001869603992,0.00357593782246113,-0.00548998126760125,0.00290469266474247,-0.0148778008297086,-0.00754255289211869
783,0.00777657004073262,0.00436945399269462,-0.00431889435276389,0.00244838581420481,-0.0137800229713321,-0.00524656753987074
784,0.00670781405642629,0.00612961454316974,-0.00468435557559133,0.00178961048368365,-0.0144806681200862,-0.00535255670547485
785,0.00662799645215273,0.00955389067530632,-0.00451246136799455,0.00190013740211725,-0.0150366593152285,-0.00635527912527323
786,0.00811929069459438,0.01359554938972,-0.00314718019217253,0.00205125426873565,-0.014336260035634,-0.00745775643736124
787,0.00922607537358999,0.0156511887907982,-0.00226682960055768,0.00113014166709036,-0.0127392672002316,-0.00926260277628899
788,0.00952604413032532,0.0149983800947666,-0.00264784786850214,-0.000160936193424277,-0.0101209953427315,-0.0109895085915923
789,0.0110127534717321,0.0135911544784904,-0.00314557459205389,-0.000265285954810679,-0.00588143384084105,-0.010624379850924
790,0.0138070862740278,0.0126792779192328,-0.00298711704090238,0.00102604122366756,-0.00123518705368042,-0.00824336055666208
791,0.0156974047422409,0.012053438462317,-0.00258587580174208,0.00256570731289685,0.00148595089558512,-0.00520536117255688
792,0.0157385133206844,0.0108922682702541,-0.00248743128031492,0.00308518344536424,0.00198982749134302,-0.00217114062979817
793,0.0145111428573728,0.00822697393596172,-0.00310394819825888,0.00201948150061071,0.00148059206549078,0.000279084430076182
794,0.0131218992173672,0.00443529430776834,-0.00434391014277935,-6.79844088153914E-05,0.000705707643646747,0.00167937111109495
795,0.0131926294416189,0.00113201723434031,-0.00494111934676766,-0.00181145081296563,0.000540010223630816,0.00230653374455869
796,0.0142428884282708,-0.0012352674966678,-0.00459662172943354,-0.00257589388638735,0.000627796049229801,0.00224227039143443
797,0.0149558875709772,-0.00208162446506321,-0.00370080932043493,-0.00175843248143792,-0.000185616838280112,0.00277192471548915
798,0.0154271656647325,-0.00130856013856828,-0.00256107631139457,0.000519960012752563,-0.00212565250694752,0.00508965132758021
799,0.0151410950347781,-0.00133408477995545,-0.00255444180220366,0.00202106381766498,-0.00498876208439469,0.00774047011509538
800,0.0127107584849,-0.00401177629828453,-0.00466048019006848,0.00073383713606745,-0.00824668910354376,0.00839365646243095
801,0.00754188699647784,-0.0085205202922225,-0.00847643613815308,-0.0035364453215152,-0.0117176212370396,0.00563613930717111
802,0.00157965230755508,-0.0124745760113001,-0.0124502014368773,-0.00884500611573458,-0.0149985728785396,0.000734784000087529
803,-0.00275823473930359,-0.0153343444690108,-0.0154329668730497,-0.0129988575354218,-0.0174987092614174,-0.00400545122101903
804,-0.00488646328449249,-0.0186938066035509,-0.0175840500742197,-0.0157269574701786,-0.0194874946027994,-0.00773991411551833
805,-0.00450027268379927,-0.02212018892169,-0.0186429563909769,-0.0171715952455997,-0.0212211478501558,-0.00971116218715906
806,-0.00145385763607919,-0.0234399810433388,-0.0178544260561466,-0.0169057808816433,-0.0219620987772942,-0.00945882312953472
807,0.00250963331200182,-0.0233093537390232,-0.0163400191813707,-0.0157587844878435,-0.021787628531456,-0.00838713254779577
808,0.00521719455718994,-0.0237819291651249,-0.0162011459469795,-0.0150821357965469,-0.0219877082854509,-0.00774191040545702
809,0.00637845555320382,-0.0241589527577162,-0.0173491407185793,-0.0145860249176621,-0.0224120747298002,-0.00722843920812011
810,0.00561603438109159,-0.0234642941504717,-0.0191969536244869,-0.0141007481142879,-0.0231221746653318,-0.00697375740855932
811,0.00301715778186917,-0.0222204942256212,-0.0218454264104366,-0.0140391075983644,-0.024921502918005,-0.00702090747654438
812,0.000677381874993443,-0.0209505222737789,-0.0245522353798151,-0.0141155561432242,-0.0269236508756876,-0.00667372439056635
813,0.000143799697980285,-0.0203697998076677,-0.0261969249695539,-0.0138341831043363,-0.0278401486575603,-0.00604873476549983
814,0.00211371551267803,-0.0201212912797928,-0.0254442002624273,-0.0126554239541292,-0.026637701317668,-0.00540895666927099
815,0.00617243908345699,-0.0190171916037798,-0.0220508109778166,-0.0106902923434973,-0.0226814951747656,-0.0045803552493453
816,0.00966103188693523,-0.0177977494895458,-0.0185336992144585,-0.00930442195385695,-0.0174956638365984,-0.00344487442635
817,0.0104261450469494,-0.0180526878684759,-0.0177182927727699,-0.0096930181607604,-0.0136655895039439,-0.00181008432991803
818,0.0090494342148304,-0.0197619218379259,-0.0193477999418974,-0.0109873255714774,-0.012377392500639,0.000161467876750976
819,0.00760815665125847,-0.0214839056134224,-0.0206997208297253,-0.0112711992114782,-0.0130592416971922,0.00125807232689112
820,0.00781180802732706,-0.0217884462326765,-0.0198504161089659,-0.00992699898779392,-0.0141942128539085,0.000243820904870518
821,0.00990915670990944,-0.0201066881418228,-0.0172794982790947,-0.00744027551263571,-0.0151510331779718,-0.00207424350082874
822,0.0130493640899658,-0.0171895585954189,-0.0144583955407143,-0.00417392980307341,-0.0161323212087154,-0.00358175998553634
823,0.0163836926221848,-0.0148252937942743,-0.011903646402061,-0.000454835186246783,-0.0166385062038898,-0.00315822218544781
824,0.0183988641947508,-0.01588399335742,-0.0104287108406425,0.00181349518243223,-0.0170809160917997,-0.00245990720577538
825,0.0176410786807537,-0.022057943046093,-0.0112958624958992,0.000838359992485493,-0.0186756625771523,-0.00348824798129499
826,0.0158332884311676,-0.0297509375959635,-0.0132576962932944,-0.00120785157196224,-0.0203589890152216,-0.00337410741485655
827,0.0162047911435366,-0.033911008387804,-0.0135769424960017,-0.000972528476268053,-0.019816080108285,0.00139634066727012
828,0.0189920328557491,-0.0341647230088711,-0.011828032322228,0.00104843394365162,-0.0171164199709892,0.00793176330626011
829,0.0227400939911604,-0.0323043018579483,-0.00928506348282099,0.00280901580117643,-0.0137228816747665,0.0121419355273247
830,0.0266357213258743,-0.029159301891923,-0.00658655166625977,0.00419215764850378,-0.0102457869797945,0.0145115600898862
831,0.0293563809245825,-0.0255485158413649,-0.00407760869711638,0.00542962923645973,-0.00762628903612494,0.0162467211484909
832,0.0291792806237936,-0.0232294742017984,-0.00279583362862468,0.00571312382817268,-0.00722466455772519,0.0154334986582398
833,0.0254376418888569,-0.0241060014814138,-0.00366028118878603,0.00470463233068585,-0.00906660035252571,0.00997687410563231
834,0.0195710826665163,-0.0276368781924248,-0.00569722382351756,0.00347151746973395,-0.0115376701578498,0.00194113969337195
835,0.013954141177237,-0.0313736833631992,-0.00734885828569531,0.0026617853436619,-0.0130662759765983,-0.00517429644241929
836,0.0087985722348094,-0.0341660715639591,-0.008847801014781,0.00148088345304132,-0.0141091169789433,-0.0105306850746274
837,0.00290437717922032,-0.035972747951746,-0.0107520557940006,-0.000126362196169794,-0.0158406682312489,-0.0141328722238541
838,-0.00358212157152593,-0.0368125922977924,-0.012487169355154,-0.00121369410771877,-0.0178794004023075,-0.0162667855620384
839,-0.00941677764058113,-0.0372014455497265,-0.0135154090821743,-0.00195766449905932,-0.0193268768489361,-0.0185710713267326
840,-0.0128513220697641,-0.036810465157032,-0.0132439155131578,-0.0023632284719497,-0.0193517468869686,-0.0213981401175261
841,-0.0135616362094879,-0.0355433076620102,-0.0119272749871016,-0.00229713902808726,-0.0184222739189863,-0.0238862913101912
842,-0.0134651707485318,-0.0348001793026924,-0.0113181173801422,-0.00266237347386777,-0.018495524302125,-0.0257431790232658
843,-0.0134841501712799,-0.0342354029417038,-0.0119365388527513,-0.00310169183649123,-0.0195004567503929,-0.0260447487235069
844,-0.0126700140535831,-0.0327111110091209,-0.0128294359892607,-0.00243894360028207,-0.019716015085578,-0.024162957444787
845,-0.0110162338241935,-0.0319292619824409,-0.0141486804932356,-0.0012017865665257,-0.0193263124674559,-0.0219274014234543
846,-0.00998940132558346,-0.0340431816875935,-0.0169627219438553,-0.00102637428790331,-0.01984485052526,-0.0219929721206427
847,-0.0091143473982811,-0.0380198918282986,-0.0203892309218645,-0.00199434068053961,-0.0205924976617098,-0.0243557002395391
848,-0.00642701657488942,-0.0421502366662025,-0.0224931500852108,-0.00282418658025563,-0.0199250113219023,-0.0275278948247433
849,-0.00136769702658057,-0.0462142415344715,-0.0228240545839071,-0.00291651883162558,-0.0181886572390795,-0.031001003459096
850,0.00536829978227615,-0.0495667606592178,-0.0215763598680496,-0.00235006189905107,-0.0166863258928061,-0.0342368260025978
851,0.0108956815674901,-0.0522750988602638,-0.0200001206248999,-0.00238525751046836,-0.0168846677988768,-0.0371238328516483
852,0.0125286942347884,-0.0549525059759617,-0.0193457696586847,-0.00400708569213748,-0.0183820109814405,-0.0398694463074207
853,0.0114927161484957,-0.0561020188033581,-0.0183422844856977,-0.00567385787144303,-0.0187665913254023,-0.0414558537304401
854,0.00984946079552174,-0.0541328378021717,-0.0159439239650965,-0.00599952694028616,-0.0180870294570923,-0.0412124842405319
855,0.0076432665809989,-0.050432164222002,-0.013707622885704,-0.00609645573422313,-0.0184470843523741,-0.0407493896782398
856,0.00465255929157138,-0.0476978532969952,-0.0131663782522082,-0.00708665465936065,-0.0198245029896498,-0.0417087748646736
857,0.00163742911536247,-0.0464077591896057,-0.0140847936272621,-0.00827744789421558,-0.0206445716321468,-0.0433358922600746
858,0.000325464527122676,-0.0440353713929653,-0.0146087743341923,-0.00760776828974485,-0.019876342266798,-0.0427634045481682
859,0.00111674587242305,-0.0395152755081654,-0.0134624801576138,-0.00430493988096714,-0.0182049740105867,-0.0381621681153774
860,0.00175390229560435,-0.035678006708622,-0.0121322041377425,-0.000949711189605296,-0.0179374422878027,-0.0318018086254597
861,0.00112524209544063,-0.0341954827308655,-0.0116522936150432,0.00076664105290547,-0.0193910356611013,-0.0260958205908537
862,0.000609069946222007,-0.0338799133896828,-0.0109143750742078,0.00186930596828461,-0.0204285066574812,-0.0207232311367989
863,0.000732073385734111,-0.0339699052274227,-0.00965675245970488,0.00190771662164479,-0.0200993902981281,-0.0165901631116867
864,0.000686765706632286,-0.0345099531114101,-0.00864125788211823,-0.00044478802010417,-0.0192754752933979,-0.0155717693269253
865,0.00112673034891486,-0.03477668389678,-0.00736584281548858,-0.00377123896032572,-0.0186039786785841,-0.0165327154099941
866,0.00273622269742191,-0.0348721481859684,-0.00525239016860724,-0.00628965022042394,-0.0183817092329264,-0.0177314765751362
867,0.00462201982736588,-0.0360214188694954,-0.00283212959766388,-0.00774290086701512,-0.0183979831635952,-0.0191061962395906
868,0.00693559413775802,-0.0374776422977448,2.50195134867681E-05,-0.00735165318474174,-0.0170988477766514,-0.0199097320437431
869,0.0110733574256301,-0.0371338874101639,0.00433747237548232,-0.00433836365118623,-0.0130468821153045,-0.0184375923126936
870,0.0171350054442883,-0.0346223451197147,0.010037349537015,0.000308056332869455,-0.00673335278406739,-0.0147961499169469
871,0.0235827974975109,-0.0310910083353519,0.0155863594263792,0.0047051478177309,-0.000309072725940496,-0.0116844670847058
872,0.0283091273158789,-0.027567733079195,0.0197181217372417,0.00765378680080175,0.00412153452634811,-0.0110639054328203
873,0.0294065698981285,-0.0249838978052139,0.0219532195478678,0.00904966238886118,0.00568132381886244,-0.0119067663326859
874,0.0272193048149347,-0.0233147628605366,0.02259636297822,0.0101032946258783,0.00517523707821965,-0.0114078912883997
875,0.0242938548326492,-0.0215085782110691,0.0226432159543037,0.0118347704410553,0.00430418737232685,-0.00823971442878246
876,0.0219740569591522,-0.0197182595729828,0.0226583238691092,0.0132632032036781,0.00353607349097729,-0.0045836241915822
877,0.0199187006801367,-0.0195091553032398,0.0223555825650692,0.0126982107758522,0.00219391053542495,-0.00366026046685874
878,0.0177111737430096,-0.0220167972147465,0.0206406638026237,0.0097693121060729,-7.48671936889878E-06,-0.00666517252102494
879,0.0151235731318593,-0.0266339741647244,0.0165661945939064,0.00589913874864578,-0.00243739946745336,-0.0121032195165753
880,0.0115285059437156,-0.0320247448980808,0.00999100133776665,0.00217712623998523,-0.00458176247775555,-0.017748286947608
881,0.00683020893484354,-0.0366148501634598,0.00184388505294919,-0.00135800032876432,-0.00690891221165657,-0.0222441777586937
882,0.00301981554366648,-0.0376408398151398,-0.00503368116915226,-0.00335571495816112,-0.00894698221236467,-0.0239398647099733
883,0.00236369133926928,-0.0336049497127533,-0.0076638818718493,-0.00214988901279867,-0.00858686491847038,-0.0215499587357044
884,0.00434749340638518,-0.027042917907238,-0.00618866458535194,0.00115297839511186,-0.00535761192440987,-0.0168712064623833
885,0.00614429824054241,-0.0222811959683895,-0.00353024201467633,0.0034851732198149,-0.00161602790467441,-0.0137585056945682
886,0.00634237797930837,-0.0210664104670286,-0.00187003391329199,0.00321926781907678,0.000633954536169767,-0.0141107812523842
887,0.00510826520621777,-0.0225839987397194,-0.00184287154115736,0.000421957287471741,0.000687950931023806,-0.0178462602198124
888,0.00336629594676197,-0.0249340627342463,-0.00256200414150953,-0.00345433433540165,-0.000706101942341775,-0.0234210062772036
889,0.0025637426879257,-0.0266124960035086,-0.00272703496739268,-0.00670599099248648,-0.00201066490262747,-0.0293400473892689
890,0.00218612654134631,-0.0288296528160572,-0.0031904976349324,-0.0100347166880965,-0.00346825085580349,-0.0369304977357388
891,0.00107778597157449,-0.0324408374726772,-0.00424155360087752,-0.0138534130528569,-0.00568076316267252,-0.0456504710018635
892,-4.79831469419878E-05,-0.0353773646056652,-0.00382524728775024,-0.016163669526577,-0.00759979151189327,-0.0511449985206127
893,0.00023930000315886,-0.0355167202651501,-0.000858750136103481,-0.0153565425425768,-0.00765122147276998,-0.0508265234529972
894,0.0012171920388937,-0.0340807996690273,0.00292640645056963,-0.0124784735962749,-0.00624201958999038,-0.0467853471636772
895,0.000503692834172398,-0.0344573594629765,0.00538105191662908,-0.00996436737477779,-0.00574448890984058,-0.0430387556552887
896,-0.00303434208035469,-0.0382729284465313,0.00587761774659157,-0.00923112593591213,-0.00827405415475369,-0.041340172290802
897,-0.00871822610497475,-0.0443577878177166,0.0046390569768846,-0.0101479198783636,-0.0139366397634149,-0.0406560152769089
898,-0.0139805395156145,-0.0495081841945648,0.00282895192503929,-0.0114320777356625,-0.0199648141860962,-0.0392728708684444
899,-0.0166605804115534,-0.0519795529544353,0.00149650510866195,-0.0123536996543407,-0.0238030552864075,-0.0372596085071564
900,-0.0173169746994972,-0.0533361360430717,0.000430854881415144,-0.0131818698719144,-0.0256388783454895,-0.0357563123106956
901,-0.0170997530221939,-0.0549870692193508,-0.000380081386538222,-0.0136070633307099,-0.0261316932737827,-0.0345703139901161
902,-0.0161564964801073,-0.0566313713788986,-0.000293428514851257,-0.0129310367628932,-0.0253133866935968,-0.0328244902193546
903,-0.0143810054287314,-0.0573985166847706,0.000633737770840526,-0.0113745769485831,-0.0240219160914421,-0.0304908696562052
904,-0.0114223249256611,-0.0557377487421036,0.00209810631349683,-0.00931142922490835,-0.0228470358997583,-0.0271401628851891
905,-0.00748534267768264,-0.0508852936327457,0.003918984439224,-0.00647418946027756,-0.0212226007133722,-0.0218025669455528
906,-0.00409218482673168,-0.0449428148567677,0.00547211710363626,-0.00312623777426779,-0.0190613940358162,-0.0153357377275825
907,-0.0030013716313988,-0.0413277447223663,0.00587979704141617,-0.000886182009708136,-0.0174396112561226,-0.0101885003969073
908,-0.00436130678281188,-0.041114654392004,0.0047831148840487,-0.000726918631698936,-0.0170706994831562,-0.00753413094207644
909,-0.00705930730327964,-0.0431238412857056,0.00260649318806827,-0.00187475490383804,-0.0178046729415655,-0.0070489882491529
910,-0.0103858504444361,-0.0461581870913506,-0.000142596793011762,-0.00351625005714595,-0.0192406848073006,-0.00852864794433117
911,-0.012802635319531,-0.0481697395443916,-0.00226643565110862,-0.00465980777516961,-0.0199784841388464,-0.0103846089914441
912,-0.0132733611389995,-0.0478128902614117,-0.00299995159730315,-0.00475135026499629,-0.0194019209593534,-0.0103985676541924
913,-0.0125743560492992,-0.0459764786064625,-0.0029262735042721,-0.004226787481457,-0.0183998588472605,-0.00814952794462442
914,-0.0115214856341481,-0.0439480431377888,-0.00273130019195378,-0.00350116426125169,-0.0176778044551611,-0.00463785137981176
915,-0.0107088042423129,-0.0423574037849903,-0.00306207803077996,-0.00294624594971538,-0.0176699571311474,-0.00149687111843377
916,-0.010219968855381,-0.0411634854972363,-0.00401609018445015,-0.00277750915847719,-0.017872117459774,-0.000464678567368537
917,-0.00970943365246058,-0.0404720827937126,-0.00492180837318301,-0.00302332127466798,-0.0174403563141823,-0.00215813098475337
918,-0.0082938140258193,-0.0400706231594086,-0.00463765952736139,-0.00318211666308343,-0.0158985741436481,-0.00464197853580117
919,-0.00483553763478994,-0.0392866618931293,-0.00247986800968647,-0.00234617828391492,-0.0127288186922669,-0.00541694415733218
920,4.39851646660827E-05,-0.038508228957653,0.000192112362128682,-0.00040119091863744,-0.00852567330002785,-0.00464136386290193
921,0.00414802879095078,-0.0388118773698807,0.00114589824806899,0.00166357634589076,-0.00508008524775505,-0.00429608020931482
922,0.00609261589124799,-0.0405067503452301,-0.000219876048504375,0.00270923995412886,-0.00404144963249564,-0.00515131000429392
923,0.00674096634611487,-0.0420002266764641,-0.0028495688457042,0.00289240176789463,-0.00516424793750048,-0.00566278025507927
924,0.00775414286181331,-0.0413583852350712,-0.0056279175914824,0.00309641729108989,-0.00623447727411985,-0.0045608221553266
925,0.00893801730126143,-0.0391948670148849,-0.00829350110143423,0.00269703450612724,-0.00686765136197209,-0.00339174829423428
926,0.00948163028806448,-0.0366876386106014,-0.0106063466519117,0.000720590818673372,-0.00833351258188486,-0.00401276908814907
927,0.00924179796129465,-0.0343499630689621,-0.0126058515161276,-0.00272330176085234,-0.0108467657119036,-0.00664791883900762
928,0.00833608862012625,-0.0324540734291077,-0.0145116336643696,-0.00681631779298186,-0.0138886421918869,-0.0100445570424199
929,0.00751640647649765,-0.03057493083179,-0.0157838054001331,-0.0105522768571973,-0.0169861204922199,-0.012382029555738
930,0.00732947094365954,-0.028357794508338,-0.0162346363067627,-0.013336000032723,-0.0200831927359104,-0.0132175190374255
931,0.00828003324568272,-0.0253009255975485,-0.016036506742239,-0.0142410593107343,-0.0222085658460855,-0.0124232601374388
932,0.0110444165766239,-0.0217859987169504,-0.015195363201201,-0.012943159788847,-0.0222175717353821,-0.0102167148143053
933,0.0155801437795162,-0.0187777914106846,-0.01398591324687,-0.0106672216206789,-0.0206536706537008,-0.00795132201164961
934,0.0211462434381247,-0.0162003915756941,-0.0131181059405208,-0.00878706946969032,-0.0182437915354967,-0.00698209041729569
935,0.0263404492288828,-0.0139891598373652,-0.0133824432268739,-0.00761527195572853,-0.014856749214232,-0.00820216350257397
936,0.0297916922718287,-0.0121884159743786,-0.0150122456252575,-0.00646826811134815,-0.0109230661764741,-0.00955543480813503
937,0.0310160480439663,-0.0106926374137402,-0.0174021385610104,-0.00501431757584214,-0.00791253801435232,-0.00711559131741524
938,0.0296672116965055,-0.0102562261745334,-0.0199355781078339,-0.00423006573691964,-0.0067980675958097,-0.00224806019105017
939,0.0263623017817736,-0.0118271904066205,-0.0220974572002888,-0.00487980060279369,-0.00681345164775848,-0.00014749591355212
940,0.0234583374112844,-0.0147282015532255,-0.0230439361184835,-0.00608639791607857,-0.00638595828786492,-0.00240146066062152
941,0.0221416689455509,-0.0171026270836592,-0.0228112563490868,-0.00681482208892703,-0.00531060341745615,-0.00717875128611922
942,0.0218840632587671,-0.0181838311254978,-0.0219236109405756,-0.00674957223236561,-0.00401037465780973,-0.0126199228689075
943,0.0221075527369976,-0.0193337090313435,-0.0206724368035793,-0.00614126399159431,-0.00231132539920509,-0.017821479588747
944,0.0226751230657101,-0.0218723528087139,-0.0193342361599207,-0.00549842370674014,-0.000214643063372932,-0.0216615609824657
945,0.0241969004273415,-0.0249590743333101,-0.0177110806107521,-0.00483939191326499,0.0018246810650453,-0.0227540507912636
946,0.0260153189301491,-0.0276561435312033,-0.0166256222873926,-0.00466121966019273,0.00255724368616939,-0.0219168346375227
947,0.0274956859648228,-0.0290955938398838,-0.0167093258351088,-0.00467863446101546,0.00216356595046818,-0.0198880340903997
948,0.029926149174571,-0.0279414132237434,-0.0166195351630449,-0.00368374399840832,0.00276108249090612,-0.0161814019083977
949,0.0329581461846828,-0.0250400751829147,-0.015745647251606,-0.00230855471454561,0.00457800552248955,-0.0121318912133574
950,0.0352573543787003,-0.0217487085610628,-0.014201614074409,-0.000855996739119291,0.00654882472008467,-0.00885801017284393
951,0.0367499366402626,-0.0181534867733717,-0.0119470776990056,0.00134176132269204,0.00861850660294294,-0.0062229884788394
952,0.0379202738404274,-0.0143664916977286,-0.00917199067771435,0.0039640050381422,0.0112694147974253,-0.00419188663363457
953,0.0394270345568657,-0.0108127845451236,-0.00574914272874594,0.00642257323488593,0.0143972150981426,-0.00201123626902699
954,0.0416493527591228,-0.00784465670585632,-0.00175294966902584,0.00886275712400675,0.0175098571926355,0.00165853009093553
955,0.0436974950134754,-0.00558441458269954,0.00152558065019548,0.0111707262694836,0.020004453137517,0.00645395601168275
956,0.0429214388132095,-0.00458518788218498,0.00235279276967049,0.0118384473025799,0.0203845556825399,0.0103026051074266
957,0.0385174266993999,-0.00433195009827614,0.00103852234315127,0.0106319468468428,0.0183902140706778,0.0138359786942601
958,0.0345256775617599,-0.00210176035761833,0.00059451290871948,0.0101911099627614,0.0170313585549593,0.0207130834460258
959,0.0342234298586845,0.0027781433891505,0.00249223876744509,0.0115612139925361,0.0181709285825491,0.0300634652376175
960,0.0352158732712269,0.00715486379340291,0.00422622822225094,0.012320158071816,0.0192640535533428,0.0355809181928635
961,0.0357910320162773,0.0100775239989161,0.00478049321100116,0.0122144622728229,0.0191152710467577,0.035310223698616
962,0.0377562306821346,0.0132247265428305,0.00544379139319062,0.0132365440949798,0.0197111368179321,0.0325352549552917
963,0.0405091270804405,0.0153283318504691,0.00498049892485142,0.0144623415544629,0.0204371884465218,0.0288484506309032
964,0.0425186827778816,0.0150048136711121,0.00272653345018625,0.0144747197628021,0.0198344755917788,0.0250969752669334
965,0.0440503507852554,0.0134876612573862,0.000538689200766385,0.0138004431501031,0.0189119428396225,0.0228729080408812
966,0.044670645147562,0.0115246707573533,-0.000998442061245441,0.0130975469946861,0.0184803307056427,0.0226137395948172
967,0.0440617054700851,0.00959860812872648,-0.00214833649806678,0.0129729984328151,0.0188350174576044,0.0240464452654123
968,0.0423833392560482,0.00818944908678532,-0.00320865446701646,0.0129558136686683,0.0195654723793268,0.0258336570113897
969,0.0398536026477814,0.0071315155364573,-0.00462682312354445,0.0119658783078194,0.0195756033062935,0.0263854023069143
970,0.037435170263052,0.00634535821154714,-0.00612130528315902,0.0101829580962658,0.0185402445495129,0.0257023479789495
