,AF3,AF4,Fp1,Fp2,AF7,AF8
0,-0.0247997809201479,-0.0114535475149751,0.000277169398032129,0.00393405230715871,0.0291498135775328,0.0193937364965677
1,-0.0219257678836584,-0.0126710422337055,-0.000220276328036562,0.000286206020973623,0.0330983959138393,0.0128330299630761
2,-0.0210438743233681,-0.0168166607618332,-0.00247600651346147,-0.00515493238344789,0.0354157872498035,0.00494032679125667
3,-0.0224573332816362,-0.0236998926848173,-0.00641966657713056,-0.0116663025692105,0.0344632305204868,-0.00228501693345606
4,-0.0250765532255173,-0.0311571508646011,-0.0106812110170722,-0.0179296713322401,0.0315449796617031,-0.00692596612498164
5,-0.026428934186697,-0.0353309772908688,-0.012434059754014,-0.0215349961072207,0.0303390771150589,-0.00754847703501582
6,-0.0242403540760279,-0.033139280974865,-0.00909181404858828,-0.0202368684113026,0.0335969589650631,-0.00345478975214064
7,-0.0196981113404036,-0.0259441900998354,-0.00165266206022352,-0.0149062285199761,0.0396833531558514,0.00392026454210281
8,-0.0158720407634974,-0.0184723250567913,0.00641611451283097,-0.00838296860456467,0.0453906916081905,0.0118241896852851
9,-0.0140942735597491,-0.0140103902667761,0.0126238595694304,-0.0028698449023068,0.0495118424296379,0.0177782736718655
10,-0.01345144957304,-0.0127014676108956,0.0160142034292221,0.000467142584966496,0.0525571219623089,0.0203190185129642
11,-0.012533588334918,-0.012904847972095,0.0170672368258238,0.00195084069855511,0.055727131664753,0.0204919073730707
12,-0.0112235620617867,-0.0133623657748103,0.0169313121587038,0.00253703887574375,0.0595063976943493,0.0201684031635523
13,-0.0099605293944478,-0.0134101752191782,0.0165832247585058,0.00328943086788058,0.063583642244339,0.0205719862133265
14,-0.00981771387159824,-0.013608667999506,0.0159196332097054,0.00434262631461024,0.0667474567890167,0.0220911167562008
15,-0.0116918906569481,-0.0156723074615002,0.0146116390824318,0.00462587969377637,0.0679260641336441,0.023849431425333
16,-0.013467688113451,-0.0188700146973133,0.0145760020241141,0.00488823419436812,0.0690783262252808,0.0260944664478302
17,-0.0122233973816037,-0.020305298268795,0.0179944410920143,0.00754963699728251,0.0729711875319481,0.0304946918040514
18,-0.00758894626051188,-0.0182182528078556,0.0243207607418299,0.0133336521685123,0.0792402774095535,0.037590142339468
19,-0.00158572406508029,-0.0138001218438149,0.0307944547384977,0.0199111960828304,0.0849327519536018,0.0452902019023895
20,0.00313455588184297,-0.0105603905394673,0.0348291099071503,0.0239860247820616,0.0875276997685432,0.0501754581928253
21,0.00485940044745803,-0.0114171411842108,0.0354799181222916,0.0238237734884024,0.086803987622261,0.0500079058110714
22,0.0039411005564034,-0.0158515181392431,0.0334036611020565,0.0202812496572733,0.084590420126915,0.0446438454091549
23,0.00357593619264662,-0.0192181393504143,0.0306911468505859,0.0165596734732389,0.0835450366139412,0.0373403653502464
24,0.00583992293104529,-0.0185030922293663,0.0283157099038363,0.0144325578585267,0.0840977728366852,0.0317191518843174
25,0.00949577335268259,-0.0154241807758808,0.0256334412842989,0.0132445879280567,0.0845906361937523,0.0280240047723055
26,0.014125183224678,-0.011024204082787,0.0240118633955717,0.0136183481663466,0.085168682038784,0.0266456287354231
27,0.020295387133956,-0.00471360841766,0.0261429622769356,0.0170390009880066,0.08710727840662,0.0292449966073036
28,0.0272277537733316,0.0030752569437027,0.0323354117572308,0.0231703296303749,0.090290367603302,0.0354206822812557
29,0.0330437645316124,0.0108728501945734,0.0395105518400669,0.029439402744174,0.0931042730808258,0.0420984625816345
30,0.0359750129282475,0.0169741865247488,0.044102530926466,0.0333179607987404,0.0936414301395416,0.0456872917711735
31,0.0359910503029823,0.0215010829269886,0.0458024069666862,0.0349910371005535,0.0920551344752312,0.0453132949769497
32,0.0348773561418056,0.026171026751399,0.0467013530433178,0.0364502556622028,0.0904928520321846,0.0436900481581688
33,0.0338337868452072,0.0304694082587957,0.0479624941945076,0.0385389178991318,0.0899989828467369,0.0427920036017895
34,0.0318526290357113,0.0311197973787785,0.0488940514624119,0.0399218499660492,0.0892997235059738,0.0410587191581726
35,0.0285597834736109,0.0265311002731323,0.049290619790554,0.0401705540716648,0.0881333574652672,0.0375849828124046
36,0.0264047924429178,0.0192678719758987,0.0506224408745766,0.0413179360330105,0.0886560007929802,0.035106398165226
37,0.0267854612320662,0.0120224701240659,0.0528602935373783,0.043587364256382,0.0906068906188011,0.0358069576323032
38,0.0281375572085381,0.0046262969262898,0.054092038422823,0.0448232069611549,0.0911597162485123,0.0387482568621635
39,0.0294860489666462,-0.00284129148349166,0.0539259947836399,0.0446086078882217,0.0902055203914642,0.0426269099116325
40,0.0306134540587664,-0.0104512767866254,0.0525522492825985,0.0429291985929012,0.0893110483884811,0.0452626906335354
41,0.0312601216137409,-0.0190134346485138,0.0496906861662865,0.0389535687863827,0.0891765132546425,0.0443085730075836
42,0.0316187255084515,-0.0274498295038939,0.0456394776701927,0.0329237170517445,0.0895342454314232,0.0406365618109703
43,0.0316455401480198,-0.0339171253144741,0.0413214489817619,0.0262300781905651,0.0891906842589378,0.0367047190666199
44,0.0318328104913235,-0.0374604128301144,0.0382585935294628,0.020852692425251,0.0877870321273804,0.0339375399053097
45,0.032504566013813,-0.038420420140028,0.0369549579918385,0.0174653716385365,0.0859903320670128,0.032147079706192
46,0.032800205051899,-0.0379482246935368,0.036453302949667,0.0149183757603168,0.0842635184526443,0.0306273996829987
47,0.0320635363459587,-0.0370926782488823,0.0358506105840206,0.0121162245050073,0.0821101740002632,0.0291471593081951
48,0.029864676296711,-0.0373658128082752,0.034274984151125,0.00831539463251829,0.0781780332326889,0.0268717333674431
49,0.0261028278619051,-0.0394071862101555,0.0318107604980469,0.00379633461125195,0.0726644098758698,0.0237430948764086
50,0.0222167428582907,-0.0403906628489494,0.0307979099452496,0.000717754650395364,0.0679124817252159,0.0226648319512606
51,0.0189399551600218,-0.0375703610479832,0.0322840698063374,0.000187642232049257,0.0643506795167923,0.0254088472574949
52,0.015127481892705,-0.0321365371346474,0.0338873565196991,0.000629824760835618,0.0596781857311726,0.0296911746263504
53,0.0112773673608899,-0.0260748155415058,0.0342656075954437,0.00112351879943162,0.0536247603595257,0.0334337316453457
54,0.00939210038632154,-0.02024981752038,0.0346878059208393,0.00264910282567143,0.0483776144683361,0.0369117632508278
55,0.00869141612201929,-0.0166458282619715,0.0348624065518379,0.00467037549242377,0.0439849756658077,0.0395797938108444
56,0.00719417212530971,-0.016608064994216,0.0337722972035408,0.00566498516127467,0.0396190360188484,0.040326364338398
57,0.00607301760464907,-0.0177640318870544,0.0331807620823383,0.00644748704507947,0.0362037755548954,0.040471900254488
58,0.00718833273276687,-0.0174870826303959,0.0343628711998463,0.00790210347622633,0.0332759656012058,0.0411171577870846
59,0.0091593312099576,-0.0166092198342085,0.0356027744710445,0.0085100932046771,0.0288867838680744,0.0405937358736992
60,0.00928144715726376,-0.0168001297861338,0.0355839990079403,0.00696895224973559,0.0229632910341024,0.038139171898365
61,0.00766930310055614,-0.0169483590871096,0.0356920771300793,0.00494230072945356,0.0178961250931025,0.0363029390573502
62,0.00652632582932711,-0.0153168234974146,0.0377071611583233,0.0049530197866261,0.0158586744219065,0.0376602075994015
63,0.00654991623014212,-0.01256955973804,0.0412309393286705,0.00708135357126594,0.0164180230349302,0.0417420193552971
64,0.00615633092820644,-0.0111541664227843,0.0437192358076572,0.00904038734734058,0.0170324761420488,0.0450801216065884
65,0.00445862766355276,-0.0129006430506706,0.0431625805795193,0.00890324823558331,0.0160758253186941,0.0441458001732826
66,0.00347966910339892,-0.0164858661592007,0.0405998565256596,0.007167705334723,0.0147558301687241,0.0388420969247818
67,0.00511955562978983,-0.0192550215870142,0.038362629711628,0.00502739660441875,0.0148656405508518,0.0311295427381992
68,0.0080983517691493,-0.0205243639647961,0.0370618961751461,0.0022391602396965,0.0160435736179352,0.0224051624536514
69,0.0097680501639843,-0.0211564730852842,0.0356163457036018,-0.00182950135786086,0.0163886211812496,0.0137216011062264
70,0.00925521552562714,-0.0220968388020992,0.0334191769361496,-0.00664512813091278,0.0153197888284922,0.00607357360422611
71,0.00712814182043076,-0.0239073745906353,0.0305586867034435,-0.0114657618105412,0.0134540442377329,-8.52487573865801E-05
72,0.00443781912326813,-0.0257587525993586,0.0273658987134695,-0.015686709433794,0.0110897766426206,-0.00431016786023974
73,0.0019794343970716,-0.0263766180723906,0.0244092345237732,-0.0187003277242184,0.00828881189227104,-0.00626413384452462
74,-0.000414962851209566,-0.0255903974175453,0.0225000828504562,-0.019926905632019,0.00557476887479424,-0.00530655449256301
75,-0.00261355447582901,-0.0231254659593105,0.023019740357995,-0.0184296611696482,0.00443847337737679,-0.000373761169612408
76,-0.00488317990675569,-0.019943417981267,0.0257603228092194,-0.0154390390962362,0.00485155638307333,0.00635801767930388
77,-0.00808444991707802,-0.0182373970746994,0.0284416563808918,-0.0142974648624659,0.00451429467648268,0.0107809295877814
78,-0.01119264960289,-0.0180231686681509,0.0297948587685823,-0.0162432324141264,0.00263239210471511,0.0119798593223095
79,-0.0127172293141484,-0.0182982068508863,0.0295225363224745,-0.0203624255955219,-6.67996500851586E-05,0.0108328312635422
80,-0.0121720591560006,-0.017994437366724,0.0278285574167967,-0.0249892845749855,-0.00283005088567734,0.00863214582204819
81,-0.00933664571493864,-0.0158336572349072,0.026232348755002,-0.0281173307448626,-0.00423081079497933,0.00748522020876408
82,-0.00622288370504975,-0.0131061458960176,0.0248905010521412,-0.0296547617763281,-0.00446134759113193,0.00747129879891872
83,-0.00574188400059938,-0.0122268749400973,0.0223302952945232,-0.0306531768292189,-0.00499785644933581,0.00710606342181563
84,-0.00712528405711055,-0.0122310882434249,0.019226435571909,-0.0301381833851337,-0.00487662339583039,0.00734202191233635
85,-0.00770881213247776,-0.0112472763285041,0.0168822705745697,-0.0272224899381399,-0.00303791626356542,0.00977549515664577
86,-0.00752665242180228,-0.011227099224925,0.0141219357028604,-0.0238701719790697,-0.00114363920874894,0.012790490873158
87,-0.00730341393500566,-0.0146504351869226,0.010146769694984,-0.0217727702111006,-0.000154295601532795,0.0144152389839292
88,-0.00545250112190843,-0.0205035116523504,0.00652958685532212,-0.0203712694346905,0.00129229540470988,0.0149002466350794
89,-0.00114965601824224,-0.0265226271003485,0.00460095657035708,-0.0190289616584778,0.00405392749235034,0.0146663533523679
90,0.00371383968740702,-0.0313361920416355,0.00416172575205565,-0.0178461708128452,0.00705961743369699,0.013911746442318
91,0.0083557590842247,-0.0332323871552944,0.00576194049790502,-0.0155018046498299,0.00956787168979645,0.0146906496956944
92,0.0131223043426871,-0.032247643917799,0.00945701077580452,-0.0107200741767883,0.0114369224756956,0.0189278647303581
93,0.0169593580067158,-0.0316173285245895,0.0130104096606374,-0.00514785340055823,0.012528688646853,0.0251259710639715
94,0.0194432437419891,-0.0325878411531448,0.015410996042192,-0.000835377140901983,0.0143152875825763,0.0304941013455391
95,0.0213589426130056,-0.0331441983580589,0.0172439981251955,0.00164132413920015,0.0181531682610512,0.0336579456925392
96,0.0235182922333479,-0.0317984558641911,0.0188084561377764,0.00250560976564884,0.0238507427275181,0.0344695411622524
97,0.025641793385148,-0.0293594710528851,0.0199461039155722,0.00207453942857683,0.0301583744585514,0.0329578444361687
98,0.0264597069472075,-0.0272672362625599,0.0197706501930952,0.000662663718685508,0.0352082140743732,0.0304352901875973
99,0.0251113027334213,-0.026019187644124,0.0172519292682409,-0.00102351151872426,0.0377943105995655,0.0295144654810429
100,0.021627601236105,-0.0255867633968592,0.0128021519631147,-0.00212477729655802,0.0378753505647182,0.0315162502229214
101,0.0166261661797762,-0.0260765161365271,0.00768087012693286,-0.00320176617242396,0.0358170196413994,0.0349958948791027
102,0.0110679874196649,-0.0275704897940159,0.00281244260258973,-0.00550154037773609,0.0324636436998844,0.0376671776175499
103,0.00728375790640712,-0.0285074152052403,0.000242509151576087,-0.0072153601795435,0.0301379207521677,0.0405021794140339
104,0.00689091207459569,-0.0275175273418427,0.00111712620127946,-0.00582850119099021,0.0303922779858112,0.0451655574142933
105,0.00839699525386095,-0.025735491886735,0.0032311778049916,-0.00228489981964231,0.0322571434080601,0.0498802587389946
106,0.0101804239675403,-0.0239612068980932,0.00484043871983886,0.00167384080123156,0.0348586067557335,0.0533498674631119
107,0.0120982490479946,-0.0220448058098555,0.00662332214415073,0.00557677308097482,0.0385024100542068,0.0566515550017357
108,0.0136117413640022,-0.0208119340240955,0.00870107673108578,0.00872192811220884,0.0424582399427891,0.0597474090754986
109,0.0145775936543942,-0.0202946942299604,0.0105178123340011,0.0107600810006261,0.0457032695412636,0.0620649494230747
110,0.0160090439021587,-0.0197514984756708,0.0119584174826741,0.0119246719405055,0.0486295334994793,0.0637570396065712
111,0.0175420306622982,-0.020384456962347,0.0123467342928052,0.0115841226652265,0.0507733188569546,0.0639424249529839
112,0.0177114140242338,-0.023070216178894,0.0116474404931068,0.00972682982683182,0.0509271882474422,0.0625365599989891
113,0.0166867114603519,-0.026083342730999,0.0110996598377824,0.0079753240570426,0.0496199615299702,0.0620698779821396
114,0.0165637768805027,-0.0269108079373837,0.0118024041876197,0.00815494637936354,0.0495155863463879,0.0651210397481918
115,0.0184425301849842,-0.0248269718140364,0.013885635882616,0.0104575166478753,0.0525680780410767,0.0716514587402344
116,0.0210136789828539,-0.0216401424258947,0.0165715198963881,0.0131932264193892,0.0574171803891659,0.0790645331144333
117,0.0233011692762375,-0.0185870062559843,0.0196948051452637,0.0157403536140919,0.0615692473948002,0.0857775658369064
118,0.0250463988631964,-0.0155244441702962,0.0232154857367277,0.018536489456892,0.0633686259388924,0.0922498777508736
119,0.0251902267336845,-0.0135347098112106,0.0257259346544743,0.0204408504068851,0.0625140368938446,0.0974959060549736
120,0.0243285372853279,-0.013681098818779,0.0262374114245176,0.0200290139764547,0.0607747957110405,0.0994620770215988
121,0.0258583184331656,-0.0136179318651557,0.0267751608043909,0.0190498791635036,0.0617589727044106,0.0996638536453247
122,0.030369708314538,-0.0101922675967216,0.0297166872769594,0.0208756309002638,0.0662566646933556,0.102752037346363
123,0.03379200771451,-0.00433275522664189,0.0339676141738892,0.0253569260239601,0.0697581991553307,0.110075138509274
124,0.0341701433062553,0.00188403436914086,0.0383925996720791,0.0305613689124584,0.0701631829142571,0.119496941566467
125,0.0337050780653954,0.00855335127562284,0.043497696518898,0.0358740240335464,0.0703584477305412,0.12990802526474
126,0.0342753678560257,0.0163629539310932,0.0486241914331913,0.0408206135034561,0.0723205283284187,0.140934348106384
127,0.0359062328934669,0.0253004245460033,0.0528367571532726,0.0453954450786114,0.0758172422647476,0.15140962600708
128,0.0380814634263515,0.0343623161315918,0.0564473941922188,0.050158254802227,0.0803858190774918,0.160376951098442
129,0.040085531771183,0.0421159453690052,0.0596952959895134,0.0550485402345657,0.0854950696229935,0.16791045665741
130,0.0401997826993465,0.0464259050786495,0.0614572651684284,0.0587130822241306,0.0901191309094429,0.173312768340111
131,0.0374786332249641,0.0462975278496742,0.0613501183688641,0.0601458847522736,0.0937170460820198,0.175790041685104
132,0.0332112461328506,0.0433823429048061,0.060619443655014,0.0602720007300377,0.096703328192234,0.17626827955246
133,0.0299810450524092,0.0402505733072758,0.0609925538301468,0.0608447790145874,0.101080261170864,0.17669589817524
134,0.0302168913185596,0.0392850488424301,0.0638498067855835,0.0626237988471985,0.108838371932507,0.178738698363304
135,0.0341922007501125,0.0412916168570518,0.0685704499483109,0.0652661919593811,0.118277363479137,0.182506054639816
136,0.0402285233139992,0.0446788817644119,0.0731640532612801,0.0684041827917099,0.126179575920105,0.186649307608604
137,0.0456648543477058,0.0468957833945751,0.0755320936441422,0.071088895201683,0.131027325987816,0.189374104142189
138,0.0481171533465385,0.0467280820012093,0.0739512220025063,0.0718878656625748,0.132201537489891,0.189620777964592
139,0.0477429628372192,0.0451230630278587,0.0687944740056992,0.070645697414875,0.13029582798481,0.18764391541481
140,0.0469051115214825,0.0436207242310047,0.0629413574934006,0.0686363950371742,0.127880647778511,0.184341982007027
141,0.0472731180489063,0.0426878333091736,0.0591298677027225,0.067221961915493,0.127077639102936,0.180735364556313
142,0.048663716763258,0.0420877486467361,0.0579932518303394,0.0672846958041191,0.127878502011299,0.177853971719742
143,0.0508734844624996,0.0420176163315773,0.0591951981186867,0.0689882561564446,0.129764974117279,0.176381558179855
144,0.0535222068428993,0.0420685224235058,0.0614547170698643,0.070882074534893,0.131603732705116,0.175482079386711
145,0.0544013381004334,0.0399900637567043,0.0624231733381748,0.0706054642796516,0.131471276283264,0.172579780220985
146,0.0520098023116589,0.0347141288220882,0.0613085590302944,0.0676934346556664,0.129227474331856,0.166643425822258
147,0.0481581650674343,0.0290633253753185,0.0596377514302731,0.0643207058310509,0.126993060112,0.159967750310898
148,0.0459196493029594,0.0265777036547661,0.0594693124294281,0.0628667697310448,0.126970082521439,0.155596703290939
149,0.0455261915922165,0.026785621419549,0.060675248503685,0.0629381760954857,0.12858210504055,0.153906255960464
150,0.0451442934572697,0.0270110666751862,0.0611508823931217,0.0627432018518448,0.129319354891777,0.153323978185654
151,0.0446896776556969,0.0264891795814037,0.0600852817296982,0.0620810277760029,0.128632575273514,0.152871429920197
152,0.0453302152454853,0.0255173407495022,0.0582806244492531,0.0613559447228909,0.127695694565773,0.152202874422073
153,0.0477256216108799,0.024570781737566,0.0573073104023933,0.0612955465912819,0.12699556350708,0.152184188365936
154,0.0512154139578342,0.0245236046612263,0.0584205463528633,0.0629947856068611,0.126766413450241,0.154018834233284
155,0.054733470082283,0.0260658711194992,0.0613113977015018,0.0663706511259079,0.128646075725555,0.157312393188477
156,0.0583903230726719,0.0297265201807022,0.0652582198381424,0.0707832276821136,0.13394558429718,0.161147862672806
157,0.0623105652630329,0.0349652543663979,0.0698564872145653,0.0756045430898666,0.140495851635933,0.164956524968147
158,0.0665572509169579,0.0409300252795219,0.0749987065792084,0.0803845599293709,0.144828349351883,0.168724030256271
159,0.0713004395365715,0.0475135669112206,0.0803563520312309,0.085259698331356,0.146016821265221,0.173013120889664
160,0.0752508938312531,0.0532024875283241,0.0842998847365379,0.0897034108638763,0.145443499088287,0.177214443683624
161,0.0765729025006294,0.0557366535067558,0.0854244902729988,0.0925413221120834,0.144650101661682,0.179595798254013
162,0.0747046992182732,0.0542657822370529,0.0837337076663971,0.093129962682724,0.143473967909813,0.179010644555092
163,0.0707927942276001,0.0491767227649689,0.0799705907702446,0.0919438377022743,0.140935972332954,0.175513818860054
164,0.0667153745889664,0.0419552810490131,0.0755762606859207,0.0901970863342285,0.137582451105118,0.170309409499168
165,0.0634917467832565,0.0343650877475739,0.0720649436116219,0.0883378684520721,0.135064467787743,0.164527475833893
166,0.0608576983213425,0.0270737074315548,0.0697171613574028,0.0860208123922348,0.133866876363754,0.158586248755455
167,0.0578166171908379,0.0201382674276829,0.0675921440124512,0.0829577296972275,0.132854610681534,0.152700290083885
168,0.054447703063488,0.0147274546325207,0.0655294135212898,0.0793293640017509,0.131881639361382,0.146896868944168
169,0.0518555827438831,0.0131215015426278,0.0648337826132774,0.0764356628060341,0.132204279303551,0.141990721225739
170,0.0488026849925518,0.015648115426302,0.0653085708618164,0.0748450085520744,0.132260650396347,0.138950541615486
171,0.0438819900155067,0.0207405928522348,0.0659552365541458,0.0739315897226334,0.129774764180183,0.138632997870445
172,0.0383282452821732,0.0267094150185585,0.0669514685869217,0.0731292441487312,0.125653669238091,0.141353502869606
173,0.0331552810966969,0.0316073931753635,0.0679699704051018,0.0716034173965454,0.121308490633965,0.144800171256065
174,0.0285309925675392,0.0346473604440689,0.0685094892978668,0.0692517012357712,0.117359504103661,0.146021261811256
175,0.024812214076519,0.0363432243466377,0.0686275139451027,0.0667234063148499,0.114435084164143,0.143678307533264
176,0.0228541493415833,0.0380309522151947,0.0691031068563461,0.0651557296514511,0.113922484219074,0.138989865779877
177,0.0222252234816551,0.0406342409551144,0.0700810700654984,0.065185122191906,0.115724213421345,0.134281694889069
178,0.0218365136533976,0.0436861626803875,0.0709017813205719,0.0663613900542259,0.117826461791992,0.130379870533943
179,0.0227059051394463,0.0471213459968567,0.0725691244006157,0.0690794661641121,0.119830779731274,0.128085017204285
180,0.0251206438988447,0.0508302450180054,0.0758359953761101,0.0734140947461128,0.121683143079281,0.128294378519058
181,0.0267302133142948,0.0526512563228607,0.0786351263523102,0.0769314542412758,0.12136272341013,0.12944383919239
182,0.0262440741062164,0.0502725318074226,0.0785869583487511,0.0772433653473854,0.117512330412865,0.129328951239586
183,0.0255849622189999,0.0446645244956017,0.0765053182840347,0.0752195045351982,0.112252421677113,0.128550589084625
184,0.0272871032357216,0.0392237566411495,0.0755748003721237,0.0734046548604965,0.109202854335308,0.129068121314049
185,0.0315432175993919,0.0362863466143608,0.0771040171384811,0.0729841142892838,0.109174706041813,0.131572246551514
186,0.0350882820785046,0.0348652936518192,0.078513614833355,0.0725041776895523,0.108969204127789,0.134317487478256
187,0.0346523486077785,0.0330312624573708,0.0770649909973145,0.0701229721307755,0.105918906629086,0.135097965598106
188,0.0318562909960747,0.0316591709852219,0.0734473317861557,0.0668646618723869,0.101493321359158,0.134775832295418
189,0.0294878389686346,0.0313287228345871,0.06888048350811,0.0637862309813499,0.0975015163421631,0.134432032704353
190,0.0276116672903299,0.0308832842856646,0.063609354197979,0.0603942573070526,0.0939794331789017,0.133214801549912
191,0.0266160611063242,0.0311215352267027,0.059342697262764,0.0577405989170074,0.0917867869138718,0.132013082504272
192,0.026612676680088,0.0330446846783161,0.0572197623550892,0.0567204654216766,0.0914950296282768,0.132191807031631
193,0.0268212798982859,0.0358766056597233,0.0562544390559196,0.0566414073109627,0.0924731120467186,0.132942736148834
194,0.0271307472139597,0.0383836515247822,0.0553473196923733,0.0568874068558216,0.0938224792480469,0.132776111364365
195,0.0269770808517933,0.039537213742733,0.0536099970340729,0.0565642900764942,0.0938989967107773,0.130180820822716
196,0.0261011756956577,0.0398077890276909,0.0506672784686089,0.0551780872046947,0.0913659408688545,0.125006586313248
197,0.025018623098731,0.0400943495333195,0.0469667017459869,0.0532723814249039,0.0864103958010674,0.118832722306252
198,0.0246662385761738,0.0404704920947552,0.0435125567018986,0.051672451198101,0.0812202990055084,0.113077364861965
199,0.0250947456806898,0.0404248461127281,0.0402932092547417,0.0502670370042324,0.0773390606045723,0.107973538339138
200,0.0255212727934122,0.0398382917046547,0.0369287244975567,0.048747792840004,0.0739878416061401,0.104005217552185
201,0.0263103134930134,0.0395490042865276,0.0345269776880741,0.0480431132018566,0.0706799253821373,0.102619387209415
202,0.0263860672712326,0.0382044836878777,0.032493244856596,0.047434251755476,0.0665239989757538,0.102315574884415
203,0.0246779453009367,0.0342350341379642,0.0294881872832775,0.0453449077904224,0.0615487284958363,0.100140981376171
204,0.0237536504864693,0.0304594561457634,0.0271911937743425,0.0433104038238525,0.0589605681598186,0.0969568118453026
205,0.025223134085536,0.0300884880125523,0.0271391626447439,0.0433882474899292,0.0603964440524578,0.0946065783500671
206,0.0275877434760332,0.032936617732048,0.0285077728331089,0.0453569367527962,0.0639897212386131,0.0928958579897881
207,0.0306039601564407,0.0379731431603432,0.0312547832727432,0.0487464107573032,0.0683889389038086,0.0919431671500206
208,0.0345482714474201,0.0437982752919197,0.0356977395713329,0.0531667694449425,0.072851650416851,0.0920421481132507
209,0.0372538454830647,0.0473531968891621,0.0394304655492306,0.0570052787661552,0.0752676874399185,0.0919169485569
210,0.0380346402525902,0.0477125495672226,0.0407058596611023,0.0594742372632027,0.0755752399563789,0.0908974260091782
211,0.0388316139578819,0.0473748110234737,0.0403677374124527,0.0609658882021904,0.0759969279170036,0.0898126810789108
212,0.039490107446909,0.047669094055891,0.038579598069191,0.0611131116747856,0.0763644352555275,0.0896665006875992
213,0.0392663069069386,0.0488256067037582,0.0361740738153458,0.0605400130152702,0.0762567147612572,0.0920178666710854
214,0.0389896854758263,0.05100417137146,0.0348546877503395,0.0602705925703049,0.0761781632900238,0.0967706888914108
215,0.0382104925811291,0.0530072152614594,0.0338724330067635,0.0594530999660492,0.0746809840202332,0.10100244730711
216,0.0360289104282856,0.0543048344552517,0.0319302305579185,0.0580527372658253,0.0712466984987259,0.102851755917072
217,0.0329622477293015,0.0553624182939529,0.0295586530119181,0.0575143806636333,0.0680892840027809,0.102506265044212
218,0.0296511109918356,0.0559745766222477,0.0274766907095909,0.057885680347681,0.0670536607503891,0.100127167999744
219,0.0266448482871056,0.0559664703905582,0.0255217254161835,0.0581398271024227,0.0676968321204185,0.0960430577397347
220,0.024318553507328,0.055260706692934,0.0230221543461084,0.0577604658901691,0.0678009837865829,0.0909052118659019
221,0.0219736825674772,0.0532494112849236,0.0194433368742466,0.056355357170105,0.0652227476239204,0.0849054977297783
222,0.0195588711649179,0.0501543022692204,0.0156261511147022,0.0541239306330681,0.0602914728224278,0.0789966806769371
223,0.0182112026959658,0.0468194000422955,0.0128214880824089,0.0519753135740757,0.054974552243948,0.074723519384861
224,0.0182203818112612,0.0439032018184662,0.010877700522542,0.0503769628703594,0.0498266965150833,0.0726042911410332
225,0.0183729119598866,0.0421279296278954,0.00864976085722446,0.0486766956746578,0.0438130162656307,0.0717490687966347
226,0.0176450125873089,0.0422485880553722,0.00566605944186449,0.0463207326829433,0.0366465076804161,0.071050226688385
227,0.0161239635199308,0.044892854988575,0.002518828259781,0.0440098941326141,0.0296920128166676,0.0699643269181252
228,0.0134282615035772,0.048517283052206,-0.00109225057531148,0.0414694882929325,0.0238944124430418,0.0669512152671814
229,0.0105862775817513,0.0521815791726112,-0.00426075747236609,0.0387595444917679,0.0200738292187452,0.0622991397976875
230,0.00994412880390882,0.0571984574198723,-0.00447568623349071,0.0372114516794682,0.0187361352145672,0.0585397370159626
231,0.0111903008073568,0.0618203692138195,-0.00259610218927264,0.0358979851007462,0.0177708137780428,0.0549968406558037
232,0.0123383244499564,0.0622776634991169,-0.00175605795811862,0.0328864641487598,0.014400782994926,0.0491540841758251
233,0.0132164815440774,0.0587898418307304,-0.00241125421598554,0.0288223065435886,0.00900056399405003,0.0417686514556408
234,0.0149967931210995,0.0550507307052612,-0.00267638778313994,0.0259256288409233,0.00412586750462651,0.0356776788830757
235,0.0168971586972475,0.0525506138801575,-0.00219550146721303,0.0244521573185921,0.000262251298408955,0.0313489139080048
236,0.0172560811042786,0.050021942704916,-0.00201484723947942,0.0231968406587839,-0.00323236896656454,0.0279983021318913
237,0.0155360931530595,0.0463989526033401,-0.00275851553305984,0.0214829258620739,-0.00645664939656854,0.025820666924119
238,0.0118734585121274,0.041463378816843,-0.00479244720190763,0.0187902040779591,-0.010224774479866,0.0245841071009636
239,0.00774375163018703,0.0369773246347904,-0.00741726718842983,0.0155671071261168,-0.0142747508361936,0.0242757052183151
240,0.00476198783144355,0.0356859229505062,-0.00923771690577269,0.0131532354280353,-0.0172209292650223,0.0255242865532637
241,0.00316142872907221,0.0382541157305241,-0.0095943920314312,0.0120504954829812,-0.0186970252543688,0.0277807377278805
242,0.00243640877306461,0.0433180443942547,-0.00885989237576723,0.0115572884678841,-0.0191349163651466,0.0296652372926474
243,0.00176620553247631,0.0489849224686623,-0.00820064079016447,0.0105731775984168,-0.0194479841738939,0.0303012672811747
244,0.000506971206050366,0.0538199916481972,-0.00876699946820736,0.00848088040947914,-0.0209700707346201,0.0297052729874849
245,-0.000960012781433761,0.0570803806185722,-0.0109381480142474,0.00532427616417408,-0.0247280914336443,0.0282523725181818
246,-0.00121890881564468,0.0587524622678757,-0.0134633220732212,0.00208385311998427,-0.0298245064914227,0.0259458739310503
247,0.000709747662767768,0.0600061006844044,-0.0142840426415205,0.000392125744838268,-0.0336009413003922,0.0235139857977629
248,0.00385335739701986,0.0618602745234966,-0.0133501794189215,0.000691965804435313,-0.0347378477454185,0.0219452269375324
249,0.0051116906106472,0.0628324598073959,-0.0137196118012071,0.000738061964511871,-0.0355227962136269,0.0197168570011854
250,0.00324781495146453,0.0611480958759785,-0.0172451250255108,-0.00161898101214319,-0.0383092947304249,0.0153333637863398
251,0.00154068320989609,0.0579787865281105,-0.0213056523352861,-0.0048831133171916,-0.041389461606741,0.0111318789422512
252,0.00249758455902338,0.0548773035407066,-0.0236910451203585,-0.00673537561669946,-0.0430985167622566,0.00981219578534365
253,0.0054082521237433,0.0517500042915344,-0.0245442036539316,-0.00699460366740823,-0.0441671498119831,0.0111663108691573
254,0.00913410913199186,0.0482834279537201,-0.0238651763647795,-0.00640184478834271,-0.0450080297887325,0.0139726055786014
255,0.0123814009130001,0.0440761484205723,-0.0224076490849257,-0.00620871875435114,-0.0462119802832603,0.016806049272418
256,0.0144673837348819,0.0397209525108337,-0.0209557563066483,-0.0067982948385179,-0.0483409017324448,0.018501590937376
257,0.0159793626517057,0.0370610728859901,-0.0193334240466356,-0.00690327817574143,-0.0507048256695271,0.0188906621187925
258,0.0163725763559341,0.0354054570198059,-0.0186764039099216,-0.00693979812785983,-0.05278455093503,0.0167455524206162
259,0.0146734220907092,0.0326162092387676,-0.0201826859265566,-0.00817504711449146,-0.0548780634999275,0.011477398686111
260,0.0125291608273983,0.0299581438302994,-0.0220282915979624,-0.00911656115204096,-0.0562882870435715,0.00617609499022365
261,0.0118147963657975,0.0292380396276712,-0.0225337967276573,-0.00851364526897669,-0.0564649105072021,0.0030497491825372
262,0.0108114127069712,0.0286638345569372,-0.0236712545156479,-0.00842239800840616,-0.057725865393877,-4.28269304393325E-05
263,0.00787053816020489,0.0270581413060427,-0.0267280880361795,-0.00999675970524549,-0.0609717629849911,-0.00472740409895778
264,0.00456749694421887,0.0261290837079287,-0.0298979226499796,-0.0114069599658251,-0.0638311430811882,-0.00953968148678541
265,0.0024523613974452,0.0265347827225924,-0.0323202535510063,-0.0115445284172893,-0.065166674554348,-0.013278977945447
266,0.00134440290275961,0.0266624018549919,-0.0351568646728992,-0.0114302067086101,-0.0656340569257736,-0.0166489537805319
267,0.000112358953629155,0.0248385854065418,-0.0395989269018173,-0.0127845983952284,-0.0659835413098335,-0.021333459764719
268,-0.000983914243988693,0.0219014454632998,-0.0446945652365685,-0.0153300818055868,-0.0654154568910599,-0.0270316675305367
269,-0.000870566989760846,0.0193998403847218,-0.0482529178261757,-0.0170539729297161,-0.0632321462035179,-0.0315028801560402
270,0.000334232783643529,0.0175250601023436,-0.0489106401801109,-0.0168577805161476,-0.0602811761200428,-0.0334512330591679
271,0.00300782173871994,0.0172397159039974,-0.0457868166267872,-0.0143368961289525,-0.0563410259783268,-0.0323483757674694
272,0.0068672806955874,0.0191030781716108,-0.0400398746132851,-0.0104179605841637,-0.0518488734960556,-0.0290153790265322
273,0.00962861347943544,0.0214065779000521,-0.0352965071797371,-0.00783864222466946,-0.0499012358486652,-0.0263103488832712
274,0.00981506239622831,0.0226264297962189,-0.0340425670146942,-0.00814184080809355,-0.052232701331377,-0.0266516730189323
275,0.00784015282988548,0.0229333844035864,-0.0356858894228935,-0.01037931535393,-0.0572043024003506,-0.0297509413212538
276,0.00495955627411604,0.0226569138467312,-0.0383015759289265,-0.0133609296754003,-0.0621520280838013,-0.0336742848157883
277,0.00244947173632681,0.0213916674256325,-0.040429349988699,-0.0165303628891706,-0.0650111585855484,-0.03704933822155
278,0.000150145860970952,0.0183099694550037,-0.0421023741364479,-0.0196063369512558,-0.0659605413675308,-0.0400453619658947
279,-0.00238615437410772,0.0137500893324614,-0.0437681414186955,-0.0218567941337824,-0.0665542706847191,-0.0428369790315628
280,-0.00476349610835314,0.00928593799471855,-0.0451945550739765,-0.0225335210561752,-0.0673892199993134,-0.0448592379689217
281,-0.00689370511099696,0.00602960959076881,-0.0458479411900043,-0.0222088359296322,-0.0682569071650505,-0.0459385737776756
282,-0.00831218995153904,0.0046169413253665,-0.0446313284337521,-0.0218455567955971,-0.0686206892132759,-0.046001385897398
283,-0.0095765758305788,0.00358035275712609,-0.0422556959092617,-0.0229155272245407,-0.0695038586854935,-0.0463450364768505
284,-0.0122299669310451,0.000576635589823127,-0.0409464314579964,-0.0267018433660269,-0.072555772960186,-0.048979327082634
285,-0.0147146126255393,-0.00294413883239031,-0.0405397713184357,-0.0317674018442631,-0.076370544731617,-0.0530104301869869
286,-0.0145012373104692,-0.00355311715975404,-0.0395426265895367,-0.0353055894374847,-0.0790985524654388,-0.0559691935777664
287,-0.0123350853100419,-0.000662946200463921,-0.0376600548624992,-0.0365576595067978,-0.08167714625597,-0.0575665906071663
288,-0.00995001196861267,0.00397609686478972,-0.0352056063711643,-0.0364126414060593,-0.0848420560359955,-0.0586947053670883
289,-0.00808210112154484,0.0086994394659996,-0.0324140414595604,-0.0354763679206371,-0.0873164609074593,-0.0593897141516209
290,-0.00670371251180768,0.012494713999331,-0.0294066313654184,-0.0342731289565563,-0.086933933198452,-0.0596446990966797
291,-0.0044267694465816,0.0159834083169699,-0.0258040465414524,-0.0327396653592587,-0.0821838304400444,-0.0591850914061069
292,-0.0010698550613597,0.0197447203099728,-0.02193932980299,-0.030765974894166,-0.0749842450022697,-0.0578933842480183
293,0.000805990188382566,0.0218357499688864,-0.0192637424916029,-0.0294919814914465,-0.0696804523468018,-0.0572104007005692
294,-0.000163950695423409,0.0208516828715801,-0.0179763156920671,-0.0295585431158543,-0.0680056437849998,-0.0580583177506924
295,-0.00213427492417395,0.0184664577245712,-0.0165857970714569,-0.0297286175191402,-0.0678245350718498,-0.0591641366481781
296,-0.00324096973054111,0.0162953641265631,-0.0147776445373893,-0.0288272108882666,-0.0671864002943039,-0.0596743784844875
297,-0.00390209350734949,0.0139230908825994,-0.0139530254527926,-0.027442017570138,-0.0666179805994034,-0.0606509372591972
298,-0.00513518182560802,0.0107839135453105,-0.0150368623435497,-0.0269138347357512,-0.0673610270023346,-0.0631274655461311
299,-0.00724126119166613,0.0072272433899343,-0.0183894969522953,-0.0282367393374443,-0.0698982253670692,-0.0667331963777542
300,-0.0103557202965021,0.00361832696944475,-0.0237144380807877,-0.0314705185592175,-0.0737112611532211,-0.0702866762876511
301,-0.0138539141044021,0.000490829348564148,-0.0288144052028656,-0.0350899249315262,-0.0771898850798607,-0.0724312514066696
302,-0.0167038328945637,-0.000511050340719521,-0.0311568789184093,-0.0373099371790886,-0.0786589235067368,-0.0721604749560356
303,-0.0193680357187986,0.0008375957258977,-0.0311600416898727,-0.038594551384449,-0.0784051343798637,-0.0705062374472618
304,-0.022054111585021,0.00245535396970809,-0.0307339746505022,-0.0404883064329624,-0.0774800404906273,-0.0697520673274994
305,-0.023385489359498,0.00348007050342858,-0.0300634019076824,-0.0429312027990818,-0.0761435478925705,-0.0702686160802841
306,-0.0230311099439859,0.00418728124350309,-0.0292435139417648,-0.0453676842153072,-0.0753103867173195,-0.0710306465625763
307,-0.0224267914891243,0.0041806916706264,-0.0293806251138449,-0.0478785261511803,-0.0760334581136703,-0.0713815912604332
308,-0.0229995660483837,0.00347484741359949,-0.0310277342796326,-0.0501842983067036,-0.0782073736190796,-0.070928655564785
309,-0.0246207863092422,0.00302895903587341,-0.0333616770803928,-0.0515086054801941,-0.0806659683585167,-0.070039764046669
310,-0.0266503877937794,0.00335110677406192,-0.0349118933081627,-0.0515326485037804,-0.0823425278067589,-0.069747731089592
311,-0.0292996950447559,0.00418350473046303,-0.0350541025400162,-0.0510189719498158,-0.0835235714912415,-0.0702224299311638
312,-0.0334102101624012,0.00412776088342071,-0.0353231579065323,-0.0520086251199245,-0.0852119103074074,-0.072067104279995
313,-0.0398746430873871,0.000977668212726712,-0.0383206494152546,-0.056009765714407,-0.0877633988857269,-0.0770601183176041
314,-0.0470080375671387,-0.00408925069496036,-0.0431784316897392,-0.0609871372580528,-0.0893415436148643,-0.0834517404437065
315,-0.0516442582011223,-0.00774370459839702,-0.0467750802636147,-0.0638988390564919,-0.0883055031299591,-0.0869913920760155
316,-0.0537229850888252,-0.010289111174643,-0.0489334762096405,-0.064767561852932,-0.0869413986802101,-0.0872808992862701
317,-0.0553300082683563,-0.0138207115232944,-0.0512684881687164,-0.0648271888494492,-0.0881825089454651,-0.08607117831707
318,-0.0578968934714794,-0.0189214125275612,-0.0546813122928143,-0.0646765530109406,-0.0921950563788414,-0.0845410898327827
319,-0.0614754483103752,-0.0253309644758701,-0.0586840249598026,-0.0648521259427071,-0.0976631417870522,-0.0843075960874558
320,-0.0642679035663605,-0.0315433591604233,-0.0612288415431976,-0.0651864930987358,-0.102252930402756,-0.0854775756597519
321,-0.0644842684268951,-0.0358606949448586,-0.0609400682151318,-0.0651213005185127,-0.103547587990761,-0.0867190137505531
322,-0.0612397156655788,-0.0370567999780178,-0.0574959255754948,-0.0640714317560196,-0.100679345428944,-0.0867296233773232
323,-0.0550223588943481,-0.034907627850771,-0.0518343262374401,-0.0620651096105576,-0.0945998653769493,-0.0851667374372482
324,-0.0488537847995758,-0.0318351313471794,-0.0469588115811348,-0.0606937147676945,-0.0872280076146126,-0.0839040279388428
325,-0.0459886156022549,-0.0305873565375805,-0.045161847025156,-0.0611186437308788,-0.0804111957550049,-0.0848978236317635
326,-0.0468053221702576,-0.0312889367341995,-0.0458771772682667,-0.0621798597276211,-0.0752399563789368,-0.0875505581498146
327,-0.0488799810409546,-0.0317031405866146,-0.0468257814645767,-0.0616558268666267,-0.0717122629284859,-0.0890097692608833
328,-0.0504614599049091,-0.0304955746978521,-0.0469245128333569,-0.0587658807635307,-0.0699678137898445,-0.0876298025250435
329,-0.052868340164423,-0.0287600420415401,-0.0473723970353603,-0.0544538870453835,-0.0712183639407158,-0.0842489749193192
330,-0.0584694482386112,-0.0276163294911385,-0.0493322722613811,-0.0499879643321037,-0.076226219534874,-0.079873114824295
331,-0.0663308873772621,-0.025954881682992,-0.0512234345078468,-0.0451530180871487,-0.0828078091144562,-0.0739634931087494
332,-0.072159580886364,-0.0221070051193237,-0.0499137900769711,-0.0387240573763847,-0.0869412869215012,-0.0657479166984558
333,-0.0736680179834366,-0.0179025456309319,-0.0447368547320366,-0.032220508903265,-0.0868108421564102,-0.0582477673888206
334,-0.0721288695931435,-0.0172290056943893,-0.0386110059916973,-0.0296609196811914,-0.0834935083985329,-0.0571031607687473
335,-0.0682647973299026,-0.0199263915419579,-0.0347784459590912,-0.0320141017436981,-0.0782023146748543,-0.0630857422947884
336,-0.0626133903861046,-0.0230647567659616,-0.0348329171538353,-0.036904089152813,-0.0731601566076279,-0.0719898417592049
337,-0.0571546517312527,-0.0262305289506912,-0.0385196022689343,-0.0424240045249462,-0.0712730586528778,-0.0809720978140831
338,-0.0527492687106133,-0.0308676064014435,-0.0436632372438908,-0.0474512241780758,-0.0717988833785057,-0.0894713923335075
339,-0.0494713075459003,-0.0378560572862625,-0.0484930835664272,-0.051431629806757,-0.0726023241877556,-0.0976343750953674
340,-0.0478759557008743,-0.0456307232379913,-0.0522942766547203,-0.0536758527159691,-0.0737420693039894,-0.104464493691921
341,-0.0483592078089714,-0.0517378263175488,-0.0542948767542839,-0.0533434823155403,-0.0752317383885384,-0.108222901821136
342,-0.0500838570296764,-0.0556195490062237,-0.053530253469944,-0.0503354221582413,-0.0752538964152336,-0.108562849462032
343,-0.0509880185127258,-0.0571923702955246,-0.0494551546871662,-0.0449244938790798,-0.0721611753106117,-0.105732075870037
344,-0.0495153553783894,-0.0561061501502991,-0.0425919257104397,-0.0380479879677296,-0.0659127980470657,-0.100270047783852
345,-0.0466601364314556,-0.0537399835884571,-0.0352117009460926,-0.0318170003592968,-0.0587599314749241,-0.0938794538378716
346,-0.0449462458491325,-0.0525404997169971,-0.0302521493285894,-0.0280257854610682,-0.0542011745274067,-0.0887332409620285
347,-0.0441823303699493,-0.0523695163428783,-0.0278049744665623,-0.0260165259242058,-0.0522762425243855,-0.085090346634388
348,-0.043382465839386,-0.052270520478487,-0.0267363842576742,-0.0250083599239588,-0.0508106350898743,-0.0825508311390877
349,-0.044683925807476,-0.0541574843227863,-0.0284038856625557,-0.0268174801021814,-0.05098931863904,-0.0830739364027977
350,-0.0489002615213394,-0.0585957132279873,-0.0335319638252258,-0.0319237075746059,-0.0546560883522034,-0.087220199406147
351,-0.0525074265897274,-0.0617085061967373,-0.0389135591685772,-0.0367075987160206,-0.0591522194445133,-0.091248020529747
352,-0.0536819733679295,-0.0617660358548164,-0.0416644066572189,-0.0388203971087933,-0.0616245344281197,-0.0932622179389
353,-0.0547143593430519,-0.0619656704366207,-0.0426313430070877,-0.0399572588503361,-0.0633000060915947,-0.0955615267157555
354,-0.0565923377871513,-0.0644218996167183,-0.0430327318608761,-0.0417648255825043,-0.0652093067765236,-0.0992978662252426
355,-0.0577435493469238,-0.0680404528975487,-0.0428985096514225,-0.0445221923291683,-0.06651771068573,-0.103747762739658
356,-0.0578666068613529,-0.0719535201787949,-0.0432595014572144,-0.048610869795084,-0.0678524076938629,-0.108854085206985
357,-0.0574818402528763,-0.0753716230392456,-0.044553030282259,-0.0530627146363258,-0.0696728080511093,-0.113441310822964
358,-0.0561671927571297,-0.0767280906438828,-0.0449716411530972,-0.0555654168128967,-0.070211261510849,-0.11473760008812
359,-0.0554835498332977,-0.0774173066020012,-0.0442966371774673,-0.0565017722547054,-0.069188579916954,-0.113156989216805
360,-0.057441558688879,-0.0795469582080841,-0.0440734960138798,-0.057862427085638,-0.0677935630083084,-0.111436538398266
361,-0.0600220263004303,-0.0812844708561897,-0.0441599674522877,-0.0592185445129871,-0.0659935846924782,-0.109367020428181
362,-0.0604389160871506,-0.0807346925139427,-0.0437168180942535,-0.059421218931675,-0.063969187438488,-0.105651013553143
363,-0.058546494692564,-0.0782704725861549,-0.0423975549638271,-0.0583786591887474,-0.0619907453656197,-0.101248979568481
364,-0.0565733201801777,-0.0755942240357399,-0.041137658059597,-0.0573124475777149,-0.0606642551720142,-0.0989723280072212
365,-0.0575518272817135,-0.0747453942894936,-0.0419637411832809,-0.0577275417745113,-0.0617142133414745,-0.100524537265301
366,-0.0610555745661259,-0.0748746022582054,-0.0441831573843956,-0.0585570298135281,-0.0647287666797638,-0.103700682520866
367,-0.0642985329031944,-0.0739797875285149,-0.045480951666832,-0.0584210120141506,-0.06789430975914,-0.105890788137913
368,-0.0662210881710052,-0.071703277528286,-0.045606192201376,-0.0578348897397518,-0.071083128452301,-0.106447100639343
369,-0.066698394715786,-0.0682323202490807,-0.045258417725563,-0.0574328228831291,-0.0747095495462418,-0.105300098657608
370,-0.0659117549657822,-0.0644711181521416,-0.0448901765048504,-0.0577987059950829,-0.077841505408287,-0.103692121803761
371,-0.0648486688733101,-0.0616890750825405,-0.0451765991747379,-0.0593317188322544,-0.079103447496891,-0.103370450437069
372,-0.0642480850219727,-0.0601200722157955,-0.0464358516037464,-0.0613322705030441,-0.0781855583190918,-0.104517638683319
373,-0.0639975890517235,-0.0590444318950176,-0.0479601658880711,-0.0626431778073311,-0.0755971968173981,-0.1058619171381
374,-0.0633635818958282,-0.0573779195547104,-0.0486562885344028,-0.0625624880194664,-0.0726307034492493,-0.105644427239895
375,-0.0612892284989357,-0.0543490387499332,-0.04786591604352,-0.0607718266546726,-0.0706770345568657,-0.102032825350761
376,-0.0579770468175411,-0.0512630641460419,-0.0465019606053829,-0.0581766404211521,-0.0706050768494606,-0.0955178514122963
377,-0.0546760223805904,-0.0499196946620941,-0.0460164695978165,-0.0565705262124538,-0.0724093541502953,-0.0891352966427803
378,-0.0521396175026894,-0.0492074973881245,-0.0462863333523273,-0.0564314685761929,-0.0752247869968414,-0.0849457681179047
379,-0.0500744991004467,-0.0465416647493839,-0.0456848815083504,-0.0564373508095741,-0.077504850924015,-0.0827291682362556
380,-0.0474565960466862,-0.0410891771316528,-0.0428335778415203,-0.0551765523850918,-0.0776375606656075,-0.0808220356702805
381,-0.0441575311124325,-0.0342618152499199,-0.0383686982095242,-0.0526913180947304,-0.0756883025169373,-0.0780491679906845
382,-0.0407247804105282,-0.0274356827139854,-0.0337990000844002,-0.0496558286249638,-0.0732751414179802,-0.0744190737605095
383,-0.0375667996704578,-0.0208622366189957,-0.0303773153573275,-0.0467195436358452,-0.0721900165081024,-0.070601649582386
384,-0.0348141193389893,-0.0144439209252596,-0.0287154782563448,-0.04440001770854,-0.0724726617336273,-0.0674520060420036
385,-0.0324796177446842,-0.00894181057810783,-0.0282766725867987,-0.0430789515376091,-0.0728179141879082,-0.0657001063227654
386,-0.0307531729340553,-0.00612946785986423,-0.0280462168157101,-0.0431133024394512,-0.0727365761995316,-0.0656107142567635
387,-0.0294143874198198,-0.00679810997098684,-0.0271162111312151,-0.0441655144095421,-0.0724760293960571,-0.0667596533894539
388,-0.028607614338398,-0.0102415718138218,-0.025756886228919,-0.0459844470024109,-0.0727746039628983,-0.0696648508310318
389,-0.0289371535181999,-0.0148272085934877,-0.0251674298197031,-0.0482997447252274,-0.0742566883563995,-0.075092151761055
390,-0.0297998003661633,-0.018506882712245,-0.0252316351979971,-0.0498824752867222,-0.0761279687285423,-0.0817141458392143
391,-0.0289955474436283,-0.0196068957448006,-0.024129981175065,-0.0495413243770599,-0.0765837803483009,-0.0872415900230408
392,-0.02517119795084,-0.0179184582084417,-0.0210849400609732,-0.0473915599286556,-0.0753091126680374,-0.0910510718822479
393,-0.0204762369394302,-0.0156887453049421,-0.0180068425834179,-0.0452516116201878,-0.0742284804582596,-0.0944160595536232
394,-0.0179410800337791,-0.0149025684222579,-0.01639149710536,-0.0444719232618809,-0.0744845941662788,-0.0977189689874649
395,-0.0173609405755997,-0.0143457120284438,-0.0148151684552431,-0.0436404533684254,-0.0745086893439293,-0.0993951484560966
396,-0.0170600339770317,-0.0121541311964393,-0.0120205599814653,-0.0414927788078785,-0.0728992000222206,-0.0990297570824623
397,-0.0173216313123703,-0.00897991377860308,-0.0099850120022893,-0.0399759262800217,-0.0709051787853241,-0.0988081693649292
398,-0.0191811267286539,-0.00673262448981404,-0.0112243657931685,-0.0411797724664211,-0.0703728869557381,-0.100345633924007
399,-0.0225138608366251,-0.00668016308918595,-0.0154257202520967,-0.0448499731719494,-0.0723677650094032,-0.103263609111309
400,-0.0255334172397852,-0.00846152752637863,-0.0197180043905973,-0.0492639243602753,-0.0759616196155548,-0.106361553072929
401,-0.0255774948745966,-0.00971044600009918,-0.0211013089865446,-0.0520604699850082,-0.0778599008917809,-0.107969701290131
402,-0.0225120466202497,-0.0091940825805068,-0.0198874026536942,-0.0523741096258163,-0.0772558823227882,-0.107712440192699
403,-0.0182240307331085,-0.00750642456114292,-0.0184231866151094,-0.0507491044700146,-0.0761938765645027,-0.10670917481184
404,-0.0131330229341984,-0.005175297614187,-0.0173242799937725,-0.0473748184740543,-0.075245663523674,-0.105826459825039
405,-0.00785284861922264,-0.00387468165718019,-0.0170054752379656,-0.0437232591211796,-0.0748704895377159,-0.105890937149525
406,-0.00454280991107225,-0.00524672819301486,-0.0187300033867359,-0.0422400794923306,-0.0768559724092484,-0.107080236077309
407,-0.00324550806544721,-0.00834281463176012,-0.022006968036294,-0.0432471185922623,-0.0807356461882591,-0.108455412089825
408,-0.00148775114212185,-0.0112486993893981,-0.0248593091964722,-0.0451503284275532,-0.0832954272627831,-0.109555013477802
409,0.00129427714273334,-0.013244267553091,-0.0268790610134602,-0.0466949380934238,-0.0829066932201386,-0.110402137041092
410,0.0032233155798167,-0.0145694380626082,-0.0291965007781982,-0.0476805008947849,-0.0809741839766502,-0.110504552721977
411,0.00328773353248835,-0.0160531792789698,-0.0319678150117397,-0.0483973510563374,-0.079973891377449,-0.109775893390179
412,0.00240756943821907,-0.0183235462754965,-0.0340980179607868,-0.0492994301021099,-0.0805487185716629,-0.109276719391346
413,0.00222881836816669,-0.020417358726263,-0.034560177475214,-0.0503273941576481,-0.0806737467646599,-0.109627045691013
414,0.00388243817724288,-0.020663307979703,-0.0325045511126518,-0.0502575486898422,-0.078671783208847,-0.109643340110779
415,0.00679041864350438,-0.0193496961146593,-0.0277241282165051,-0.0485974997282028,-0.0749913528561592,-0.108440577983856
416,0.00838058535009623,-0.0186201743781567,-0.0218423567712307,-0.0470110736787319,-0.0715605989098549,-0.107516437768936
417,0.00622648559510708,-0.0196030661463737,-0.0172842796891928,-0.0470383949577808,-0.0704706162214279,-0.108818486332893
418,0.0010551157174632,-0.0208191853016615,-0.0148047721013427,-0.0478018969297409,-0.0716502815485001,-0.112000077962875
419,-0.00447541009634733,-0.0201590955257416,-0.013961941935122,-0.047666572034359,-0.0735893324017525,-0.115409769117832
420,-0.00873792823404074,-0.0173304993659258,-0.0141784846782684,-0.0465908758342266,-0.075482614338398,-0.118430972099304
421,-0.0105484332889318,-0.0125796552747488,-0.0139485476538539,-0.0448248162865639,-0.0762445852160454,-0.120222076773643
422,-0.00959543604403734,-0.00621732464060187,-0.0122746154665947,-0.0420595444738865,-0.0746468678116798,-0.119416423141956
423,-0.00785935018211603,-0.00084954738849774,-0.0105467541143298,-0.0395257025957108,-0.0710503756999969,-0.117579191923141
424,-0.00657350989058614,0.000447136495495215,-0.0106018576771021,-0.0393147207796574,-0.066781222820282,-0.117974452674389
425,-0.00418046908453107,-0.0014900992391631,-0.0117232073098421,-0.0406499989330769,-0.0624511055648327,-0.120529845356941
426,-0.000369524961570278,-0.00375295337289572,-0.0123649667948484,-0.0415098927915096,-0.0589554943144321,-0.123386658728123
427,0.00322918128222227,-0.00425807293504477,-0.012676446698606,-0.0415719524025917,-0.0572367683053017,-0.125459566712379
428,0.0060621490702033,-0.00150465336628258,-0.0130952820181847,-0.0406063199043274,-0.0560601353645325,-0.125138163566589
429,0.00801689736545086,0.00380149623379111,-0.0136249735951424,-0.0384617894887924,-0.0539312064647675,-0.121812358498573
430,0.00941580906510353,0.0096982354298234,-0.0140393087640405,-0.035300999879837,-0.0509261004626751,-0.116450943052769
431,0.0117040434852242,0.0155504839494824,-0.0133463405072689,-0.0308344401419163,-0.0475212968885899,-0.109648108482361
432,0.0151685932651162,0.0207052137702703,-0.0110678290948272,-0.0254786647856236,-0.0446910746395588,-0.102474950253963
433,0.0183484070003033,0.0232095047831535,-0.00847288221120834,-0.0210064724087715,-0.0436179526150227,-0.0975324064493179
434,0.0204833783209324,0.021889029070735,-0.00686841271817684,-0.0190542433410883,-0.0439112186431885,-0.0966911762952805
435,0.022105535492301,0.0182745773345232,-0.00595353078097105,-0.0193577762693167,-0.0437397956848145,-0.0990390330553055
436,0.0238897725939751,0.0153787545859814,-0.0044049727730453,-0.0199781078845263,-0.0414648838341236,-0.101692162454128
437,0.0257367566227913,0.0155486678704619,-0.00142614392098039,-0.0189527738839388,-0.036957148462534,-0.101173378527164
438,0.0266885310411453,0.0185921229422092,0.00226398929953575,-0.0160122215747833,-0.0317161381244659,-0.0960735082626343
439,0.0253867283463478,0.0212987959384918,0.00464780908077955,-0.0133129842579365,-0.0278620515018702,-0.0894283875823021
440,0.0216988939791918,0.0212250147014856,0.0045313835144043,-0.0128326565027237,-0.0264770090579987,-0.0847655907273293
441,0.0181972421705723,0.0195048823952675,0.00327669712714851,-0.0137246455997229,-0.0261459592729807,-0.0818821266293526
442,0.0177459884434938,0.0183137841522694,0.00327196251600981,-0.0138801811262965,-0.0243324376642704,-0.0787685140967369
443,0.0196050275117159,0.0175408218055964,0.00450946344062686,-0.0133068393915892,-0.0210462678223848,-0.0751375630497932
444,0.0202989224344492,0.0149905551224947,0.00428724102675915,-0.0144182937219739,-0.0192752480506897,-0.0728016570210457
445,0.0190720595419407,0.0108266472816467,0.00198334478773177,-0.0174035001546144,-0.0202300157397985,-0.0719163566827774
446,0.0179713219404221,0.00768782244995236,-0.000674333597999066,-0.0195740573108196,-0.0223458427935839,-0.0709075406193733
447,0.0174722000956535,0.00605761585757136,-0.00366850174032152,-0.0200109928846359,-0.0246817469596863,-0.0699953138828278
448,0.01679284311831,0.00469626719132066,-0.00758352456614375,-0.0199546944350004,-0.0270872786641121,-0.0703356862068176
449,0.0157976113259792,0.00281632458791137,-0.0117461709305644,-0.0203770827502012,-0.0297066792845726,-0.0717897042632103
450,0.0150292329490185,0.000464931828901172,-0.0149388620629907,-0.0208728052675724,-0.0324934609234333,-0.0729858502745628
451,0.0154328951612115,-0.000614103919360787,-0.0157002005726099,-0.0198510624468327,-0.0340602248907089,-0.0721337497234344
452,0.0159545838832855,0.000491678540129215,-0.0146919507533312,-0.0176956485956907,-0.0347170755267143,-0.0692938789725304
453,0.014075436629355,0.00129289121832699,-0.0144935641437769,-0.0171241760253906,-0.0368289239704609,-0.0667297765612602
454,0.0106811169534922,2.81627199001377E-05,-0.0146424202248454,-0.0182963088154793,-0.0398743748664856,-0.0650556683540344
455,0.00815809518098831,-0.00220738863572478,-0.0132256168872118,-0.0195007231086493,-0.042158130556345,-0.0635262951254845
456,0.00655106268823147,-0.0043935957364738,-0.0109332045540214,-0.020802354440093,-0.0440341904759407,-0.0626202374696732
457,0.00543871056288481,-0.00661658775061369,-0.00923958327621222,-0.0227403100579977,-0.0458447113633156,-0.0627306252717972
458,0.00547957001253963,-0.00835899543017149,-0.00813271198421717,-0.0245135314762592,-0.0468059293925762,-0.0628396198153496
459,0.00710392184555531,-0.00798220746219158,-0.006717290263623,-0.0249844416975975,-0.0460286363959312,-0.0615146197378635
460,0.00962399318814278,-0.00491389306262136,-0.00493678171187639,-0.024070393294096,-0.0434465184807777,-0.058470506221056
461,0.0130034880712628,-0.000159479022840969,-0.00301157403737307,-0.0220389310270548,-0.0390166863799095,-0.0545225478708744
462,0.0174453444778919,0.00492779724299908,-0.000652231101412326,-0.0190292485058308,-0.0330610834062099,-0.0504917316138744
463,0.0206843558698893,0.00873564276844263,0.00145469594281167,-0.016019843518734,-0.0272702760994434,-0.047338243573904
464,0.0203803703188896,0.010165998712182,0.00210222299210727,-0.01428631413728,-0.0223362222313881,-0.0462486855685711
465,0.0178451407700777,0.0100671388208866,0.00192687707021832,-0.0134190674871206,-0.0171846207231283,-0.0467042326927185
466,0.0155121805146337,0.00922135915607214,0.00198379112407565,-0.0125561831519008,-0.0119744036346674,-0.0473295859992504
467,0.013883063569665,0.00732662389054894,0.00184362311847508,-0.011825448833406,-0.00839994009584188,-0.0477534085512161
468,0.0133438007906079,0.00583635084331036,0.00225027115084231,-0.0103570558130741,-0.00649797217920423,-0.0468695387244225
469,0.0136592024937272,0.00605708872899413,0.0042274515144527,-0.00776984682306647,-0.00550573179498315,-0.044294647872448
470,0.0131187066435814,0.00676433322951198,0.00679192645475268,-0.00542250135913491,-0.00531849591061473,-0.0417609140276909
471,0.0116936014965177,0.0072612976655364,0.00992722250521183,-0.0036616672296077,-0.00466594938188791,-0.0402066335082054
472,0.0109130712226033,0.00835323892533779,0.0144616467878222,-0.00208192877471447,-0.00263128685764968,-0.0397336222231388
473,0.0106856217607856,0.0102548273280263,0.0190756358206272,-0.00094400777015835,-0.000241995585383847,-0.0406866110861301
474,0.00897962599992752,0.0120142949745059,0.0213582646101713,-0.00091759191127494,0.000571585609577596,-0.0425470918416977
475,0.0047855582088232,0.0126423621550202,0.021079808473587,-0.00218667043372989,-0.00142101384699345,-0.0443028844892979
476,0.000132408473291434,0.0129022989422083,0.0208132825791836,-0.00323780439794064,-0.00433280831202865,-0.044944204390049
477,-0.00345790316350758,0.0137559082359076,0.0216458067297935,-0.0030086487531662,-0.00553765613585711,-0.0438929349184036
478,-0.00676840962842107,0.0148584488779306,0.0225005894899368,-0.00214823894202709,-0.0047796075232327,-0.0412921719253063
479,-0.0100077772513032,0.0163182504475117,0.0234398432075977,-0.00126660231035203,-0.00321917491964996,-0.0371734835207462
480,-0.0125310570001602,0.0181400235742331,0.0243396330624819,-0.000988703686743975,-0.00228968518786132,-0.0324711464345455
481,-0.014040214009583,0.0197973866015673,0.0239470023661852,-0.001820711302571,-0.00255764578469098,-0.0288351215422153
482,-0.0152246570214629,0.0212925001978874,0.0218485035002232,-0.00366008165292442,-0.00405521737411618,-0.0266462452709675
483,-0.0172180738300085,0.0232149418443441,0.0191872958093882,-0.00578089663758874,-0.00639099720865488,-0.0252062324434519
484,-0.0203136652708054,0.0259304288774729,0.0176293142139912,-0.00702554965391755,-0.00839012581855059,-0.0239798538386822
485,-0.0231012385338545,0.0298663061112165,0.0183915048837662,-0.00610531261190772,-0.00810827407985926,-0.0222900379449129
486,-0.0256795231252909,0.0342364013195038,0.0200399681925774,-0.00393464649096131,-0.00564652774482965,-0.0207276083528996
487,-0.0304507035762072,0.0368130542337894,0.0196146033704281,-0.00338606559671462,-0.00411703484132886,-0.0210480354726315
488,-0.0365366600453854,0.03774643689394,0.0172391161322594,-0.00492381770163774,-0.00440424727275968,-0.0227176137268543
489,-0.0410031676292419,0.0387748368084431,0.014704997651279,-0.00723819714039564,-0.00494463974609971,-0.0240626223385334
490,-0.0434163101017475,0.0400607623159885,0.0126299811527133,-0.00957026891410351,-0.00531156221404672,-0.0245748907327652
491,-0.0439841561019421,0.0409057512879372,0.011264318600297,-0.0111396489664912,-0.00562403677031398,-0.0242287646979094
492,-0.0420200228691101,0.0412558540701866,0.0107332766056061,-0.0110574057325721,-0.0059734140522778,-0.0226270463317633
493,-0.0386180132627487,0.0407517179846764,0.00976322032511234,-0.00977855455130339,-0.00804331246763468,-0.0200911294668913
494,-0.0358181223273277,0.0390727482736111,0.00723877362906933,-0.0084765637293458,-0.0128717022016644,-0.0179479513317347
495,-0.0339828170835972,0.0365731827914715,0.00406738603487611,-0.00749349780380726,-0.0182722061872482,-0.0174109190702438
496,-0.0342100076377392,0.0320824757218361,0.000366430613212287,-0.00822243560105562,-0.023015383630991,-0.0204519182443619
497,-0.0374354422092438,0.0254309549927711,-0.00422329409047961,-0.0117906155064702,-0.0275204870849848,-0.0272749457508326
498,-0.0412969663739204,0.0193921905010939,-0.00797064322978258,-0.0163314398378134,-0.0305648669600487,-0.0345970429480076
499,-0.043073333799839,0.0164567418396473,-0.00850007869303226,-0.0188665688037872,-0.0305226240307093,-0.0392229445278645
500,-0.0436244569718838,0.0164880361407995,-0.00587665755301714,-0.0188164263963699,-0.0280517470091581,-0.041271984577179
501,-0.0455382280051708,0.0171796698123217,-0.0029262921307236,-0.01831996999681,-0.026204401627183,-0.0433546230196953
502,-0.0479489527642727,0.0179857425391674,-0.000915626296773553,-0.0178786590695381,-0.0263077318668365,-0.0454666130244732
503,-0.0482515171170235,0.0194936972111464,0.000986545695923269,-0.0164855010807514,-0.0272216089069843,-0.0456865876913071
504,-0.0468424074351788,0.019760986790061,0.00201801396906376,-0.0152597995474935,-0.0291397832334042,-0.0444770865142345
505,-0.0453236810863018,0.0168882943689823,0.00103590206708759,-0.0156640782952309,-0.0326760709285736,-0.0431245230138302
506,-0.0437308065593243,0.0124076614156365,-0.00098159839399159,-0.0170338116586208,-0.0366396307945251,-0.0417182445526123
507,-0.0418215878307819,0.00966147147119045,-0.00273197633214295,-0.0179142877459526,-0.0392541624605656,-0.0395621992647648
508,-0.0409961529076099,0.00931605976074934,-0.00447722431272268,-0.0182074196636677,-0.0402100384235382,-0.0366714186966419
509,-0.0428064130246639,0.00862450152635574,-0.00697797350585461,-0.0190606433898211,-0.0407604686915874,-0.0344000346958637
510,-0.0467578321695328,0.00608528172597289,-0.010142550803721,-0.020861966535449,-0.041615080088377,-0.0331020504236221
511,-0.0511578135192394,0.00321709178388119,-0.0135003169998527,-0.0229643173515797,-0.0422830693423748,-0.0315973721444607
512,-0.0546839907765388,0.00131035130470991,-0.0174561142921448,-0.0251609887927771,-0.0426807254552841,-0.0299611762166023
513,-0.0561489947140217,0.00025991298025474,-0.0221261288970709,-0.0272183418273926,-0.0431552566587925,-0.0291853081434965
514,-0.0548711679875851,-0.000962848193012178,-0.0264211073517799,-0.028716716915369,-0.0439556799829006,-0.0292811244726181
515,-0.0510779097676277,-0.00338055868633091,-0.0288923010230064,-0.0296749267727137,-0.0445719994604588,-0.0294390209019184
516,-0.0448943972587585,-0.00523998821154237,-0.0280136223882437,-0.0292616859078407,-0.0437060222029686,-0.0280639324337244
517,-0.0375789441168308,-0.00412449147552252,-0.024358831346035,-0.0271738208830357,-0.0421790555119514,-0.024965925142169
518,-0.0312475245445967,-0.00068088696571067,-0.0205309148877859,-0.0253494698554277,-0.0419596061110497,-0.0225811526179314
519,-0.0257426239550114,0.00353988143615425,-0.0174829382449389,-0.0246989242732525,-0.0419647172093391,-0.0225945804268122
520,-0.0189731605350971,0.00824870355427265,-0.0137903494760394,-0.0231397319585085,-0.0388511829078197,-0.023575235158205
521,-0.0103478217497468,0.0128927659243345,-0.0084286630153656,-0.0193813573569059,-0.0313711985945702,-0.0233143363147974
522,-0.00198928685858846,0.016571132466197,-0.00247462675906718,-0.0147912390530109,-0.022252157330513,-0.0216119233518839
523,0.00234124879352748,0.0180443879216909,0.00150949356611818,-0.0116441519930959,-0.0161056872457266,-0.0208000801503658
524,0.00161624467000365,0.0175081472843885,0.00280582555569708,-0.0106019070371985,-0.0143939843401313,-0.0221596080809832
525,-0.00103099353145808,0.0174624938517809,0.00276826252229512,-0.0101637858897448,-0.0150233842432499,-0.023704506456852
526,-0.00303618377074599,0.0184506271034479,0.00163773528765887,-0.00956993829458952,-0.0161227807402611,-0.0237861294299364
527,-0.00398440891876817,0.0193157084286213,-0.000427492544986308,-0.0092588122934103,-0.01658845692873,-0.0225575380027294
528,-0.00451777037233114,0.019273204728961,-0.00259238132275641,-0.00961004383862019,-0.0159260034561157,-0.0212861727923155
529,-0.00494639109820127,0.0177579391747713,-0.00397276505827904,-0.0102160554379225,-0.0140949487686157,-0.0206539332866669
530,-0.00562632596120238,0.0145571371540427,-0.00448098033666611,-0.0104627031832933,-0.0124486349523067,-0.0199729781597853
531,-0.00726678734645247,0.010488067753613,-0.00488033285364509,-0.0100020607933402,-0.0129306828603148,-0.0182989705353975
532,-0.00940080359578133,0.00699619995430112,-0.00503442669287324,-0.00821750238537788,-0.015305700711906,-0.0150503097102046
533,-0.0110832247883081,0.00411067670211196,-0.00444698333740234,-0.00540953269228339,-0.0180163085460663,-0.0109068630263209
534,-0.0121013941243291,0.000649912457447499,-0.00343928253278136,-0.00307005015201867,-0.0198971703648567,-0.00755129288882017
535,-0.0122382398694754,-0.00387397711165249,-0.0026908041909337,-0.00207589543424547,-0.0205744486302137,-0.00564913731068373
536,-0.0112410625442863,-0.00920829083770514,-0.00287691550329328,-0.00220830575563014,-0.0209669508039951,-0.0045182085596025
537,-0.00970372837036848,-0.0153344925493002,-0.00387009023688734,-0.00308168237097561,-0.0223979856818914,-0.0037130715791136
538,-0.00868892669677734,-0.0218247193843126,-0.00478658871725202,-0.00473789731040597,-0.0250262059271336,-0.00324048264883459
539,-0.00896942429244518,-0.0275207869708538,-0.00553144700825214,-0.00761239789426327,-0.0278827361762524,-0.0034419079311192
540,-0.0101823713630438,-0.0313897579908371,-0.00623378995805979,-0.0113340439274907,-0.0293556861579418,-0.00428769970312715
541,-0.0110165141522884,-0.0329373441636562,-0.00619305763393641,-0.0142654832452536,-0.0283800587058067,-0.00401603197678924
542,-0.0102258753031492,-0.0322370231151581,-0.00456961244344711,-0.0148331029340625,-0.0254007335752249,-0.000641237944364548
543,-0.00821015238761902,-0.0307308547198772,-0.00176369515247643,-0.01344686280936,-0.0222964640706778,0.00472940504550934
544,-0.00783741101622581,-0.0311397612094879,0.000239450862864032,-0.0126665430143476,-0.0213611740618944,0.00865904614329338
545,-0.0109317293390632,-0.034006055444479,0.00047035122406669,-0.0138518838211894,-0.0228535961359739,0.0103834550827742
546,-0.01564621925354,-0.0367134809494019,0.000443692872067913,-0.0155241070315242,-0.0243837125599384,0.0123205715790391
547,-0.0202663484960794,-0.0382756441831589,0.000630611786618829,-0.0167791042476892,-0.0244781505316496,0.014400384388864
548,-0.0245892275124788,-0.0394091308116913,4.30029103881679E-06,-0.017764538526535,-0.0239997245371342,0.0151781272143126
549,-0.0270658601075411,-0.0391477346420288,-0.000724896613974124,-0.0176893919706345,-0.0231902953237295,0.0161235835403204
550,-0.0265733320266008,-0.0371411256492138,-0.000335665128659457,-0.0164093561470509,-0.0213756058365107,0.0182501804083586
551,-0.0240770597010851,-0.0345262438058853,0.00152652035467327,-0.0144405094906688,-0.0182154905050993,0.0207149796187878
552,-0.02072948589921,-0.0316776186227798,0.00463510071858764,-0.0121137723326683,-0.013738676905632,0.0231985505670309
553,-0.0166527703404427,-0.0286820307374001,0.00807956978678703,-0.0100705632939935,-0.00847294647246599,0.0258595012128353
554,-0.0120615977793932,-0.026668569073081,0.0106869265437126,-0.00908125378191471,-0.00399377942085266,0.0280573759227991
555,-0.00858832616358995,-0.0263893008232117,0.0116897346451879,-0.00938412733376026,-0.00208363961428404,0.029239360243082
556,-0.00759245362132788,-0.0265341065824032,0.0114344209432602,-0.0101456446573138,-0.00263014039956033,0.0303346570581198
557,-0.00966566614806652,-0.0261252205818892,0.00991455838084221,-0.0112805934622884,-0.00537097500637174,0.0311481896787882
558,-0.0153435599058867,-0.0264550130814314,0.00603978149592876,-0.0141108324751258,-0.0111536541953683,0.0296670645475388
559,-0.0232892613857985,-0.0285235326737165,0.000288539711618796,-0.0186048820614815,-0.0186398290097713,0.0254987217485905
560,-0.0307383462786675,-0.0317322202026844,-0.0054970751516521,-0.0235003009438515,-0.0246908999979496,0.0201756041496992
561,-0.0357541851699352,-0.0345055311918259,-0.0100848907604814,-0.0278760213404894,-0.027544479817152,0.0157460570335388
562,-0.037241518497467,-0.0345666520297527,-0.0123388329520822,-0.0304875615984201,-0.0270454790443182,0.0141760483384132
563,-0.0348732396960258,-0.0308297872543335,-0.0115422448143363,-0.0300618298351765,-0.0241240877658129,0.0166580490767956
564,-0.030027836561203,-0.0250235572457314,-0.00885639805346727,-0.0272109396755695,-0.0208461452275515,0.0222926307469606
565,-0.0248228795826435,-0.0196650456637144,-0.00608086539432406,-0.0239266995340586,-0.0184327252209187,0.0280748642981052
566,-0.019979827105999,-0.0151620795950294,-0.00329390913248062,-0.0207330752164125,-0.01563610881567,0.0322754979133606
567,-0.015676585957408,-0.011044817045331,-0.000249694130616263,-0.0172016844153404,-0.0117990849539638,0.035483505576849
568,-0.0131424749270082,-0.00799896288663149,0.00117949896957725,-0.0143279125913978,-0.00905244704335928,0.037749357521534
569,-0.0129366628825665,-0.0064110872335732,-0.000574948033317924,-0.013289432041347,-0.0093208895996213,0.0384112261235714
570,-0.0138114867731929,-0.00555802881717682,-0.00413511693477631,-0.013662469573319,-0.0122219510376453,0.0375845357775688
571,-0.0147668039426208,-0.00557046383619308,-0.00787853728979826,-0.0149265397340059,-0.0163824018090963,0.0353527180850506
572,-0.0144065488129854,-0.00613879691809416,-0.0107299573719502,-0.0164734683930874,-0.0190732143819332,0.0325629413127899
573,-0.0109176626428962,-0.00492710247635841,-0.011035799048841,-0.0168220326304436,-0.0176581349223852,0.0313908085227013
574,-0.00534375431016088,-0.000882883032318205,-0.00892922282218933,-0.0156707055866718,-0.0133207030594349,0.0326731950044632
575,-0.000121616714750417,0.00459857145324349,-0.00633164588361979,-0.0142800845205784,-0.00873126275837421,0.0352619886398315
576,0.00389783852733672,0.00961832981556654,-0.00389966531656682,-0.0134008824825287,-0.00452928151935339,0.0378091856837273
577,0.00615684175863862,0.012685677036643,-0.00157616217620671,-0.013323456980288,-0.00103825086262077,0.0390786789357662
578,0.00656527653336525,0.0139740947633982,0.000319108454277739,-0.0140457218512893,0.00126342079602182,0.0387775897979736
579,0.00602856185287237,0.014889788813889,0.00199370877817273,-0.014796151779592,0.00282991956919432,0.0378809385001659
580,0.00454446952790022,0.0161216463893652,0.0035244079772383,-0.0153404176235199,0.00367778609506786,0.0370090194046497
581,0.00168705591931939,0.0173962209373713,0.00389117351733148,-0.0162910502403975,0.00282536377198994,0.0363687500357628
582,-0.00295483716763556,0.01768958568573,0.00133981416001916,-0.018792262300849,-0.000688717525918037,0.0354346074163914
583,-0.00931898131966591,0.0166222471743822,-0.00416752230376005,-0.0231316909193993,-0.00584787037223578,0.033573791384697
584,-0.0153756309300661,0.0154576050117612,-0.0099553307518363,-0.0274527799338102,-0.00945054646581411,0.0318432375788689
585,-0.0196100398898125,0.0144547550007701,-0.0142956115305424,-0.0305592324584723,-0.0101709188893437,0.0312468782067299
586,-0.0230536926537752,0.0118409525603056,-0.0177291296422482,-0.0331174395978451,-0.0101832551881671,0.0315731167793274
587,-0.0258943606168032,0.00788451172411442,-0.0202365722507238,-0.0349101386964321,-0.0109947165474296,0.0332625135779381
588,-0.0261442884802818,0.00535346148535609,-0.0212269276380539,-0.0350757092237473,-0.0117321042343974,0.0369050242006779
589,-0.0225698780268431,0.00581831065937877,-0.0200754199177027,-0.033296175301075,-0.0113490326330066,0.042363703250885
590,-0.0167814660817385,0.00818059034645557,-0.0165185797959566,-0.0299818404018879,-0.00985993910580873,0.0483397953212261
591,-0.0118578402325511,0.00954188406467438,-0.012193544767797,-0.0267157852649689,-0.00836895313113928,0.0526472851634026
592,-0.0084751732647419,0.00883867777884007,-0.00819408055394888,-0.0241316184401512,-0.00686642015352845,0.0556212402880192
593,-0.00525076035410166,0.0080085638910532,-0.00382315809838474,-0.0213815625756979,-0.00381729565560818,0.0590267740190029
594,-0.00188677932601422,0.00817151833325624,0.000670288223773241,-0.0182969607412815,0.000977511866949499,0.0619640722870827
595,0.000304023502394557,0.00742613850161433,0.00338303623721004,-0.0163661744445562,0.00585442455485463,0.0617356859147549
596,0.00163575157057494,0.00535012967884541,0.00455788383260369,-0.0155947338789701,0.0104905590415001,0.0588517747819424
597,0.00394326169043779,0.00506475707516074,0.00644305627793074,-0.0138297993689775,0.0155667131766677,0.0564797036349773
598,0.00662127789109945,0.00832079071551561,0.00901685561984777,-0.0106719415634871,0.0198421254754066,0.0557770729064941
599,0.00937848817557096,0.0147671168670058,0.0122386123985052,-0.00607933010905981,0.0229252874851227,0.0573320798575878
600,0.0128669487312436,0.0225242041051388,0.0165377669036388,-0.000439336145063862,0.0253348872065544,0.0604405738413334
601,0.0160819888114929,0.0288854613900185,0.0212138146162033,0.00431619072332978,0.0267682615667582,0.0629200786352158
602,0.0185015108436346,0.0332955121994019,0.0260487422347069,0.00765789905562997,0.0277864802628756,0.0645555853843689
603,0.0201630257070065,0.0361724086105824,0.0304272044450045,0.00989506952464581,0.0287241395562887,0.065385565161705
604,0.0208162683993578,0.0378525443375111,0.0331031084060669,0.0109527120366693,0.0290156994014978,0.0647610276937485
605,0.0207339897751808,0.0395330637693405,0.0335062853991985,0.0111160753294826,0.0280044730752707,0.0629854574799538
606,0.0204040892422199,0.042113047093153,0.0321447737514973,0.0109852217137814,0.025329016149044,0.0611907541751862
607,0.0200279336422682,0.0453400798141956,0.0302096959203482,0.0110833635553718,0.0220844689756632,0.0603861808776855
608,0.0192600637674332,0.0482521168887615,0.0283269360661507,0.0115603525191545,0.020129207521677,0.0608268715441227
609,0.0176878217607737,0.0502425022423267,0.026335472241044,0.0121563384309411,0.0194206330925226,0.0621395036578178
610,0.0147745432332158,0.0509526953101158,0.0231662858277559,0.0117346970364451,0.0172532610595226,0.0628428310155869
611,0.0103776482865214,0.0496757589280605,0.0179062876850367,0.00918980687856674,0.0117819532752037,0.0610647089779377
612,0.00630356883630157,0.0468861050903797,0.0120064876973629,0.00544699048623443,0.0050253001973033,0.0571378692984581
613,0.00494273100048304,0.0445853918790817,0.00811167899519205,0.00280553847551346,0.000833626952953637,0.0536425374448299
614,0.00724997464567423,0.0441533625125885,0.00773224467411637,0.00298229139298201,0.0014477347722277,0.0527630262076855
615,0.0124517576768994,0.0448870062828064,0.010606661438942,0.00570937385782599,0.00567847862839699,0.0546113587915897
616,0.0182754173874855,0.0442422777414322,0.0142825376242399,0.00844344031065702,0.0097523545846343,0.0573369264602661
617,0.0227378644049168,0.0405452363193035,0.0158304069191217,0.00904197432100773,0.0109831979498267,0.0589212365448475
618,0.0255947429686785,0.0354808829724789,0.0149451410397887,0.00817685388028622,0.00974997039884329,0.0593436807394028
619,0.0275076013058424,0.03208352252841,0.0134832020848989,0.00787094794213772,0.00778243225067854,0.0601006709039211
620,0.0288598500192165,0.0314800068736076,0.0127331241965294,0.00893666781485081,0.0059940810315311,0.0617347732186317
621,0.0286254156380892,0.032032385468483,0.0121033722534776,0.0101411631330848,0.00329357292503119,0.0631822943687439
622,0.0257874000817537,0.031383290886879,0.0103228697553277,0.00988459121435881,-0.001684874529019,0.0636350437998772
623,0.021810743957758,0.0285816118121147,0.00729709165170789,0.00800678972154856,-0.00780736934393644,0.0626872181892395
624,0.0195304807275534,0.0246676877140999,0.00460098590701818,0.00622189091518521,-0.0118143586441875,0.060688491910696
625,0.0196221228688955,0.0209816340357065,0.00321356463246048,0.00605913903564215,-0.0122136566787958,0.0588405132293701
626,0.0204667914658785,0.0177329797297716,0.00218655657954514,0.0067235860042274,-0.010496124625206,0.0571628659963608
627,0.0216036234050989,0.0158308297395706,0.0014566631289199,0.00761972181499004,-0.00761053198948503,0.0554209016263485
628,0.0228000320494175,0.0156547538936138,0.00130608561448753,0.00869421847164631,-0.00454865023493767,0.0534759052097797
629,0.0225803814828396,0.0155684454366565,0.000696086906827986,0.00875838845968246,-0.00327829108573496,0.0504263080656528
630,0.0207325704395771,0.014247770421207,-0.000727466598618776,0.00730189029127359,-0.00389803247526288,0.0460511073470116
631,0.0188984051346779,0.0123756444081664,-0.0019117787014693,0.00540657015517354,-0.00466284854337573,0.0416965745389462
632,0.0182284023612738,0.012133170850575,-0.00187232985626906,0.00427410379052162,-0.00427695922553539,0.0388573631644249
633,0.0181884989142418,0.0142702115699649,-0.00122067972552031,0.00366835296154022,-0.0035540962126106,0.037262462079525
634,0.0169668067246675,0.0165480710566044,-0.00190641393419355,0.00219527026638389,-0.00552259990945458,0.0355313383042812
635,0.0136942127719522,0.0169532559812069,-0.00447947066277266,-0.000368586886906996,-0.0113345859572291,0.0332905873656273
636,0.0102886287495494,0.0163981132209301,-0.00652828067541122,-0.00229001767002046,-0.0170358866453171,0.0314390435814857
637,0.00789311155676842,0.0160554219037294,-0.006275724619627,-0.00281672226265073,-0.0188628230243921,0.0300508644431829
638,0.00523690367117524,0.0151239344850183,-0.00492818839848042,-0.00295335659757257,-0.0178374797105789,0.0282041691243649
639,0.00271442835219204,0.0137224653735757,-0.00324834417551756,-0.00228424998931587,-0.0155363753437996,0.0267757065594196
640,0.00199214043095708,0.013110114261508,-0.000881323823705316,-0.000171260457136668,-0.0119324298575521,0.0270094852894545
641,0.00271815643645823,0.0126606691628695,0.00113711482845247,0.00125128519721329,-0.00852687656879425,0.0270494055002928
642,0.00429665902629495,0.0121211595833302,0.00223230221308768,0.000645734195131809,-0.00685094157233834,0.025339687243104
643,0.00632092775776982,0.0122929569333792,0.00309490342624485,-0.000858710787724704,-0.00669304374605417,0.0231216363608837
644,0.00816402211785316,0.0133210113272071,0.0038977216463536,-0.00179739901795983,-0.00714918365702033,0.0220300909131765
645,0.00951297860592604,0.0149177247658372,0.003986113704741,-0.00131157436408103,-0.00767744099721313,0.0225893072783947
646,0.00912930350750685,0.0153826586902142,0.00232755532488227,-0.000732987013179809,-0.00918338820338249,0.0232043173164129
647,0.0068780486471951,0.0137772485613823,-0.000463261618278921,-0.00155354186426848,-0.0117799295112491,0.0221223793923855
648,0.00451739644631743,0.011534433811903,-0.00261557614430785,-0.00310224923305213,-0.0140433413907886,0.0195634141564369
649,0.00237938761711121,0.00912185478955507,-0.00409001717343926,-0.00491487188264728,-0.0157191213220358,0.0161009058356285
650,-0.00112780439667404,0.00499744061380625,-0.00612893514335155,-0.00790666230022907,-0.0180190075188875,0.0115248607471585
651,-0.00602090777829289,-0.00113177241291851,-0.00853443238884211,-0.0120920306071639,-0.0207634903490543,0.00595779530704021
652,-0.00932905357331038,-0.00734803825616837,-0.00962602533400059,-0.0154321920126677,-0.0215912610292435,0.00149581197183579
653,-0.00905434414744377,-0.0128375105559826,-0.0089733675122261,-0.0164205133914948,-0.019625024870038,0.000476937071653083
654,-0.00768286688253284,-0.0194227490574121,-0.00867732148617506,-0.0167659483850002,-0.0177547167986631,0.00137341662775725
655,-0.00808756332844496,-0.0276952087879181,-0.0104588400572538,-0.0185789279639721,-0.0183201599866152,0.00103355490136892
656,-0.00930906552821398,-0.0348261259496212,-0.0128276292234659,-0.020899960771203,-0.0198674518615007,-0.000404250575229526
657,-0.00990350730717182,-0.0389702841639519,-0.0136466212570667,-0.0222371090203524,-0.020674217492342,-0.00171436520759016
658,-0.00966232363134623,-0.0411023683845997,-0.0127528849989176,-0.0223733186721802,-0.0205580554902554,-0.00282319542020559
659,-0.00793694891035557,-0.0421045459806919,-0.0106168696656823,-0.021057415753603,-0.0191387850791216,-0.00306073436513543
660,-0.00550200417637825,-0.0431202575564384,-0.00831187795847654,-0.0192624647170305,-0.0169104896485806,-0.00296852830797434
661,-0.00493571907281876,-0.0457924455404282,-0.00749927153810859,-0.0189590249210596,-0.01569539681077,-0.00488841161131859
662,-0.00684140296652913,-0.0494694821536541,-0.0081687169149518,-0.0203043855726719,-0.0159308891743422,-0.00924072787165642
663,-0.0091374833136797,-0.0516234003007412,-0.00876837410032749,-0.0217587407678366,-0.0162791199982166,-0.0138960434123874
664,-0.00964169669896364,-0.0507917106151581,-0.00795090477913618,-0.0215488094836473,-0.0149952797219157,-0.0166135020554066
665,-0.00824812613427639,-0.0481347367167473,-0.00611594552174211,-0.0196702424436808,-0.0116235837340355,-0.0175477266311646
666,-0.00647010793909431,-0.0459174104034901,-0.00498239183798432,-0.0180165432393551,-0.00774127338081598,-0.0186408068984747
667,-0.00503066554665565,-0.0447592586278915,-0.00499456794932485,-0.0175183489918709,-0.00506900018081069,-0.0207936652004719
668,-0.00251848087646067,-0.0425339303910732,-0.00425163796171546,-0.0165282897651196,-0.00297704571858048,-0.0223586466163397
669,0.00345563772134483,-0.0363316126167774,-0.000505668926052749,-0.0125324716791511,0.000774474407080561,-0.0202947147190571
670,0.0120480880141258,-0.0273511651903391,0.00479680392891169,-0.00648961216211319,0.00555049767717719,-0.0150616867467761
671,0.0196463149040937,-0.0194570850580931,0.0082481661811471,-0.00178555038291961,0.00900502596050501,-0.0101211862638593
672,0.0249212011694908,-0.0134925022721291,0.00927803013473749,0.000564293761271983,0.011209168471396,-0.00675289239734411
673,0.0283970441669226,-0.00901355408132076,0.00862904917448759,0.00148669094778597,0.0127320736646652,-0.00463143596425653
674,0.0311390422284603,-0.0056946873664856,0.00759181054309011,0.0028031321708113,0.0143894553184509,-0.00219242740422487
675,0.0347855351865292,-0.00203649350441992,0.00877577532082796,0.00627899542450905,0.0180677864700556,0.00277595152147114
676,0.0399038381874561,0.00233789626508951,0.0134383169934154,0.0116130830720067,0.0241210199892521,0.00970223173499107
677,0.0456159189343452,0.00642608758062124,0.0200440008193254,0.0170835666358471,0.0307102538645267,0.0159240327775478
678,0.0504230000078678,0.010302847251296,0.0258607733994722,0.0213057398796082,0.035797581076622,0.0200209729373455
679,0.052950669080019,0.0143148768693209,0.0290526375174522,0.0238140299916267,0.0386096350848675,0.0224032402038574
680,0.0525915287435055,0.0166803933680058,0.0293956156820059,0.024263521656394,0.0392712205648422,0.0232707336544991
681,0.0507774539291859,0.016643114387989,0.0282356534153223,0.0232659168541431,0.0392152927815914,0.0234749522060156
682,0.0491283424198627,0.0157303959131241,0.026538809761405,0.0219376254826784,0.0398925505578518,0.0240753274410963
683,0.0467763468623161,0.0136185018345714,0.0235259402543306,0.0197255723178387,0.0402229875326157,0.0234880335628986
684,0.0435030907392502,0.0109189050272107,0.0198949053883553,0.0169995110481977,0.0396699383854866,0.0213748328387737
685,0.0412040688097477,0.0111664989963174,0.0182876251637936,0.016190255060792,0.0398731902241707,0.0209754686802626
686,0.0406390130519867,0.0152717968448997,0.0197899285703897,0.0184739995747805,0.0415130145847797,0.0245147179812193
687,0.0408782213926315,0.0203644968569279,0.0237742811441422,0.0227202251553535,0.0441278070211411,0.0309791397303343
688,0.0412258580327034,0.0235296208411455,0.0291435290127993,0.0268090721219778,0.0467072576284409,0.0372858606278896
689,0.0414819233119488,0.0233954153954983,0.0341023430228233,0.028692914173007,0.0473232939839363,0.0397390276193619
690,0.0419442318379879,0.0202184580266476,0.0374960862100124,0.0274271033704281,0.0456905737519264,0.0364479497075081
691,0.0433262921869755,0.015462726354599,0.0395305790007114,0.0236291941255331,0.0441957488656044,0.0286937542259693
692,0.04545022174716,0.0108949737623334,0.0403602421283722,0.0189908146858215,0.0443324595689774,0.0193768590688705
693,0.046821091324091,0.00773028936237097,0.0397166647017002,0.0152782090008259,0.0444672964513302,0.0110754650086164
694,0.0462028197944164,0.0060478444211185,0.0377033948898315,0.0131456144154072,0.0429702289402485,0.00522868614643812
695,0.0439662300050259,0.0051809661090374,0.0352564342319965,0.0118635147809982,0.0411511920392513,0.00145265576429665
696,0.0414926297962666,0.00475420663133264,0.0333678796887398,0.010523765347898,0.0404814220964909,-0.00151875650044531
697,0.0399647280573845,0.00534216780215502,0.0324067771434784,0.00943214260041714,0.0401612482964993,-0.00349057163111866
698,0.039421834051609,0.00749168777838349,0.0320461839437485,0.00921128038316965,0.0383075699210167,-0.00335048511624336
699,0.0390119813382626,0.010810405947268,0.0315889306366444,0.00951329339295626,0.0340376831591129,-0.00121000572107732
700,0.0375957936048508,0.0144715858623385,0.0300218723714352,0.00916163995862007,0.0279776025563478,0.00116333633195609
701,0.0351991169154644,0.0185889527201653,0.0272379890084267,0.00769336009398103,0.0220727436244488,0.0024718139320612
702,0.0328492522239685,0.0232127346098423,0.0242297016084194,0.00549077056348324,0.018349526450038,0.00258148973807693
703,0.029796440154314,0.0264409855008125,0.0203729290515184,0.00197697058320045,0.0160906165838242,0.000569048104807734
704,0.0255109835416079,0.0270695667713881,0.014844655059278,-0.00280036008916795,0.0138908540830016,-0.00411851145327091
705,0.0224157776683569,0.0264244228601456,0.00945311971008778,-0.00668360944837332,0.0127519089728594,-0.00986991822719574
706,0.023388683795929,0.0266666449606419,0.00698411650955677,-0.00733154779300094,0.0143559901043773,-0.013760450296104
707,0.0280696116387844,0.0283611509948969,0.0076581658795476,-0.00495409639552236,0.0182130727916956,-0.0143985403701663
708,0.0330367237329483,0.029976824298501,0.00874772202223539,-0.00237036449834704,0.0220223348587751,-0.0138000277802348
709,0.0353896766901016,0.0306582823395729,0.00798374973237515,-0.0015147413359955,0.0242961328476667,-0.0142829716205597
710,0.0347291491925716,0.0309783574193716,0.00513817928731442,-0.00203092861920595,0.025124941021204,-0.016156904399395
711,0.0330306254327297,0.0314618460834026,0.00170440843794495,-0.00278525846078992,0.0257817786186934,-0.0186539795249701
712,0.0324095785617828,0.0319531559944153,-0.000389711058232933,-0.00301010510884225,0.0267565455287695,-0.0207388307899237
713,0.0325752086937428,0.0317816063761711,-0.00107160548213869,-0.00269900821149349,0.0262219440191984,-0.0219684541225433
714,0.0318110063672066,0.0304610300809145,-0.00227204710245132,-0.00277372705750167,0.0221581105142832,-0.0230903867632151
715,0.0292275492101908,0.0284906961023808,-0.00562624633312225,-0.00394352525472641,0.0148562323302031,-0.0249720420688391
716,0.0256843864917755,0.0274882279336452,-0.0100656654685736,-0.00536096189171076,0.00723659293726087,-0.0269896872341633
717,0.0226726531982422,0.0276729129254818,-0.0138826202601194,-0.00679832044988871,0.0019726559985429,-0.0285556390881538
718,0.0204823967069387,0.0268895775079727,-0.0178471133112907,-0.00973711535334587,-0.00126733654178679,-0.0305635780096054
719,0.0190563220530748,0.0242395345121622,-0.0225256998091936,-0.014122030697763,-0.00372687680646777,-0.0334420204162598
720,0.0189650561660528,0.0220581348985434,-0.0258046369999647,-0.0174675919115543,-0.0047424454241991,-0.0355180725455284
721,0.0200527813285589,0.0225938893854618,-0.0256060026586056,-0.0181800797581673,-0.00295439176261425,-0.0351705513894558
722,0.0208893995732069,0.0250801518559456,-0.0228827651590109,-0.0171019844710827,0.00116467324551195,-0.0332944095134735
723,0.0208889730274677,0.0286761559545994,-0.0194706339389086,-0.0146556152030826,0.0069216494448483,-0.0308418422937393
724,0.019694747403264,0.0325552746653557,-0.0167970266193151,-0.011350005865097,0.0137734860181808,-0.0283684581518173
725,0.0157200582325459,0.0336847268044949,-0.0171509124338627,-0.00967608671635389,0.0191734153777361,-0.0274590980261564
726,0.00910558924078941,0.0306766703724861,-0.0207943208515644,-0.0105665568262339,0.021383510902524,-0.0283449813723564
727,0.00264444714412093,0.0258211325854063,-0.025034112855792,-0.0122766951099038,0.0214124117046595,-0.0292530450969934
728,-0.00134497531689703,0.0220455154776573,-0.0277253799140453,-0.0135668879374862,0.0205667223781347,-0.0283615626394749
729,-0.00302897323854268,0.0205943509936333,-0.0282985623925924,-0.0146485390141606,0.0191605594009161,-0.025321789085865
730,-0.00395608088001609,0.021061260253191,-0.0266930256038904,-0.0156469121575356,0.0175416469573975,-0.0209082011133432
731,-0.00598300062119961,0.0211295671761036,-0.0242344699800015,-0.0168863665312529,0.0159521289169788,-0.0163573250174522
732,-0.0102816754952073,0.0179732106626034,-0.0231749601662159,-0.0193379707634449,0.0139093166217208,-0.0132288467139006
733,-0.0157820768654346,0.0117317577823997,-0.0237590409815311,-0.022785684093833,0.0112439226359129,-0.0119629390537739
734,-0.020440611988306,0.00475131021812558,-0.024659626185894,-0.026110989972949,0.00792386848479509,-0.0120275104418397
735,-0.0230241697281599,-0.00096018856856972,-0.0250884853303432,-0.0287885908037424,0.00395641755312681,-0.0130529589951038
736,-0.0228896625339985,-0.00403869850561023,-0.0248675532639027,-0.0304282419383526,0.000613368058111519,-0.0142217269167304
737,-0.0207143556326628,-0.00486527942121029,-0.0246076323091984,-0.0313055403530598,-0.000945797888562083,-0.0148901054635644
738,-0.0187558457255363,-0.00548220099881291,-0.0259169656783342,-0.0323639549314976,-0.00148055038880557,-0.0148382568731904
739,-0.0181376282125711,-0.0058949519880116,-0.0290180128067732,-0.0328491143882275,-0.00175569264683872,-0.0127058159559965
740,-0.0179275926202536,-0.0041195023804903,-0.0314886309206486,-0.0310788378119469,-0.000686765066348016,-0.00817631836980581
741,-0.0171983540058136,0.000166082114446908,-0.0311787892132998,-0.0270800832659006,0.00290509732440114,-0.00367232947610319
742,-0.0160340424627066,0.00527236331254244,-0.0284019596874714,-0.0223810337483883,0.00829919893294573,-0.00100767542608082
743,-0.015749616548419,0.0089587876573205,-0.0253074616193771,-0.0188668295741081,0.0132185351103544,-0.000484758871607482
744,-0.0166859850287437,0.0108546689152718,-0.023067245259881,-0.0171458106487989,0.0163920950144529,-0.00186072906944901
745,-0.0166835747659206,0.0126492055132985,-0.0205183122307062,-0.0159415919333696,0.0188695713877678,-0.0038190777413547
746,-0.0148654663935304,0.0140754636377096,-0.0173299163579941,-0.0146349500864744,0.0212185047566891,-0.00551742827519774
747,-0.0123025076463819,0.0134636620059609,-0.0144525384530425,-0.0133686913177371,0.0232700426131487,-0.00600878009572625
748,-0.00904629938304424,0.0116944806650281,-0.0114512536674738,-0.0111269885674119,0.0259241182357073,-0.00282858381979167
749,-0.00466884719207883,0.0107212550938129,-0.00753705995157361,-0.00704295421019197,0.0295863393694162,0.00436541112139821
750,0.000180817150976509,0.0107181938365102,-0.00302562187425792,-0.00155062589328736,0.0333846062421799,0.0127370981499553
751,0.0035060397349298,0.0101660089567304,0.00105728441849351,0.00357919209636748,0.0358534418046474,0.0188389513641596
752,0.00367407617159188,0.00782414246350527,0.00336799887008965,0.00594842992722988,0.0359568856656551,0.0202616192400455
753,0.00172198982909322,0.00549153750762343,0.00368539313785732,0.00551721965894103,0.0348700769245625,0.0177924912422895
754,-7.23762059351429E-05,0.00613400433212519,0.00338146882131696,0.00464553106576204,0.0348820686340332,0.0148662542924285
755,-0.000876987585797906,0.00874584540724754,0.00359986047260463,0.00401849113404751,0.0361434705555439,0.0129181621596217
756,-0.000220483081648126,0.0108933681622148,0.00529944803565741,0.00331174279563129,0.0379255414009094,0.0117570403963327
757,0.00225650775246322,0.0128824803978205,0.00853323470801115,0.00331943039782345,0.0404334925115108,0.0123909432440996
758,0.00539524015039206,0.015245484188199,0.0114042460918427,0.00431426474824548,0.0433682836592197,0.0153236538171768
759,0.00810121279209852,0.0179504416882992,0.013038475997746,0.00620470754802227,0.0462233684957027,0.0202027596533298
760,0.00946523807942867,0.0204668305814266,0.0135448221117258,0.00818598736077547,0.0479712188243866,0.0253555197268724
761,0.00883746612817049,0.0218226592987776,0.0127322971820831,0.00891318451613188,0.0479226261377335,0.0284960009157658
762,0.00613747490569949,0.0216006804257631,0.0104939434677362,0.00789752602577209,0.0464291051030159,0.0286019276827574
763,0.00172649067826569,0.0203718803822994,0.00679267011582851,0.00567835802212358,0.0433900766074657,0.0259724240750074
764,-0.00209903810173273,0.0201962813735008,0.00263894605450332,0.00391908641904593,0.0395888425409794,0.0227748565375805
765,-0.00344344810582697,0.0218291748315096,-0.00119574449490756,0.00328896148130298,0.0362380035221577,0.0206625647842884
766,-0.00243234285153449,0.0242390986531973,-0.00470135919749737,0.00325532862916589,0.0337555669248104,0.0197250172495842
767,0.000362744322046638,0.0271753594279289,-0.00732024479657412,0.00363518111407757,0.0323090590536594,0.019884230569005
768,0.00327389943413436,0.0303133558481932,-0.00905289314687252,0.00336105399765074,0.0305765476077795,0.0201185625046492
769,0.00455612689256668,0.0332615152001381,-0.0100798774510622,0.0015539457090199,0.0267506279051304,0.019468042999506
770,0.0041853659786284,0.0364395454525948,-0.00944275595247746,-0.000611933006439358,0.0207321867346764,0.0181600339710712
771,0.00309342425316572,0.0401261784136295,-0.00634132977575064,-0.00128790677990764,0.0138117568567395,0.0170043595135212
772,0.00230432534590364,0.0442279055714607,-0.00124937715008855,0.000368885172065347,0.00788809079676867,0.0168673861771822
773,0.00134746567346156,0.0478677973151207,0.0037305885925889,0.00297593139111996,0.00373962777666748,0.016983425244689
774,-0.000847338058520108,0.0498990677297115,0.0063516590744257,0.0045990445651114,0.00063171167857945,0.0157656837254763
775,-0.00338266347534955,0.0505530051887035,0.00671345088630915,0.00534732267260551,-0.00207146070897579,0.0133516974747181
776,-0.00541718583554029,0.0501875206828117,0.00606608390808105,0.00580768985673785,-0.00478586740791798,0.0101938471198082
777,-0.00786370690912008,0.048189427703619,0.00491075916215777,0.00565063999965787,-0.00771289318799973,0.00610860530287027
778,-0.0111523196101189,0.0447388924658298,0.00367100350558758,0.00511724269017577,-0.0103419218212366,0.0023696490097791
779,-0.0147566059604287,0.0405989438295364,0.00237201619893312,0.00436927378177643,-0.0125991832464933,0.000181108276592568
780,-0.017895583063364,0.0363799855113029,0.000976957962848246,0.00303782126866281,-0.0141630489379168,-0.00113011314533651
781,-0.0194078031927347,0.0329697951674461,0.000292920565698296,0.00179684616159648,-0.0135030634701252,-0.00204914272762835
782,-0.0189368277788162,0.0304631069302559,2.90100742859067E-05,0.00116073619574308,-0.0105409640818834,-0.0026234332472086
783,-0.0181355141103268,0.0268972329795361,-0.00178985891398042,2.34422623179853E-05,-0.00742913875728846,-0.00376892532221973
784,-0.0182375572621822,0.0204347837716341,-0.00581791857257485,-0.00217274809256196,-0.00481053255498409,-0.00589610869064927
785,-0.0177487973123789,0.0128886885941029,-0.00995173398405313,-0.00375376036390662,-0.000552045705262572,-0.00729292491450906
786,-0.0155637683346868,0.00751871103420854,-0.0124123273417354,-0.00327236508019269,0.00544549804180861,-0.00617936067283154
787,-0.0129140419885516,0.00424094730988145,-0.0139176268130541,-0.00188440538477153,0.0100615443661809,-0.00378100736998022
788,-0.0109672658145428,0.000753443222492933,-0.0154458908364177,-0.00124994921498001,0.0119828479364514,-0.00260519981384277
789,-0.00937503948807716,-0.00312784779816866,-0.0163532346487045,-0.00101036136038601,0.0130284056067467,-0.00216440577059984
790,-0.00799924973398447,-0.00633811810985208,-0.015970092266798,-0.000719517469406128,0.0144300488755107,-0.000811115081887692
791,-0.00860927905887365,-0.00955509394407272,-0.015804972499609,-0.00175755703821778,0.0148228639736772,0.000141038501169533
792,-0.0123250167816877,-0.0135037247091532,-0.0180247984826565,-0.00524128647521138,0.0130256889387965,-0.00163625436834991
793,-0.0164132751524448,-0.0164425726979971,-0.0213455390185118,-0.00940683577209711,0.0113302981480956,-0.00528673827648163
794,-0.0182218998670578,-0.0170561447739601,-0.0230494160205126,-0.0119148539379239,0.0120395347476006,-0.00837642420083284
795,-0.0187778770923615,-0.0164803117513657,-0.023326950147748,-0.0127770835533738,0.0142713561654091,-0.0103405965492129
796,-0.0188207738101482,-0.0148132024332881,-0.0228035189211369,-0.0121557144448161,0.0173084829002619,-0.0107409199699759
797,-0.0175062734633684,-0.011371067725122,-0.0209581218659878,-0.00975061487406492,0.0210800934582949,-0.00895435176789761
798,-0.0155762769281864,-0.00822727475315332,-0.0190602838993073,-0.00733107747510076,0.023789219558239,-0.00707163382321596
799,-0.0147967021912336,-0.00761173851788044,-0.0193306785076857,-0.00698919408023357,0.0231444165110588,-0.00739168329164386
800,-0.0156051702797413,-0.00885415822267532,-0.0219534151256084,-0.00846643839031458,0.018533481284976,-0.00905340071767569
801,-0.0173601359128952,-0.0112506300210953,-0.0257819760590792,-0.0110598476603627,0.0117685981094837,-0.0106959408149123
802,-0.0185199994593859,-0.0146177466958761,-0.0289069674909115,-0.0139961242675781,0.00693366071209311,-0.0112997991964221
803,-0.0186965968459845,-0.0183833427727222,-0.0302659831941128,-0.016395777463913,0.00613168766722083,-0.0103498250246048
804,-0.0191301386803389,-0.0224844310432673,-0.0301799643784761,-0.0181097723543644,0.00822516065090895,-0.00909035932272673
805,-0.0190778020769358,-0.0261955056339502,-0.0274739898741245,-0.0180283840745687,0.0127010811120272,-0.00769507465884089
806,-0.0175769031047821,-0.0284618437290192,-0.0216644145548344,-0.0154997883364558,0.018311370164156,-0.00537669192999601
807,-0.0161954890936613,-0.0296974536031485,-0.0154593661427498,-0.0125307831913233,0.0221390817314386,-0.00337622407823801
808,-0.0161032937467098,-0.0308488197624683,-0.0114157190546393,-0.0110316956415772,0.0228319671005011,-0.00351620861329138
809,-0.0159972161054611,-0.0315948948264122,-0.00910890661180019,-0.0105065265670419,0.0223605241626501,-0.00549703976139426
810,-0.0144704189151526,-0.0310369208455086,-0.00671800225973129,-0.00975272059440613,0.0236521456390619,-0.00782190356403589
811,-0.0122349839657545,-0.02950076200068,-0.00414902716875076,-0.00881522335112095,0.0261811297386885,-0.00986272469162941
812,-0.0108820321038365,-0.0283148903399706,-0.00324306543916464,-0.00860974006354809,0.0274060368537903,-0.0123502388596535
813,-0.0102866441011429,-0.0275964252650738,-0.00465489225462079,-0.00925754196941853,0.0275190565735102,-0.015744935721159
814,-0.00956004112958908,-0.0263109169900417,-0.00699553452432156,-0.0100769568234682,0.0275624487549067,-0.0186045598238707
815,-0.00944905634969473,-0.0242791287600994,-0.00910992082208395,-0.0110572222620249,0.0264476276934147,-0.0199399217963219
816,-0.0106852017343044,-0.022602116689086,-0.0108236838132143,-0.0127597618848085,0.0233183652162552,-0.0209566559642553
817,-0.0116566019132733,-0.022211192175746,-0.0117777660489082,-0.0144125754013658,0.0193247031420469,-0.0220767948776484
818,-0.00916848890483379,-0.0218253899365664,-0.0106978202238679,-0.0139103168621659,0.0170526616275311,-0.0216207299381495
819,-0.00291693559847772,-0.0204939898103476,-0.00799516402184963,-0.0114630619063973,0.0169038455933332,-0.0198452677577734
820,0.00359962577931583,-0.0193703435361385,-0.00608183350414038,-0.009330072440207,0.0159925129264593,-0.0192171316593885
821,0.00858024135231972,-0.0185892004519701,-0.00560718681663275,-0.00805656239390373,0.0138435466215014,-0.0199540928006172
822,0.012138637714088,-0.0176996532827616,-0.00629713153466582,-0.00746225100010633,0.0123084150254726,-0.0211121309548616
823,0.0137216839939356,-0.0175432730466127,-0.00840828567743301,-0.00814889743924141,0.0114797446876764,-0.0230931434780359
824,0.0130619276314974,-0.0192003380507231,-0.0114804403856397,-0.0106264799833298,0.0106421830132604,-0.0264479331672192
825,0.0110945412889123,-0.0216656532138586,-0.0141715547069907,-0.0140393106266856,0.0102037871256471,-0.029960734769702
826,0.00957922544330359,-0.0226761009544134,-0.0149004245176911,-0.0165438074618578,0.0110002048313618,-0.0313653983175755
827,0.0094274403527379,-0.0219969637691975,-0.013497675769031,-0.0175952278077602,0.012545240111649,-0.0302724782377481
828,0.0100658750161529,-0.0211346913129091,-0.0122690265998244,-0.0180021058768034,0.0136182652786374,-0.0282162390649319
829,0.0110994186252356,-0.0210876278579235,-0.013267895206809,-0.0181952640414238,0.0141727235168219,-0.0259491503238678
830,0.0132554732263088,-0.0213680025190115,-0.015548488125205,-0.0175761114805937,0.0154063869267702,-0.0228779502213001
831,0.0160670410841703,-0.0222045257687569,-0.0181798934936523,-0.0166645217686892,0.0170901827514172,-0.0200986098498106
832,0.0180478729307652,-0.0242032408714294,-0.0211788844317198,-0.01672119833529,0.0179410260170698,-0.0191292017698288
833,0.0189538728445768,-0.0256896428763866,-0.0231998935341835,-0.0171617921441793,0.0178580675274134,-0.018867090344429
834,0.0184317864477634,-0.0257431827485561,-0.0238490682095289,-0.0176964048296213,0.0160123333334923,-0.0185585375875235
835,0.0168908517807722,-0.0247830506414175,-0.0236625727266073,-0.0184076670557261,0.0124470572918653,-0.018267622217536
836,0.0163619238883257,-0.0222608894109726,-0.0220043025910854,-0.0179463196545839,0.0102584240958095,-0.0168083347380161
837,0.0166207831352949,-0.0192347150295973,-0.0198123287409544,-0.0163286067545414,0.0103180734440684,-0.0144786639139056
838,0.0157275795936584,-0.0179819520562887,-0.0193472690880299,-0.0150363044813275,0.0103748049587011,-0.0131607484072447
839,0.0133385071530938,-0.019137978553772,-0.0209885202348232,-0.0146094495430589,0.00963692460209131,-0.0135635249316692
840,0.0105899348855019,-0.0213887207210064,-0.0233108196407557,-0.0146244242787361,0.00916732754558325,-0.0151223037391901
841,0.00879991520196199,-0.0225852131843567,-0.0249061938375235,-0.0143874865025282,0.00928148254752159,-0.0165467355400324
842,0.00875599775463343,-0.0222330428659916,-0.0251951850950718,-0.013368459418416,0.0089685320854187,-0.0167171694338322
843,0.0115045346319675,-0.0202182903885841,-0.0232779979705811,-0.0105764186009765,0.00847787782549858,-0.0143254119902849
844,0.0169645976275206,-0.0164272282272577,-0.019067844375968,-0.00593480886891484,0.00895652081817389,-0.00923821795731783
845,0.0217157360166311,-0.0139100477099419,-0.0153526859357953,-0.00233475514687598,0.00959764048457146,-0.00476154591888189
846,0.0231910534203053,-0.0147828115150332,-0.0142731266096234,-0.00191877619363368,0.00933970045298338,-0.00312065007165074
847,0.022916167974472,-0.0171976573765278,-0.0147108845412731,-0.003505450906232,0.00840816739946604,-0.00288868299685419
848,0.0229386370629072,-0.0192001946270466,-0.0150759909301996,-0.00530732423067093,0.00682455068454146,-0.00235485332086682
849,0.0237898826599121,-0.019684100523591,-0.0150780854746699,-0.00598785514011979,0.00452411314472556,-0.000586418202146888
850,0.0258880443871021,-0.0177127160131931,-0.0146929761394858,-0.00452128751203418,0.00247410451993346,0.00244956952519715
851,0.0295416656881571,-0.0136484997346997,-0.0137679800391197,-0.00142929144203663,0.00171177729498595,0.00525703886523843
852,0.033415999263525,-0.00947287771850824,-0.0128001859411597,0.00122940982691944,0.00172236084472388,0.00600840384140611
853,0.0356637351214886,-0.006396166048944,-0.0122348535805941,0.00231601693667471,0.00139195681549609,0.00477415509521961
854,0.0353320203721523,-0.00475393980741501,-0.0122725926339626,0.00182468094862998,-0.00035137528902851,0.00262916414067149
855,0.032422136515379,-0.00494854990392923,-0.0129492962732911,3.70465313608292E-05,-0.00389376771636307,-0.000270069402176887
856,0.0281985979527235,-0.00632225722074509,-0.0140200005844235,-0.00207788310945034,-0.00814011599868536,-0.00411517824977636
857,0.0241225995123386,-0.0074185305275023,-0.0148629639297724,-0.00352116930298507,-0.0112067935988307,-0.00826369319111109
858,0.0208876300603151,-0.00733624072745442,-0.0142505690455437,-0.00392502592876554,-0.0114319315180182,-0.0111535666510463
859,0.0183081608265638,-0.00691227614879608,-0.0122407218441367,-0.0039387745782733,-0.0090984171256423,-0.0125038679689169
860,0.015868978574872,-0.00797134824097157,-0.0104669574648142,-0.00469504855573177,-0.00646862480789423,-0.0138426627963781
861,0.0132390102371573,-0.0112952832132578,-0.00998143944889307,-0.00662783812731504,-0.00561412749812007,-0.0160119198262692
862,0.0101981312036514,-0.016095170751214,-0.0104713151231408,-0.00918768998235464,-0.00683835195377469,-0.0181956216692925
863,0.00710227992385626,-0.0209890827536583,-0.0110692493617535,-0.0114082079380751,-0.00900174397975206,-0.0188628472387791
864,0.00459845503792167,-0.0254085026681423,-0.0116739450022578,-0.0131703969091177,-0.0111464131623507,-0.0179758314043283
865,0.00350951100699604,-0.0286457370966673,-0.0121139362454414,-0.0142007544636726,-0.0122523857280612,-0.016789497807622
866,0.004242236725986,-0.0290000587701797,-0.0112681007012725,-0.0130052352324128,-0.0110462252050638,-0.0154524780809879
867,0.00499367248266935,-0.0266015715897083,-0.00943032745271921,-0.00993489101529121,-0.00840151403099298,-0.0141861559823155
868,0.00377098540775478,-0.0240033864974976,-0.0086874682456255,-0.0074782706797123,-0.00675128540024161,-0.0142983263358474
869,0.00143423804547638,-0.022715337574482,-0.00978150311857462,-0.0061150835826993,-0.00674229161813855,-0.0156738348305225
870,-0.000476916757179424,-0.0224459767341614,-0.0116964327171445,-0.0046881060115993,-0.00756043242290616,-0.0163428243249655
871,-0.00156999810133129,-0.0226618759334087,-0.0131492679938674,-0.00293761282227933,-0.00826828368008137,-0.0149106672033668
872,-0.0016688370378688,-0.0230832248926163,-0.0131940674036741,-0.00121244136244059,-0.00817224755883217,-0.0123886130750179
873,-0.00132994179148227,-0.0241038016974926,-0.0122143225744367,-0.000552925514057279,-0.00802825484424829,-0.0117872776463628
874,-0.00148526346310973,-0.025867598131299,-0.0108669167384505,-0.00175864389166236,-0.00875904690474272,-0.0143359126523137
875,-0.00193196628242731,-0.0274151749908924,-0.00856503751128912,-0.0037871478125453,-0.00982765574008226,-0.0178505945950747
876,-0.0018645937088877,-0.0284450706094503,-0.00498467544093728,-0.00506808236241341,-0.010398717597127,-0.0202949196100235
877,-0.00175642280373722,-0.0300342682749033,-0.00177509128116071,-0.00567641202360392,-0.0107786143198609,-0.0217402204871178
878,-0.00263873022049665,-0.0325084961950779,-0.000795140105765313,-0.00639603799208999,-0.0114083010703325,-0.0223213657736778
879,-0.00416456488892436,-0.0348933376371861,-0.00191926606930792,-0.00713692139834166,-0.0117485988885164,-0.0214205402880907
880,-0.00641591800376773,-0.0370012558996677,-0.00463130092248321,-0.00825235713273287,-0.0125496974214911,-0.0197757165879011
881,-0.0097203440964222,-0.0388391241431236,-0.00766283273696899,-0.00966630503535271,-0.0142991384491324,-0.0183781832456589
882,-0.013156546279788,-0.0400232002139091,-0.00891929678618908,-0.0104241380468011,-0.0157763790339231,-0.0167294796556234
883,-0.0160373654216528,-0.0410737656056881,-0.00851995404809713,-0.0109316632151604,-0.0171310808509588,-0.0146731352433562
884,-0.0180563721805811,-0.0426760129630566,-0.00786858890205622,-0.011966360732913,-0.0189510770142078,-0.0129432706162333
885,-0.0197025742381811,-0.0456662513315678,-0.00811309646815062,-0.0140756955370307,-0.0213598627597094,-0.0128184659406543
886,-0.0218017008155584,-0.0508176311850548,-0.00996522791683674,-0.0177729167044163,-0.0251621417701244,-0.0151546662673354
887,-0.0228428672999144,-0.0560352019965649,-0.0116507355123758,-0.0211502984166145,-0.0296033695340157,-0.0179950855672359
888,-0.0198370311409235,-0.0567292980849743,-0.00951031688600779,-0.0205675754696131,-0.031031783670187,-0.0173729490488768
889,-0.0123426644131541,-0.0512261316180229,-0.00263704406097531,-0.0154125187546015,-0.0270392447710037,-0.0119473021477461
890,-0.00338306999765337,-0.0428195632994175,0.0061359815299511,-0.00877980142831802,-0.0196098349988461,-0.00397600186988711
891,0.00277727725915611,-0.036653645336628,0.0131219374015927,-0.00437897397205234,-0.013356126844883,0.002919458784163
892,0.00390463322401047,-0.0354410856962204,0.0162409916520119,-0.00393987121060491,-0.0116426134482026,0.00611237017437816
893,0.00195615901611745,-0.0369830541312695,0.0167706180363894,-0.00582130206748843,-0.0138212880119681,0.00687283417209983
894,-0.000585096015129238,-0.0387036614120007,0.0167043786495924,-0.00810319650918245,-0.0178151093423367,0.00723666651174426
895,-0.00292043900117278,-0.0406493581831455,0.0164759382605553,-0.0105232186615467,-0.0222332645207644,0.00698595121502876
896,-0.0037309629842639,-0.0417217276990414,0.0166820976883173,-0.01208680216223,-0.0249492302536964,0.00721870269626379
897,-0.0024296969641,-0.0404922589659691,0.0172804538160563,-0.0120770614594221,-0.0249292030930519,0.00977758876979351
898,0.000960625126026571,-0.0368055701255798,0.017849350348115,-0.0105719603598118,-0.0227427538484335,0.0143874939531088
899,0.00587150035426021,-0.0318844690918922,0.0181101504713297,-0.00821580179035664,-0.0197291523218155,0.018049219623208
900,0.0103885838761926,-0.0281974840909243,0.0176415555179119,-0.00615969998762012,-0.018057819455862,0.0180572103708982
901,0.0142469340935349,-0.0255064163357019,0.0178911071270704,-0.00351234921254218,-0.0181095991283655,0.0164514500647783
902,0.0182719565927982,-0.0216675214469433,0.0204883217811584,0.000771511869970709,-0.0183416772633791,0.0163925085216761
903,0.0223053842782974,-0.0160709973424673,0.0252620484679937,0.00587967224419117,-0.0171776041388512,0.0183590743690729
904,0.0254933461546898,-0.00954119488596916,0.0309985354542732,0.0106006013229489,-0.0142963286489248,0.0212578494101763
905,0.0255577992647886,-0.00458317948505282,0.0348685719072819,0.0128124579787254,-0.0124983536079526,0.0223467163741589
906,0.0213617645204067,-0.00290281069464982,0.0348327271640301,0.011432783678174,-0.0142848314717412,0.0200820937752724
907,0.0157786812633276,-0.00248319376260042,0.032107051461935,0.0087503008544445,-0.0176825299859047,0.0172369331121445
908,0.0116576394066215,-0.00184310553595424,0.0278599429875612,0.0065263994038105,-0.0200905650854111,0.0162525475025177
909,0.00914967339485884,-0.00252659525722265,0.0222534947097301,0.00404205406084657,-0.0211336258798838,0.0162509121000767
910,0.00863291509449482,-0.00505839707329869,0.01697095669806,0.00137123628519475,-0.0201281886547804,0.0164231192320585
911,0.0107495998963714,-0.00881632324308157,0.0134813627228141,-0.000433776003774256,-0.0168736036866903,0.0163297075778246
912,0.013740343041718,-0.0142712332308292,0.0107018249109387,-0.00169965496752411,-0.0137796914204955,0.0145889995619655
913,0.01495002489537,-0.0211633946746588,0.00723473494872451,-0.00319135747849941,-0.0130618764087558,0.0108931781724095
914,0.0141282053664327,-0.0277124587446451,0.00368320452980697,-0.00439229235053062,-0.0138564640656114,0.00693753967061639
915,0.0140079520642757,-0.031510554254055,0.00211760937236249,-0.00372854410670698,-0.0128671368584037,0.00517601333558559
916,0.0157638043165207,-0.0319768600165844,0.00260287127457559,-0.00117955484893173,-0.009171805344522,0.00622487347573042
917,0.0166443102061749,-0.0314130857586861,0.0026133235078305,0.00119755952619016,-0.00565118296071887,0.00830450374633074
918,0.0153667880222201,-0.0303671956062317,0.00128582399338484,0.0030264975503087,-0.00366104650311172,0.0111417612060905
919,0.0132350996136665,-0.0281249638646841,-0.00134176132269204,0.00445350259542465,-0.0029242190066725,0.0150993913412094
920,0.0113294208422303,-0.0256292708218098,-0.00562006700783968,0.00424880348145962,-0.0034209992736578,0.018955085426569
921,0.0105592543259263,-0.0232330467551947,-0.0102622387930751,0.00215146993286908,-0.0043585398234427,0.0223918966948986
922,0.0110133700072765,-0.0208929535001516,-0.0140472678467631,-0.00109122414141893,-0.0054667885415256,0.0252863336354494
923,0.0120580121874809,-0.0195115115493536,-0.0164868179708719,-0.00403556926175952,-0.00684823002666235,0.0272290594875813
924,0.0140105290338397,-0.0198585633188486,-0.016463840380311,-0.00490627158433199,-0.00720957946032286,0.029407549649477
925,0.0174303892999887,-0.0214601252228022,-0.0138632608577609,-0.00321747572161257,-0.00492541771382093,0.0319098420441151
926,0.0213777590543032,-0.0229282677173615,-0.0103876981884241,0.000120405537018087,3.59758741979022E-05,0.0321815349161625
927,0.0246028080582619,-0.0233829040080309,-0.00740608340129256,0.0038934696931392,0.00623490195721388,0.0296077486127615
928,0.0270841959863901,-0.0224385745823383,-0.00488319899886847,0.00770779559388757,0.01210025139153,0.0269652977585793
929,0.02857162989676,-0.0202418155968189,-0.00259069702588022,0.0112864756956697,0.0159311760216951,0.0257695727050304
930,0.028248431161046,-0.0178571343421936,-0.000411850021919236,0.0140697536990047,0.0164836440235376,0.0253472290933132
931,0.0255574062466621,-0.0169851370155811,0.0013427579542622,0.0154191162437201,0.0135177336633205,0.0243898686021566
932,0.0204500649124384,-0.0184598732739687,0.00197368580847979,0.0147085646167398,0.00778198335319757,0.0218854267150164
933,0.0143804810941219,-0.0202400665730238,0.00233860849402845,0.0133999362587929,0.00188300444278866,0.0197761300951242
934,0.0091425059363246,-0.0204695425927639,0.00414250511676073,0.0137493722140789,-0.00161908543668687,0.0203608646988869
935,0.00535721378400922,-0.0203006658703089,0.00760466465726495,0.0154730649664998,-0.0023288787342608,0.0224854089319706
936,0.00261358008719981,-0.0219120122492313,0.0109071545302868,0.0162004604935646,-0.0016469566617161,0.0233648344874382
937,0.000581751228310168,-0.0256269369274378,0.0125894472002983,0.0149307902902365,-0.000844805792439729,0.0222472250461578
938,-0.000431399239460006,-0.0296264048665762,0.0134970415383577,0.0135221360251307,0.000191122147953138,0.0208278317004442
939,-0.000832774443551898,-0.0331860519945621,0.014266231097281,0.013155504129827,0.00150953512638807,0.0198749657720327
940,-0.00107404519803822,-0.0367505699396133,0.014346762560308,0.0132694877684116,0.00277282297611237,0.019542234018445
941,-0.000441092473920435,-0.0398566611111164,0.0135006122291088,0.0134631032124162,0.0038664760068059,0.0207053627818823
942,0.000980091979727149,-0.0420459620654583,0.0115811303257942,0.0131063386797905,0.00460787350311875,0.0226547103375196
943,0.00254803593270481,-0.0428333058953285,0.00919108092784882,0.0123562905937433,0.0056268684566021,0.0243749544024467
944,0.00439226161688566,-0.0416051968932152,0.00769583182409406,0.0121998256072402,0.00754061853513122,0.0264343786984682
945,0.00559565331786871,-0.0390130542218685,0.00671398732811213,0.0122768599539995,0.00854656938463449,0.0287192706018686
946,0.00494585884734988,-0.0361089184880257,0.00447868462651968,0.0119360834360123,0.00661643268540502,0.0302137117832899
947,0.00238913833163679,-0.0339538790285587,0.000107887710328214,0.0110946428030729,0.00271487678401172,0.0297751575708389
948,-0.00112861464731395,-0.0333223715424538,-0.00517706014215946,0.010006470605731,-0.000190736245713197,0.0274272952228785
949,-0.00431669084355235,-0.0340164937078953,-0.00906838662922382,0.00917440000921488,-0.000756801455281675,0.0253928117454052
950,-0.00599913857877254,-0.0351260863244534,-0.0101174572482705,0.00922888889908791,0.000115602648293134,0.026221489533782
951,-0.00522162858396769,-0.0356691889464855,-0.00857856310904026,0.0105210663750768,0.0013908731052652,0.0301626697182655
952,-0.00273700198158622,-0.0362509824335575,-0.00666079809889197,0.0118157044053078,0.00195834552869201,0.0343563258647919
953,-0.000499368296004832,-0.0378176681697369,-0.00627656653523445,0.0117419762536883,0.000717563147190958,0.0360836796462536
954,0.000140161413582973,-0.0397231765091419,-0.00756771536543965,0.0104987034574151,-0.00256797624751925,0.0349287167191505
955,-0.000222439877688885,-0.0406052768230438,-0.00970365758985281,0.00894537568092346,-0.00612272275611758,0.0319053493440151
956,0.000377978110918775,-0.0393296256661415,-0.0111478203907609,0.00777287501841784,-0.00734793813899159,0.0287217665463686
957,0.00174550141673535,-0.0360039584338665,-0.0113942287862301,0.00674296543002129,-0.00679651601240039,0.0260276757180691
958,0.00153863243758678,-0.0322530940175056,-0.0122074522078037,0.00457145227119327,-0.00719152903184295,0.0229484122246504
959,-0.000819594308268279,-0.0294646490365267,-0.0147444419562817,0.000668102409690619,-0.00886955205351114,0.0191922895610332
960,-0.00401342380791903,-0.0274679102003574,-0.0179086904972792,-0.00394579069688916,-0.0103128179907799,0.015531538054347
961,-0.00708044413477182,-0.024965588003397,-0.0198693387210369,-0.00751533405855298,-0.0104174027219415,0.012743728235364
962,-0.00968110095709562,-0.0216717608273029,-0.0197213366627693,-0.00911660585552454,-0.00901430938392878,0.0106570450589061
963,-0.0116765042766929,-0.0191837623715401,-0.0182253047823906,-0.00918689277023077,-0.00715713389217854,0.00866629742085934
964,-0.0122590847313404,-0.0180272664874792,-0.0159269329160452,-0.00776684237644076,-0.00499499030411243,0.00742348795756698
965,-0.0115933166816831,-0.0178584437817335,-0.0134973283857107,-0.00538938865065575,-0.00269278138875961,0.00671339593827724
966,-0.0119157265871763,-0.01947239972651,-0.0130898589268327,-0.00432608276605606,-0.00267791957594454,0.00467063346877694
967,-0.0138135496526957,-0.0225870031863451,-0.0152859482914209,-0.00518241710960865,-0.00594509486109018,0.0017550946213305
968,-0.0156834051012993,-0.0263691172003746,-0.018646739423275,-0.00644218362867832,-0.0107046021148562,-0.000214040439459495
969,-0.016280198469758,-0.0307109132409096,-0.0215366426855326,-0.00694281747564673,-0.0145310256630182,-0.000901659659575671
970,-0.0155405318364501,-0.0349318012595177,-0.0227700415998697,-0.0065537435002625,-0.01615353487432,-0.00118141097482294
971,-0.0140444422140718,-0.0376444756984711,-0.0222276002168655,-0.00587896443903446,-0.0160300005227327,-0.00165214226581156
972,-0.0123902428895235,-0.0371663421392441,-0.0203061792999506,-0.00527279637753963,-0.0144452527165413,-0.000341427192324772
973,-0.0114578455686569,-0.0337151065468788,-0.0180736500769854,-0.00529445288702846,-0.0117671275511384,0.0041303439065814
974,-0.0114484755322337,-0.0296243578195572,-0.0161950346082449,-0.00623360741883516,-0.00917591527104378,0.00883162021636963
975,-0.0120700253173709,-0.0270055625587702,-0.0142368851229548,-0.00752225844189525,-0.00818650797009468,0.00969448778778315
976,-0.0134148942306638,-0.0268324837088585,-0.0124325528740883,-0.00897268205881119,-0.00954661518335342,0.00580765586346388
977,-0.014862067066133,-0.0282120909541845,-0.0109924646094441,-0.0100565664470196,-0.011457109823823,0.000200574591872282
978,-0.0154494466260076,-0.0293036885559559,-0.00907889660447836,-0.0097028948366642,-0.0116412686184049,-0.00365406693890691
979,-0.0148004582151771,-0.0289652142673731,-0.00620731431990862,-0.00804381817579269,-0.0104639679193497,-0.00532941287383437
980,-0.0137586137279868,-0.0274088587611914,-0.00385229499079287,-0.00701688369736075,-0.0104004573076963,-0.00709805125370622
981,-0.0135828610509634,-0.0254417955875397,-0.00396637618541718,-0.00792665127664804,-0.0126389274373651,-0.0106490198522806
982,-0.0131287984549999,-0.0225076917558908,-0.00561554776504636,-0.00908828526735306,-0.014789592474699,-0.0143804391846061
983,-0.0107610858976841,-0.0184184778481722,-0.00652992259711027,-0.00856567267328501,-0.0146697629243135,-0.015206097625196
