,AF3,AF4,Fp1,Fp2,AF7,AF8
0,0.00165826000738889,-0.00766136916354299,-0.0057518882676959,-0.00252579362131655,-0.00811803620308638,0.0169993843883276
1,0.00184623803943396,-0.0155161814764142,-0.00695739593356848,-0.0031758148688823,-0.00834474712610245,0.016129806637764
2,0.00273721083067358,-0.0221389513462782,-0.00682081235572696,-0.00254834326915443,-0.00750807113945484,0.0142505252733827
3,0.0040428014472127,-0.0265602804720402,-0.00554653070867062,-0.000486385775730014,-0.00509938690811396,0.0124473115429282
4,0.00487843295559287,-0.0282619893550873,-0.00389897148124874,0.00216009188443422,-0.00196452368982136,0.0116224400699139
5,0.0054658972658217,-0.026866476982832,-0.0020594266243279,0.00461083371192217,0.0011380398645997,0.0123886754736304
6,0.00564996711909771,-0.02324696816504,-0.000801366521045566,0.00619346601888537,0.00294050946831703,0.0137152755632997
7,0.00552918668836355,-0.0193139016628265,-0.000471986422780901,0.00690972711890936,0.00273536215536296,0.0143739841878414
8,0.00560059677809477,-0.0173717681318522,-0.000664544350001961,0.00668096682056785,0.00134289148263633,0.0136462580412626
9,0.00620116386562586,-0.0176857076585293,-0.000701033743098378,0.00570898922160268,0.0010565995471552,0.0115498257800937
10,0.00704520614817739,-0.0185318924486637,-0.000472776329843327,0.00465218676254153,0.00252011325210333,0.00879665836691856
11,0.00739688193425536,-0.0189077295362949,-0.000322166975820437,0.00376639747992158,0.00350934290327132,0.0061065680347383
12,0.00812641344964504,-0.0187148489058018,0.000542668218258768,0.00366134359501302,0.0039926627650857,0.00470785517245531
13,0.010072941891849,-0.0182842686772347,0.00239030295051634,0.00508730439469218,0.00642661890015006,0.00559104373678565
14,0.0120621854439378,-0.0181087199598551,0.00403723539784551,0.0075452821329236,0.0117163294926286,0.00765022169798613
15,0.0130981458351016,-0.018384562805295,0.00477038742974401,0.00955214444547892,0.0184834357351065,0.00848534237593412
16,0.0133988186717033,-0.018695455044508,0.0046787285245955,0.0104605341330171,0.0241864752024412,0.00749827502295375
17,0.0132219521328807,-0.0184675734490156,0.00376300211064518,0.0107869151979685,0.0269707627594471,0.00629625096917152
18,0.0123153431341052,-0.0178349316120148,0.00181201857049018,0.0107479263097048,0.0262849237769842,0.00589081086218357
19,0.0107756061479449,-0.0172631423920393,-0.000308124726871029,0.0100918151438236,0.0226017758250237,0.00606347620487213
20,0.00973265338689089,-0.0170684326440096,-0.000477097753901035,0.0094399293884635,0.0180199034512043,0.00672296574339271
21,0.0109834438189864,-0.0169489178806543,0.00257182982750237,0.0101056136190891,0.0153394071385264,0.00801444798707962
22,0.0152522204443812,-0.0168441012501717,0.00744004361331463,0.0117355436086655,0.0149148013442755,0.00913957506418228
23,0.0205153003334999,-0.0179415121674538,0.0112459436058998,0.0125204529613256,0.014667421579361,0.00841867737472057
24,0.0245236437767744,-0.0196123737841845,0.0133923199027777,0.0129232034087181,0.0146236568689346,0.00695930048823357
25,0.0262858215719461,-0.0199447348713875,0.0149333607405424,0.0142696043476462,0.0164768286049366,0.00772153027355671
26,0.0252204183489084,-0.0188524983823299,0.0163584109395742,0.0159406885504723,0.0199092999100685,0.0109133310616016
27,0.0226737782359123,-0.0166875254362822,0.0185624230653048,0.0173091161996126,0.0235324017703533,0.0146136060357094
28,0.020758418366313,-0.013837406411767,0.0213501490652561,0.0178346317261457,0.0264738816767931,0.0167173314839602
29,0.0198936630040407,-0.0105696395039558,0.0231051091104746,0.0175884142518044,0.0284337159246206,0.0170944072306156
30,0.0186992920935154,-0.00748409470543265,0.0232206583023071,0.0171174630522728,0.0292001757770777,0.016478568315506
31,0.0161247774958611,-0.00500280456617475,0.0225601699203253,0.0161645691841841,0.0286150015890598,0.0144998067989945
32,0.0133737847208977,-0.00134462211281061,0.0221041440963745,0.0153183816000819,0.0268872417509556,0.0123246368020773
33,0.0107940752059221,0.00317645794712007,0.0208729039877653,0.014429047703743,0.0232610497623682,0.0107166999951005
34,0.00677822297438979,0.00473216036334634,0.0169392563402653,0.0114871636033058,0.0165661778301001,0.00772244296967983
35,0.0015290614683181,0.00201572733931243,0.0106081375852227,0.0063883769325912,0.00855833105742931,0.00257925945334136
36,-0.00302320253103971,-0.00274132355116308,0.00395670207217336,0.00108038238249719,0.00316723645664752,-0.0031863076146692
37,-0.00551337050274014,-0.00680429441854358,-0.00128707615658641,-0.00294489623047411,0.00197305041365325,-0.00762753142043948
38,-0.0064994040876627,-0.0092445369809866,-0.00501051684841514,-0.00532533461228013,0.00255050207488239,-0.0102216294035316
39,-0.00725297071039677,-0.0109142987057567,-0.00781171210110188,-0.0063024521805346,0.00269647547975183,-0.0120179569348693
40,-0.00807131454348564,-0.0129741225391626,-0.0100560560822487,-0.00647661695256829,0.0022696265950799,-0.0139490598812699
41,-0.00891986675560474,-0.0156261343508959,-0.0125890104100108,-0.00620846496894956,0.000920188787858933,-0.0160020366311073
42,-0.00905683264136314,-0.0172487758100033,-0.0154013000428677,-0.00452660350129008,-0.00132331612985581,-0.0168817881494761
43,-0.00761447148397565,-0.0168747995048761,-0.0167742073535919,-0.00108878267928958,-0.00346863945014775,-0.0157898273319006
44,-0.00443183118477464,-0.0153134576976299,-0.0153646236285567,0.00270983017981052,-0.00403767172247171,-0.0140377869829535
45,-0.000247049174504355,-0.013793139718473,-0.0121849020943046,0.00550919910892844,-0.00262310192920268,-0.0136273857206106
46,0.00364785292185843,-0.0129435956478119,-0.00894779991358519,0.00714184530079365,-0.000173823646036908,-0.014690394513309
47,0.00637042988091707,-0.0125225018709898,-0.00661645364016294,0.0078994994983077,0.00256024347618222,-0.0158835407346487
48,0.00747976312413812,-0.0124295651912689,-0.00599335320293903,0.00726075982674956,0.00515614403411746,-0.0164267271757126
49,0.00755988666787744,-0.0124837718904018,-0.00640607299283147,0.00543869053944945,0.00744697032496333,-0.0154858352616429
50,0.00856051407754421,-0.0123235043138266,-0.0057381927035749,0.00462438678368926,0.00993721093982458,-0.012459410354495
51,0.0110442703589797,-0.012875335291028,-0.00388633902184665,0.00544862169772387,0.0123322205618024,-0.0094140088185668
52,0.0132170394062996,-0.015100440941751,-0.00268000108189881,0.00591573491692543,0.0128258364275098,-0.00915370043367147
53,0.013837325386703,-0.0188535153865814,-0.0027945910114795,0.00440579233691096,0.0107048721984029,-0.0119692850857973
54,0.013366918079555,-0.0234456155449152,-0.00345176761038601,0.000973692105617374,0.00714613310992718,-0.016314584761858
55,0.0130323339253664,-0.0271424688398838,-0.00353447790257633,-0.0026430154684931,0.00363092427141964,-0.0203213933855295
56,0.0131506128236651,-0.0286972373723984,-0.00299285864457488,-0.0048137353733182,0.000742419215384871,-0.023405434563756
57,0.0134812770411372,-0.0275735761970282,-0.00211507128551602,-0.00479015801101923,-0.000905890425201505,-0.0253975708037615
58,0.0144470278173685,-0.0233954545110464,-0.000430105545092374,-0.00227705948054791,-0.000906472152564675,-0.025267593562603
59,0.0160575900226831,-0.0179668534547091,0.00218516192398965,0.00157548859715462,-0.000643125153146684,-0.0230052694678307
60,0.0176013968884945,-0.0137059092521667,0.00561107089743018,0.00494877994060516,-0.000702167046256363,-0.0196642186492682
61,0.0189749263226986,-0.0107995672151446,0.00941991806030273,0.00719714816659689,0.000685678794980049,-0.0157329235225916
62,0.0204465370625257,-0.00873195007443428,0.012153566814959,0.00857255142182112,0.00403304118663073,-0.0117767099291086
63,0.0217019729316235,-0.00705753546208143,0.0132711930200458,0.00969761144369841,0.00763054192066193,-0.00810753740370274
64,0.0217839367687702,-0.00537964841350913,0.0135892815887928,0.0107319699600339,0.00946978107094765,-0.00465474557131529
65,0.0194396581500769,-0.00423923553898931,0.013160846196115,0.0108200153335929,0.00784188415855169,-0.0022411688696593
66,0.0154034970328212,-0.0039212885312736,0.0126549936830997,0.0101419435814023,0.00424282578751445,-0.000888538255821913
67,0.0118962647393346,-0.00399770960211754,0.0138035221025348,0.0102509325370193,0.00260841194540262,0.000804069684818387
68,0.00998498778790236,-0.00404998008161783,0.0167377851903439,0.0117965498939157,0.00432289578020573,0.00364535232074559
69,0.00991320516914129,-0.00389685505069792,0.0198924597352743,0.0136678330600262,0.00795155763626099,0.007227738853544
70,0.0117733906954527,-0.00269820517860353,0.0227671898901463,0.0155328437685966,0.0119576007127762,0.0117603056132793
71,0.0141825219616294,-4.18914278270677E-05,0.0258144326508045,0.0179968494921923,0.0151018714532256,0.0173774436116219
72,0.0146275637671351,0.00151425006333739,0.027954563498497,0.0195873733609915,0.0158336516469717,0.0214512646198273
73,0.0135635873302817,-7.27827646187507E-05,0.0285690538585186,0.0190055388957262,0.0146530391648412,0.0213974472135305
74,0.0128313759341836,-0.00356863788329065,0.0281651802361012,0.016865499317646,0.0130588989704847,0.0176991727203131
75,0.0117637729272246,-0.00724035734310746,0.0265062563121319,0.0141831859946251,0.0109920548275113,0.0130823208019137
76,0.0107998717576265,-0.00874530803412199,0.0250991135835648,0.0132562220096588,0.0099883358925581,0.0114757269620895
77,0.0115412557497621,-0.00618450483307242,0.0258135236799717,0.0154548604041338,0.0118180960416794,0.014337089844048
78,0.0126413097605109,-0.0012924374314025,0.0272562112659216,0.018961725756526,0.0144710429012775,0.0188773218542337
79,0.0112402541562915,0.00205400749109685,0.0270847249776125,0.0210756380110979,0.0149268545210361,0.0214291084557772
80,0.0062513817101717,0.000995050650089979,0.0244865193963051,0.020129507407546,0.0124416928738356,0.0201460048556328
81,0.000444358767708763,-0.00300285429693758,0.0214352663606405,0.0175407882779837,0.00980295799672604,0.017077649012208
82,-0.00300994282588363,-0.00649279356002808,0.0194363463670015,0.015451799146831,0.009211465716362,0.0149275725707412
83,-0.00461404863744974,-0.00882752891629934,0.0172140225768089,0.0134484628215432,0.00845170300453901,0.0133234476670623
84,-0.0055676200427115,-0.00962613616138697,0.0150202829390764,0.0116945439949632,0.00587878469377756,0.0119511000812054
85,-0.00611316319555044,-0.00796575099229813,0.0142944818362594,0.0108438357710838,0.00253839138895273,0.0105773760005832
86,-0.00658083008602262,-0.0048421248793602,0.0149055924266577,0.00992168672382832,-0.000711953674908727,0.00819480419158936
87,-0.00614033918827772,-0.000514002051204443,0.0167454965412617,0.00950499158352613,-0.00349999754689634,0.00650395778939128
88,-0.00333710759878159,0.00599101092666388,0.0201942641288042,0.011386988684535,-0.00531152496114373,0.00820380728691816
89,0.00140578683931381,0.0127423210069537,0.024075161665678,0.0140365157276392,-0.00570880109444261,0.0115407565608621
90,0.00545349437743425,0.0160673819482327,0.0255529470741749,0.0139880264177918,-0.00517238536849618,0.0123488958925009
91,0.00635968055576086,0.0150341037660837,0.0229689907282591,0.0103305438533425,-0.0050982884131372,0.00975864566862583
92,0.00516186142340302,0.0124112358316779,0.018183646723628,0.00569309992715716,-0.00568851595744491,0.00639092829078436
93,0.0045415130443871,0.0108438953757286,0.014190910384059,0.0031632783357054,-0.0059089083224535,0.00428698398172855
94,0.00482654385268688,0.00962034799158573,0.0116958590224385,0.00288914050906897,-0.00568480882793665,0.00289577734656632
95,0.00477275904268026,0.00720068113878369,0.00991321913897991,0.00321972602978349,-0.0055070398375392,0.000982065568678081
96,0.00387154589407146,0.00434553576633334,0.0085769034922123,0.00364181771874428,-0.00516888173297048,-0.00120505329687148
97,0.00236688950099051,0.00301928096450865,0.00791430287063122,0.0046825404278934,-0.00473588891327381,-0.00237951870076358
98,0.0012613422004506,0.00409874226897955,0.00866833422333002,0.00643542455509305,-0.00401276955381036,-0.00194703426677734
99,0.00172755494713783,0.00636258767917752,0.0116834631189704,0.00841912906616926,-0.00222271913662553,-0.000639494159258902
100,0.00291851093061268,0.00730507913976908,0.015933845192194,0.00981920771300793,-0.0003936794528272,0.000645275751594454
101,0.00324564101174474,0.00629565306007862,0.0193283371627331,0.00976128503680229,-0.000397357944166288,0.0021059475839138
102,0.00327908899635077,0.00532443961128592,0.0211418271064758,0.00814175419509411,-0.00127473345492035,0.00368658592924476
103,0.00453222682699561,0.0056403111666441,0.0214574951678514,0.00558852218091488,5.73880424781237E-05,0.00369266443885863
104,0.00713935447856784,0.00695081893354654,0.0204320624470711,0.00323607609607279,0.00400762911885977,0.00118914130143821
105,0.00996280647814274,0.00895258318632841,0.0185068193823099,0.00214798585511744,0.00723421480506659,-0.00217120023444295
106,0.0113000459969044,0.0108500756323338,0.0158943720161915,0.00186581013258547,0.00666275806725025,-0.00494057917967439
107,0.0110807344317436,0.0122574605047703,0.0136103583499789,0.00204312498681247,0.00314452103339136,-0.00659245764836669
108,0.0109265949577093,0.0136980367824435,0.0127611178904772,0.00316081079654396,-0.000627650471869856,-0.00642232270911336
109,0.0102493846789002,0.0144705893471837,0.0122337797656655,0.00411913124844432,-0.00452356413006783,-0.00538338301703334
110,0.00722634233534336,0.0135702863335609,0.0109420074149966,0.00380487809889019,-0.00939700752496719,-0.00493425503373146
111,0.00196127197705209,0.0107636190950871,0.0091864075511694,0.00255784229375422,-0.0148990480229259,-0.00493189971894026
112,-0.00345857301726937,0.00650009419769049,0.00723304599523544,0.000915058481041342,-0.0193036086857319,-0.0041995202191174
113,-0.00756182847544551,0.00212972285225987,0.00507139228284359,-0.000968197360634804,-0.0209302939474583,-0.0022344789467752
114,-0.0111881205812097,-0.00135246280115098,0.00267360336147249,-0.00320718553848565,-0.0208203997462988,-0.000271417840849608
115,-0.0137257259339094,-0.0027526484336704,0.0015481939772144,-0.00464206701144576,-0.0192988645285368,0.00134834204800427
116,-0.0138879055157304,-0.00176948844455183,0.00276302103884518,-0.00452903658151627,-0.0157508999109268,0.00289662997238338
117,-0.0130844404920936,-0.00025240279501304,0.00415327306836843,-0.0043534729629755,-0.0124021479859948,0.00357623212039471
118,-0.0130871282890439,-2.45973878918448E-05,0.0032845854293555,-0.00551604945212603,-0.0113807925954461,0.00312767364084721
119,-0.0147329829633236,-0.00195782817900181,-7.19475792720914E-05,-0.00832894071936607,-0.0126601168885827,0.00115253461990505
120,-0.0170727483928204,-0.00423716986551881,-0.00333190220408142,-0.0109812635928392,-0.014017766341567,-0.00199839752167463
121,-0.0180023144930601,-0.00350347603671253,-0.00317921978421509,-0.0105868596583605,-0.0121603282168508,-0.00390744674950838
122,-0.0172157660126686,0.000208510726224631,9.34530180529691E-05,-0.00739497132599354,-0.00697273202240467,-0.00356569094583392
123,-0.0156637709587812,0.00407013390213251,0.00340187852270901,-0.00454748142510653,-0.00138258002698421,-0.00274082669056952
124,-0.0142338583245873,0.00657587358728051,0.00449111824855208,-0.00428289594128728,0.00204894226044416,-0.00335338385775685
125,-0.0133473044261336,0.00934950448572636,0.00347663788124919,-0.00578072527423501,0.00273126480169594,-0.00503248861059546
126,-0.0132270883768797,0.0140165258198977,0.00102380127646029,-0.00751280784606934,0.00126950757112354,-0.00645637372508645
127,-0.0140336398035288,0.0187610872089863,-0.00346456281840801,-0.00966604985296726,-0.00127063482068479,-0.00807954929769039
128,-0.0146835464984179,0.0217766426503658,-0.00897332560271025,-0.0119726862758398,-0.0029185195453465,-0.0105541348457336
129,-0.0139444330707192,0.0237707551568747,-0.0127287469804287,-0.0132947480306029,-0.00306543079204857,-0.0128676919266582
130,-0.0114725371822715,0.0253508575260639,-0.0135699072852731,-0.0131339272484183,-0.00258383667096496,-0.0133920209482312
131,-0.00713567202910781,0.0264740809798241,-0.0121509581804276,-0.011471533216536,-0.00158568529877812,-0.0112271374091506
132,-0.00154411664698273,0.0278769508004189,-0.00974943675100803,-0.00864447839558125,-0.000706750433892012,-0.00655913352966309
133,0.00419175578281283,0.0306445620954037,-0.00745348073542118,-0.00527111208066344,-0.000626259192358702,-0.000485326541820541
134,0.00921530928462744,0.0348315425217152,-0.00603166641667485,-0.00225738412700593,-0.000377863965695724,0.00514003168791533
135,0.0124870855361223,0.0389867164194584,-0.0060782665386796,-0.000668409862555563,0.000488801975734532,0.00869645643979311
136,0.0136599466204643,0.0413168482482433,-0.00749751040711999,-0.000762697483878583,0.00091180216986686,0.0100440597161651
137,0.0137117467820644,0.0407512150704861,-0.00947667751461267,-0.00208508013747633,-2.36009036598261E-05,0.00946568883955479
138,0.0136797334998846,0.0370079465210438,-0.0111610647290945,-0.00455613015219569,-0.00199748273007572,0.00619817059487104
139,0.0140707204118371,0.0318315401673317,-0.0118123525753617,-0.00764506543055177,-0.00332589261233807,0.00104798469692469
140,0.014951741322875,0.0288579352200031,-0.0107285529375076,-0.00922238919883966,-0.00243901088833809,-0.00205072038806975
141,0.0155543237924576,0.029239384457469,-0.0082271434366703,-0.00814239960163832,0.000417562871007249,-0.00140822515822947
142,0.0152234369888902,0.0301529224961996,-0.00558500550687313,-0.00622266530990601,0.0040169614367187,-6.02813561272342E-05
143,0.0149590782821178,0.02968536503613,-0.00332210445776582,-0.00509854592382908,0.00814950466156006,-0.000379774282919243
144,0.0145411696285009,0.028335765004158,-0.00239722477272153,-0.00536451628431678,0.0114204380661249,-0.00226988922804594
145,0.0117150554433465,0.0265461914241314,-0.00413167476654053,-0.00761263864114881,0.0105847390368581,-0.00519726146012545
146,0.00672399252653122,0.0248707048594952,-0.00700700795277953,-0.0104776779189706,0.00592476595193148,-0.00756368273869157
147,0.00195319950580597,0.0239094961434603,-0.00852491986006498,-0.0119822705164552,0.000831534212920815,-0.00776893878355622
148,-0.00138359842821956,0.0233781673014164,-0.00844946037977934,-0.0119271511211991,-0.00278832414187491,-0.00628960505127907
149,-0.00253385654650629,0.0238847676664591,-0.00724603049457073,-0.0101349847391248,-0.00394049845635891,-0.00372450123541057
150,-0.00147678214125335,0.0259986612945795,-0.00519492710009217,-0.00704411324113607,-0.00246032769791782,-0.000435265945270658
151,-0.000799870409537107,0.027593994513154,-0.00369798252359033,-0.00501535274088383,-0.00121545256115496,0.00193376548122615
152,-0.00209819944575429,0.0275192279368639,-0.0037623536773026,-0.00519755482673645,-0.00269457534886897,0.00214053457602859
153,-0.00380990211851895,0.0268806386739016,-0.00492695439606905,-0.00667681777849793,-0.00506627606227994,-0.000451958825578913
154,-0.00505348620936275,0.0260544791817665,-0.00676254462450743,-0.00839382037520409,-0.0061621405184269,-0.00563132343813777
155,-0.0058301305398345,0.0258144773542881,-0.00872448738664389,-0.00925365835428238,-0.00624654674902558,-0.0105293691158295
156,-0.00583453197032213,0.027213629335165,-0.00999349541962147,-0.0087366821244359,-0.00562492851167917,-0.0126202460378408
157,-0.00546804908663034,0.0292963869869709,-0.0105168083682656,-0.00780008779838681,-0.00434747617691755,-0.01304248906672
158,-0.0049783568829298,0.0308822523802519,-0.0104593504220247,-0.00746668130159378,-0.00284471386112273,-0.0136061953380704
159,-0.00420147040858865,0.0322144590318203,-0.00940116960555315,-0.00745562557131052,-0.0013442694908008,-0.0141053600236773
160,-0.00312676629982889,0.0336117744445801,-0.00700097857043147,-0.0068409712985158,3.80877791030798E-05,-0.0135819260030985
161,-0.00153330608736724,0.0352223254740238,-0.00330799981020391,-0.00474522495642304,0.00163267459720373,-0.0113635715097189
162,0.000655000971164554,0.036873996257782,0.000779833877459168,-0.00152971991337836,0.00449887476861477,-0.0082654133439064
163,0.00306339492090046,0.0375859066843987,0.00340060493908823,0.000809040502645075,0.00891081523150206,-0.00606755958870053
164,0.00508469715714455,0.0368453897535801,0.00345943076536059,0.00121562019921839,0.013235286809504,-0.00499503221362829
165,0.00596722774207592,0.0348954759538174,0.00161048758309335,0.000371832575183362,0.0154907600954175,-0.00478380918502808
166,0.00628046877682209,0.0323945097625256,-0.000198561363504268,-0.000771166989579797,0.0164713095873594,-0.00561567721888423
167,0.00781609863042831,0.0309047214686871,-0.000372121488908306,-0.00120027095545083,0.0182230528444052,-0.00632630242034793
168,0.0105682425200939,0.0310478899627924,0.000419772783061489,-0.000395700248191133,0.0198909882456064,-0.00560431461781263
169,0.0135258072987199,0.0316328294575214,0.00102556252386421,0.00106510706245899,0.0203341972082853,-0.00383921386674047
170,0.0164322331547737,0.0321636460721493,0.00172396865673363,0.00251114391721785,0.0202851574867964,-0.00159676757175475
171,0.0189438164234161,0.0337690785527229,0.00315052550286055,0.00408190162852407,0.0200632680207491,0.00164814665913582
172,0.0203585922718048,0.0367381423711777,0.00512606371194124,0.00530374702066183,0.0193507466465235,0.00518111558631063
173,0.0198873691260815,0.0393577367067337,0.00671798503026366,0.00503436755388975,0.0182618461549282,0.00664689159020782
174,0.017581794410944,0.0398100167512894,0.00745026487857103,0.00360534945502877,0.0176774580031633,0.00541506335139275
175,0.0143794436007738,0.0372938774526119,0.00742043787613511,0.00187175651080906,0.0181112922728062,0.00258611096069217
176,0.0122782588005066,0.0338847264647484,0.00786823406815529,0.00118404370732605,0.0199793539941311,0.000823527050670236
177,0.0127429468557239,0.0326178669929504,0.00985628273338079,0.00265641720034182,0.0229828935116529,0.00245026871562004
178,0.0145472101867199,0.0329044237732887,0.0121097266674042,0.0046626697294414,0.0252742767333984,0.00580531964078546
179,0.0158139932900667,0.0331011153757572,0.0136346518993378,0.00539237912744284,0.0265552718192339,0.00824653916060925
180,0.0157767627388239,0.0334389433264732,0.0151056405156851,0.00504421256482601,0.0276661366224289,0.00903410091996193
181,0.0150414211675525,0.0347074531018734,0.0171852204948664,0.00479220598936081,0.028534185141325,0.00858848821371794
182,0.0141871329396963,0.0367800071835518,0.0193136148154736,0.00495225889608264,0.02960648201406,0.00706340558826923
183,0.0125623103231192,0.0388284884393215,0.0198412109166384,0.00421877717599273,0.0310578681528568,0.00379881425760686
184,0.00958561431616545,0.0403223037719727,0.0176233146339655,0.00173407804686576,0.0309283714741468,-0.00109138479456306
185,0.0054417485371232,0.0409205891191959,0.0130893904715776,-0.00187834131065756,0.0274515487253666,-0.0062280623242259
186,0.00168570643290877,0.0409720093011856,0.00846341624855995,-0.00515245134010911,0.0223697740584612,-0.00971931219100952
187,0.00052397302351892,0.0417015179991722,0.00602812226861715,-0.00666209962219,0.0187756232917309,-0.0104454588145018
188,0.00158017559442669,0.0429802127182484,0.00517347874119878,-0.00713927950710058,0.0163213275372982,-0.0103087248280644
189,0.00275267334654927,0.0432716757059097,0.00426657544448972,-0.00816360022872686,0.0127376783639193,-0.0119723482057452
190,0.00403155153617263,0.0425044447183609,0.00393249141052365,-0.0088952612131834,0.00824222899973392,-0.0144013613462448
191,0.00661753444001079,0.0420041866600513,0.0054672877304256,-0.00795299466699362,0.00486018881201744,-0.0149587094783783
192,0.00958613399416208,0.0415779501199722,0.00799138844013214,-0.00640711700543761,0.00328587531112134,-0.0140341147780418
193,0.0108885522931814,0.040252324193716,0.00947128608822823,-0.00616021919995546,0.00252075796015561,-0.0138779217377305
194,0.0100088119506836,0.0384068973362446,0.00908029451966286,-0.00750586949288845,0.00108401337638497,-0.0148510094732046
195,0.00722570531070232,0.0362720601260662,0.00691788271069527,-0.00989372096955776,-0.00219064485281706,-0.0162765868008137
196,0.00335515500046313,0.0342067256569862,0.00387942139059305,-0.012164156883955,-0.00650066882371902,-0.0171857737004757
197,-0.000375628325855359,0.0318594723939896,0.000968777807429433,-0.0135603724047542,-0.00931055378168821,-0.0171418562531471
198,-0.00316930166445673,0.0273207258433104,-0.00147336232475936,-0.0147433774545789,-0.00949114561080933,-0.0175631213933229
199,-0.00549072027206421,0.0198718719184399,-0.0033882453572005,-0.0166397169232368,-0.00915429182350636,-0.0197653006762266
200,-0.00871681421995163,0.0107359886169434,-0.00468109967187047,-0.0197818726301193,-0.0104490853846073,-0.0240721590816975
201,-0.012698145583272,0.00293151754885912,-0.00480268383398652,-0.0228872951120138,-0.0123732602223754,-0.0289335194975138
202,-0.0157062094658613,-0.000480559363495559,-0.00333527964539826,-0.0235389713197947,-0.0126186171546578,-0.0315179489552975
203,-0.0161519013345242,0.000970370718277991,-0.000688182015437633,-0.0212552007287741,-0.00987688917666674,-0.0307973045855761
204,-0.0132447481155396,0.00577228702604771,0.0026953665073961,-0.0168369803577662,-0.00461637368425727,-0.026783499866724
205,-0.00772433402016759,0.0120501508936286,0.00650311727076769,-0.0112435007467866,0.0010899577755481,-0.0200473759323359
206,-0.00277881626971066,0.0174601823091507,0.00912540871649981,-0.00707640498876572,0.00433447817340493,-0.0139466347172856
207,9.44691491895355E-05,0.0210458878427744,0.00990526378154755,-0.00598784070461988,0.00499550765380263,-0.011540331877768
208,0.00376066146418452,0.0245249178260565,0.0109142987057567,-0.00588656309992075,0.00677561387419701,-0.0114562893286347
209,0.00921152718365192,0.0280637107789516,0.0128591870889068,-0.00461564539000392,0.0111750345677137,-0.0113902576267719
210,0.0145672159269452,0.0293970964848995,0.0143702710047364,-0.00252725533209741,0.0163461267948151,-0.0112679125741124
211,0.0195826534181833,0.0280598998069763,0.0149966161698103,-0.000434076908277348,0.0205237977206707,-0.0103773577138782
212,0.0240814853459597,0.025188410654664,0.0148330656811595,0.00136104715056717,0.0227009691298008,-0.00713919615373015
213,0.0275836493819952,0.0211854688823223,0.0140724340453744,0.00291061284951866,0.023840170353651,-0.00195308611728251
214,0.0304535087198019,0.015853013843298,0.0129033932462335,0.00415697321295738,0.0257444959133863,0.00268751056864858
215,0.0319591611623764,0.00957121700048447,0.0111943520605564,0.00458341697230935,0.027579752728343,0.00479439133778214
216,0.0302184540778399,0.00296059460379183,0.00882611144334078,0.00349104171618819,0.0265297144651413,0.00399249233305454
217,0.0243469774723053,-0.00408505508676171,0.00549813732504845,0.000509539677295834,0.0220436323434114,0.000597853038925678
218,0.0161692891269922,-0.0106350937858224,0.00158191495575011,-0.00328915868885815,0.0174561496824026,-0.00430246163159609
219,0.0084207272157073,-0.0145056443288922,-0.00169648556038737,-0.00619009463116527,0.0152316968888044,-0.00923252943903208
220,0.0034377824049443,-0.0134924817830324,-0.00239282590337098,-0.00650988472625613,0.0154545791447163,-0.0121363960206509
221,0.00263299327343702,-0.00766466604545712,0.000622486229985952,-0.00408309744670987,0.0179988089948893,-0.0121148293837905
222,0.00402382900938392,-0.00167700392194092,0.00505520449951291,-0.00181350472848862,0.0207215771079063,-0.0114281978458166
223,0.00537141459062696,0.000688548723701388,0.00853065866976976,-0.00132737483363599,0.0219176728278399,-0.0111484788358212
224,0.00646189926192164,0.000184661810635589,0.0109056876972318,-0.00144936342258006,0.0220259893685579,-0.00978253874927759
225,0.00693468702957034,-0.00110087834764272,0.0120780561119318,-0.00126861373428255,0.0211139880120754,-0.00661718286573887
226,0.00715530756860971,-0.000847012328449637,0.0126983756199479,-5.11970438310527E-06,0.0201747566461563,-0.00179670134093612
227,0.00709964614361525,0.00151856220327318,0.0136504042893648,0.00212558126077056,0.0193719752132893,0.00358611415140331
228,0.00552843790501356,0.00394643004983664,0.0146649302914739,0.00337912235409021,0.0175955016165972,0.00774437887594104
229,0.00282782106660306,0.00580933876335621,0.0153914913535118,0.00328021682798862,0.016173368319869,0.0104794595390558
230,0.000164963421411812,0.00794898718595505,0.015383736230433,0.00232478627003729,0.0165995713323355,0.0119565892964602
231,-0.00236698752269149,0.00998088717460632,0.014086065813899,0.000119237040053122,0.0173322986811399,0.010956197977066
232,-0.00458121299743652,0.0116788120940328,0.0119194993749261,-0.00296488776803017,0.016086058691144,0.00814800523221493
233,-0.00529592810198665,0.0141914244741201,0.0108935404568911,-0.00471355393528938,0.0139731364324689,0.0069352644495666
234,-0.00420798920094967,0.0178051684051752,0.0119015565142035,-0.00440615648403764,0.0135302124544978,0.00813160743564367
235,-0.00264557427726686,0.0206917021423578,0.0133979264646769,-0.00384162063710392,0.0141782751306891,0.00874807219952345
236,-0.000535395462065935,0.022105485200882,0.0151096871122718,-0.00342170288786292,0.0148978149518371,0.00767895113676786
237,0.00178488984238356,0.0221049450337887,0.0167797636240721,-0.00302511290647089,0.0151108494028449,0.00550726242363453
238,0.00203992589376867,0.0199331380426884,0.0167324710637331,-0.00366868358105421,0.013208968564868,0.00165017391555011
239,-0.000920528080314398,0.0157971996814013,0.0143513614311814,-0.00567486137151718,0.00861961953341961,-0.00392318796366453
240,-0.00561377080157399,0.0111583117395639,0.0105715151876211,-0.00785704422742128,0.0030292272567749,-0.00978834368288517
241,-0.00902863219380379,0.00793741550296545,0.00742745492607355,-0.00822753645479679,-0.000977168208919466,-0.0140191046521068
242,-0.0102895768359303,0.00681069819256663,0.00596849247813225,-0.00642717257142067,-0.00234794477000833,-0.0157428029924631
243,-0.010477521456778,0.00736146047711372,0.0060262712650001,-0.00333843473345041,-0.00151882076170295,-0.0146531192585826
244,-0.0103411106392741,0.00930673256516457,0.00701571209356189,8.53924757393543E-06,0.000207357661565766,-0.0114527381956577
245,-0.0109514463692904,0.0117371995002031,0.00732970470562577,0.00180211011320353,0.00113382353447378,-0.0087530929595232
246,-0.0131560955196619,0.0134131778031588,0.00593170104548335,0.00101600703783333,0.000792065111454576,-0.00793577264994383
247,-0.0156392939388752,0.0143488133326173,0.00402895826846361,-0.00111853668931872,0.000553313526324928,-0.00744949607178569
248,-0.0170179195702076,0.0150973768904805,0.00319936475716531,-0.002758459886536,0.00148501491639763,-0.00615938426926732
249,-0.0174943916499615,0.0160052217543125,0.00376840052194893,-0.00318358209915459,0.0031803254969418,-0.00501532945781946
250,-0.0172479804605246,0.0176495537161827,0.00502836238592863,-0.00296046840958297,0.00503688165917993,-0.00521878944709897
251,-0.0166850071400404,0.0206138789653778,0.00593682890757918,-0.00285836518742144,0.00620132265612483,-0.00676489807665348
252,-0.0167994499206543,0.0244392510503531,0.00626759929582477,-0.00314010144211352,0.00553811714053154,-0.00918854866176844
253,-0.0175522416830063,0.0279202647507191,0.00609534233808517,-0.0036106938496232,0.00309366919100285,-0.0119737330824137
254,-0.0176822207868099,0.0307737104594707,0.00533356657251716,-0.00356145948171616,0.000771212216932327,-0.0135475741699338
255,-0.0171454511582851,0.0326615758240223,0.00428752740845084,-0.00302547100000083,-0.000243673770455644,-0.0131900683045387
256,-0.0164033938199282,0.0338894687592983,0.0035370378755033,-0.00226801144890487,-0.000722947530448437,-0.0116138262674212
257,-0.0151357240974903,0.035419937223196,0.00300106406211853,-0.00139481166843325,-0.00155442208051682,-0.0100687872618437
258,-0.0132660875096917,0.0365443602204323,0.0023639895953238,-0.00115822476800531,-0.00284719094634056,-0.0100482385605574
259,-0.0104040186852217,0.0363891050219536,0.0021931235678494,-0.00183659221511334,-0.00372457806952298,-0.0118825910612941
260,-0.00686428043991327,0.0342084392905235,0.00239888182841241,-0.00349680567160249,-0.00377968931570649,-0.0155596993863583
261,-0.00480202864855528,0.0294016692787409,0.00176601519342512,-0.00650278758257627,-0.00455977488309145,-0.0207900833338499
262,-0.00552606675773859,0.0235415510833263,0.00021120798191987,-0.0101222386583686,-0.00721572199836373,-0.0256879199296236
263,-0.00830440502613783,0.0186733603477478,-0.00144371518399566,-0.0127714313566685,-0.0107933059334755,-0.0284709893167019
264,-0.0121954409405589,0.0150007521733642,-0.00306296697817743,-0.0138054518029094,-0.0142040085047483,-0.0291746873408556
265,-0.016363488510251,0.0117645720019937,-0.00463907374069095,-0.0139478323981166,-0.0169076547026634,-0.0288954079151154
266,-0.01915686391294,0.00922168977558613,-0.00548336701467633,-0.0138635011389852,-0.0184315200895071,-0.0277176387608051
267,-0.0186333432793617,0.00885082501918077,-0.00439597573131323,-0.0130561357364058,-0.0182823743671179,-0.0245520565658808
268,-0.0154283586889505,0.00969839282333851,-0.00159000849816948,-0.0117480270564556,-0.016777615994215,-0.0208947900682688
269,-0.0124009596183896,0.008818494156003,0.00130346161313355,-0.0108007974922657,-0.0157815981656313,-0.0192146021872759
270,-0.0103482864797115,0.00657817954197526,0.00339451362378895,-0.00964050274342299,-0.0164262373000383,-0.0179516468197107
271,-0.00861927680671215,0.00431938841938972,0.00349036720581353,-0.00865394622087479,-0.0181311592459679,-0.0155673250555992
272,-0.00694392947480083,0.00158521987032145,0.000868780771270394,-0.00907239317893982,-0.0201473291963339,-0.0131802558898926
273,-0.00432215351611376,-0.000411505636293441,-0.00218321988359094,-0.0094706118106842,-0.0215907171368599,-0.0103040896356106
274,0.000138229384901933,-0.000506489363033324,-0.00284505798481405,-0.00796508509665728,-0.0209856610745192,-0.00621972046792507
275,0.00598594825714827,-0.000479707901831716,-0.00108360056765378,-0.00537407258525491,-0.017915666103363,-0.00319232628680766
276,0.0124243013560772,-0.00104152725543827,0.00170098210219294,-0.00277704675681889,-0.013743226416409,-0.00228826655074954
277,0.0191100984811783,-0.000731321459170431,0.00509666884317994,0.000346498476574197,-0.00957348849624395,-0.0013455169973895
278,0.0241782162338495,-0.000789168116170913,0.00790635962039232,0.00281763612292707,-0.00699142646044493,-0.000618921534623951
279,0.0252334177494049,-0.00359904789365828,0.0084350798279047,0.00251012318767607,-0.00744917197152972,-0.00254389806650579
280,0.0224309731274843,-0.00825214665383101,0.00721717160195112,0.000109718275780324,-0.00958971027284861,-0.0065697324462235
281,0.0176148973405361,-0.0122199915349483,0.0056712357327342,-0.00247877556830645,-0.0116407889872789,-0.010055941529572
282,0.0126437963917851,-0.0133780287578702,0.00479090167209506,-0.00417982786893845,-0.0129864187911153,-0.0111301662400365
283,0.00800774525851011,-0.0111879222095013,0.00497745350003242,-0.00469654705375433,-0.013112991116941,-0.00952646881341934
284,0.00393401924520731,-0.00734146032482386,0.00622299034148455,-0.00379365147091448,-0.01121786236763,-0.00598241481930017
285,0.00199701962992549,-0.0041114529594779,0.00837330240756273,-0.00131470081396401,-0.0068330867215991,-0.00150076171848923
286,0.00251982407644391,-0.00317407795228064,0.00983051769435406,0.00151919736526906,-0.00170239736326039,0.00253180903382599
287,0.00367365591228008,-0.00555137591436505,0.00881426874548197,0.00278992485255003,0.00172506691887975,0.00468990067020059
288,0.00442754849791527,-0.0101204616948962,0.00624996284022927,0.00217035668902099,0.00337218795903027,0.00450953049585223
289,0.00442803790792823,-0.0134520269930363,0.00394668942317367,0.000559932552278042,0.00373348779976368,0.0026619101408869
290,0.00287454179488122,-0.0131273325532675,0.00197950494475663,-0.00114855903666466,0.00222173961810768,0.000545632210560143
291,0.000951906607951969,-0.00843651127070189,0.000288011244265363,-0.00127096695359796,-0.000257549050729722,0.000274002464720979
292,0.00182599946856499,0.000675356714054942,6.0428061260609E-05,0.00190366560127586,-0.000258605665294454,0.00350050209090114
293,0.0062767923809588,0.0119985183700919,0.00157343398313969,0.00732163898646832,0.00393696827813983,0.00936338119208813
294,0.0109866876155138,0.0209073256701231,0.00281867850571871,0.0113684898242354,0.00919556152075529,0.014423948712647
295,0.0128468982875347,0.0236621350049973,0.00220362842082977,0.0117823854088783,0.0121559128165245,0.0158483516424894
296,0.012860425747931,0.0208439230918884,0.000710129097569734,0.00996334291994572,0.0136955082416534,0.014823948033154
297,0.0136050693690777,0.0160024110227823,-0.000111774061224423,0.0083142165094614,0.0158928129822016,0.01443459559232
298,0.0151357650756836,0.0110741602256894,-0.000357015000190586,0.00699724862352014,0.0183963011950254,0.0148817477747798
299,0.0161804910749197,0.0057511692866683,-0.0004067704139743,0.00507417460903525,0.0199303403496742,0.0144219007343054
300,0.0164967849850655,-0.000439058145275339,-0.000121128723549191,0.00242384057492018,0.0196633767336607,0.0128079811111093
301,0.0160599742084742,-0.00706835137680173,0.000208713128813542,-0.000339162099407986,0.0170738790184259,0.0113718919456005
302,0.0145911555737257,-0.0129026500508189,0.000276133563602343,-0.00246211932972074,0.0129465833306313,0.0106168771162629
303,0.0126002877950668,-0.016938392072916,0.000224505754886195,-0.00313566206023097,0.00943071488291025,0.0098060043528676
304,0.0113520435988903,-0.0198284275829792,0.000231564859859645,-0.00242084194906056,0.00837481394410133,0.00855307094752789
305,0.0113447457551956,-0.0231047738343477,-0.000187775134691037,-0.00209663226269186,0.00910097640007734,0.00637164572253823
306,0.0122837610542774,-0.026731176301837,-0.00186665495857596,-0.00335836061276495,0.0092307087033987,0.00317432940937579
307,0.013066366314888,-0.0304831210523844,-0.0052577331662178,-0.00617642188444734,0.00702254427596927,-0.000255806546192616
308,0.0131993731483817,-0.034331850707531,-0.00933302566409111,-0.00938848312944174,0.0031235059723258,-0.00290015689097345
309,0.0133585901930928,-0.0384078100323677,-0.012768579646945,-0.0119469817727804,3.83524675271474E-05,-0.00554283522069454
310,0.0132367499172688,-0.0433382429182529,-0.0156821589916945,-0.014270443469286,-0.00133091781754047,-0.00969489756971598
311,0.0124066369608045,-0.047965232282877,-0.0179851911962032,-0.0159267596900463,-0.00233432627283037,-0.0132960258051753
312,0.0108354585245252,-0.0516696982085705,-0.019104590639472,-0.0165618397295475,-0.00426697265356779,-0.0142677091062069
313,0.009419328533113,-0.0544868446886539,-0.0180084519088268,-0.0161176230758429,-0.00580378528684378,-0.012941743247211
314,0.0101103028282523,-0.0547219179570675,-0.0138596603646874,-0.0137503622099757,-0.00458713481202722,-0.00954281166195869
315,0.0128594404086471,-0.0519747063517571,-0.0080958055332303,-0.00996439065784216,-0.00138507597148418,-0.00488462345674634
316,0.0150867225602269,-0.0480962619185448,-0.00369026395492256,-0.00661760242655873,0.000577044382225722,-0.000782415445428342
317,0.015006978996098,-0.0446892529726028,-0.00214079301804304,-0.0047212103381753,1.32576606119983E-05,0.00159537373110652
318,0.0130242854356766,-0.0428252704441547,-0.00263053760863841,-0.00431243563070893,-0.00120188877917826,0.00190161971841007
319,0.0100765749812126,-0.0432439111173153,-0.00411545345559716,-0.00569865480065346,-0.00132340705022216,-0.000464702752651647
320,0.00708327023312449,-0.0447610728442669,-0.00591430813074112,-0.00818919762969017,-0.000704957987181842,-0.00454220455139875
321,0.00504186563193798,-0.0453610718250275,-0.00758390501141548,-0.00989766605198383,-0.000668715860228986,-0.00775887072086334
322,0.00358914933167398,-0.0452291741967201,-0.0100727053359151,-0.0108452653512359,-0.00202090991660953,-0.00960731413215399
323,0.000986982369795442,-0.0456070080399513,-0.0145429195836186,-0.0119958743453026,-0.00485543999820948,-0.0109724495559931
324,-0.00280621252022684,-0.0462677292525768,-0.019453227519989,-0.0124728679656982,-0.00824277754873037,-0.0114684775471687
325,-0.00537403766065836,-0.0457293912768364,-0.021747263148427,-0.0109866755083203,-0.0101445177569985,-0.00998736638575792
326,-0.00527656218037009,-0.0434359945356846,-0.0209017209708691,-0.00819591153413057,-0.00945713464170694,-0.00695394352078438
327,-0.0039448319002986,-0.0413712002336979,-0.0193308349698782,-0.00641704071313143,-0.00768051017075777,-0.00497960671782494
328,-0.00325335329398513,-0.0414679758250713,-0.0190626382827759,-0.0065926774404943,-0.0070179789327085,-0.00573030952364206
329,-0.00311483279801905,-0.0423874780535698,-0.0195553824305534,-0.00683979736641049,-0.00775394821539521,-0.00732806976884604
330,-0.00240453472360969,-0.0415758565068245,-0.0188847165554762,-0.00522152055054903,-0.00873797014355659,-0.00708950869739056
331,-0.00112707249354571,-0.0394284352660179,-0.0169091988354921,-0.00270301988348365,-0.0096132168546319,-0.00569506036117673
332,-0.000335065182298422,-0.0381487458944321,-0.0155496755614877,-0.0014730830444023,-0.0110642705112696,-0.00556418811902404
333,-7.92079954408109E-05,-0.0374841913580894,-0.0158173684030771,-0.00167526677250862,-0.0126841925084591,-0.00663223210722208
334,9.43635604926385E-05,-0.0359531715512276,-0.017270065844059,-0.00243061338551342,-0.0128828650340438,-0.0073575871065259
335,0.000291486241621897,-0.0334365256130695,-0.0190828423947096,-0.0033483118750155,-0.0110252071171999,-0.00736134173348546
336,0.0015373193891719,-0.0297206230461597,-0.0202287118881941,-0.00358277675695717,-0.00781435985118151,-0.00652537867426872
337,0.00452281814068556,-0.0253290589898825,-0.0204743724316359,-0.00283582089468837,-0.00398126011714339,-0.00527239358052611
338,0.00834563001990318,-0.0226849485188723,-0.0201307199895382,-0.00200427602976561,-0.000195885542780161,-0.00523202680051327
339,0.0122648179531097,-0.0228036902844906,-0.018777322024107,-0.000976493116468191,0.00328094162978232,-0.00629199808463454
340,0.0156177617609501,-0.0247258804738522,-0.0171530582010746,0.000658966833725572,0.00634233094751835,-0.00677679013460875
341,0.0173433497548103,-0.0273599550127983,-0.0165327768772841,0.00251451856456697,0.00814641453325748,-0.00586040876805782
342,0.0171501822769642,-0.0295280925929546,-0.0158222019672394,0.00488262064754963,0.0090598501265049,-0.00315855885855854
343,0.0150190740823746,-0.0307985339313746,-0.0144233237951994,0.0075614252127707,0.00961929094046354,0.000521894311532378
344,0.0110934199765325,-0.0315115302801132,-0.0139305265620351,0.00896674394607544,0.00853421166539192,0.0030152453109622
345,0.006516526453197,-0.0320133864879608,-0.0150920692831278,0.00794854760169983,0.00518316961824894,0.00349778519012034
346,0.00378544651903212,-0.0315452143549919,-0.0163054671138525,0.00585941644385457,0.00130118080414832,0.00476380251348019
347,0.00433399109169841,-0.0291852299124002,-0.0163009855896235,0.00512291397899389,-0.00152288342360407,0.00933175999671221
348,0.00578563753515482,-0.0264875274151564,-0.0167167317122221,0.00511106662452221,-0.00370824243873358,0.0142026832327247
349,0.00494132423773408,-0.0259984992444515,-0.0191984567791224,0.00298834242857993,-0.00612532533705235,0.0145789245143533
350,0.00277202972210944,-0.0274104159325361,-0.0215788632631302,-0.00121880788356066,-0.00794713851064444,0.0105425147339702
351,0.00312618562020361,-0.0277499500662088,-0.0206382535398006,-0.0039707631804049,-0.00728009082376957,0.00687757413834333
352,0.00606669671833515,-0.0262134354561567,-0.0176266860216856,-0.00408972520381212,-0.00520275672897697,0.00615945085883141
353,0.00901702977716923,-0.0243796557188034,-0.0152761097997427,-0.00336824520491064,-0.00348251219838858,0.00678611407056451
354,0.0110106691718102,-0.0228439774364233,-0.0137872584164143,-0.00236350600607693,-0.00148758303839713,0.00769047765061259
355,0.0114680090919137,-0.021418459713459,-0.0133397029712796,-0.00125622621271759,0.000642502272967249,0.00872870814055204
356,0.0106123592704535,-0.0198474880307913,-0.0140538169071078,-0.000784381874836981,0.00238135713152587,0.00923857744783163
357,0.0089876614511013,-0.018084978684783,-0.0149983800947666,-0.00106160726863891,0.00392687041312456,0.00920057389885187
358,0.00623902259394526,-0.0170463342219591,-0.0159590318799019,-0.00187097629532218,0.00453086104243994,0.00890431646257639
359,0.00230300612747669,-0.018362108618021,-0.0177601277828217,-0.00336584495380521,0.00270681385882199,0.00794930290430784
360,-0.00228786608204246,-0.0219612251967192,-0.0206213425844908,-0.00520565547049046,-0.00167156977113336,0.00624069478362799
361,-0.00681115640327334,-0.0253949109464884,-0.0234347246587276,-0.00657521979883313,-0.00656146928668022,0.00384565559215844
362,-0.0101724676787853,-0.0264192000031471,-0.0246480889618397,-0.00703604938462377,-0.00913093890994787,0.0008283267961815
363,-0.0115840025246143,-0.0248651020228863,-0.023883992806077,-0.0067264256067574,-0.00856065284460783,-0.00243134307675064
364,-0.0110258962959051,-0.0220389403402805,-0.0219203047454357,-0.00608670618385077,-0.00636452808976173,-0.00567054329439998
365,-0.00919885095208883,-0.0191117692738771,-0.0196145940572023,-0.00528761418536305,-0.00429136818274856,-0.00861324556171894
366,-0.00815681554377079,-0.0173356663435698,-0.0183654278516769,-0.00496784318238497,-0.00417765276506543,-0.011341804638505
367,-0.0083968061953783,-0.0169969350099564,-0.0188246611505747,-0.00556953437626362,-0.00612109154462814,-0.0135475974529982
368,-0.00851485878229141,-0.0179076008498669,-0.0204200819134712,-0.00732916221022606,-0.00823218747973442,-0.0153604513034225
369,-0.00814388506114483,-0.0194971468299627,-0.021974666044116,-0.00972758326679468,-0.00908812787383795,-0.0164727140218019
370,-0.00770219694823027,-0.0197815168648958,-0.0217633973807096,-0.0105584356933832,-0.0081630926579237,-0.0149088716134429
371,-0.00851764064282179,-0.0192592330276966,-0.0198527313768864,-0.0094774141907692,-0.00667710788547993,-0.0116325039416552
372,-0.01095484290272,-0.0198449324816465,-0.017266133800149,-0.00780251901596785,-0.00588946882635355,-0.00918698031455278
373,-0.0133784934878349,-0.0214245617389679,-0.0143462810665369,-0.00591318961232901,-0.00561784161254764,-0.00714328233152628
374,-0.0147141516208649,-0.0235002804547548,-0.0117812026292086,-0.0041673150844872,-0.00623260019347072,-0.00471755489706993
375,-0.0153197171166539,-0.0260614138096571,-0.0102635193616152,-0.00330077344551682,-0.00846206024289131,-0.00318993791006505
376,-0.0157445296645164,-0.0278621558099985,-0.00972623005509377,-0.00303061027079821,-0.0111197903752327,-0.00283915316686034
377,-0.0157972723245621,-0.0272782910615206,-0.00978746358305216,-0.00255772448144853,-0.0115201789885759,-0.00277875456959009
378,-0.0154753588140011,-0.0253784898668528,-0.0105871595442295,-0.00244307494722307,-0.00898859929293394,-0.00448539666831493
379,-0.0152492271736264,-0.0240241400897503,-0.0122038796544075,-0.00282425177283585,-0.00611595809459686,-0.0089075118303299
380,-0.0151149798184633,-0.0231483839452267,-0.0141648799180985,-0.00284523237496614,-0.00539867114275694,-0.0139298066496849
381,-0.0144972475245595,-0.0213392842561007,-0.0155237978324294,-0.00203729281201959,-0.00617844285443425,-0.017139982432127
382,-0.0132771451026201,-0.0183072481304407,-0.0152037600055337,-0.000343705760315061,-0.00648206518962979,-0.0179244335740805
383,-0.0125679969787598,-0.016692778095603,-0.0138157857581973,0.00101326813455671,-0.00630267849192023,-0.0180329810827971
384,-0.0138668110594153,-0.0191968996077776,-0.0136813391000032,0.000123767487821169,-0.00801743939518929,-0.0196733046323061
385,-0.0160787627100945,-0.0241941846907139,-0.0147431800141931,-0.00262246932834387,-0.0121254362165928,-0.0220825765281916
386,-0.0166678112000227,-0.0282557308673859,-0.0144278779625893,-0.00521182222291827,-0.0161680430173874,-0.0226834956556559
387,-0.0156813245266676,-0.0302456114441156,-0.0120345363393426,-0.00664871837943792,-0.019369937479496,-0.020763885229826
388,-0.0143304951488972,-0.0305220894515514,-0.00894515123218298,-0.00670031039044261,-0.0226515680551529,-0.0174787491559982
389,-0.013484938070178,-0.0308116041123867,-0.00671333866193891,-0.00585296982899308,-0.0261295158416033,-0.0147182932123542
390,-0.0131093896925449,-0.0317909605801106,-0.00564756570383906,-0.00440722890198231,-0.0286131072789431,-0.0131415035575628
391,-0.0125614330172539,-0.0329724624752998,-0.00528045371174812,-0.00304024037905037,-0.0295358393341303,-0.0128891300410032
392,-0.0114027131348848,-0.0343136042356491,-0.00491332961246371,-0.00297555536963046,-0.0290340036153793,-0.0142586445435882
393,-0.00863677263259888,-0.0337268821895123,-0.00326757691800594,-0.00330199580639601,-0.0267642885446548,-0.0149976136162877
394,-0.00526281539350748,-0.0302109532058239,-0.000677346368320286,-0.00309325521811843,-0.0243337266147137,-0.0135570643469691
395,-0.00370594393461943,-0.0255082547664642,0.00172139669302851,-0.00258632190525532,-0.0235905554145575,-0.0110946539789438
396,-0.00469954824075103,-0.0209915805608034,0.0035606175661087,-0.00173450401052833,-0.0243586990982294,-0.00844644568860531
397,-0.0081205926835537,-0.0182484071701765,0.0039590485394001,-0.00133461854420602,-0.0263593625277281,-0.0061671924777329
398,-0.0127460164949298,-0.0179565735161304,0.00312721286900342,-0.00192107236944139,-0.028806870803237,-0.00434709107503295
399,-0.0173662137240171,-0.0189596340060234,0.00235348986461759,-0.002898502163589,-0.0303695723414421,-0.0029692049138248
400,-0.0220797546207905,-0.0201277025043964,0.0014837192138657,-0.00383158982731402,-0.0306029338389635,-0.00249505997635424
401,-0.0266744047403336,-0.0206729620695114,-4.37979797425214E-05,-0.00440801912918687,-0.0304688420146704,-0.00216552871279418
402,-0.0301837809383869,-0.0203438922762871,-0.00157593004405499,-0.00442572077736259,-0.0313905254006386,-0.000629535177722573
403,-0.0308035910129547,-0.0190619565546513,-0.00207185582257807,-0.00406398251652718,-0.0328857973217964,0.00228229630738497
404,-0.0280348192900419,-0.0169937051832676,-0.0019092132570222,-0.004042724147439,-0.0335861034691334,0.00548557890579104
405,-0.0238229632377625,-0.0151352221146226,-0.00239534978754818,-0.0050173900090158,-0.033609963953495,0.00766279827803373
406,-0.0194276105612516,-0.0137218199670315,-0.00369925494305789,-0.00638756481930614,-0.0335181094706059,0.00842441897839308
407,-0.0157631952315569,-0.0123213911429048,-0.00574761722236872,-0.00777935329824686,-0.0339627079665661,0.00769932800903916
408,-0.0143044842407107,-0.0107866590842605,-0.00890330690890551,-0.0100959585979581,-0.035815455019474,0.00536278681829572
409,-0.0148411430418491,-0.00894597452133894,-0.0125773549079895,-0.0134100699797273,-0.0384742692112923,0.00194119068328291
410,-0.0153464497998357,-0.00652298284694552,-0.0150294415652752,-0.0160231925547123,-0.0396895185112953,-0.00153705012053251
411,-0.0145750306546688,-0.00281764450483024,-0.0150639787316322,-0.0161142814904451,-0.0387818180024624,-0.00358622055500746
412,-0.0133170122280717,0.00192311115097255,-0.0136304087936878,-0.0138590428978205,-0.0374359972774982,-0.00352014740929008
413,-0.0128082390874624,0.00552047975361347,-0.0124673880636692,-0.0112778078764677,-0.0368729680776596,-0.00259127537719905
414,-0.0129542723298073,0.00684444652870297,-0.0117585556581616,-0.00971255172044039,-0.0369989164173603,-0.00113368104211986
415,-0.0125944279134274,0.00750154163688421,-0.0103508904576302,-0.00879979413002729,-0.0368451550602913,0.00184030726086348
416,-0.0113462042063475,0.0088092340156436,-0.00790645740926266,-0.00788018200546503,-0.0359216444194317,0.00534768449142575
417,-0.0104484613984823,0.00944599974900484,-0.00574902165681124,-0.00704719824716449,-0.035407330840826,0.00699468003585935
418,-0.0112675651907921,0.0076813492923975,-0.00532305240631104,-0.00707446970045567,-0.0361931547522545,0.0058548292145133
419,-0.013309920206666,0.00451442180201411,-0.0060990396887064,-0.00811632070690393,-0.036951519548893,0.00338081200607121
420,-0.0142999226227403,0.00293247727677226,-0.00575453834608197,-0.00822041183710098,-0.0357868112623692,0.00252860807813704
421,-0.0125665199011564,0.00432688556611538,-0.00321147148497403,-0.00590625870972872,-0.0320211723446846,0.00446920562535524
422,-0.0089702382683754,0.00674096634611487,-0.000320335762808099,-0.00351214013062418,-0.0261371787637472,0.00620340649038553
423,-0.00524708116427064,0.00820375327020884,0.00115550658665597,-0.00334349204786122,-0.0196618307381868,0.00545781338587403
424,-0.00248539121821523,0.0089763505384326,0.00157723750453442,-0.00430331099778414,-0.015018418431282,0.003902722382918
425,-0.00126537913456559,0.00957006588578224,0.00138603895902634,-0.00506374798715115,-0.0135928830131888,0.00371696567162871
426,-0.00142687035258859,0.00978958699852228,8.23437003418803E-05,-0.00606582127511501,-0.0152957309037447,0.00499684363603592
427,-0.00333126564510167,0.0084428982809186,-0.00275297509506345,-0.00842181965708733,-0.0204914901405573,0.00535001186653972
428,-0.00719068851321936,0.00477854674682021,-0.00613530771806836,-0.0118612674996257,-0.0276606511324644,0.00321938563138247
429,-0.0111461961641908,0.00024853105423972,-0.00891286507248878,-0.0151102058589458,-0.0327725410461426,-0.000178624803083949
430,-0.0127392085269094,-0.00301481364294887,-0.0106602935120463,-0.0173986237496138,-0.0333772338926792,-0.003099748166278
431,-0.0117011992260814,-0.00391232175752521,-0.0104838851839304,-0.0180165898054838,-0.0305998791009188,-0.00431166123598814
432,-0.0105089703574777,-0.00289702578447759,-0.00877630431205034,-0.0172366891056299,-0.0278547201305628,-0.00424128724262118
433,-0.0103735476732254,-0.000686654995661229,-0.0067528965882957,-0.0158890672028065,-0.0258344784379005,-0.00416881730780005
434,-0.0104794930666685,0.00207766774110496,-0.00490482151508331,-0.0145468264818192,-0.0232260581105947,-0.0047333468683064
435,-0.010994765907526,0.00412384932860732,-0.00412045698612928,-0.0138924280181527,-0.0212235450744629,-0.00620825123041868
436,-0.0116591891273856,0.0053659351542592,-0.00427310541272163,-0.013291634619236,-0.0207758340984583,-0.00717555684968829
437,-0.0116039542481303,0.00656121643260121,-0.00430761557072401,-0.0119279911741614,-0.0211684312671423,-0.00608381954953074
438,-0.0110598066821694,0.00757345091551542,-0.00420639757066965,-0.0104952687397599,-0.0218628197908401,-0.00460943905636668
439,-0.011124337092042,0.00735021149739623,-0.00523486500605941,-0.0102629782631993,-0.0232343953102827,-0.00644910521805286
440,-0.012145877815783,0.00573493167757988,-0.00830379594117403,-0.0112965553998947,-0.0257377475500107,-0.0123138995841146
441,-0.0132365990430117,0.00424049701541662,-0.0126532986760139,-0.0125048896297812,-0.0290553420782089,-0.019107123836875
442,-0.013669066131115,0.00358960009180009,-0.0170566011220217,-0.0135430237278342,-0.0327439233660698,-0.024215018376708
443,-0.0135198552161455,0.0034320349805057,-0.0209128651767969,-0.014762531965971,-0.036372285336256,-0.0269841961562634
444,-0.0135765671730042,0.00385471736080945,-0.024050485342741,-0.0163677055388689,-0.0396085232496262,-0.0283029954880476
445,-0.0139828631654382,0.00611622678115964,-0.0256622973829508,-0.0177465230226517,-0.0415851846337318,-0.0289947185665369
446,-0.0147015890106559,0.0103956609964371,-0.0257190391421318,-0.018745131790638,-0.0414925888180733,-0.0297564603388309
447,-0.0161832943558693,0.0144508825615048,-0.0258524063974619,-0.0199414994567633,-0.0395295843482018,-0.0312972404062748
448,-0.017736479640007,0.0175152644515038,-0.0263481214642525,-0.0203819032758474,-0.036062091588974,-0.0321495197713375
449,-0.0173634923994541,0.021901136264205,-0.0252540931105614,-0.0182828046381474,-0.030938845127821,-0.0300312936306
450,-0.0147658791393042,0.0281510967761278,-0.0223319493234158,-0.0142818605527282,-0.0251414589583874,-0.0256296303123236
451,-0.0131169864907861,0.0323835499584675,-0.0209123902022839,-0.0119401188567281,-0.0218555070459843,-0.0225265771150589
452,-0.0137594258412719,0.0327128581702709,-0.0220038983970881,-0.0124981207773089,-0.0219704564660788,-0.0218878071755171
453,-0.0137940505519509,0.0320250391960144,-0.0226829331368208,-0.0133229130879045,-0.023360962048173,-0.0216165762394667
454,-0.0116427866742015,0.0321477465331554,-0.0220831967890263,-0.013043207116425,-0.0252760257571936,-0.0207628589123487
455,-0.00797842256724834,0.0325703024864197,-0.0209808386862278,-0.0120347701013088,-0.0267799478024244,-0.0197635646909475
456,-0.00359964603558183,0.0331047624349594,-0.0195858292281628,-0.010276903398335,-0.0264068506658077,-0.0180191956460476
457,-0.000138792747748084,0.0334182381629944,-0.0187915377318859,-0.0084152827039361,-0.0246772300451994,-0.0150752319023013
458,0.00156739936210215,0.0332539305090904,-0.0183975324034691,-0.00693599227815866,-0.022352633997798,-0.0119922710582614
459,0.00231353216804564,0.0327684879302979,-0.017605148255825,-0.00575828412547708,-0.0204143300652504,-0.00997067801654339
460,0.00207577715627849,0.0310749523341656,-0.0177388023585081,-0.00604393100365996,-0.0204057581722736,-0.0105263311415911
461,0.000446150632342324,0.0288685951381922,-0.0191173776984215,-0.00769632728770375,-0.021443760022521,-0.0137202320620418
462,-0.00216798158362508,0.0284207742661238,-0.0196432415395975,-0.00873697549104691,-0.0213864184916019,-0.0175153315067291
463,-0.00503990007564425,0.029812129214406,-0.0184863731265068,-0.00816159974783659,-0.0203137900680304,-0.0204995982348919
464,-0.00744254374876618,0.0319502130150795,-0.016516899690032,-0.00597934611141682,-0.0195131860673428,-0.0221246350556612
465,-0.00931556057184935,0.0334045700728893,-0.0148655716329813,-0.00339921610429883,-0.0196721516549587,-0.0227602291852236
466,-0.0105295600369573,0.0330605767667294,-0.0144843719899654,-0.00183033128269017,-0.0204240642488003,-0.0227314736694098
467,-0.0108973877504468,0.0308822747319937,-0.0157758854329586,-0.00140260229818523,-0.0213974714279175,-0.0218441765755415
468,-0.0110728610306978,0.0264528337866068,-0.0183090940117836,-0.00195470103062689,-0.0228913705796003,-0.0210368391126394
469,-0.0108661688864231,0.020484296604991,-0.0203188192099333,-0.00245124311186373,-0.0235967915505171,-0.0204592384397984
470,-0.00902653578668833,0.0160314477980137,-0.0199251379817724,-0.0009441485744901,-0.0213807839900255,-0.0182219799607992
471,-0.00588967045769095,0.01437499653548,-0.0172762125730515,0.00202293624170125,-0.0169561430811882,-0.014693247154355
472,-0.00360250100493431,0.0132278650999069,-0.0144003313034773,0.00313896313309669,-0.0134456986561418,-0.0141050415113568
473,-0.00291018257848918,0.0108831552788615,-0.0130910901352763,0.00111080193892121,-0.0125125208869576,-0.0183514598757029
474,-0.00259209680370986,0.00820888020098209,-0.0128399943932891,-0.00148676102980971,-0.0129590099677444,-0.0236702170222998
475,-0.00116221222560853,0.00672617880627513,-0.0117693906649947,-0.00206366111524403,-0.0123412134125829,-0.0256974864751101
476,0.00245280377566814,0.00718142138794065,-0.00917430408298969,-0.000542560475878417,-0.00859728455543518,-0.0231149923056364
477,0.00733198551461101,0.00841098092496395,-0.00534236058592796,0.00258121080696583,-0.00199508620426059,-0.0170405711978674
478,0.0110634220764041,0.00875377934426069,-0.000678062613587826,0.00691454391926527,0.00497792148962617,-0.0108277434483171
479,0.0121665270999074,0.00939119327813387,0.00336275715380907,0.0104879615828395,0.00967571511864662,-0.00802722945809364
480,0.0110130375251174,0.0119497021660209,0.00529898842796683,0.0112034827470779,0.0112210651859641,-0.00831647962331772
481,0.00926921423524618,0.0141229229047894,0.00562807638198137,0.00899602007120848,0.0115565480664372,-0.00941727869212627
482,0.00894780363887548,0.0140398973599076,0.00623352406546474,0.00580975506454706,0.0131883807480335,-0.00962268095463514
483,0.0106391850858927,0.0139647265896201,0.0081675099208951,0.00367470062337816,0.016009759157896,-0.00789475906640291
484,0.0129026779904962,0.015580796636641,0.0106783770024776,0.00264935218729079,0.0184782445430756,-0.0054259030148387
485,0.0144779104739428,0.0179161857813597,0.0126655409112573,0.001811109832488,0.0199602711945772,-0.00394338089972734
486,0.0143180266022682,0.0185582004487515,0.0132844839245081,0.000353436160366982,0.0200815089046955,-0.00408510304987431
487,0.0115797761827707,0.0159921944141388,0.0120862908661366,-0.00201344932429492,0.0185184888541698,-0.00569862173870206
488,0.00829289387911558,0.0123753063380718,0.0101809566840529,-0.00447974633425474,0.0165465138852596,-0.00780669925734401
489,0.00705026928335428,0.0104120401665568,0.00902678444981575,-0.00639171944931149,0.0154177704825997,-0.0099137919023633
490,0.00683615123853087,0.00979835074394941,0.00827141758054495,-0.00831885263323784,0.0140422731637955,-0.0126175740733743
491,0.00656875036656857,0.00956132356077433,0.00747946603223681,-0.0100658116862178,0.0122566102072597,-0.0155582595616579
492,0.00669429963454604,0.00901972129940987,0.00700370734557509,-0.0106121776625514,0.0110342716798186,-0.0174754802137613
493,0.00702370749786496,0.00688620051369071,0.00657377345487475,-0.0102501483634114,0.0101831881329417,-0.0185429956763983
494,0.00850802753120661,0.00313550978899002,0.00640987325459719,-0.00935937371104956,0.0101452879607677,-0.0194043274968863
495,0.0119066461920738,-0.000673609785735607,0.00716722710058093,-0.00738888001069427,0.0112412795424461,-0.019463986158371
496,0.0151871750131249,-0.00376242282800376,0.00789723452180624,-0.00448907352983952,0.0120100555941463,-0.0177621971815825
497,0.0156612657010555,-0.0069387829862535,0.00690497923642397,-0.0019580377265811,0.0106506329029799,-0.0147911813110113
498,0.0130678005516529,-0.0107196606695652,0.00440024072304368,-0.000796872191131115,0.00753600755706429,-0.0125514948740602
499,0.00970888510346413,-0.0142525034025311,0.00180726649705321,-0.00106901838444173,0.00460322760045528,-0.0122775668278337
500,0.00767423026263714,-0.0159035325050354,-0.000241126326727681,-0.00193800311535597,0.00234439666382968,-0.0125943133607507
501,0.00710580730810761,-0.0149470428004861,-0.00165407767053694,-0.00256283674389124,0.00111168227158487,-0.0112942755222321
502,0.00624918937683105,-0.0132899219170213,-0.00278874975629151,-0.00370927224867046,0.00113634252920747,-0.00899966713041067
503,0.00409422442317009,-0.0127503415569663,-0.00342111801728606,-0.0059141400270164,0.00133273936808109,-0.00789665244519711
504,0.00219917297363281,-0.0132268201559782,-0.00216274126432836,-0.00797369983047247,0.00185928435530514,-0.00855052471160889
505,0.00100635958369821,-0.0153642622753978,0.000841657165437937,-0.00952770560979843,0.00277118245139718,-0.011043936945498
506,-0.00036007771268487,-0.0196543075144291,0.00372654502280056,-0.0110131567344069,0.00259019201621413,-0.0152290090918541
507,-0.00100331963039935,-0.0240662768483162,0.00561706535518169,-0.0116934198886156,0.00108508788980544,-0.0193514786660671
508,-0.000517226464580745,-0.0262476950883865,0.00643044710159302,-0.0109762037172914,-0.00101423787418753,-0.0217057764530182
509,-0.000671319488901645,-0.026220416650176,0.00557471392676234,-0.00962457805871964,-0.0034972527064383,-0.0226408746093512
510,-0.00148520653601736,-0.0242453888058662,0.00385320303030312,-0.00759953679516912,-0.00517031643539667,-0.0218915306031704
511,-0.00176232366356999,-0.0202193316072226,0.00287284702062607,-0.00474559003487229,-0.00523386616259813,-0.0187272056937218
512,-0.00216663372702897,-0.0159489251673222,0.00282376958057284,-0.00275325356051326,-0.00451400876045227,-0.0154525004327297
513,-0.00248293951153755,-0.0127167217433453,0.00406150426715612,-0.00249111256562173,-0.00264989235438406,-0.0138133130967617
514,-0.00173951801843941,-0.00980431586503983,0.00652187317609787,-0.00344491098076105,0.000574854668229818,-0.0128793036565185
515,-0.000952207250520587,-0.00725771253928542,0.00858908612281084,-0.00549850100651383,0.00270945276133716,-0.0128965303301811
516,-0.00142582808621228,-0.0059650419279933,0.00949902459979057,-0.00814798194915056,0.00192705611698329,-0.0150678921490908
517,-0.00184747402090579,-0.00472482480108738,0.0111414082348347,-0.00938530918210745,0.00115772546269,-0.0175699423998594
518,-0.000926664855796844,-0.00200916291214526,0.0148665858432651,-0.00822643004357815,0.00333958142437041,-0.0176860764622688
519,0.000187840661965311,0.000872560194693506,0.018665911629796,-0.00637577753514051,0.00597433745861053,-0.016101585701108
520,0.000476244575111195,0.00155111437197775,0.0197464991360903,-0.00587094109505415,0.00569496117532253,-0.0155426412820816
521,-0.0005439612432383,-0.000418193871155381,0.0173744391649961,-0.00715286331251264,0.00297218817286193,-0.0171014964580536
522,-0.00311716203577816,-0.00356883625499904,0.013191650621593,-0.0089983157813549,0.000476925983093679,-0.0192382726818323
523,-0.00675978325307369,-0.00672190403565764,0.00947635713964701,-0.00979580171406269,-0.00104584987275302,-0.0203665904700756
524,-0.0115524511784315,-0.00957665778696537,0.0068399147130549,-0.00932701490819454,-0.00363558763638139,-0.0202953908592463
525,-0.0167056396603584,-0.0118098817765713,0.00520673720166087,-0.00909081194549799,-0.00697864405810833,-0.0203071609139442
526,-0.0200226567685604,-0.0133239105343819,0.00493064615875483,-0.0109035903587937,-0.00793086551129818,-0.0225351862609386
527,-0.0214532427489758,-0.0143874613568187,0.0051033184863627,-0.0148438373580575,-0.00625147158280015,-0.0269437246024609
528,-0.022220816463232,-0.0142518831416965,0.00466357870027423,-0.0184216760098934,-0.00395740894600749,-0.0305321048945189
529,-0.0224075224250555,-0.0126224532723427,0.00369008630514145,-0.02003631927073,-0.00202045263722539,-0.0319402702152729
530,-0.0209806486964226,-0.0106451082974672,0.00265055918134749,-0.0203751418739557,-0.000461154151707888,-0.0322388932108879
531,-0.0168503522872925,-0.00865423493087292,0.00262397970072925,-0.0194742642343044,0.00110510725062341,-0.0312671884894371
532,-0.0111615983769298,-0.0060712955892086,0.00418162019923329,-0.0173513870686293,0.00311242719180882,-0.0287590567022562
533,-0.00670053763315082,-0.0026961243711412,0.00639925850555301,-0.0152291683480144,0.00507969362661242,-0.0259657576680183
534,-0.00477580586448312,0.000711814209353179,0.00853896327316761,-0.0135517939925194,0.00602317228913307,-0.0239084511995316
535,-0.00440212432295084,0.00341305742040277,0.0106527553871274,-0.0117945214733481,0.00630797678604722,-0.0228841323405504
536,-0.00377897289581597,0.00580715807154775,0.0126428287476301,-0.00971906911581755,0.00722078047692776,-0.023004237562418
537,-0.00214753951877356,0.00777828600257635,0.0139283146709204,-0.00729128578677773,0.00896166637539864,-0.023855110630393
538,-0.00011033563350793,0.00822097808122635,0.0140609880909324,-0.00455840397626162,0.0105312140658498,-0.0245587099343538
539,0.000859785301145166,0.00612529134377837,0.0130883911624551,-0.00232427357695997,0.010588682256639,-0.0253388155251741
540,-0.000566993083339185,0.00116299686487764,0.0113576492294669,-0.00171448092442006,0.00821302644908428,-0.027123274281621
541,-0.00348271382972598,-0.00523546151816845,0.00998315121978521,-0.002310233656317,0.00430604908615351,-0.0289037600159645
542,-0.00529436487704515,-0.0105093456804752,0.0101931886747479,-0.00243445858359337,0.00141189910937101,-0.0288092829287052
543,-0.00500418664887547,-0.0129904123023152,0.0115557052195072,-0.00125569733791053,-8.65362653712509E-06,-0.0264172311872244
544,-0.0044807568192482,-0.0136792305856943,0.0124360956251621,0.000179737093276344,-0.00218559731729329,-0.022681288421154
545,-0.00442340644076467,-0.0143749490380287,0.0129747232422233,0.000720551703125238,-0.00407949043437839,-0.0182901173830032
546,-0.00285350065678358,-0.0147836050018668,0.0147565882652998,0.000826501287519932,-0.00226533529348671,-0.0127218216657639
547,-9.01624152902514E-05,-0.0144669562578201,0.0174166858196259,0.000898955739103258,0.00225753826089203,-0.00622118590399623
548,0.0010661183623597,-0.0141161680221558,0.0192631613463163,0.000528419099282473,0.00558255985379219,-0.000376875716028735
549,6.25992615823634E-05,-0.0133051751181483,0.0199441742151976,0.000116079216240905,0.00632554804906249,0.00416547618806362
550,-0.00142419023904949,-0.0105982441455126,0.0202933885157108,0.000867349503096193,0.00583671126514673,0.00857867021113634
551,-0.0021642716601491,-0.00624282332137227,0.0210751052945852,0.0028131811413914,0.00571815809234977,0.013768132776022
552,-0.00179691484663635,-0.00248778355307877,0.0222172643989325,0.00434446893632412,0.00666403584182262,0.018356766551733
553,-0.00117048493120819,-0.00109367142431438,0.0229890588670969,0.00434368755668402,0.00751505745574832,0.0205855779349804
554,-0.00155281042680144,-0.00206668162718415,0.0232510771602392,0.00335030979476869,0.00697005959227681,0.0201021488755941
555,-0.0038155356887728,-0.00494879111647606,0.0225500650703907,0.00201074359938502,0.00477825058624148,0.0170939527451992
556,-0.0079196160659194,-0.00889250263571739,0.0201692674309015,0.000486196397105232,0.000962368911132216,0.0129467220976949
557,-0.0113497087731957,-0.0121671678498387,0.0176074840128422,-0.000446843361714855,-0.00242722546681762,0.010110822506249
558,-0.0112881539389491,-0.0127451941370964,0.0170899983495474,0.000388953485526145,-0.00273250858299434,0.010415899567306
559,-0.00825264398008585,-0.0104604540392756,0.0180528946220875,0.00222072983160615,-0.000648044981062412,0.0131570966914296
560,-0.00540185673162341,-0.00787787605077028,0.0181500930339098,0.00270082522183657,0.000752514170017093,0.0154015831649303
561,-0.00495473435148597,-0.00635545747354627,0.0169230327010155,0.00139811495319009,-0.000197174653294496,0.0160124897956848
562,-0.00648119719699025,-0.00501223420724273,0.0157125107944012,-0.000537595187779516,-0.00262104440480471,0.0160020273178816
563,-0.00835692510008812,-0.00383360986597836,0.0152242509648204,-0.00237198662944138,-0.00455669267103076,0.0158317312598228
564,-0.0090881921350956,-0.00247970269992948,0.015744935721159,-0.00314969592727721,-0.00478953029960394,0.0161639712750912
565,-0.00733441160991788,0.00137382990214974,0.0180420037358999,-0.00120634655468166,-0.00332719297148287,0.0190177410840988
566,-0.00452587706968188,0.00642577698454261,0.0208433866500854,0.00238428334705532,-0.0019679581746459,0.0229908805340528
567,-0.00405224785208702,0.00761338835582137,0.0216417890042067,0.00393150048330426,-0.00248145218938589,0.0231953542679548
568,-0.0053996229544282,0.00427315616980195,0.0210114344954491,0.00307700247503817,-0.00369971245527267,0.0193047821521759
569,-0.00612444151192904,-0.000387962703825906,0.0200989451259375,0.00168355624191463,-0.00511243892833591,0.0142766023054719
570,-0.00574746215716004,-0.00291163218207657,0.0191793777048588,0.00105516728945076,-0.00780727667734027,0.010637991130352
571,-0.00461327889934182,-0.0014603742165491,0.0191284436732531,0.00211727549321949,-0.0108571592718363,0.0102363666519523
572,-0.00345038599334657,0.00191455218009651,0.0197238922119141,0.00375342252664268,-0.0124480966478586,0.0116602182388306
573,-0.0029576572123915,0.00493899639695883,0.0205033048987389,0.00482688006013632,-0.0127219399437308,0.0131660392507911
574,-0.00297579308971763,0.00650610309094191,0.0217843484133482,0.00553482864052057,-0.0126581266522408,0.0141150979325175
575,-0.00202745385468006,0.00545439356938004,0.024028742685914,0.00607480853796005,-0.011325603350997,0.0132784824818373
576,0.000335937540512532,0.00252135540358722,0.0269942414015532,0.00687547866255045,-0.00830876920372248,0.0114239808171988
577,0.00220452900975943,-0.00042247015517205,0.0293228998780251,0.007918456569314,-0.00508179981261492,0.010223375633359
578,0.00244598975405097,-0.00255712936632335,0.0301788579672575,0.00865943823009729,-0.00289503531530499,0.00921025406569242
579,0.00144217221532017,-0.00396603578701615,0.0299732722342014,0.00903730560094118,-0.00228458945639431,0.0073412018828094
580,7.00470191077329E-05,-0.0038317977450788,0.0300029534846544,0.00989501178264618,-0.00218251184560359,0.00583606259897351
581,-0.000823771755676717,-0.00133173994254321,0.0310210399329662,0.0116525059565902,-0.00097449857275933,0.00686856871470809
582,-0.001355747343041,0.00218409788794816,0.0323167815804482,0.0130037302151322,0.00134198006708175,0.0102132959291339
583,-0.00349713675677776,0.00354063417762518,0.0323042757809162,0.0120409764349461,0.0027534996625036,0.0129886791110039
584,-0.00856576673686504,0.00116688571870327,0.0300477053970099,0.00866784527897835,0.00209593516774476,0.0130949756130576
585,-0.014292842708528,-0.00239201192744076,0.0270094182342291,0.00514605175703764,0.00111147400457412,0.0113497199490666
586,-0.018883166834712,-0.00516959605738521,0.0242772772908211,0.00265489332377911,-6.31996590527706E-05,0.00855715107172728
587,-0.0222848858684301,-0.00748634291812778,0.0218263491988182,0.00105931435246021,-0.00234507769346237,0.00532329687848687
588,-0.0245599634945393,-0.00920909829437733,0.0199159663170576,0.00036700232885778,-0.00486772228032351,0.00333390338346362
589,-0.02679786644876,-0.0100000025704503,0.0178400501608849,7.76578162913211E-05,-0.00776052754372358,0.00324615719728172
590,-0.0284163672477007,-0.00851454958319664,0.0163028948009014,0.00117626215796918,-0.0104962140321732,0.00529187684878707
591,-0.0273898374289274,-0.00375546724535525,0.0171767473220825,0.00531161576509476,-0.0108625236898661,0.00987572502344847
592,-0.024993309751153,0.00117863086052239,0.0189648848026991,0.0107216313481331,-0.00948025938123465,0.0149357635527849
593,-0.0239093620330095,0.00306120258755982,0.0191415343433619,0.0145340636372566,-0.00893307663500309,0.0185706112533808
594,-0.024434857070446,0.0025654265191406,0.0179913230240345,0.0164750181138515,-0.00964910537004471,0.0218964423984289
595,-0.0249824896454811,0.000562323024496436,0.0164046566933393,0.0170966256409884,-0.0106377452611923,0.0254471339285374
596,-0.0241086687892675,-0.00358576513826847,0.0139709673821926,0.0161481555551291,-0.0117242773994803,0.0270481240004301
597,-0.0226798988878727,-0.010239502415061,0.0103851146996021,0.0136317173019052,-0.013635310344398,0.0244172159582376
598,-0.0207730885595083,-0.0169042553752661,0.00747449649497867,0.0115198865532875,-0.0153263108804822,0.0195782091468573
599,-0.0172756388783455,-0.0203515663743019,0.00678216246888042,0.0114170145243406,-0.0154304504394531,0.0163125898689032
600,-0.0136854853481054,-0.0214291885495186,0.00694178976118565,0.0122638335451484,-0.0153814256191254,0.0151035841554403
601,-0.0116408867761493,-0.0225483439862728,0.00653202133253217,0.0128779141232371,-0.0159174259752035,0.015290847979486
602,-0.0106219397857785,-0.023901429027319,0.00564647605642676,0.0127524761483073,-0.0155086610466242,0.0161164663732052
603,-0.0095472289249301,-0.0243096984922886,0.0051143174059689,0.0119348233565688,-0.0137281408533454,0.01626848988235
604,-0.00808898918330669,-0.0232657603919506,0.00591134186834097,0.0113421948626637,-0.0121712973341346,0.015957199037075
605,-0.00677692610770464,-0.0218611173331738,0.00762235652655363,0.0110388929024339,-0.0126264998689294,0.0165650844573975
606,-0.0060034804046154,-0.0208778250962496,0.00882911495864391,0.0104906111955643,-0.0158670507371426,0.0190948396921158
607,-0.00561724323779345,-0.019615039229393,0.00900405365973711,0.00985988229513168,-0.0213059429079294,0.0230272077023983
608,-0.00539861805737019,-0.0177579745650291,0.00856545101851225,0.00938285235315561,-0.0270470026880503,0.0261021852493286
609,-0.00428234785795212,-0.0150418933480978,0.00871210731565952,0.00974179152399302,-0.030338553711772,0.0269977282732725
610,-0.0012251507723704,-0.0107173416763544,0.0104853939265013,0.0114829195663333,-0.0303770806640387,0.0265127997845411
611,0.00256396387703717,-0.00561255821958184,0.0131825786083937,0.0133904330432415,-0.0294175334274769,0.0254780407994986
612,0.00468388432636857,-0.00173581414856017,0.0146583942696452,0.0139852724969387,-0.0289715975522995,0.0240041986107826
613,0.00406229123473167,0.000683904334437102,0.0135074956342578,0.0135556701570749,-0.0290086045861244,0.0228362195193768
614,0.00194822554476559,0.00234344322234392,0.0109243057668209,0.0131061729043722,-0.0295257922261953,0.0224126651883125
615,0.000394014379708096,0.00235734111629426,0.00928072538226843,0.0127828987315297,-0.0298263169825077,0.0214869603514671
616,0.000252628087764606,0.000334665295667946,0.00989841483533382,0.0125955427065492,-0.0290829427540302,0.0197565667331219
617,0.000158160764840432,-0.0032789830584079,0.0119507601484656,0.0122176362201571,-0.028257217258215,0.0181873682886362
618,-0.00200593122281134,-0.00820775981992483,0.0131484270095825,0.0108173070475459,-0.029157904908061,0.0168581381440163
619,-0.00579057587310672,-0.0124775869771838,0.0127770276740193,0.00883322674781084,-0.0316748805344105,0.0158742219209671
620,-0.00881107803434134,-0.0137965781614184,0.0122898248955607,0.00757171213626862,-0.0340452417731285,0.0158657766878605
621,-0.00979421939700842,-0.0114793768152595,0.0129873063415289,0.00757412100210786,-0.0349739193916321,0.0172903146594763
622,-0.00898357387632132,-0.00589777808636427,0.0150512643158436,0.00838915631175041,-0.0336704254150391,0.0197120606899261
623,-0.00720942672342062,0.00157094374299049,0.0180218536406755,0.0094508258625865,-0.0300206672400236,0.0221197083592415
624,-0.00552882580086589,0.00899767410010099,0.0206899475306273,0.0101842489093542,-0.0254222545772791,0.0241995248943567
625,-0.0046646292321384,0.014646259136498,0.0215312782675028,0.0098518980666995,-0.0212456360459328,0.0254595018923283
626,-0.00417606392875314,0.0184532143175602,0.0207839831709862,0.00910309795290232,-0.0175036955624819,0.0259406715631485
627,-0.00347804185003042,0.0219951029866934,0.0199700482189655,0.00937467254698277,-0.0140121020376682,0.0272410027682781
628,-0.00370611366815865,0.0251632761210203,0.0186983421444893,0.0101659996435046,-0.0119937723502517,0.0293580461293459
629,-0.00588841922581196,0.0266043320298195,0.015959307551384,0.0102435201406479,-0.0127347465604544,0.0305949654430151
630,-0.00828344002366066,0.0273060519248247,0.0138334948569536,0.0106538385152817,-0.0140418373048306,0.0310660675168037
631,-0.00870510563254356,0.0285046622157097,0.0146254925057292,0.0125045841559768,-0.0127290850505233,0.031863272190094
632,-0.00723170302808285,0.0291608851402998,0.016940463334322,0.0142117524519563,-0.00925712659955025,0.0323291718959808
633,-0.00443383818492293,0.0291779786348343,0.0186916179955006,0.0145013825967908,-0.00545798847451806,0.0314951464533806
634,-0.000186499717528932,0.0298541989177465,0.0197675377130508,0.0140991322696209,-0.00201728660613298,0.0300237983465195
635,0.00483057228848338,0.0314880423247814,0.0204121563583612,0.0138000706210732,-0.000249844248173758,0.0291810110211372
636,0.010010234080255,0.0347665809094906,0.0211890824139118,0.014456856995821,-0.000776005035731941,0.0299845859408379
637,0.0160992685705423,0.0408383347094059,0.0236487314105034,0.0168079826980829,-0.00137558439746499,0.03265231102705
638,0.0222486611455679,0.0480127744376659,0.0271911919116974,0.0190830063074827,-0.000788510078564286,0.0353289805352688
639,0.0263464115560055,0.0537358932197094,0.0293953232467175,0.0195655543357134,0.000357450684532523,0.0363388657569885
640,0.0276730097830296,0.0573839507997036,0.0297616515308619,0.0192171540111303,0.00196101889014244,0.0361277759075165
641,0.0259548500180244,0.0581053793430328,0.0285387206822634,0.0180795919150114,0.00337693560868502,0.0346797071397305
642,0.022263415157795,0.0561420470476151,0.026114447042346,0.0163128599524498,0.00331243290565908,0.0325154513120651
643,0.0196975618600845,0.054570097476244,0.0247978009283543,0.0163418632000685,0.002866480499506,0.0322889126837254
644,0.0195627044886351,0.0549257062375546,0.0261916872113943,0.0185941942036152,0.00397923868149519,0.0346557386219502
645,0.020449087023735,0.0559376440942287,0.0289311632514,0.0209585819393396,0.00664041610434651,0.0376875400543213
646,0.021105594933033,0.0566369444131851,0.0311455670744181,0.0222230907529593,0.0104601159691811,0.0402346551418304
647,0.0206078160554171,0.0562564879655838,0.0317120924592018,0.0218828823417425,0.0143138263374567,0.0416431799530983
648,0.0189752075821161,0.0550528392195702,0.0310863815248013,0.0203197617083788,0.0172527637332678,0.0417156033217907
649,0.0180270243436098,0.0555279143154621,0.0316207930445671,0.0194140654057264,0.019882794469595,0.0416350960731506
650,0.0185757428407669,0.058851171284914,0.034344706684351,0.0200631115585566,0.0220498740673065,0.0422758646309376
651,0.0182459596544504,0.0617969706654549,0.0365994423627853,0.0205646809190512,0.0216606575995684,0.0422592423856258
652,0.0146200675517321,0.060787558555603,0.035382904112339,0.0191863160580397,0.0174107104539871,0.0396712087094784
653,0.00923680420964956,0.0565716251730919,0.0320147611200809,0.016929367557168,0.0122047178447247,0.0350970551371574
654,0.00626750569790602,0.052121214568615,0.0302985422313213,0.0161303579807281,0.0112655637785792,0.0311016868799925
655,0.00674928678199649,0.0489093102514744,0.0308696925640106,0.0174962282180786,0.0148505885154009,0.0293236020952463
656,0.00716452207416296,0.0465918108820915,0.031033169478178,0.0196207575500011,0.0178113766014576,0.0288647226989269
657,0.00578161887824535,0.0451072715222836,0.0298907794058323,0.0213065855205059,0.0183058995753527,0.0280666295439005
658,0.0034947469830513,0.0446012355387211,0.0284851510077715,0.022300086915493,0.0182319059967995,0.026489807292819
659,0.000240677574765868,0.0451906621456146,0.0274658780544996,0.0228878445923328,0.0177596900612116,0.0250895842909813
660,-0.00401779403910041,0.0472455956041813,0.0272438023239374,0.0232044961303473,0.0160102248191834,0.0239379443228245
661,-0.00873967446386814,0.0499897301197052,0.0274292808026075,0.0221528671681881,0.0129324747249484,0.0210369061678648
662,-0.0132191805168986,0.0527044087648392,0.0275070071220398,0.0195493940263987,0.00897148344665766,0.0164993423968554
663,-0.0164515394717455,0.0557694919407368,0.0276147127151489,0.0172322448343039,0.00483481539413333,0.0135254627093673
664,-0.017704650759697,0.0591536276042461,0.0278979167342186,0.0165765658020973,0.00235841050744057,0.013851179741323
665,-0.0170406419783831,0.0615281648933887,0.028020728379488,0.0169074945151806,0.0033594211563468,0.01554567925632
666,-0.0151536548510194,0.0614855214953423,0.0273349601775408,0.0168586149811745,0.00657642027363181,0.0163877438753843
667,-0.0128272986039519,0.059443760663271,0.0259505063295364,0.0165021941065788,0.00921149086207151,0.0170008987188339
668,-0.0101466262713075,0.056991420686245,0.0250464770942926,0.0169692654162645,0.0110165243968368,0.0182902850210667
669,-0.00634504808112979,0.0558009631931782,0.0254791211336851,0.0188636016100645,0.0133708920329809,0.0198873020708561
670,-0.00131414365023375,0.0569778420031071,0.0267822165042162,0.0217327401041985,0.016002232208848,0.0215580631047487
671,0.00357919745147228,0.0589484199881554,0.0280034020543098,0.0239618849009275,0.0173906721174717,0.0223308783024549
672,0.00742181437090039,0.0590953677892685,0.0288212355226278,0.0242470391094685,0.0173063687980175,0.0211153887212276
673,0.0103843649849296,0.0572202503681183,0.029270438477397,0.0230434089899063,0.0164808295667171,0.0184038802981377
674,0.0119515974074602,0.0543169267475605,0.0290009677410126,0.0213392097502947,0.0152867687866092,0.0149070098996162
675,0.0116577921435237,0.0511494651436806,0.0278541594743729,0.0200469382107258,0.0145718650892377,0.0110785802826285
676,0.0101480185985565,0.048121590167284,0.0260653160512447,0.0196423027664423,0.0149694373831153,0.00758310873061419
677,0.00820983201265335,0.0454847067594528,0.0243657398968935,0.0200155191123486,0.0159082040190697,0.00551699614152312
678,0.00645335670560598,0.044188741594553,0.0238273367285728,0.0213090553879738,0.0159932523965836,0.00635342393070459
679,0.0051543447189033,0.04420330747962,0.0239507183432579,0.0228407811373472,0.0139850489795208,0.00981278065592051
680,0.00519262626767159,0.0439496524631977,0.0236718840897083,0.0235042590647936,0.0116363000124693,0.0133960070088506
681,0.00683390628546476,0.0423340611159801,0.0225059390068054,0.0228335596621037,0.0107312630861998,0.0147703550755978
682,0.00842948351055384,0.0396878384053707,0.020076684653759,0.0209886636584997,0.00983492378145456,0.0137070920318365
683,0.00930891279131174,0.0369601435959339,0.016651688143611,0.0186624340713024,0.00829262286424637,0.0114794792607427
684,0.0100342277437449,0.0339587852358818,0.0124826356768608,0.0156714282929897,0.00658762641251087,0.00859221071004868
685,0.0110294874757528,0.0298904906958342,0.00859367754310369,0.0118874553591013,0.00529423402622342,0.00503382226452231
686,0.0123156113550067,0.0252565667033196,0.00644711125642061,0.00850648060441017,0.00510407192632556,0.00199044425971806
687,0.0130721628665924,0.021277004852891,0.0051846094429493,0.00638747634366155,0.00569585245102644,0.00065871438710019
688,0.0124503448605537,0.0183696150779724,0.00292882323265076,0.00502438982948661,0.0071128960698843,0.000695747439749539
689,0.010124740190804,0.0165935941040516,-0.000512006692588329,0.00338050629943609,0.00946902949362993,0.00102079857606441
690,0.00691301561892033,0.0167661439627409,-0.00334148132242262,0.00171213177964091,0.0124370874837041,0.00122241710778326
691,0.0047132926993072,0.0193857122212648,-0.00355411507189274,0.00170329364482313,0.0162790790200233,0.00212840479798615
692,0.00333798443898559,0.0221265573054552,-0.00207533035427332,0.00330793275497854,0.019804447889328,0.00368259847164154
693,0.0010352669050917,0.0218074601143599,-0.00149385386612266,0.004139912314713,0.0212420523166656,0.00391356321051717
694,-0.00121915759518743,0.0187224000692368,-0.00206040591001511,0.003071628510952,0.0217091795057058,0.00165686476975679
695,-0.00181692116893828,0.0149338683113456,-0.00298151141032577,0.00107224192470312,0.0221878737211227,-0.00183055095840245
696,-0.00173431797884405,0.0113553935661912,-0.00462769204750657,-0.000592506723478436,0.0209897421300411,-0.00431282026693225
697,-0.00186680641490966,0.00891716312617064,-0.00691304309293628,-0.000833505764603615,0.0175397340208292,-0.00463543133810163
698,-0.00235844543203712,0.00766268884763122,-0.0091575849801302,-5.45366201549768E-05,0.0132795255631208,-0.00375944748520851
699,-0.00348991621285677,0.00623103370890021,-0.0112691316753626,-4.66432829853147E-05,0.00967895053327084,-0.00316702714189887
700,-0.00432023592293262,0.00506598502397537,-0.0127624748274684,-0.000723923149053007,0.00800774898380041,-0.00294566084630787
701,-0.00372943701222539,0.00573869654908776,-0.0129675148054957,-0.000923980085644871,0.00881782453507185,-0.00389032578095794
702,-0.00301250792108476,0.00832223985344172,-0.0128124495968223,-0.00130327453371137,0.0109274163842201,-0.00710141146555543
703,-0.00466724764555693,0.0118339974433184,-0.0136883351951838,-0.00262108677998185,0.012284904718399,-0.0111838402226567
704,-0.0086609311401844,0.0148243522271514,-0.0151217868551612,-0.00419247057288885,0.0122710093855858,-0.0142482370138168
705,-0.012210501357913,0.0160592123866081,-0.0153987165540457,-0.00519714644178748,0.011804947629571,-0.0156823173165321
706,-0.0133946016430855,0.0157766472548246,-0.0139758251607418,-0.00520685967057943,0.0113262487575412,-0.0151233328506351
707,-0.0132735781371593,0.0146009642630816,-0.0125661753118038,-0.00465804478153586,0.0099079143255949,-0.0129790008068085
708,-0.0131270736455917,0.0133722834289074,-0.0124693689867854,-0.00415933551266789,0.00765642803162336,-0.00993094965815544
709,-0.0114521738141775,0.0149996802210808,-0.0119060864672065,-0.002440633950755,0.00727852899581194,-0.00467877741903067
710,-0.00702036917209625,0.0209842938929796,-0.00913638435304165,0.00168684718664736,0.00999338179826736,0.00330414064228535
711,-0.00202352786436677,0.0282065123319626,-0.00567040033638477,0.00666561117395759,0.0133826760575175,0.010714415460825
712,0.00103463022969663,0.0331040285527706,-0.00367953651584685,0.0102180382236838,0.0151787744835019,0.0143506322056055
713,0.00143624423071742,0.0343365482985973,-0.00412993086501956,0.0111096808686852,0.0143076293170452,0.013885673135519
714,-0.00024755226331763,0.0325334556400776,-0.0073320921510458,0.00915367342531681,0.0104510672390461,0.0109313223510981
715,-0.00190002878662199,0.0304266158491373,-0.0116178644821048,0.00591503037139773,0.00555747887119651,0.0085631413385272
716,-0.00179035740438849,0.03023861348629,-0.0141455670818686,0.00365587999112904,0.00245493673719466,0.00912987999618053
717,-0.000387934880563989,0.0314881950616837,-0.0146354753524065,0.00259441346861422,0.00211685919202864,0.0116063710302114
718,0.000587538641411811,0.0324097760021687,-0.0150492992252111,0.00137352070305496,0.00280671729706228,0.0130628272891045
719,0.000560539250727743,0.0329479947686195,-0.0155374715104699,0.000453813379863277,0.00314889522269368,0.0131951179355383
720,0.000247783726081252,0.0339443124830723,-0.0152699137106538,0.00102649722248316,0.003695736406371,0.0135430749505758
721,0.000206476586754434,0.0343831218779087,-0.0151913212612271,0.00229853554628789,0.00447137281298637,0.0138008920475841
722,0.00114575424231589,0.0338344126939774,-0.0155771970748901,0.0035655121318996,0.00562166562303901,0.0134669011458755
723,0.00313690816983581,0.0334413945674896,-0.0152899632230401,0.00506939506158233,0.00771536445245147,0.0131077449768782
724,0.00448690680786967,0.0319775529205799,-0.0150379780679941,0.00539275817573071,0.00978926662355661,0.0114419525489211
725,0.00413772976025939,0.0284027587622404,-0.0159673858433962,0.00363883748650551,0.0100178895518184,0.00781100848689675
726,0.00309839565306902,0.0251913461834192,-0.0171095989644527,0.00198924378491938,0.00817654374986887,0.00569677073508501
727,0.00255757174454629,0.0237589851021767,-0.0172231383621693,0.00207340251654387,0.00618520146235824,0.00755537254735827
728,0.00294650415889919,0.0230661053210497,-0.015976881608367,0.00346659170463681,0.00556637020781636,0.0121131706982851
729,0.00442485651001334,0.022453460842371,-0.013279021717608,0.00557620171457529,0.00627673463895917,0.0176198780536652
730,0.00653337454423308,0.0218947734683752,-0.00971612427383661,0.00748465908691287,0.0084663312882185,0.0220619793981314
731,0.00706100091338158,0.020088342949748,-0.00792032852768898,0.00697663798928261,0.011330540291965,0.0219014883041382
732,0.00518919760361314,0.0165664404630661,-0.00883069820702076,0.00402689119800925,0.013707778416574,0.0168296135962009
733,0.00328601757064462,0.0135338194668293,-0.00943203177303076,0.00192786171101034,0.0165194310247898,0.0115875890478492
734,0.0023864759132266,0.0115022519603372,-0.00856228731572628,0.00135479017626494,0.0198574773967266,0.00894972588866949
735,0.00104554567951709,0.00892440136522055,-0.00830512493848801,-9.31367412704276E-06,0.0220470707863569,0.00793114583939314
736,-0.00171623926144093,0.00595230842009187,-0.00973769370466471,-0.00279401335865259,0.0217208918184042,0.00767295388504863
737,-0.00558435451239347,0.00386468064971268,-0.012459198012948,-0.0056556910276413,0.018505522981286,0.00814724620431662
738,-0.00987879280000925,0.00310068437829614,-0.0159231908619404,-0.00750279193744063,0.0137031199410558,0.00930137652903795
739,-0.0137447705492377,0.00363575178198516,-0.0190971493721008,-0.00835008826106787,0.00986053701490164,0.0113807767629623
740,-0.0164573341608047,0.00522583816200495,-0.0208344738930464,-0.00865666661411524,0.00846217572689056,0.0145206730812788
741,-0.0175922773778439,0.00709765683859587,-0.0206194613128901,-0.00853956677019596,0.00917174480855465,0.0172648224979639
742,-0.0167538616806269,0.00813826266676188,-0.0188271440565586,-0.00807708501815796,0.0112183289602399,0.0177783109247684
743,-0.0149977868422866,0.00738518545404077,-0.0173694957047701,-0.00821909680962563,0.0129890060052276,0.0154237393289804
744,-0.0139948548749089,0.0052791889756918,-0.0178030841052532,-0.00935972388833761,0.0132751036435366,0.0108741214498878
745,-0.0138323856517673,0.00305227097123861,-0.0194677338004112,-0.0102908238768578,0.0130862724035978,0.00609908904880285
746,-0.0139546832069755,7.33945271349512E-05,-0.0212250370532274,-0.010829895734787,0.0129238618537784,0.00166813295800239
747,-0.0135432379320264,-0.00492689525708556,-0.0220746211707592,-0.011985320597887,0.0121149066835642,-0.00344612565822899
748,-0.0129867400974035,-0.0117988251149654,-0.0225893389433622,-0.0145988529548049,0.00974309258162975,-0.00930076092481613
749,-0.0135615207254887,-0.0188515521585941,-0.0243250802159309,-0.0187258161604404,0.00545925367623568,-0.0148129379376769
750,-0.0143610620871186,-0.0236388258635998,-0.0264173038303852,-0.0228800531476736,0.000889446178916842,-0.018622875213623
751,-0.0143740465864539,-0.0258353184908628,-0.0278405640274286,-0.0259577427059412,-0.00287889083847404,-0.0206233784556389
752,-0.013742838986218,-0.0270001236349344,-0.0288732200860977,-0.0280732866376638,-0.00608274526894093,-0.0221129711717367
753,-0.0122659811750054,-0.0278798770159483,-0.0291594322770834,-0.0293581858277321,-0.00815916899591684,-0.0238293688744307
754,-0.0105340806767344,-0.0289357844740152,-0.0287626776844263,-0.0302015040069819,-0.0091394018381834,-0.0258405059576035
755,-0.00938790198415518,-0.0306345652788877,-0.0283235628157854,-0.0308765657246113,-0.0101673034951091,-0.0280807372182608
756,-0.00822997093200684,-0.0318690575659275,-0.0273974295705557,-0.0304499585181475,-0.0114589035511017,-0.0289743896573782
757,-0.00712351594120264,-0.0320826359093189,-0.0256992466747761,-0.0287868119776249,-0.0130048394203186,-0.0278117172420025
758,-0.00771826831623912,-0.0317466408014297,-0.024192463606596,-0.0275437440723181,-0.015441071242094,-0.0260963477194309
759,-0.00961833447217941,-0.0297912377864122,-0.0233357604593039,-0.027119342237711,-0.0176935624331236,-0.0243556816130877
760,-0.0102420430630445,-0.0260436479002237,-0.0225544236600399,-0.0266057848930359,-0.0174196120351553,-0.0226899497210979
761,-0.00916693359613419,-0.0226533319801092,-0.0216032322496176,-0.0257832407951355,-0.0149824107065797,-0.0215335600078106
762,-0.00767338741570711,-0.0210592951625586,-0.020162595435977,-0.0243073217570782,-0.0124057130888104,-0.0201421529054642
763,-0.00608447613194585,-0.0211172793060541,-0.0179712604731321,-0.0220377594232559,-0.0107543990015984,-0.0178435649722815
764,-0.00373050943017006,-0.0215783528983593,-0.015483345836401,-0.0194718856364489,-0.00962005835026503,-0.0149581888690591
765,0.000344128638971597,-0.020519595593214,-0.0124409710988402,-0.0165088921785355,-0.00727291638031602,-0.0118000451475382
766,0.0050850473344326,-0.0180431324988604,-0.00936589390039444,-0.0138872051611543,-0.00424391403794289,-0.00942857656627893
767,0.00758512737229466,-0.0169032718986273,-0.00880528707057238,-0.0137297492474318,-0.00374052696861327,-0.00975302793085575
768,0.00726146483793855,-0.0181337893009186,-0.0109749129042029,-0.0155754499137402,-0.00655673956498504,-0.0121595188975334
769,0.00675545074045658,-0.019059345126152,-0.012504537589848,-0.0161467790603638,-0.00894216448068619,-0.0132095189765096
770,0.0083799110725522,-0.0171194914728403,-0.011178863234818,-0.0141697721555829,-0.00714801484718919,-0.0117194401100278
771,0.0115807587280869,-0.0128356954082847,-0.00860719289630651,-0.0112185617908835,-0.00270874006673694,-0.00931485090404749
772,0.0142962615936995,-0.00862035155296326,-0.00765385013073683,-0.00903768092393875,-0.000151412357809022,-0.00736681278795004
773,0.0161579102277756,-0.00603809114545584,-0.00846954621374607,-0.00802707485854626,-0.000780911126639694,-0.00653310911729932
774,0.017904169857502,-0.00523708947002888,-0.00950358249247074,-0.00824735406786203,-0.00265586678870022,-0.00706802820786834
775,0.0193084832280874,-0.0059432010166347,-0.0104876132681966,-0.00991042237728834,-0.00444969953969121,-0.00870583020150661
776,0.0203186869621277,-0.0074640978127718,-0.0117044504731894,-0.0123221445828676,-0.00601735524833202,-0.0103263771161437
777,0.020914601162076,-0.00936172809451818,-0.0135677978396416,-0.0146677112206817,-0.00781597662717104,-0.0103769386187196
778,0.0207272954285145,-0.0119118094444275,-0.0165314711630344,-0.0165331549942493,-0.00993746053427458,-0.00828443001955748
779,0.019825354218483,-0.0160493385046721,-0.0203655790537596,-0.0180994588881731,-0.0114188622683287,-0.00595839601010084
780,0.0182650238275528,-0.0224840808659792,-0.0247292965650558,-0.0201788637787104,-0.0111526325345039,-0.00701356073841453
781,0.0162338428199291,-0.0289817228913307,-0.028738709166646,-0.0224090125411749,-0.00906924437731504,-0.0123511217534542
782,0.0134912542998791,-0.0328552164137363,-0.0312027279287577,-0.0235609393566847,-0.00691382586956024,-0.0189831275492907
783,0.0104533340781927,-0.0341761000454426,-0.0314350612461567,-0.0230096336454153,-0.00527561968192458,-0.0237928926944733
784,0.0100215151906013,-0.0325712859630585,-0.028658514842391,-0.0199989881366491,-0.00205651670694351,-0.0248617939651012
785,0.013559378683567,-0.0282616447657347,-0.0239627920091152,-0.0155286435037851,0.00319489208050072,-0.0237197000533342
786,0.0177892241626978,-0.0241202991455793,-0.0205836892127991,-0.0133770406246185,0.00779156479984522,-0.0247037000954151
787,0.0185750909149647,-0.0226810965687037,-0.0203064735978842,-0.0154337370768189,0.00915513560175896,-0.0287248808890581
788,0.015868566930294,-0.0244778506457806,-0.0221302788704634,-0.0196398459374905,0.00759649090468884,-0.0332820676267147
789,0.0130230179056525,-0.0274262931197882,-0.0237466990947723,-0.0226795896887779,0.00522950571030378,-0.0365272276103497
790,0.0121031664311886,-0.0290562510490417,-0.0240315888077021,-0.0227506682276726,0.00297943665646017,-0.0383101291954517
791,0.0128416009247303,-0.0296205412596464,-0.0232324674725533,-0.0206788443028927,0.000950752175413072,-0.0382402464747429
792,0.013628276064992,-0.0302570350468159,-0.0223950911313295,-0.0192165803164244,-0.000819937442429364,-0.0367006845772266
793,0.0149184102192521,-0.0294345542788506,-0.024371737614274,-0.0212932713329792,-0.00331283640116453,-0.0368212945759296
794,0.0205895826220512,-0.0251100268214941,-0.0301014594733715,-0.0263796336948872,-0.00551217142492533,-0.0385955423116684
795,0.0294124223291874,-0.0199744943529367,-0.0350702255964279,-0.0294222608208656,-0.00365642551332712,-0.0372218936681747
796,0.0341363772749901,-0.0186461787670851,-0.0344266779720783,-0.0263727754354477,0.00265918648801744,-0.0303783491253853
797,0.0319590903818607,-0.021467724815011,-0.0270671453326941,-0.0174838453531265,0.0103768613189459,-0.0200678166002035
798,0.0266763288527727,-0.025412617251277,-0.015890646725893,-0.00608378415927291,0.0171330198645592,-0.00996934901922941
799,0.0222305580973625,-0.0288410019129515,-0.00681824376806617,0.00305301742628217,0.0215276665985584,-0.00328175514005125
800,0.0195288546383381,-0.0323575958609581,-0.00347900344058871,0.00710904784500599,0.0233206171542406,-0.000529295299202204
801,0.0181044600903988,-0.036058098077774,-0.00462320214137435,0.00706764170899987,0.0234178006649017,-0.000212706043384969
802,0.0170748736709356,-0.0387709438800812,-0.00739199435338378,0.00539175188168883,0.0220194309949875,-0.000814650498796254
803,0.0149469925090671,-0.0398635752499104,-0.010649161413312,0.00274865026585758,0.0186867788434029,-0.00182102830149233
804,0.0118027487769723,-0.0392730236053467,-0.0143132712692022,-0.00145525299012661,0.0149119598791003,-0.00329293659888208
805,0.0100703183561563,-0.0363576151430607,-0.0175505504012108,-0.00627317419275641,0.0125531256198883,-0.00466864695772529
806,0.0119417225942016,-0.0307049434632063,-0.0194875691086054,-0.00983158871531487,0.0118328537791967,-0.00451363855972886
807,0.0171768274158239,-0.0229311846196651,-0.0198488496243954,-0.0110071357339621,0.0127774300053716,-0.0011781343491748
808,0.0230430066585541,-0.015037058852613,-0.0191436316817999,-0.00975013244897127,0.0148395327851176,0.004306361079216
809,0.0272344816476107,-0.00957630760967731,-0.0180756412446499,-0.00688192807137966,0.0165513642132282,0.00903960969299078
810,0.0290950518101454,-0.00792695395648479,-0.0170950256288052,-0.00403135735541582,0.0161313246935606,0.0120386006310582
811,0.0296841133385897,-0.0101075917482376,-0.016322722658515,-0.00284611922688782,0.0138794966042042,0.0127616412937641
812,0.0309034883975983,-0.0150434765964746,-0.0157865285873413,-0.00364674651063979,0.0118463225662708,0.0108467731624842
813,0.0325249806046486,-0.0208198912441731,-0.0162327960133553,-0.0059409043751657,0.0103297010064125,0.00783517863601446
814,0.0327119491994381,-0.0258089043200016,-0.0181003883481026,-0.00898374710232019,0.00891397893428802,0.00552847608923912
815,0.0305089093744755,-0.0299914758652449,-0.0207505784928799,-0.0120159778743982,0.00770357623696327,0.00435670325532556
816,0.0270400065928698,-0.0341579504311085,-0.0228206291794777,-0.014639494009316,0.00685611646622419,0.00378450308926404
817,0.0241646189242601,-0.0381119251251221,-0.0230694953352213,-0.0164926815778017,0.00598974525928497,0.00383537728339434
818,0.0220165010541677,-0.0415096506476402,-0.021998442709446,-0.0173460394144058,0.0041286931373179,0.0051336633041501
819,0.01992910169065,-0.0446151047945023,-0.021417124196887,-0.0173058435320854,0.00153775420039892,0.00712624564766884
820,0.0183221399784088,-0.0469275116920471,-0.022164024412632,-0.017066789790988,0.000169226652360521,0.00839805416762829
821,0.0176268257200718,-0.0474928021430969,-0.0236658398061991,-0.0173940826207399,0.00123408145736903,0.00823918730020523
822,0.0167070552706718,-0.0462075397372246,-0.0254968460649252,-0.0181896183639765,0.00307914684526622,0.00713141821324825
823,0.0145860183984041,-0.0429671034216881,-0.0273614507168531,-0.0189453884959221,0.00368171837180853,0.00678889639675617
824,0.0124353263527155,-0.0375897102057934,-0.0282577406615019,-0.0194547157734632,0.00397153710946441,0.00819987524300814
825,0.0104150092229247,-0.0318910963833332,-0.0281373839825392,-0.0201767534017563,0.00489620771259069,0.0099450433626771
826,0.00678335409611464,-0.0286828093230724,-0.0279129575937986,-0.0212493240833282,0.00526509154587984,0.0101889250800014
827,0.00226151244714856,-0.0290410351008177,-0.0269386377185583,-0.0215952731668949,0.00516931293532252,0.00886678416281939
828,-0.000773424515500665,-0.0323088578879833,-0.0240646991878748,-0.0203183200210333,0.00571281230077147,0.00776398740708828
829,-0.00231709727086127,-0.0374267138540745,-0.0203310362994671,-0.0181838795542717,0.00569157535210252,0.00828043650835752
830,-0.00406397599726915,-0.043676283210516,-0.0178286302834749,-0.017008101567626,0.00364142912440002,0.00944070890545845
831,-0.0063939094543457,-0.0495166294276714,-0.0169538762420416,-0.0172562468796968,0.000656884745694697,0.0102461548522115
832,-0.00874792132526636,-0.0532432422041893,-0.0172565802931786,-0.018002862110734,-0.00249193049967289,0.0112995812669396
833,-0.0118678929284215,-0.0566069297492504,-0.0195690020918846,-0.0194936208426952,-0.00671816430985928,0.0117975641041994
834,-0.0157719235867262,-0.0619697831571102,-0.0235665664076805,-0.0214138124138117,-0.0107838809490204,0.0106915906071663
835,-0.0186307020485401,-0.0678797140717506,-0.0264288410544395,-0.0214677192270756,-0.0117964372038841,0.00952786486595869
836,-0.0196386501193047,-0.0720375180244446,-0.0268393028527498,-0.0191447623074055,-0.00990225654095411,0.00949234794825315
837,-0.0196342896670103,-0.0740470290184021,-0.026374563574791,-0.0165241528302431,-0.00779936276376247,0.00973330158740282
838,-0.0188482571393251,-0.0732884928584099,-0.0258141346275806,-0.0142157496884465,-0.00600362941622734,0.0106962807476521
839,-0.016734778881073,-0.0680442899465561,-0.0245527196675539,-0.010752946138382,-0.00381958391517401,0.0143849784508348
840,-0.0147001249715686,-0.0599101111292839,-0.0236423201858997,-0.0069839027710259,-0.00294766505248845,0.0193344838917255
841,-0.0133175458759069,-0.0529131814837456,-0.0233972556889057,-0.00475405110046268,-0.00293627427890897,0.0230022352188826
842,-0.0102925524115562,-0.0481347516179085,-0.0219020675867796,-0.00369583908468485,-0.000893895281478763,0.0253823399543762
843,-0.00566221307963133,-0.0449872277677059,-0.0191686060279608,-0.00302057131193578,0.00173445453401655,0.0255965068936348
844,-0.00135669461451471,-0.0431645885109901,-0.0162938423454762,-0.00225164392031729,0.00240710796788335,0.0227015558630228
845,0.00198286725208163,-0.0428322069346905,-0.0136926341801882,-0.0022422291804105,0.00183364818803966,0.0172284748405218
846,0.00336665799841285,-0.0441362410783768,-0.0131193539127707,-0.00461487006396055,1.71894293998776E-06,0.0101696196943522
847,0.00306369923055172,-0.0452653355896473,-0.0149336038157344,-0.00800340808928013,-0.00265401694923639,0.00402614381164312
848,0.00402649072930217,-0.0449117049574852,-0.0160048808902502,-0.00953325722366571,-0.00232312083244324,0.00120450090616941
849,0.00712406588718295,-0.0443865805864334,-0.0145018771290779,-0.00889167934656143,0.0021145970094949,0.00143776903860271
850,0.00999400019645691,-0.0438450053334236,-0.0118039576336741,-0.00702297268435359,0.0070192557759583,0.00341289723291993
851,0.0104250041767955,-0.0423234850168228,-0.00989130325615406,-0.00464805634692311,0.0095406761392951,0.00531285814940929
852,0.00642630364745855,-0.04190743714571,-0.0104239070788026,-0.00384535570628941,0.00844846479594707,0.00406136317178607
853,-0.00177396717481315,-0.0444834120571613,-0.0130494022741914,-0.00568739324808121,0.00434986734762788,-0.000913763593416661
854,-0.00925526488572359,-0.0473468564450741,-0.0146558424457908,-0.00735011277720332,0.000154784604092129,-0.00530829792842269
855,-0.0120665729045868,-0.0481866337358952,-0.0137396873906255,-0.00689587509259582,-0.00312756933271885,-0.00587903428822756
856,-0.0109959729015827,-0.0485771670937538,-0.011950084939599,-0.00626378925517201,-0.00679577328264713,-0.00420775869861245
857,-0.008075300604105,-0.0500584952533245,-0.0105137033388019,-0.00670265313237906,-0.0103668086230755,-0.00220563728362322
858,-0.00413795467466116,-0.0523925945162773,-0.00864764675498009,-0.00715133361518383,-0.0113753704354167,-0.000130653599626385
859,0.000278862658888102,-0.0545229241251946,-0.00538058532401919,-0.00656421994790435,-0.00913120154291391,0.0018854500958696
860,0.0038167149759829,-0.0550886392593384,-0.0011825046967715,-0.00475883297622204,-0.00597869884222746,0.00407312950119376
861,0.00534249795600772,-0.0537758320569992,0.00288075860589743,-0.00282076024450362,-0.00447690673172474,0.00665148114785552
862,0.0053456206806004,-0.0514543503522873,0.00600142497569323,-0.00257877609692514,-0.00431991880759597,0.00848214793950319
863,0.00487518031150103,-0.0488789789378643,0.00741186318919063,-0.00479894364252687,-0.00375452544540167,0.00737171433866024
864,0.00427839113399386,-0.0457315035164356,0.00746393203735352,-0.00818777829408646,-0.00267764390446246,0.00319723598659039
865,0.00355205102823675,-0.0416315533220768,0.00729667907580733,-0.0108295697718859,-0.00172151625156403,-0.00165707559790462
866,0.00211512274108827,-0.0378209799528122,0.00652677100151777,-0.012587214820087,-0.00124587095342577,-0.0057499697431922
867,0.000374478957382962,-0.0348756946623325,0.00523743685334921,-0.0135447308421135,-0.000880167994182557,-0.00770143186673522
868,-8.62661399878562E-05,-0.0324570909142494,0.00492362165823579,-0.0133233042433858,0.000291889882646501,-0.00668170256540179
869,0.000659216020721942,-0.0316145680844784,0.00552120059728622,-0.0131774861365557,0.00243619130924344,-0.00528232753276825
870,0.00283985584974289,-0.0319024473428726,0.00695675751194358,-0.013400693424046,0.00562336714938283,-0.00533975148573518
871,0.00733594316989183,-0.0311511754989624,0.0098218210041523,-0.0128017170354724,0.00938214547932148,-0.00636636279523373
872,0.0126560926437378,-0.0289844982326031,0.0129705984145403,-0.0116909239441156,0.0122608812525868,-0.00798735301941633
873,0.0176608879119158,-0.0263893809169531,0.0155844613909721,-0.0101409805938601,0.0147381788119674,-0.0085432231426239
874,0.0231139119714499,-0.0238518863916397,0.0185057613998652,-0.00688903219997883,0.0185896977782249,-0.0056429854594171
875,0.0284541808068752,-0.0211982671171427,0.0218454413115978,-0.0020235285628587,0.0233759768307209,0.000242609356064349
876,0.0318706817924976,-0.0190210696309805,0.0243983846157789,0.0022474832367152,0.0275300499051809,0.00566275278106332
877,0.0335470028221607,-0.0177056901156902,0.0258836168795824,0.00472829909995198,0.0309829134494066,0.00907295197248459
878,0.0348030179738998,-0.0163008589297533,0.0271773114800453,0.00608656369149685,0.0340823829174042,0.0115551529452205
879,0.0347576215863228,-0.0149143189191818,0.0279290191829205,0.00644156569615006,0.0352769196033478,0.0138492537662387
880,0.0328308753669262,-0.0141480546444654,0.0273804124444723,0.00583506282418966,0.0330601558089256,0.0172591917216778
881,0.0314874462783337,-0.0136323794722557,0.0262230932712555,0.00509900413453579,0.0289978738874197,0.0222061760723591
882,0.0325090289115906,-0.0135671962052584,0.0254735164344311,0.00490809697657824,0.0253071188926697,0.0260757971554995
883,0.03475271910429,-0.0141411982476711,0.0251221731305122,0.0056221904233098,0.0215574186295271,0.0273181181401014
884,0.0361995585262775,-0.0153930466622114,0.0247088856995106,0.00694090127944946,0.0172677859663963,0.0270383600145578
885,0.0359125770628452,-0.0184642840176821,0.0242217518389225,0.00785358063876629,0.0138680962845683,0.0257032327353954
886,0.034419022500515,-0.023851228877902,0.0237996838986874,0.00768357142806053,0.0120536359027028,0.0226146131753922
887,0.033223282545805,-0.0290835984051228,0.024013688787818,0.00692993216216564,0.0121031114831567,0.0180996656417847
888,0.0338232330977917,-0.0309264864772558,0.0257977843284607,0.00675236340612173,0.0146662117913365,0.0139583814889193
889,0.0358295366168022,-0.0299082472920418,0.0280982796102762,0.00687042204663157,0.0181755758821964,0.0109059177339077
890,0.0372441411018372,-0.0288681928068399,0.0282167382538319,0.00595776829868555,0.020047465339303,0.00866588857024908
891,0.0373644307255745,-0.0283769331872463,0.0261476524174213,0.004473767708987,0.0203349683433771,0.00808975286781788
892,0.0368158556520939,-0.027413098141551,0.0241708736866713,0.00377656845375896,0.0202014800161123,0.0101605970412493
893,0.0355105884373188,-0.0261459946632385,0.0227227732539177,0.00340031320229173,0.019246019423008,0.0139465648680925
894,0.0337883271276951,-0.0247675180435181,0.0213101953268051,0.00268854340538383,0.0169579386711121,0.0176217760890722
895,0.032630879431963,-0.0219054576009512,0.0201189965009689,0.00234151096083224,0.0137742916122079,0.0204040315002203
896,0.0323860161006451,-0.0159228798002005,0.0193715430796146,0.00321998726576567,0.0110797034576535,0.02231365442276
897,0.032818540930748,-0.00723722809925675,0.0192038547247648,0.00531162461265922,0.0101651484146714,0.0234665386378765
898,0.0329047814011574,0.00123133230954409,0.0192348137497902,0.00735124479979277,0.0100107090547681,0.0233957003802061
899,0.0314080342650414,0.00610362365841866,0.0185813251882792,0.00795197673141956,0.00881648436188698,0.0211309492588043
900,0.0286053474992514,0.00683299452066422,0.0173087473958731,0.00725862523540854,0.00698087364435196,0.0168067589402199
901,0.0264011081308126,0.00587785709649324,0.016470106318593,0.00649626646190882,0.00611285073682666,0.0117641827091575
902,0.0264011770486832,0.00511338142678142,0.0161630939692259,0.00635536015033722,0.00636324612423778,0.00749911414459348
903,0.0290583614259958,0.0054176882840693,0.0161375533789396,0.00708773173391819,0.00708445347845554,0.00542009668424726
904,0.0334241203963757,0.00689731445163488,0.016563605517149,0.00810148380696774,0.00819808710366488,0.00497964164242148
905,0.0370985344052315,0.00786425825208426,0.0162717066705227,0.00727304816246033,0.008506472222507,0.00380920409224927
906,0.0381806679069996,0.00643533235415816,0.0138350827619433,0.00348404538817704,0.00693594757467508,0.00124083703849465
907,0.0364967100322247,0.00293753482401371,0.0101309129968286,-0.00114429160021245,0.00493232766166329,-0.00112834922038019
908,0.0325475297868252,-0.00040157962939702,0.00721937837079167,-0.0037004619371146,0.00372254406102002,-0.00225088093429804
909,0.0273045767098665,-0.00248594069853425,0.00622827559709549,-0.00361570389941335,0.00244163675233722,-0.00276934471912682
910,0.0223053842782974,-0.00385677954182029,0.00677837850525975,-0.00183672911953181,0.000290397088974714,-0.00309456326067448
911,0.0183155369013548,-0.00458518182858825,0.00752380350604653,0.000767484656535089,-0.00173383788205683,-0.00263201794587076
912,0.0154108535498381,-0.00426522875204682,0.00803602859377861,0.00362416496500373,-0.00202388409525156,-0.00100574200041592
913,0.0138206426054239,-0.00340167828835547,0.00874182302504778,0.00612555723637342,-0.000970510183833539,0.00110759376548231
914,0.0133801698684692,-0.00359213724732399,0.00951533485203981,0.00769381457939744,-0.000391793349990621,0.00310241593979299
915,0.014246191829443,-0.00551082193851471,0.0106247747316957,0.00880002044141293,0.00033241999335587,0.00588784087449312
916,0.0166743155568838,-0.00790987722575665,0.011889299377799,0.00940028484910727,0.00266785058192909,0.00894119031727314
917,0.0196062531322241,-0.00913431402295828,0.0118676284328103,0.00834384467452765,0.0053559523075819,0.0100497230887413
918,0.0219579562544823,-0.00858063064515591,0.0104323429986835,0.00628328183665872,0.00732484087347984,0.00985831674188375
919,0.0234183333814144,-0.0070857759565115,0.00926059298217297,0.00523145729675889,0.00909728650003672,0.0109243588522077
920,0.0237820819020271,-0.00612562149763107,0.00934953521937132,0.00558671075850725,0.0105311907827854,0.0136783281341195
921,0.0228165928274393,-0.00677697500213981,0.00965173449367285,0.00619949260726571,0.011121578514576,0.0163835249841213
922,0.0203323140740395,-0.00941678788512945,0.00895711872726679,0.00644946843385696,0.0109075494110584,0.0180257484316826
923,0.0171263571828604,-0.0138815147802234,0.00816843472421169,0.00654931366443634,0.0101885031908751,0.0190006643533707
924,0.0144104603677988,-0.0194111149758101,0.00846929661929607,0.00648191757500172,0.00876740738749504,0.0195949878543615
925,0.0126562351360917,-0.0243548601865768,0.00915913190692663,0.00617899186909199,0.00619542086496949,0.0198456421494484
926,0.0121818436309695,-0.0269131064414978,0.00986128114163876,0.00640096748247743,0.00374523550271988,0.0202478021383286
927,0.0116183971986175,-0.0273959785699844,0.0105976136401296,0.00695124408230186,0.00229198345914483,0.0206133425235748
928,0.00907882023602724,-0.0272062234580517,0.0109868766739964,0.00650766165927053,0.000727304548490793,0.0204814132303
929,0.00604419596493244,-0.0257419124245644,0.012003711424768,0.00585093209519982,-0.0008463129051961,0.0215386319905519
930,0.00462907599285245,-0.0227324347943068,0.013888250105083,0.00570002105087042,-0.00153770775068551,0.0243291966617107
931,0.00550865475088358,-0.0193197205662727,0.0160017404705286,0.00540198292583227,-0.000438153918366879,0.0265615154057741
932,0.00918940082192421,-0.0158924143761396,0.0190220102667809,0.00557693373411894,0.00350548117421567,0.0270915906876326
933,0.0142468875274062,-0.012777560390532,0.0226617678999901,0.00654375599697232,0.00910509377717972,0.0265467092394829
934,0.0172787550836802,-0.0105344634503126,0.024913378059864,0.00727879907935858,0.012749258428812,0.0257123894989491
935,0.0169429369270802,-0.00893695838749409,0.0250387750566006,0.00734921032562852,0.0122031969949603,0.0248527526855469
936,0.0148915480822325,-0.00741628743708134,0.0241661891341209,0.00691381981596351,0.00891528092324734,0.0234277509152889
937,0.0132386405020952,-0.00525074265897274,0.0237099938094616,0.00642690854147077,0.00622426299378276,0.0217315796762705
938,0.0128471683710814,-0.00148588966112584,0.0240959320217371,0.00661252252757549,0.00560125336050987,0.0212698597460985
939,0.0121448924764991,0.00286553706973791,0.0239186827093363,0.00672269938513637,0.00471598608419299,0.0216095093637705
940,0.00946050230413675,0.00572778377681971,0.0220185350626707,0.0056087039411068,0.00162818364333361,0.0214646644890308
941,0.00598559202626348,0.00670806132256985,0.0194166880100966,0.0035402171779424,-0.00154929701238871,0.0208250191062689
942,0.00452549709007144,0.00766721088439226,0.0185858383774757,0.00232050032354891,-0.00165435497183353,0.0208611954003572
943,0.00679699331521988,0.0115965371951461,0.0213470254093409,0.00457679340615869,0.00233897170983255,0.0239182040095329
944,0.0109759494662285,0.0183360558003187,0.0261310152709484,0.00998199265450239,0.00825935415923595,0.0300366058945656
945,0.0136150596663356,0.0247291158884764,0.0297153424471617,0.0154102984815836,0.0122622968629003,0.0367023721337318
946,0.0136555517092347,0.0285170208662748,0.0308293681591749,0.0185921955853701,0.0124938236549497,0.0411172099411488
947,0.0119029153138399,0.0285143870860338,0.0297070927917957,0.0187883879989386,0.00963383540511131,0.0410933196544647
948,0.00994456373155117,0.0249962657690048,0.0274633765220642,0.0177517347037792,0.00659871753305197,0.038238137960434
949,0.00907883513718843,0.0201727282255888,0.0257639586925507,0.0184192955493927,0.00588897429406643,0.036686971783638
950,0.00908590760082006,0.0158005356788635,0.025377195328474,0.0211393684148788,0.00669069262221456,0.0374858118593693
951,0.00982341635972261,0.0120328590273857,0.0261752344667912,0.0243110004812479,0.0082938214763999,0.0384044647216797
952,0.0115741137415171,0.00872658938169479,0.0275201834738255,0.0268770027905703,0.0109825981780887,0.0378158241510391
953,0.0140173025429249,0.00622948305681348,0.0285302698612213,0.0287232082337141,0.014234509319067,0.0366165265440941
954,0.0171265639364719,0.00493435235694051,0.0291927997022867,0.0301684662699699,0.0183052346110344,0.0369347333908081
955,0.0198679007589817,0.00363289006054401,0.0290121473371983,0.0304060745984316,0.021723460406065,0.0380512028932571
956,0.0198298431932926,0.000714638328645378,0.0268979761749506,0.0282299797981977,0.0205748565495014,0.0368071906268597
957,0.0168877318501472,-0.00304022501222789,0.0235964953899384,0.0247269868850708,0.0146145708858967,0.0328717119991779
958,0.0133573617786169,-0.00576054630801082,0.0204265993088484,0.0224326066672802,0.00740232178941369,0.0292023792862892
959,0.0106648979708552,-0.0069883125834167,0.0176928602159023,0.0219874121248722,0.0018409927142784,0.0280989240854979
960,0.00890355836600065,-0.00791536364704371,0.0154620166867971,0.021646736189723,-0.000900418846867979,0.0291792005300522
961,0.0083256559446454,-0.00957534462213516,0.0144382352009416,0.0205294862389565,-0.00109110469929874,0.0307931564748287
962,0.00891035422682762,-0.0118831777945161,0.0153362657874823,0.0194915160536766,0.000107216343167238,0.0312410928308964
963,0.0104117589071393,-0.0141187142580748,0.0176300592720509,0.0191885139793158,0.00198183790780604,0.029527198523283
964,0.0125864623114467,-0.0151286721229553,0.0201824586838484,0.0196690279990435,0.00441622734069824,0.0265145301818848
965,0.0141364242881536,-0.0149046294391155,0.0217248611152172,0.0197989139705896,0.00695279706269503,0.0229135602712631
966,0.0139702828601003,-0.014818387106061,0.0212880112230778,0.0180714540183544,0.0090086180716753,0.0187322366982698
967,0.0127891590818763,-0.0151674095541239,0.0191787481307983,0.0151329524815083,0.0103537952527404,0.0156607590615749
968,0.0114356447011232,-0.0155154159292579,0.0164221152663231,0.0123901935294271,0.0111176269128919,0.0148764550685883
969,0.00962257571518421,-0.0160261988639832,0.013407351449132,0.0101370234042406,0.0112039353698492,0.0154325775802135
970,0.00735481362789869,-0.0165236368775368,0.00986117403954268,0.00848342943936586,0.0102135920897126,0.0167046412825584
971,0.00592908682301641,-0.016015462577343,0.00638368772342801,0.00810008496046066,0.0093142818659544,0.019047474488616
972,0.00563852721825242,-0.0145813971757889,0.00409745145589113,0.00900537800043821,0.0102698439732194,0.0215007960796356
