,AF3,AF4,Fp1,Fp2,AF7,AF8
0,-0.0299835205078125,0.0154755786061287,-0.0411422438919544,-0.0276119615882635,-0.0628746002912521,-0.0627302974462509
1,-0.031336322426796,0.0210795663297176,-0.0441768765449524,-0.0362981855869293,-0.0636430159211159,-0.0639822110533714
2,-0.0311558227986097,0.0216384008526802,-0.0464054048061371,-0.0442983880639076,-0.0640375912189484,-0.0724746435880661
3,-0.0304282922297716,0.0203401297330856,-0.0475783199071884,-0.0499654151499271,-0.0647688806056976,-0.0804450288414955
4,-0.0306199919432402,0.0189023949205875,-0.0479782000184059,-0.0535136125981808,-0.065759114921093,-0.0825728848576546
5,-0.0314927510917187,0.017026137560606,-0.0479134619235992,-0.0558460764586926,-0.0664331987500191,-0.0803930684924126
6,-0.031297329813242,0.0143732195720077,-0.0481248088181019,-0.0573934987187386,-0.0671507194638252,-0.0787127688527107
7,-0.0288101322948933,0.0113680269569159,-0.0484496876597404,-0.0577572695910931,-0.0682614371180534,-0.079568900167942
8,-0.0246452745050192,0.00941187143325806,-0.0475471317768097,-0.0559661909937859,-0.0688923224806786,-0.0793386474251747
9,-0.0210682284086943,0.00953564140945673,-0.0452859476208687,-0.0521780177950859,-0.0683316290378571,-0.0741068050265312
10,-0.0198248587548733,0.0121033303439617,-0.0430459678173065,-0.0478325560688972,-0.0668315514922142,-0.0650366172194481
11,-0.0210894141346216,0.0165554489940405,-0.0424887277185917,-0.045620322227478,-0.0652257725596428,-0.0581081323325634
12,-0.0244972128421068,0.0216202344745398,-0.0446522459387779,-0.0481532029807568,-0.0651104748249054,-0.0566117689013481
13,-0.0279011894017458,0.0276957042515278,-0.0474562235176563,-0.0531280413269997,-0.066404327750206,-0.0544771738350391
14,-0.0285468120127916,0.0342647396028042,-0.0479671880602837,-0.0557996928691864,-0.0669376105070114,-0.0468506850302219
15,-0.0272620283067226,0.0375877469778061,-0.0479479320347309,-0.0555564127862453,-0.0674989446997643,-0.0410774983465672
16,-0.0253614131361246,0.0359506420791149,-0.0491986200213432,-0.0536366105079651,-0.06891168653965,-0.0458639450371265
17,-0.0208346229046583,0.0305026657879353,-0.0493423715233803,-0.0507206246256828,-0.0684967041015625,-0.0588030628859997
18,-0.0129703236743808,0.0224421471357346,-0.048365980386734,-0.0484054982662201,-0.066409595310688,-0.0714292302727699
19,-0.00629827659577131,0.0144936768338084,-0.0493443794548512,-0.0464193113148212,-0.0667735114693642,-0.0775146558880806
20,-0.00561529165133834,0.00846149679273367,-0.0516014583408833,-0.0427439026534557,-0.0698840692639351,-0.0752554088830948
21,-0.00975206028670073,0.00371282827109098,-0.0507012195885181,-0.037865225225687,-0.0694585591554642,-0.0680569484829903
22,-0.0142373517155647,-0.000201445232960396,-0.0448516346514225,-0.0340622179210186,-0.0618635937571526,-0.062356099486351
23,-0.0173801984637976,-0.00404611090198159,-0.0377539619803429,-0.0327790416777134,-0.0517435669898987,-0.0609511248767376
24,-0.0204539149999619,-0.00785043463110924,-0.034359235316515,-0.0340895988047123,-0.0450618974864483,-0.0624355114996433
25,-0.0223925989121199,-0.00833155587315559,-0.034345455467701,-0.0352546237409115,-0.0424050539731979,-0.065893791615963
26,-0.0199745781719685,-0.00322093884460628,-0.0334540344774723,-0.0327583327889442,-0.0411709398031235,-0.069175973534584
27,-0.0134139666333795,0.00279823830351233,-0.0298686865717173,-0.0282788500189781,-0.0397633165121078,-0.0694318115711212
28,-0.00469813169911504,0.00351402163505554,-0.0238208193331957,-0.025422140955925,-0.0366169214248657,-0.0658344775438309
29,0.00425455346703529,-0.00169729965273291,-0.017044810578227,-0.0242985617369413,-0.0313418954610825,-0.0583416298031807
30,0.0108010349795222,-0.00948175229132175,-0.012982907705009,-0.0240579377859831,-0.0264991912990808,-0.0505216158926487
31,0.0122816013172269,-0.015451549552381,-0.0140402652323246,-0.025427233427763,-0.0258652567863464,-0.0492064878344536
32,0.0068023088388145,-0.0166594050824642,-0.0201229676604271,-0.0297036021947861,-0.0315056927502155,-0.056296531111002
33,-0.00338153657503426,-0.0144073022529483,-0.027165999636054,-0.0362454243004322,-0.0402928665280342,-0.0669926404953003
34,-0.0133536383509636,-0.0125120431184769,-0.0303266160190105,-0.0428827181458473,-0.0467692166566849,-0.075861930847168
35,-0.0208975188434124,-0.0122205866500735,-0.0296070650219917,-0.0474405102431774,-0.0491839945316315,-0.0789879634976387
36,-0.0263742711395025,-0.0111554935574532,-0.0281199123710394,-0.0484161116182804,-0.0494545251131058,-0.074295736849308
37,-0.0285033937543631,-0.00838473346084356,-0.0277304071933031,-0.0464727133512497,-0.0493707433342934,-0.0658639743924141
38,-0.0248390063643456,-0.00718598626554012,-0.0290965754538774,-0.0437562800943851,-0.0491085387766361,-0.0613421201705933
39,-0.0193415097892284,-0.00951436813920736,-0.0325455889105797,-0.0421905890107155,-0.0489199720323086,-0.0625140517950058
40,-0.0201228708028793,-0.010786441154778,-0.0373430028557777,-0.0428947620093822,-0.0503199547529221,-0.063216358423233
41,-0.0281329415738583,-0.00558116426691413,-0.0408478863537312,-0.0454871654510498,-0.054171334952116,-0.0581326261162758
42,-0.0389884002506733,0.0031167040579021,-0.0411847494542599,-0.0491708777844906,-0.0597431771457195,-0.0518843121826649
43,-0.0490309298038483,0.00810268148779869,-0.0397034958004951,-0.0531875528395176,-0.0646528974175453,-0.0516431108117104
44,-0.0540395900607109,0.00920808594673872,-0.0366847552359104,-0.0544214211404324,-0.0641250759363174,-0.0540114007890224
45,-0.0525754913687706,0.0112117547541857,-0.0312577150762081,-0.0500464774668217,-0.0568617843091488,-0.0514077991247177
46,-0.0479121282696724,0.0144774448126554,-0.0258355885744095,-0.0424788668751717,-0.0486817322671413,-0.0449265502393246
47,-0.0427357479929924,0.0153999105095863,-0.0234263949096203,-0.0365968309342861,-0.0448403470218182,-0.0406856127083302
48,-0.0379419736564159,0.0117258606478572,-0.0239213667809963,-0.0348161235451698,-0.0448767505586147,-0.0416043885052204
49,-0.0343763120472431,0.00496922992169857,-0.0253743194043636,-0.0360045954585075,-0.0459738709032536,-0.0466950386762619
50,-0.031895387917757,-0.00126894051209092,-0.0267793405801058,-0.037533987313509,-0.0466179549694061,-0.0528506226837635
51,-0.0294923968613148,-0.00630728388205171,-0.02908038161695,-0.0398900210857391,-0.046763326972723,-0.0583712421357632
52,-0.0271662920713425,-0.0124140018597245,-0.0318492986261845,-0.0452128984034061,-0.0460914894938469,-0.0633725598454475
53,-0.0255111753940582,-0.0194690711796284,-0.0320813022553921,-0.0511364340782166,-0.04452720656991,-0.0657903924584389
54,-0.0251395683735609,-0.0237277932465076,-0.0295082200318575,-0.0530891790986061,-0.0443836450576782,-0.0624052248895168
55,-0.0259947068989277,-0.0227940920740366,-0.0271392446011305,-0.0503586828708649,-0.04686214402318,-0.0549948960542679
56,-0.0254048891365528,-0.0195269770920277,-0.0252686906605959,-0.0450787059962749,-0.0488072820007801,-0.0501465238630772
57,-0.0204440671950579,-0.0177171230316162,-0.0215590856969357,-0.0386182181537151,-0.0472460724413395,-0.051204651594162
58,-0.0122437281534076,-0.0179807581007481,-0.0161825679242611,-0.0325538665056229,-0.0433472469449043,-0.0557949654757977
59,-0.00442750146612525,-0.0196920894086361,-0.0115971527993679,-0.0294538587331772,-0.0390453152358532,-0.0601267255842686
60,0.000490739941596985,-0.0203258153051138,-0.0100320875644684,-0.030490817502141,-0.0350783616304398,-0.0613365843892097
61,0.000747967744246125,-0.0167687200009823,-0.0128317642956972,-0.0339388661086559,-0.0350836664438248,-0.0570395141839981
62,-0.0036776012275368,-0.0131355673074722,-0.0190295334905386,-0.0370279178023338,-0.0417603738605976,-0.0486169457435608
63,-0.00884915981441736,-0.0158993247896433,-0.0258541461080313,-0.0392224006354809,-0.050601989030838,-0.0436749197542667
64,-0.0106712179258466,-0.0220154859125614,-0.0307116247713566,-0.0413792878389359,-0.0548388808965683,-0.047392874956131
65,-0.00941252149641514,-0.0247494596987963,-0.0318822152912617,-0.0425335727632046,-0.0526504889130592,-0.0543611533939838
66,-0.00708242179825902,-0.0211180672049522,-0.0295979529619217,-0.0409697070717812,-0.0481890439987183,-0.056235995143652
67,-0.00352541450411081,-0.0109326783567667,-0.0279777366667986,-0.039837583899498,-0.0479608289897442,-0.0561839044094086
68,-9.88853425951675E-05,0.00173932162579149,-0.0312449652701616,-0.0443579517304897,-0.0544177107512951,-0.0619965419173241
69,-0.00139310606755316,0.00920173339545727,-0.0356411710381508,-0.0511868707835674,-0.0599313415586948,-0.0684207156300545
70,-0.00794516131281853,0.00722401402890682,-0.033317182213068,-0.0521294474601746,-0.0540225245058537,-0.0644944086670876
71,-0.0159398708492517,-0.000981840421445668,-0.0235003661364317,-0.0465458296239376,-0.0385843329131603,-0.0494966916739941
72,-0.0219993125647306,-0.0113284885883331,-0.0112840905785561,-0.0395499691367149,-0.023733451962471,-0.0325053483247757
73,-0.0240944586694241,-0.0221240930259228,-7.99701811047271E-05,-0.0332127995789051,-0.0138869117945433,-0.0220951270312071
74,-0.0231425072997808,-0.0309474505484104,0.00773465074598789,-0.0278036091476679,-0.00970317423343658,-0.0199762769043446
75,-0.0216113850474358,-0.0363654904067516,0.00894582457840443,-0.025916576385498,-0.0127971600741148,-0.0242870580404997
76,-0.0192696526646614,-0.0372299291193485,0.00471469387412071,-0.0274974126368761,-0.0208632871508598,-0.0299754925072193
77,-0.0135405315086246,-0.0308084785938263,0.00113090360537171,-0.0281230974942446,-0.0269156750291586,-0.0302974451333284
78,-0.00486942240968347,-0.018273925408721,-0.000204666474019177,-0.0277649816125631,-0.028839685022831,-0.0247835293412209
79,0.00140109984204173,-0.0058885789476335,-0.00478240381926298,-0.0319166667759418,-0.0327266901731491,-0.0180272161960602
80,0.00113653694279492,0.000885016866959631,-0.0156362429261208,-0.0415336564183235,-0.0430607609450817,-0.0119843985885382
81,-0.00419976795092225,0.00185685569886118,-0.0275970585644245,-0.049195546656847,-0.0562729202210903,-0.00669168727472425
82,-0.00974697526544333,0.00433301040902734,-0.0322478972375393,-0.0461971424520016,-0.0647265464067459,-0.00333989365026355
83,-0.00987865403294563,0.0147796394303441,-0.025674894452095,-0.0317511260509491,-0.0627213567495346,-0.0015885621542111
84,-0.00168643961660564,0.0278082937002182,-0.0114066125825047,-0.0145509010180831,-0.0494593754410744,-0.00196110736578703
85,0.0121725825592875,0.0337860584259033,0.00405820179730654,-0.00295007135719061,-0.0294476542621851,-0.00734788551926613
86,0.0250622946768999,0.0309906248003244,0.0159256625920534,0.00211955211125314,-0.0114561822265387,-0.0167496874928474
87,0.0324425622820854,0.0251313857734203,0.0217742267996073,0.00403767358511686,-0.00222521228715777,-0.0260948240756989
88,0.0335469953715801,0.0206921268254519,0.0209084469825029,0.00476680276915431,-0.00172316655516624,-0.0349456369876862
89,0.0296859070658684,0.0176879912614822,0.0153669901192188,0.00350043177604675,-0.00589936133474112,-0.0430459342896938
90,0.0236788354814053,0.0160163342952728,0.00835918262600899,-0.00212180544622242,-0.0116342585533857,-0.0474010892212391
91,0.0162533316761255,0.0161251705139875,0.000964543374720961,-0.0133283622562885,-0.0188029706478119,-0.0449700057506561
92,0.00831940025091171,0.0164874158799648,-0.00523913325741887,-0.0258507877588272,-0.0257522016763687,-0.0349999442696571
93,0.00319125363603234,0.0133459344506264,-0.00744068715721369,-0.0320904217660427,-0.0283565167337656,-0.021782984957099
94,0.00274041341617703,0.00611239345744252,-0.004899678286165,-0.028385479003191,-0.0250751152634621,-0.0103179700672627
95,0.00568676274269819,-0.000438490329543129,0.000381920137442648,-0.0187037736177444,-0.0182940177619457,-0.00374296051450074
96,0.0090551907196641,-0.00319823785685003,0.00550954602658749,-0.00997907016426325,-0.011684606783092,-0.00436329003423452
97,0.0117457797750831,-0.0044111842289567,0.00720252050086856,-0.00712461769580841,-0.0076115895062685,-0.0129584930837154
98,0.0138836754485965,-0.00558256404474378,0.00370331713929772,-0.00980240106582642,-0.00693158293142915,-0.025362865999341
99,0.0133521622046828,-0.00530953146517277,-0.00320166628807783,-0.0131818698719144,-0.0109234768897295,-0.0343921855092049
100,0.00942362286150455,-0.0043632541783154,-0.010255491361022,-0.0148996692150831,-0.0182145852595568,-0.0375526435673237
101,0.00459094671532512,-0.00440275529399514,-0.0154037652537227,-0.0149834444746375,-0.0245950724929571,-0.0346851535141468
102,-0.000273333076620474,-0.00461932783946395,-0.0185737200081348,-0.012821264564991,-0.0300136879086494,-0.0272133219987154
103,-0.0071363328024745,-0.00283514801412821,-0.0198546592146158,-0.00983745977282524,-0.0375242047011852,-0.0232571046799421
104,-0.0166582837700844,0.00597601942718029,-0.0206920709460974,-0.0102509586140513,-0.0489304102957249,-0.0289966706186533
105,-0.0264274775981903,0.0219918675720692,-0.0248578898608685,-0.0150476936250925,-0.0627875104546547,-0.0373477935791016
106,-0.036446675658226,0.0326408818364143,-0.0326835364103317,-0.02025106549263,-0.0734453424811363,-0.0387310050427914
107,-0.0478160716593266,0.0313648469746113,-0.0384633131325245,-0.0215049181133509,-0.0754741579294205,-0.0343289487063885
108,-0.0566250421106815,0.0247771181166172,-0.0354069955646992,-0.0155423134565353,-0.0681184679269791,-0.0303215030580759
109,-0.0568569153547287,0.0152444094419479,-0.0219406168907881,-0.00555226998403668,-0.0529885292053223,-0.0310765691101551
110,-0.0470732040703297,0.00142933649476618,-0.00419318582862616,-0.000258852931438014,-0.0333073437213898,-0.0371742658317089
111,-0.0340324752032757,-0.011945117264986,0.00904456991702318,-0.00120442640036345,-0.0167622044682503,-0.0427384711802006
112,-0.0252999793738127,-0.018763842061162,0.0136015191674232,-0.00431957840919495,-0.00979695655405521,-0.0431408137083054
113,-0.0217165555804968,-0.0185810290277004,0.0111456466838717,-0.00849764235317707,-0.0113568911328912,-0.042136300355196
114,-0.0211972892284393,-0.0147185586392879,0.00547255575656891,-0.0136979641392827,-0.016381474211812,-0.0439072251319885
115,-0.0229884795844555,-0.0104599194601178,-0.000681156816426665,-0.018237816169858,-0.0210921354591846,-0.0465729534626007
116,-0.0255608148872852,-0.00673895888030529,-0.00472521688789129,-0.0193554721772671,-0.0228911433368921,-0.0457210429012775
117,-0.0274246614426374,-0.00215959618799388,-0.0064583676867187,-0.0168511141091585,-0.0227417331188917,-0.0399805754423141
118,-0.0314907357096672,0.00329602230340242,-0.0111679621040821,-0.0157404374331236,-0.0276437662541866,-0.0345209576189518
119,-0.0397500470280647,0.00850675720721483,-0.0217446330934763,-0.0195834841579199,-0.0409537777304649,-0.0346705876290798
120,-0.0469407215714455,0.0134441154077649,-0.0328434370458126,-0.0249719861894846,-0.0560180731117725,-0.038107618689537
121,-0.046287264674902,0.0182434376329184,-0.0372571125626564,-0.0269329566508532,-0.063466764986515,-0.0417511612176895
122,-0.0386387072503567,0.0218691285699606,-0.0327123403549194,-0.0241720266640186,-0.0597535222768784,-0.0448000095784664
123,-0.031391728669405,0.0215911008417606,-0.0227528214454651,-0.0201938915997744,-0.048564612865448,-0.0452312119305134
124,-0.030489968135953,0.0159866958856583,-0.0140332859009504,-0.0207275152206421,-0.0372401066124439,-0.0444448739290237
125,-0.0347238555550575,0.010221648029983,-0.010972622781992,-0.0270910449326038,-0.0317463055253029,-0.0460722520947456
126,-0.0399658344686031,0.0111125819385052,-0.0140388729050756,-0.0367786400020123,-0.0346528291702271,-0.0515659525990486
127,-0.0443108752369881,0.0181913338601589,-0.0210230443626642,-0.0459720566868782,-0.0439134314656258,-0.061428964138031
128,-0.0428350418806076,0.0251877829432487,-0.0274426843971014,-0.0505077727138996,-0.0524515397846699,-0.0724989995360374
129,-0.0343746691942215,0.0267207808792591,-0.0308798272162676,-0.049320962280035,-0.0560516528785229,-0.0771197378635406
130,-0.0273193456232548,0.024877242743969,-0.0339005142450333,-0.0436534993350506,-0.0567120984196663,-0.0699865221977234
131,-0.0289470329880714,0.0251087639480829,-0.0396110489964485,-0.0384011715650558,-0.057740144431591,-0.0563123859465122
132,-0.0422123968601227,0.0284350421279669,-0.0462882295250893,-0.038784597069025,-0.0619749128818512,-0.047358475625515
133,-0.061846736818552,0.0345213562250137,-0.047605961561203,-0.0400686003267765,-0.0672759637236595,-0.0451272763311863
134,-0.0765027925372124,0.0387416444718838,-0.0398870036005974,-0.0337926708161831,-0.0678737163543701,-0.0425702184438705
135,-0.0810707807540894,0.0342180244624615,-0.0268981475383043,-0.0200702734291554,-0.0619462616741657,-0.0355957671999931
136,-0.0764644145965576,0.0275141689926386,-0.0132439592853189,-0.00535524450242519,-0.0494422391057014,-0.0265667680650949
137,-0.0674561783671379,0.0306372679769993,-0.00213070958852768,0.0027636312879622,-0.0335161052644253,-0.0221265498548746
138,-0.0578011088073254,0.0422828979790211,0.00276775844395161,0.00037612093728967,-0.0214738436043262,-0.0280086733400822
139,-0.0449522398412228,0.0505688413977623,0.00232639280147851,-0.00789212249219418,-0.0165507774800062,-0.0426241718232632
140,-0.0307861808687449,0.0466130636632442,0.00166098051704466,-0.0132339280098677,-0.0165951605886221,-0.0574350096285343
141,-0.0227891113609076,0.0330263786017895,0.00448723277077079,-0.0100360931828618,-0.0179988332092762,-0.0635375082492828
142,-0.0236542299389839,0.018347704783082,0.008668078109622,-0.000273053592536598,-0.0198674369603395,-0.056901004165411
143,-0.031335961073637,0.00847431737929583,0.00853060744702816,0.00782052520662546,-0.0240955427289009,-0.0417168326675892
144,-0.0423044115304947,0.0061164959333837,0.00293720769695938,0.00790508650243282,-0.0304482094943523,-0.0291159395128489
145,-0.0527944229543209,0.00991914235055447,-0.00426420290023088,7.55033324821852E-05,-0.0362917967140675,-0.0288509782403708
146,-0.0587577074766159,0.0142471473664045,-0.00857075862586498,-0.0103053860366344,-0.038294218480587,-0.04051323980093
147,-0.0580602400004864,0.0148701341822743,-0.0085569666698575,-0.0178310740739107,-0.0353522934019566,-0.0535744652152061
148,-0.0529927685856819,0.013037015683949,-0.00734395906329155,-0.0220571160316467,-0.0308118350803852,-0.0617267154157162
149,-0.0460705384612083,0.0137914391234517,-0.00738991936668754,-0.0243871510028839,-0.0282316133379936,-0.0671592727303505
150,-0.0378595255315304,0.0190541855990887,-0.00819279439747334,-0.0246262848377228,-0.0287159346044064,-0.0697125643491745
151,-0.030146449804306,0.0234732013195753,-0.00939248874783516,-0.0226231571286917,-0.0310453902930021,-0.0663216635584831
152,-0.0256384089589119,0.0222270265221596,-0.0109512535855174,-0.0179894026368856,-0.0330267027020454,-0.0566470287740231
153,-0.0246561318635941,0.017658855766058,-0.0120581993833184,-0.0100139165297151,-0.034374788403511,-0.0447930060327053
154,-0.0238541681319475,0.0147018870338798,-0.0118330009281635,-0.00156158849131316,-0.0350247994065285,-0.0367989912629128
155,-0.0197334159165621,0.0139233125373721,-0.00936975330114365,0.00233504828065634,-0.0328821539878845,-0.0378145650029182
156,-0.0133918132632971,0.0109877604991198,-0.00407252181321383,0.000951805850490928,-0.0275246389210224,-0.0490838624536991
157,-0.00887850765138865,0.00288907345384359,0.00138773140497506,-0.00253254338167608,-0.0229977872222662,-0.0655708909034729
158,-0.0085508581250906,-0.00856054667383432,0.00304004899226129,-0.00726921437308192,-0.0231951139867306,-0.0819022580981255
159,-0.0119169242680073,-0.01926932297647,0.000317991973133758,-0.0157859120517969,-0.0277255699038506,-0.0967513099312782
160,-0.0165317188948393,-0.0249404776841402,-0.00429817894473672,-0.0263623036444187,-0.0331930592656136,-0.106377862393856
161,-0.0200828146189451,-0.0238773617893457,-0.0070002912543714,-0.0314873494207859,-0.0360089205205441,-0.104030221700668
162,-0.0218943767249584,-0.0198100209236145,-0.00512479804456234,-0.0274255480617285,-0.0342638567090034,-0.0902885124087334
163,-0.0221563261002302,-0.0180363971740007,0.000106599203718361,-0.0175799131393433,-0.0280404482036829,-0.0731161758303642
164,-0.0207371134310961,-0.0166392643004656,0.00440794881433249,-0.00737973675131798,-0.020742567256093,-0.0591061562299728
165,-0.0168826580047607,-0.00814990885555744,0.00477707991376519,-0.00116411817725748,-0.0167832691222429,-0.0505681484937668
166,-0.0096466988325119,0.00599085073918104,0.00249321549199522,-0.000195598928257823,-0.0157915391027927,-0.0452332124114037
167,0.00182208721525967,0.0151385655626655,-0.000239253669860773,-0.00243421690538526,-0.0159870106726885,-0.0402064919471741
168,0.0152106517925859,0.0130780972540379,-0.00438233138993382,-0.00609719008207321,-0.0188228283077478,-0.0384160503745079
169,0.0225624218583107,0.00271834223531187,-0.010428105480969,-0.0105342539027333,-0.0228873807936907,-0.0440100282430649
170,0.0181229878216982,-0.00601971382275224,-0.0135381370782852,-0.012261101976037,-0.0226256232708693,-0.0545626245439053
171,0.00713610742241144,-0.00344788329675794,-0.00736680021509528,-0.0059706000611186,-0.0177908819168806,-0.0625356435775757
172,-0.000721586402505636,0.0079178037121892,0.00731703825294971,0.00580371683463454,-0.0144042819738388,-0.0621398389339447
173,-0.00444458890706301,0.0149685423821211,0.0212689992040396,0.012572018429637,-0.014940763823688,-0.0545059181749821
174,-0.00959734432399273,0.0110187968239188,0.02550158649683,0.00761681376025081,-0.0166513472795486,-0.0463520437479019
175,-0.0162182729691267,0.00245616026222706,0.0192660056054592,-0.00531523814424872,-0.0186716057360172,-0.0410741567611694
176,-0.0184297524392605,-0.00464356783777475,0.00965725537389517,-0.0166915934532881,-0.0202973578125238,-0.0360480546951294
177,-0.013977431692183,-0.0102917142212391,0.00392696633934975,-0.0217474047094584,-0.0177639406174421,-0.0306413155049086
178,-0.00784194841980934,-0.0129680801182985,0.00276746950112283,-0.0222843363881111,-0.0119186453521252,-0.0275657121092081
179,-0.00632683234289289,-0.0110203074291348,0.00310721574351192,-0.0198232643306255,-0.00897339638322592,-0.0296142492443323
180,-0.00994659587740898,-0.00480691622942686,0.00389374932274222,-0.013988190330565,-0.011082811281085,-0.0360789522528648
181,-0.0136515032500029,0.00284697208553553,0.00540041457861662,-0.00714932708069682,-0.0148156182840467,-0.0425777770578861
182,-0.0134220970794559,0.00558672193437815,0.00642599351704121,-0.00402419315651059,-0.0172464773058891,-0.0470589771866798
183,-0.00951580982655287,0.000854734098538756,0.00586235802620649,-0.0056128017604351,-0.0181590728461742,-0.0494028851389885
184,-0.00388132850639522,-0.00734351575374603,0.00476216617971659,-0.00743779493495822,-0.0178474318236113,-0.0479555651545525
185,0.00240987539291382,-0.0144358240067959,0.005120690446347,-0.00460226973518729,-0.0159702301025391,-0.0423312410712242
186,0.00857123546302319,-0.0194201432168484,0.00808517821133137,0.00232117273844779,-0.0116531662642956,-0.0354159958660603
187,0.0128700826317072,-0.0247688964009285,0.0119246728718281,0.00753056677058339,-0.0052541084587574,-0.0318082123994827
188,0.01499701756984,-0.0321565233170986,0.0127252684906125,0.00645945826545358,0.000424355588620529,-0.0333194620907307
189,0.0172057170420885,-0.0383581221103668,0.00965652521699667,0.00146981922443956,0.00296828499995172,-0.0330408960580826
190,0.0207316800951958,-0.0389828830957413,0.00583868380635977,-0.00159705046098679,0.00247334362939,-0.0224231015890837
191,0.0254143681377172,-0.0341400764882565,0.00432414514943957,0.000308017042698339,0.00111224199645221,-0.00373942335136235
192,0.0314952097833157,-0.0252349004149437,0.00565468380227685,0.00599993718788028,0.00145978236105293,0.0112647730857134
193,0.0376614406704903,-0.0138027388602495,0.00813361536711454,0.0108831003308296,0.00366173568181694,0.0117244618013501
194,0.0404131598770618,-0.006173734087497,0.00981420837342739,0.0110975904390216,0.00500913476571441,-0.00259989313781261
195,0.0388681218028069,-0.00666115246713161,0.00960726197808981,0.00721753342077136,0.00373732228763402,-0.020760964602232
196,0.0366386771202087,-0.0108007751405239,0.00823096837848425,0.00290464470162988,0.00240204925648868,-0.0321597829461098
197,0.0362737886607647,-0.0133114131167531,0.00719919707626104,0.000519219785928726,0.0039568436332047,-0.0367596074938774
198,0.0371656231582165,-0.0128037696704268,0.00617900211364031,-0.000869289448019117,0.00685199536383152,-0.0394757352769375
199,0.0385533384978771,-0.00962906237691641,0.00379768502898514,-0.00315381842665374,0.0076822810806334,-0.0406149253249168
200,0.03941735252738,-0.00597876403480768,-0.000902895350009203,-0.00685878889635205,0.00380735890939832,-0.0376170054078102
201,0.038039792329073,-0.00425422796979547,-0.00709608104079962,-0.00984467845410109,-0.00491219293326139,-0.0302057359367609
202,0.0345375873148441,-0.00265762745402753,-0.0105483094230294,-0.00802221614867449,-0.0139378188177943,-0.0202440582215786
203,0.0297993123531342,0.00177508126944304,-0.00874111708253622,-0.0014230819651857,-0.0191363766789436,-0.0104032810777426
204,0.0245413146913052,0.00779619300737977,-0.00399729516357183,0.00448680203408003,-0.0198748540133238,-0.00462223729118705
205,0.0214488375931978,0.0120543744415045,0.00204068841412663,0.00710896542295814,-0.0164716131985188,-0.00426767766475677
206,0.0222225748002529,0.0116157289594412,0.00959747470915318,0.00894585531204939,-0.0105204433202744,-0.00509037403389812
207,0.0255687013268471,0.0063992952927947,0.017990717664361,0.0122654000297189,-0.00374603061936796,-0.00281311967410147
208,0.0308455675840378,0.000707353814505041,0.0251478087157011,0.0166481137275696,0.00296321953646839,0.00233380077406764
209,0.0374115891754627,-0.002041005063802,0.0281063187867403,0.0197566952556372,0.00757150258868933,0.00719428109005094
210,0.0416888855397701,-0.00409081764519215,0.0260409694164991,0.0198724325746298,0.00880265887826681,0.00818660389631987
211,0.0416265986859798,-0.00861838273704052,0.022349564358592,0.0184455197304487,0.00829873513430357,0.00565124815329909
212,0.039630513638258,-0.0139061789959669,0.0208939928561449,0.0181237924844027,0.00829078443348408,0.0039005798753351
213,0.0381851010024548,-0.015672629699111,0.0227906107902527,0.0195319261401892,0.010623068548739,0.00453755026683211
214,0.0369722843170166,-0.0130932731553912,0.0266352891921997,0.0220984686166048,0.0154110314324498,0.00709232874214649
215,0.0357559472322464,-0.00876244902610779,0.030368497595191,0.0255944821983576,0.0208052974194288,0.0133640225976706
216,0.0352512076497078,-0.00316831190139055,0.0330416075885296,0.0295750088989735,0.0252913236618042,0.0226030796766281
217,0.0349907837808132,0.00455281464383006,0.0348867774009705,0.0324988253414631,0.0287290960550308,0.0287772603332996
218,0.0341221578419209,0.0123639414086938,0.035981547087431,0.0319214724004269,0.0315402969717979,0.0290238615125418
219,0.0317636020481586,0.0169172678142786,0.035074345767498,0.026906268671155,0.0322318114340305,0.0267972145229578
220,0.0283975247293711,0.0157032590359449,0.031829621642828,0.019059207290411,0.0295107569545507,0.0239045787602663
221,0.0255187377333641,0.0087991114705801,0.0271322261542082,0.00994461495429277,0.0242864694446325,0.0184664558619261
222,0.0240732375532389,0.00147554825525731,0.0224405210465193,0.0017410326981917,0.0187999401241541,0.010894451290369
223,0.0249034110456705,-0.00128433993086219,0.0204886272549629,-0.00184627959970385,0.0165226254612207,0.0050102137029171
224,0.0268362108618021,-0.000391289009712636,0.0222375746816397,0.000993621768429875,0.0181797184050083,0.00532817980274558
225,0.0282635241746902,0.00208933954127133,0.0263933129608631,0.00919599831104279,0.0211152955889702,0.0139588722959161
226,0.0292663518339396,0.00503258220851421,0.0310061052441597,0.0190171226859093,0.0233936533331871,0.0259474329650402
227,0.0294165275990963,0.00597356120124459,0.0332570113241673,0.0252630915492773,0.024443045258522,0.0327496007084847
228,0.0282435044646263,0.00394175481051207,0.0317067839205265,0.0259927455335855,0.0241412725299597,0.0325349010527134
229,0.0260936729609966,0.00108509475830942,0.0274444539099932,0.0235040877014399,0.0220273043960333,0.0305156409740448
230,0.0229257233440876,-0.00167480972595513,0.0228400900959969,0.0213892292231321,0.0184848997741938,0.0310103502124548
231,0.0188906881958246,-0.00368588697165251,0.0202318746596575,0.0218067187815905,0.0161675252020359,0.0335684791207314
232,0.0139758307486773,-0.000916148477699608,0.0182599648833275,0.0222416631877422,0.0152416555210948,0.0338876470923424
233,0.00864656455814838,0.00818196404725313,0.0135780042037368,0.0187883134931326,0.0121344439685345,0.0305375661700964
234,0.00654165772721171,0.0185651853680611,0.00828390754759312,0.0130332158878446,0.0075338645838201,0.0278444085270166
235,0.0106965098530054,0.0246269404888153,0.00613814173266292,0.00920605845749378,0.00515976594761014,0.0278969127684832
236,0.0202587507665157,0.0257544629275799,0.00515823252499104,0.00836883392184973,0.00442113494500518,0.0282115302979946
237,0.0341824106872082,0.0255716647952795,0.00180157367140055,0.00858059339225292,0.00294386828318238,0.0265186522156
238,0.0487811975181103,0.0262292586266994,-0.00198135455138981,0.0070154033601284,0.00107292528264225,0.0228153001517057
239,0.0536672510206699,0.02561941370368,-0.000636184879112989,0.00409724563360214,0.000218973174924031,0.0196692198514938
240,0.0429117605090141,0.0211794432252645,0.0075277267023921,0.0061423322185874,0.00161412567831576,0.0204219669103622
241,0.0229613296687603,0.0142963444814086,0.0192629545927048,0.0183211024850607,0.00668591074645519,0.0298344437032938
242,0.00383763643912971,0.0116504980251193,0.0312297325581312,0.0375194288790226,0.0150841930881143,0.0498459823429585
243,-0.00813817232847214,0.017663536593318,0.0425499454140663,0.0551971010863781,0.0265028066933155,0.0693264007568359
244,-0.0119684748351574,0.0275721494108438,0.0515755787491798,0.0640623867511749,0.0393237173557281,0.0737621039152145
245,-0.0110603412613273,0.0339313633739948,0.054870069026947,0.0623019710183144,0.0472104772925377,0.0621105208992958
246,-0.00927372742444277,0.0345947444438934,0.051455419510603,0.0533664040267468,0.0460803359746933,0.0446948856115341
247,-0.00813030451536179,0.0321482121944427,0.0430467762053013,0.041781660169363,0.0383128151297569,0.0303389225155115
248,-0.00691899005323648,0.0291818547993898,0.0319682918488979,0.0303183048963547,0.0285504255443811,0.0207009501755238
249,-0.00465072225779295,0.0259805861860514,0.0209133252501488,0.0209274385124445,0.0195219181478024,0.0158696919679642
250,-0.000264099799096584,0.0241666678339243,0.0135288033634424,0.0158128067851067,0.0133379977196455,0.0174083393067122
251,0.00561901135370135,0.0260714497417212,0.0121274907141924,0.0151172997429967,0.0124360416084528,0.0242005679756403
252,0.0087231257930398,0.0291287712752819,0.0150429354980588,0.0167750045657158,0.0154284220188856,0.0335353836417198
253,0.00703948689624667,0.030512934550643,0.0196600016206503,0.0208189263939857,0.0190766360610724,0.0453041829168797
254,0.00373347220011055,0.0324381850659847,0.0242046527564526,0.0275233406573534,0.0220552068203688,0.0594751462340355
255,0.00182612088974565,0.0360914655029774,0.0265203509479761,0.0324844531714916,0.0229785945266485,0.0730011388659477
256,0.0026789337862283,0.0379462987184525,0.0263632237911224,0.0310704968869686,0.0218703933060169,0.0798154696822166
257,0.00743717793375254,0.0355076007544994,0.0258766487240791,0.0243902131915092,0.021755512803793,0.0750144347548485
258,0.0151026267558336,0.0304663944989443,0.0257787201553583,0.0162951089441776,0.0237431842833757,0.0612225905060768
259,0.0217426083981991,0.0241958163678646,0.025173669680953,0.00930728390812874,0.0254334565252066,0.0460076816380024
260,0.0241005029529333,0.0178457237780094,0.024085383862257,0.00588711677119136,0.0247768256813288,0.0345047786831856
261,0.0223906487226486,0.015526182949543,0.0231490265578032,0.0084466552361846,0.0217845272272825,0.0284708142280579
262,0.0185193940997124,0.0186047535389662,0.0210722330957651,0.0145801259204745,0.0169975087046623,0.0270481556653976
263,0.0143361873924732,0.0225253570824862,0.0150490375235677,0.0170009639114141,0.0103782871738076,0.0279116425663233
264,0.0115991644561291,0.0225705485790968,0.00524450931698084,0.0120561309158802,0.00252945488318801,0.0287787616252899
265,0.0111325485631824,0.0191625487059355,-0.00327559723518789,0.00507603026926517,-0.00428607501089573,0.0281847268342972
266,0.0119653046131134,0.0155446380376816,-0.00544586637988687,0.00362582271918654,-0.00720949238166213,0.0263276156038046
267,0.0132345473393798,0.0111666545271873,-0.00145688548218459,0.00843954551964998,-0.00491158571094275,0.0232465956360102
268,0.01591139100492,0.00418426468968391,0.00502009922638536,0.0144670289009809,0.000822148111183196,0.0196880307048559
269,0.0200456213206053,-0.00405082199722528,0.011865483596921,0.0179587248712778,0.00716063566505909,0.01705676689744
270,0.0239835381507874,-0.0102093098685145,0.0192490555346012,0.0200525783002377,0.0130654666572809,0.0159260760992765
271,0.0258585941046476,-0.0110853603109717,0.0259497333317995,0.0229696501046419,0.017256012186408,0.018062811344862
272,0.0251069962978363,-0.00790581665933132,0.029539430513978,0.0257086232304573,0.0188085734844208,0.0229461062699556
273,0.0243697855621576,-0.00391848059371114,0.0289684645831585,0.0261362381279469,0.0190776232630014,0.0269535705447197
274,0.0263110958039761,0.00200640200637281,0.0238108485937119,0.02386867813766,0.018314054235816,0.0281533636152744
275,0.0289793983101845,0.0106533905491233,0.0144024677574635,0.0196547731757164,0.0149368615821004,0.0270937010645866
276,0.0274366531521082,0.0176534224301577,0.00232113641686738,0.0140117071568966,0.00798165053129196,0.0258526764810085
277,0.0191598255187273,0.0184224881231785,-0.00961112417280674,0.00711666746065021,-0.00128674414008856,0.0248164255172014
278,0.00668999133631587,0.0136854695156217,-0.0172567442059517,0.000400694902054966,-0.00944110937416554,0.0221479497849941
279,-0.00408604368567467,0.00826299097388983,-0.0180678740143776,-0.00294138677418232,-0.0129727860912681,0.0179896373301744
280,-0.00819008331745863,0.00447480287402868,-0.0141303846612573,-0.00205781869590282,-0.0109903831034899,0.014192788861692
281,-0.00644103810191154,0.00095351436175406,-0.0100777009502053,0.00041850478737615,-0.00618616305291653,0.0122275752946734
282,-0.00314676691778004,-0.000460663606645539,-0.00909104757010937,0.00324024353176355,-0.00137276225723326,0.0134322131052613
283,0.000746364239603281,0.00478654447942972,-0.0118976412340999,0.0064767892472446,0.00262102019041777,0.0160370133817196
284,0.00609140610322356,0.0135474149137735,-0.0183361563831568,0.00567268393933773,0.0044353399425745,0.0130773410201073
285,0.0116210654377937,0.0166481323540211,-0.0273923128843308,-0.00429595727473497,0.00303041166625917,0.00290624750778079
286,0.0148611590266228,0.0121782114729285,-0.0337568111717701,-0.0163461212068796,0.00110737234354019,-0.00187519181054085
287,0.0136894565075636,0.00638464652001858,-0.0303085502237082,-0.0159844011068344,0.00186036911327392,0.00904251262545586
288,0.0076406835578382,0.00438371207565069,-0.0167698729783297,-0.000833502155728638,0.00431006029248238,0.0287783015519381
289,-0.00019314447126817,0.00669327611103654,-0.000132136803586036,0.0181816630065441,0.00646367901936173,0.0446979217231274
290,-0.00439005251973867,0.0109762363135815,0.0119873713701963,0.0305661410093308,0.00768936472013593,0.0505329966545105
291,-0.00366785656660795,0.0140305124223232,0.0154329091310501,0.0320497080683708,0.00617388170212507,0.0461059845983982
292,-0.00219003483653069,0.0150790959596634,0.011935006827116,0.0254873614758253,0.00178071623668075,0.03612370043993
293,-0.00270562735386193,0.0150431068614125,0.00725562172010541,0.0175211410969496,-0.00108436774462461,0.0273368377238512
294,-0.00507228169590235,0.0113605773076415,0.00398315256461501,0.011203845962882,2.70095551968552E-05,0.0215569008141756
295,-0.00926405657082796,0.00184873654507101,0.00136794336140156,0.00688277743756771,0.00324335927143693,0.0174965802580118
296,-0.0138375097885728,-0.00895305071026087,0.000811416655778885,0.00541292363777757,0.00807235576212406,0.0164074469357729
297,-0.0160483419895172,-0.0149137983098626,0.00371407950296998,0.00633485475555062,0.0146453194320202,0.0194956716150045
298,-0.0153980031609535,-0.0146261909976602,0.00754976645112038,0.00827510748058558,0.0201209522783756,0.0241747740656137
299,-0.0129554131999612,-0.010396096855402,0.00978563539683819,0.0104218842461705,0.0221831426024437,0.0261309444904327
300,-0.0102052250877023,-0.00534812081605196,0.0108007695525885,0.011419216170907,0.021397914737463,0.025275643914938
301,-0.00974785536527634,-0.00168392597697675,0.010441742837429,0.0100262947380543,0.0179285723716021,0.0254124347120523
302,-0.0123464809730649,-0.00107362389098853,0.00754948891699314,0.00642334017902613,0.0120479259639978,0.0269899293780327
303,-0.0151875233277678,-0.00306730368174613,0.00265576713718474,0.00154498079791665,0.00616030767560005,0.0279745124280453
304,-0.0158361047506332,-0.00457719527184963,-0.00235253456048667,-0.00313831097446382,0.00178897473961115,0.0284577626734972
305,-0.0149796819314361,-0.0047845346853137,-0.0055882497690618,-0.00601236382499337,-0.00141362263821065,0.0278298985213041
306,-0.0140272779390216,-0.00506750727072358,-0.00630275346338749,-0.00687280111014843,-0.00295912055298686,0.024538666009903
307,-0.0126256784424186,-0.00606139097362757,-0.00530924601480365,-0.00686017982661724,-0.00170910113956779,0.0201947260648012
308,-0.010777885094285,-0.00882924068719149,-0.0038006822578609,-0.00622596172615886,0.00136615056544542,0.0192566141486168
309,-0.0107460590079427,-0.0130994180217385,-0.00265101483091712,-0.00400822795927525,0.00409870920702815,0.0241065677255392
310,-0.0145735992118716,-0.0140455896034837,-0.00323023670352995,-0.000957991345785558,0.00480951042845845,0.0340511649847031
311,-0.021886944770813,-0.0088424189016223,-0.00585268437862396,1.31730648718076E-05,0.00194718909915537,0.0474119186401367
312,-0.0292522795498371,-0.00258560478687286,-0.00708577502518892,-0.00200400804169476,-0.0030996382702142,0.0594206005334854
313,-0.0319528095424175,-0.00100698915775865,-0.00467685610055923,-0.00489302212372422,-0.00538148451596498,0.0642124712467194
314,-0.0279093068093061,-0.00282523268833756,-0.00105725787580013,-0.00608939072117209,-0.00186496425885707,0.0633136406540871
315,-0.0183523371815681,-0.00363519508391619,0.00192558870185167,-0.00425015110522509,0.00561522180214524,0.0638725087046623
316,-0.00662523694336414,-0.00256476760841906,0.0044610071927309,-0.000554469239432365,0.0120596066117287,0.0684709027409554
317,0.00242494442500174,-0.000826456642244011,0.00631837546825409,0.00301512121222913,0.0122963488101959,0.0745347738265991
318,0.00578686408698559,0.00166268774773926,0.00714846886694431,0.00583033170551062,0.00615474721416831,0.0793160945177078
319,0.00457946769893169,0.0053219199180603,0.00700429966673255,0.00655066780745983,-0.00192461791448295,0.0810475647449493
320,0.00112115580122918,0.00913992244750261,0.00584386009722948,0.00350012863054872,-0.00947762280702591,0.0795132741332054
321,-0.00235343328677118,0.0125311203300953,0.00428431062027812,-0.00107066077180207,-0.014992811717093,0.0779857337474823
322,-0.00421490287408233,0.0176282431930304,0.00329268421046436,-0.00293722283095121,-0.0165460351854563,0.0803946331143379
323,-0.00605992181226611,0.0267484597861767,0.00248408014886081,-0.000756570370867848,-0.0167631059885025,0.0867520645260811
324,-0.0093867676332593,0.0387280955910683,0.00178079004399478,0.00368290999904275,-0.0188091527670622,0.0943194031715393
325,-0.0118040926754475,0.048420500010252,0.00214275228790939,0.00648351479321718,-0.0201150644570589,0.0999508053064346
326,-0.011025064624846,0.0494075417518616,0.00361648201942444,0.00590336043387651,-0.0177521910518408,0.101973548531532
327,-0.00777062494307756,0.0388143919408321,0.00504725193604827,0.0045140334405005,-0.0129658570513129,0.0987286418676376
328,-0.0034224228002131,0.0207378081977367,0.00500227184966207,0.00393319502472878,-0.00906212814152241,0.0878540575504303
329,0.0020739131141454,0.00295883975923061,0.00369260273873806,0.00303820194676518,-0.00685411458835006,0.0724378526210785
330,0.0107959182932973,-0.00813815835863352,0.00267012929543853,0.0023867532145232,-0.00307798897847533,0.0603214427828789
331,0.0232354160398245,-0.0106356460601091,0.00209462107159197,0.00411863764747977,0.0033650565892458,0.0546649098396301
332,0.0341759696602821,-0.00866785552352667,0.00101160712074488,0.00648848759010434,0.00897215586155653,0.0521017126739025
333,0.0393477454781532,-0.00542221590876579,0.00102378451265395,0.00703907990828156,0.0128132440149784,0.0521432012319565
334,0.038955133408308,0.000809820310678333,0.00474104238674045,0.00715492945164442,0.0169045254588127,0.0578764677047729
335,0.0333045125007629,0.00975658837705851,0.0094968331977725,0.00768160587176681,0.0197901148349047,0.0661794021725655
336,0.0250226557254791,0.0177977830171585,0.0111052328720689,0.0081449942663312,0.0193339344114065,0.0709214136004448
337,0.0181009285151958,0.0217741690576077,0.0096617080271244,0.0080814165994525,0.0159365981817245,0.0711631551384926
338,0.0134787829592824,0.020938279107213,0.00656462321057916,0.00671048555523157,0.0107486648485065,0.0695360749959946
339,0.0103667331859469,0.0165583156049252,0.00223056599497795,0.00379894464276731,0.0052176509052515,0.0672021955251694
340,0.00785311963409185,0.0104791326448321,-0.0023960336111486,0.000241600835579447,-7.65269505791366E-05,0.0638981238007545
341,0.00589834386482835,0.00549084274098277,-0.00508762802928686,-0.00209644762799144,-0.00478436658158898,0.0600872896611691
342,0.00535771250724792,0.00409763585776091,-0.00464619370177388,-0.00235267682000995,-0.00752820307388902,0.0559449791908264
343,0.00672935415059328,0.00826730486005545,-0.00228959089145064,-0.000796815380454063,-0.00753724947571754,0.0536671504378319
344,0.00996339786797762,0.0181628745049238,-0.000121318247693125,0.00298834010027349,-0.00621666200459003,0.0562438070774078
345,0.0142036955803633,0.0297851990908384,0.000802172173280269,0.00980947632342577,-0.00529147125780582,0.0642211139202118
346,0.0176527611911297,0.0380225777626038,5.81639033043757E-05,0.0166543368250132,-0.00505883619189262,0.07552370429039
347,0.0196306984871626,0.0400235541164875,-0.00221107248216867,0.0175351854413748,-0.00549271889030933,0.0834037363529205
348,0.0223969165235758,0.0358541160821915,-0.00314113940112293,0.0119556188583374,-0.00526392692700028,0.0813814252614975
349,0.0298689138144255,0.0269505213946104,-0.000498064910061657,0.00351990340277553,-0.003421516623348,0.0685432031750679
350,0.0422605611383915,0.0172044597566128,0.00254655815660954,-0.00586865562945604,-0.00334003893658519,0.0489091537892818
351,0.0518469847738743,0.0132666947320104,0.00128499616403133,-0.0138107221573591,-0.00734823243692517,0.0296261887997389
352,0.0504422411322594,0.0172465033829212,-0.00364574929699302,-0.0176780615001917,-0.0117489034309983,0.0165681783109903
353,0.0388114750385284,0.023713294416666,-0.00648187613114715,-0.0162503998726606,-0.012564430013299,0.0141116231679916
354,0.0242772046476603,0.0261349193751812,-0.00439933221787214,-0.010084087960422,-0.0104885464534163,0.0234444700181484
355,0.0134087698534131,0.0231736358255148,-0.00102695962414145,-0.00351155526004732,-0.00860073510557413,0.0366831198334694
356,0.00843241158872843,0.0179691091179848,0.000132005865452811,-0.000291974603896961,-0.00788639485836029,0.0463124290108681
357,0.0079638110473752,0.0131285013630986,-0.000605554843787104,0.000219120105612092,-0.00686974218115211,0.0536842793226242
358,0.00934502668678761,0.00938107166439295,-0.00111169356387109,0.000295746285701171,-0.00421805074438453,0.0585571303963661
359,0.0112578002735972,0.0076286792755127,0.00069826195249334,0.00203501526266336,0.000868090486619622,0.0572283193469048
360,0.0151535784825683,0.00824625976383686,0.00494462857022882,0.00522783864289522,0.00871262885630131,0.0502019673585892
361,0.0219892933964729,0.00959574896842241,0.00955232884734869,0.00692846532911062,0.0174246728420258,0.0407696887850761
362,0.0288876723498106,0.00982607528567314,0.0117013454437256,0.00535016600042582,0.0225430894643068,0.0314372256398201
363,0.0325724110007286,0.00790983159095049,0.00963584147393703,0.00102259963750839,0.0215755011886358,0.0231592282652855
364,0.0324272476136684,0.00442354520782828,0.0037482341285795,-0.00412650359794497,0.0163881033658981,0.016932426020503
365,0.0294794794172049,0.00226108939386904,-0.00374557869508863,-0.00728732999414206,0.0098794037476182,0.0138579923659563
366,0.026201743632555,0.00305618485435843,-0.0102608557790518,-0.00834658741950989,0.00364524056203663,0.0132647780701518
367,0.0265141297131777,0.00630713859573007,-0.0139332842081785,-0.00867452565580606,-0.00102537556085736,0.0167203545570374
368,0.0311417020857334,0.0104963723570108,-0.0144635150209069,-0.00746379373595119,-0.00317091471515596,0.0254118610173464
369,0.0349028743803501,0.0117344437167048,-0.0136223649606109,-0.0048862723633647,-0.00412640254944563,0.0325983315706253
370,0.0351702608168125,0.00771406292915344,-0.0119340242817998,-0.00182780751492828,-0.0045308037661016,0.0334960781037807
371,0.0364854857325554,0.00234501878730953,-0.00801707245409489,0.00270271115005016,-0.0017680962337181,0.0326025448739529
372,0.0434188805520535,0.00196242169477046,-0.0010075147729367,0.00940806325525045,0.00558074004948139,0.0331491492688656
373,0.0534805171191692,0.00604038219898939,0.00814340449869633,0.0162005238234997,0.0152347255498171,0.0316870883107185
374,0.0601196065545082,0.00676274625584483,0.0161376241594553,0.0197032559663057,0.0249896850436926,0.0260060261934996
375,0.060506347566843,0.000385059596737847,0.0205509476363659,0.0193298384547234,0.0330485701560974,0.0202957447618246
376,0.0560044832527637,-0.00826707389205694,0.0214560516178608,0.0164865795522928,0.0366123653948307,0.0186237525194883
377,0.0495864562690258,-0.0125365536659956,0.0189779605716467,0.0115701109170914,0.0353171564638615,0.019083209335804
378,0.0444024167954922,-0.00968851987272501,0.0133262360468507,0.00510472618043423,0.0310040209442377,0.0182018522173166
379,0.0411411821842194,-0.00118833896704018,0.0063185035251081,-0.000997104682028294,0.0245973225682974,0.0165701303631067
380,0.0367936193943024,0.00739104021340609,7.705828465987E-05,-0.00423771142959595,0.0165378283709288,0.0149280494078994
381,0.0295283943414688,0.0104451272636652,-0.00407267780974507,-0.00283568003214896,0.00869742874056101,0.0126585476100445
382,0.0215642657130957,0.00873115286231041,-0.00606803549453616,0.00129726820159703,0.00308952527120709,0.0116338115185499
383,0.0154984025284648,0.00604726700112224,-0.00727758603170514,0.00312393950298429,0.000151370055391453,0.0118600688874722
384,0.0130509519949555,0.0031299376860261,-0.00838437024503946,0.000489361234940588,7.77124369051307E-05,0.00977841205894947
385,0.0151991220191121,-4.8479105316801E-05,-0.00889462605118752,-0.00448562670499086,0.00238220719620585,0.00581578724086285
386,0.0205694437026978,-0.00257961032912135,-0.00910494476556778,-0.00920838676393032,0.00455053616315126,0.00369381508789957
387,0.0258568730205297,-0.00649861805140972,-0.00942087732255459,-0.012143817730248,0.00493131531402469,0.00312398932874203
388,0.029981566593051,-0.0138853108510375,-0.00842833146452904,-0.0119829662144184,0.00613159406930208,0.00223679235205054
389,0.0335666202008724,-0.0226530265063047,-0.00582017563283443,-0.00948159024119377,0.00923263281583786,0.000759393849875778
390,0.0350302495062351,-0.0302946716547012,-0.00396292051300406,-0.00772805046290159,0.010104825720191,-0.00078817957546562
391,0.0332631096243858,-0.0347291529178619,-0.00367561122402549,-0.00739250332117081,0.00723742740228772,0.00087738927686587
392,0.0289333984255791,-0.0333511717617512,-0.00381877971813083,-0.00673500401899219,0.00266959215514362,0.007059704978019
393,0.0234280582517385,-0.0264125391840935,-0.00331352604553103,-0.00464857229962945,-0.00224996404722333,0.0125785078853369
394,0.0200148541480303,-0.0182005353271961,-0.0017711577238515,-0.00193155673332512,-0.00608782842755318,0.0128752114251256
395,0.0205512624233961,-0.0127997174859047,-7.99647532403469E-05,-0.000674846756737679,-0.0080143054947257,0.0111618665978312
396,0.0220920238643885,-0.00904971174895763,0.000512679864186794,-0.00126035290304571,-0.00924387387931347,0.0125205786898732
397,0.0204068571329117,-0.00426560873165727,-0.00132051028776914,-0.00296034105122089,-0.0123304538428783,0.0145228626206517
398,0.0147156063467264,-0.00241342117078602,-0.00619588885456324,-0.00591486040502787,-0.0176496151834726,0.0119466315954924
399,0.00834771245718002,-0.00710049318149686,-0.011809061281383,-0.00878825224936008,-0.0214576870203018,0.00619746651500463
400,0.00506612937897444,-0.0126032726839185,-0.0147439120337367,-0.00911212526261806,-0.0209418386220932,0.00340432953089476
401,0.00599586870521307,-0.0149011798202991,-0.0147940190508962,-0.00818875897675753,-0.017246387898922,0.00461763748899102
402,0.0107897557318211,-0.0173272863030434,-0.0133957844227552,-0.00853039231151342,-0.0119255045428872,0.00587120419368148
403,0.0185116939246655,-0.021096071228385,-0.0100198956206441,-0.00843942724168301,-0.0057306932285428,0.00523044401779771
404,0.027229493483901,-0.024434432387352,-0.00489272968843579,-0.00521102314814925,-0.000740491785109043,0.00233022752217948
405,0.0343587845563889,-0.0255378782749176,-0.000345606153132394,0.000979964970611036,0.00155522278510034,-0.00159597268793732
406,0.0378108471632004,-0.0223207715898752,0.00338669144548476,0.00806726701557636,0.00310351233929396,-0.0030072161462158
407,0.0369389839470387,-0.0158055666834116,0.00805054325610399,0.0134394206106663,0.00530462665483356,-0.000748417631257325
408,0.0327851288020611,-0.0100810714066029,0.0143633792176843,0.0161604676395655,0.00706565054133534,0.0032083229161799
409,0.0275431349873543,-0.00662824604660273,0.021428307518363,0.0176984444260597,0.00728884339332581,0.00685502123087645
410,0.0221060533076525,-0.00280093215405941,0.0267533846199512,0.0183831211179495,0.00511087290942669,0.00773494783788919
411,0.0165325067937374,0.00425922777503729,0.0278166867792606,0.01694405823946,0.00174120347946882,0.00468341168016195
412,0.0125732654705644,0.01369050424546,0.0243747681379318,0.013634093105793,0.000199064015760086,0.000707558589056134
413,0.0122537799179554,0.0215577259659767,0.0189816225320101,0.0104579152539372,0.000653044786304235,-0.000338193756761029
414,0.0154856108129025,0.0239615961909294,0.0144897485151887,0.00915815215557814,0.000330971000948921,0.00161668355576694
415,0.0183947440236807,0.0192303489893675,0.0105991726741195,0.0096840551123023,-0.00237053981982172,0.00355950184166431
416,0.0147222261875868,0.00975415576249361,0.00480773765593767,0.00996536202728748,-0.00724456133320928,0.00227731582708657
417,0.00374055793508887,0.000663094921037555,-0.00197971519082785,0.00904065929353237,-0.0124987866729498,-0.00147718470543623
418,-0.00673033529892564,-0.0037321459967643,-0.00486937584355474,0.00875982642173767,-0.0143829379230738,6.05181703576818E-05
419,-0.0104375900700688,-0.00390987051650882,-0.00303819123655558,0.00952228531241417,-0.0123715763911605,0.0100857298821211
420,-0.00658635189756751,-0.00448223017156124,-0.0010046495590359,0.00903925113379955,-0.0109646655619144,0.0186322517693043
421,0.00543941929936409,-0.00975721701979637,-0.00282433838583529,0.00432647578418255,-0.0134411714971066,0.015513502061367
422,0.0207307860255241,-0.0212294831871986,-0.00892557296901941,-0.00466668047010899,-0.0180399231612682,0.00296945683658123
423,0.0271470192819834,-0.0335167199373245,-0.0145695554092526,-0.0119743077084422,-0.0193906221538782,-0.00840923376381397
424,0.0195390209555626,-0.0371856540441513,-0.0134423300623894,-0.0112818917259574,-0.0139417862519622,-0.0125232208520174
425,0.00568040600046515,-0.0295669455081224,-0.00291182822547853,-0.00126000354066491,-0.00371696543879807,-0.00958972238004208
426,-0.00464751059189439,-0.0174805149435997,0.0130722243338823,0.0130597725510597,0.00613714847713709,-0.00167087756562978
427,-0.00873761344701052,-0.00811956264078617,0.0256038550287485,0.0228161793202162,0.011423347517848,0.00665048323571682
428,-0.00809797365218401,-0.00323256757110357,0.0285566598176956,0.0228855609893799,0.0111015290021896,0.00965046882629395
429,-0.00370225752703846,-0.00296493270434439,0.0232972446829081,0.014410519041121,0.00784960202872753,0.00386881362646818
430,0.00264790281653404,-0.00707604689523578,0.0149056939408183,0.00237984932027757,0.00534217478707433,-0.00908943638205528
431,0.00842599105089903,-0.0122021362185478,0.00749538606032729,-0.00689781317487359,0.00520404241979122,-0.021682433784008
432,0.0127717740833759,-0.0148171680048108,0.00366223370656371,-0.00990279857069254,0.00628985650837421,-0.0269230287522078
433,0.0152320275083184,-0.0155998198315501,0.00329947867430747,-0.00825284421443939,0.00523011758923531,-0.0259723961353302
434,0.0157883279025555,-0.0163379404693842,0.00384601345285773,-0.00500772055238485,0.00115804967936128,-0.023721843957901
435,0.0161588620394468,-0.0167491137981415,0.00336059462279081,-0.00128274119924754,-0.00164011563174427,-0.022295817732811
436,0.0172787588089705,-0.0156510099768639,0.00124593649525195,0.00224003219045699,-0.000140255331643857,-0.0214609112590551
437,0.0193540491163731,-0.0119985667988658,-0.00146885332651436,0.00471807271242142,0.00344764697365463,-0.0188859235495329
438,0.0223255529999733,-0.00671025784686208,-0.00334459613077343,0.00582841411232948,0.00474838772788644,-0.0125245340168476
439,0.0243655033409595,-0.00252750446088612,-0.00421730475500226,0.00558828189969063,0.00217728572897613,-0.00269360351376235
440,0.0254548750817776,-0.000695984810590744,-0.00320634478703141,0.00549073843285441,-0.0002169005892938,0.00759127782657743
441,0.0273124910891056,-0.00216870964504778,-0.000616257486399263,0.00728109385818243,0.000617137411609292,0.0117399683222175
442,0.0302882175892591,-0.00779222184792161,0.000841665198095143,0.0100897988304496,0.00247605447657406,0.00624715723097324
443,0.0337721072137356,-0.0173806473612785,7.03804253134876E-05,0.0116947675123811,0.00350351398810744,-0.00532891741022468
444,0.0363400876522064,-0.0295769330114126,-0.00174018857069314,0.0122669460251927,0.00465680053457618,-0.0176046974956989
445,0.0358974039554596,-0.0377882719039917,-0.00318966922350228,0.0136994868516922,0.00666878465563059,-0.0258743893355131
446,0.0307269766926765,-0.0359725281596184,-0.00352194509468973,0.0152081428095698,0.0088216895237565,-0.0273622870445251
447,0.0221026260405779,-0.0285288970917463,-0.00252059614285827,0.0137920118868351,0.0108924908563495,-0.0247713942080736
448,0.015242182649672,-0.0231391619890928,-0.000195865621208213,0.00963863171637058,0.01350948959589,-0.0226923823356628
449,0.014121406711638,-0.0210110880434513,0.00259134452790022,0.00651473132893443,0.0159258041530848,-0.0217590816318989
450,0.0156860370188951,-0.0211494620889425,0.0027618461754173,0.00480999005958438,0.0145090352743864,-0.0232047848403454
451,0.01443144492805,-0.02336735278368,-0.00235864496789873,0.00144282390829176,0.00627356441691518,-0.0297084394842386
452,0.00918548088520765,-0.0262842923402786,-0.0121715785935521,-0.00392165826633573,-0.00732453353703022,-0.0385358892381191
453,0.00237560691311955,-0.0279398709535599,-0.0221507418900728,-0.00728452950716019,-0.0206408835947514,-0.0394392050802708
454,-0.00266312155872583,-0.0272450745105743,-0.0250217504799366,-0.00400021113455296,-0.0267574638128281,-0.0244942251592875
455,-0.0046953409910202,-0.0254728198051453,-0.0177235491573811,0.00522322813048959,-0.0229846313595772,-0.00134811806492507
456,-0.00528895482420921,-0.0242636278271675,-0.0057553113438189,0.0146704446524382,-0.0134341288357973,0.0132246725261211
457,-0.00674817804247141,-0.0247912164777517,0.00242084381170571,0.0181369315832853,-0.0056135798804462,0.0095671508461237
458,-0.00999037455767393,-0.0286757200956345,0.00407444359734654,0.0133420377969742,-0.00329380063340068,-0.00768556911498308
459,-0.0130923185497522,-0.0346359387040138,0.00276862597092986,0.00521745253354311,-0.00371595611795783,-0.0249974243342876
460,-0.0137093067169189,-0.0391786955296993,0.00179096776992083,0.000557186489459127,-0.00333041744306684,-0.0336373299360275
461,-0.0109318206086755,-0.0392246134579182,0.00260983873158693,0.00217772019095719,-0.00148581061512232,-0.0322655327618122
462,-0.00525993527844548,-0.0335148610174656,0.00552402483299375,0.00822210870683193,0.00140660023316741,-0.0237577501684427
463,0.000621748273260891,-0.0246568564325571,0.00898786634206772,0.0138367870822549,0.0044738226570189,-0.013823201879859
464,0.00410683127120137,-0.0158254690468311,0.0118459602817893,0.0166514776647091,0.0061309183947742,-0.00530458195134997
465,0.00480999704450369,-0.00872464384883642,0.0136236203834414,0.0175364818423986,0.00518238311633468,0.00104692939203233
466,0.00450886180624366,-0.00462414138019085,0.0148707069456577,0.0179921053349972,0.00291287084110081,0.00316739082336426
467,0.00480741960927844,-0.00472465716302395,0.0168222393840551,0.0189954992383718,0.00175436481367797,-0.000441612268332392
468,0.00502438703551888,-0.00940670818090439,0.0180969405919313,0.0186935886740685,0.00177424191497266,-0.00889578182250261
469,0.00478278333321214,-0.014802067540586,0.017006378620863,0.014755105599761,0.0018139787716791,-0.0183167457580566
470,0.004890326410532,-0.0147255724295974,0.0152720613405108,0.0090462313964963,0.00174462224822491,-0.0232794210314751
471,0.00466758571565151,-0.00796093698590994,0.0150815146043897,0.00468152156099677,0.00224370881915092,-0.0216977670788765
472,0.00208238163031638,0.000731289270333946,0.0153869297355413,0.00134829222224653,0.00282152998261154,-0.0173972547054291
473,-0.00229147425852716,0.00585636915639043,0.0139040173962712,-0.00205886317417026,0.00228323345072567,-0.0143118649721146
474,-0.00458730338141322,0.00499665271490812,0.0106403855606914,-0.00430361088365316,0.00152710604015738,-0.0127170952036977
475,-0.00289597804658115,0.000370331224985421,0.00787310861051083,-0.00371818733401597,0.00248992629349232,-0.0121187213808298
476,0.000511848833411932,-0.00398138212040067,0.00766074052080512,-0.00072298216400668,0.00458727683871984,-0.012577885761857
477,0.00230776169337332,-0.00712191872298718,0.00977003201842308,0.00257115322165191,0.00409386307001114,-0.0141700375825167
478,0.00056319625582546,-0.00932268984615803,0.012120459228754,0.00546004995703697,-0.00119365146383643,-0.0162865705788136
479,-0.00474681286141276,-0.00756459590047598,0.0122249741107225,0.00835153739899397,-0.0094444528222084,-0.0178925879299641
480,-0.0114624220877886,0.000330689421389252,0.00830128043889999,0.00898863282054663,-0.0178828500211239,-0.018375713378191
481,-0.0150573262944818,0.0079981405287981,0.000301458610920236,0.00445783464238048,-0.0247045177966356,-0.0181361772119999
482,-0.011429451406002,0.00716023705899715,-0.00880972668528557,-0.00350784277543426,-0.0286654140800238,-0.018065232783556
483,-0.00287785800173879,-0.00215194444172084,-0.0139616411179304,-0.00990839768201113,-0.0290519092231989,-0.0190561842173338
484,0.00312712253071368,-0.0134552270174026,-0.0123131582513452,-0.0121518094092608,-0.0265945941209793,-0.0213890857994556
485,0.00219923094846308,-0.0194895919412375,-0.0063029364682734,-0.0115107921883464,-0.0226704739034176,-0.0230819452553988
486,-0.00480590388178825,-0.0178301557898521,-0.00127936585340649,-0.00965229608118534,-0.0174059309065342,-0.0229617580771446
487,-0.0146289598196745,-0.0103160310536623,0.00103717495221645,-0.00678342487663031,-0.0109426807612181,-0.023591673001647
488,-0.0240477584302425,0.00104568304959685,0.00290448893792927,-0.00354710454121232,-0.00544092664495111,-0.0265969224274158
489,-0.0309167169034481,0.0136875994503498,0.00515371933579445,-2.59108219324844E-05,-0.00331231649033725,-0.0288114305585623
490,-0.033878218382597,0.0237895324826241,0.00758710224181414,0.00529710110276937,-0.00352197443135083,-0.0268702767789364
491,-0.0324490815401077,0.0279422104358673,0.0109343286603689,0.0120300138369203,-0.00243583228439093,-0.0207071118056774
492,-0.0280249882489443,0.0245718397200108,0.0141693763434887,0.0163630824536085,0.0011735416483134,-0.0135023128241301
493,-0.0230538435280323,0.0135191008448601,0.0145961157977581,0.0145090399309993,0.00490455701947212,-0.0108967637643218
494,-0.0184415131807327,-0.0018660546047613,0.0128283752128482,0.00800815410912037,0.00624412531033158,-0.0145537964999676
495,-0.0149599993601441,-0.0154296336695552,0.0121613964438438,0.00238500628620386,0.00523232342675328,-0.0215501748025417
496,-0.0145004959776998,-0.0231596417725086,0.0130918482318521,0.000780785165261477,0.00316874007694423,-0.028650801628828
497,-0.0169557500630617,-0.0234928391873837,0.0139421643689275,0.0027482146397233,0.00130774592980742,-0.0314069949090481
498,-0.020008834078908,-0.0178798884153366,0.0136683145537972,0.0062108663842082,0.000418708601500839,-0.0277102719992399
499,-0.0213121306151152,-0.0099346749484539,0.0129292514175177,0.00971031561493874,0.00110041198786348,-0.02001310326159
500,-0.0193407312035561,-0.00109469192102551,0.0147012043744326,0.0133917247876525,0.00522022694349289,-0.00983477011322975
501,-0.0163721200078726,0.00652426853775978,0.019398421049118,0.0159369241446257,0.0112289665266871,0.00122717896010727
502,-0.015856871381402,0.00824411865323782,0.0238361973315477,0.0149905839934945,0.0147911896929145,0.00819216761738062
503,-0.0158925354480743,0.00281257182359695,0.0265355072915554,0.011387993581593,0.0167549028992653,0.00806611962616444
504,-0.0125736789777875,-0.00652486365288496,0.0273534525185823,0.00731013854965568,0.0194007381796837,0.00265855551697314
505,-0.00555959343910217,-0.0162722002714872,0.0265392735600472,0.00364927132613957,0.0216026585549116,-0.00515512330457568
506,0.00105437054298818,-0.0249315723776817,0.0254058782011271,0.000313511700369418,0.0220846142619848,-0.0144080119207501
507,0.00187177571933717,-0.0310302209109068,0.0246630720794201,-0.00286511820740998,0.0208162236958742,-0.0236904695630074
508,-0.00433797296136618,-0.0313990563154221,0.0227214954793453,-0.00526180909946561,0.0176851954311132,-0.0282652452588081
509,-0.0128205586224794,-0.0245263129472733,0.0183045286685228,-0.00624054158106446,0.0139424810186028,-0.0259104985743761
510,-0.018293634057045,-0.0138151524588466,0.0129651734605432,-0.00612062588334084,0.0113479066640139,-0.0212696138769388
511,-0.0210109669715166,-0.00533530535176396,0.00744804227724671,-0.00623631244525313,0.00765090668573976,-0.019685672596097
512,-0.0218822229653597,-0.00129951850976795,0.00289459968917072,-0.00567816104739904,0.00283503858372569,-0.0197179708629847
513,-0.019605690613389,-0.000504247436765581,0.00288413907401264,-0.00233289273455739,0.00249896920286119,-0.016479879617691
514,-0.0164670515805483,-0.0040473910048604,0.00648370105773211,0.00155420822557062,0.00626176595687866,-0.00890874583274126
515,-0.016648180782795,-0.0115159545093775,0.00747993821278214,0.00235758163034916,0.00636032223701477,7.67191522754729E-06
516,-0.0193340331315994,-0.0172674413770437,0.0027544351760298,-0.00043396043474786,-0.000363480183295906,0.00496953120455146
517,-0.0186642482876778,-0.0183846112340689,-0.00395592208951712,-0.00527649372816086,-0.00761350290849805,0.00254451343789697
518,-0.0118355713784695,-0.0190916396677494,-0.00682737398892641,-0.00997904315590858,-0.00804363470524549,-0.00607578083872795
519,-0.00227936427108943,-0.0221481043845415,-0.00328976311720908,-0.0114436019212008,-0.00115958519745618,-0.0161294136196375
520,0.00598818063735962,-0.0241346806287766,0.00511968182399869,-0.00767410174012184,0.00922179128974676,-0.0219903849065304
521,0.00995913147926331,-0.0233476851135492,0.0133868837729096,-0.00266545708291233,0.0182768721133471,-0.0234622973948717
522,0.00853367801755667,-0.0217493120580912,0.0174914430826902,-0.00198383722454309,0.0223187021911144,-0.0244175419211388
523,0.00342547195032239,-0.0196049381047487,0.0172745734453201,-0.00543519761413336,0.0204290300607681,-0.0260075908154249
524,-0.00328574143350124,-0.0168057568371296,0.0140004279091954,-0.00921616703271866,0.0142952250316739,-0.0275681894272566
525,-0.00888699479401112,-0.0145939700305462,0.00959732849150896,-0.00966529175639153,0.00791529007256031,-0.0277143530547619
526,-0.0116911763325334,-0.015414453111589,0.00510378973558545,-0.00715010752901435,0.00347602902911603,-0.0259362850338221
527,-0.0116366287693381,-0.0204017218202353,0.00125214573927224,-0.00540128629654646,0.00139985058922321,-0.0236864592880011
528,-0.0085290689021349,-0.0263534095138311,-0.000457846210338175,-0.00589686399325728,0.00255031930282712,-0.0213129762560129
529,-0.00353873358108103,-0.031200947239995,-0.000576232501771301,-0.00730039086192846,0.00519556319341064,-0.0204066205769777
530,0.00206326297484338,-0.0364215895533562,-0.000988667015917599,-0.00827877875417471,0.00624157814309001,-0.0229817591607571
531,0.00792237929999828,-0.0430822856724262,-0.00311028049327433,-0.00963751133531332,0.00519415084272623,-0.0270462557673454
532,0.0121551984921098,-0.050772663205862,-0.00710891839116812,-0.0123985605314374,0.00422477582469583,-0.0299004893749952
533,0.0124460831284523,-0.0569789931178093,-0.0110751762986183,-0.015072675421834,0.00463952124118805,-0.0316248089075089
534,0.00884776748716831,-0.0591444969177246,-0.0128893824294209,-0.0160848014056683,0.00454641226679087,-0.0337654873728752
535,0.00316858710721135,-0.0578217245638371,-0.0125971771776676,-0.0162866022437811,0.00113246240653098,-0.0362698063254356
536,-0.00222685909830034,-0.0536020547151566,-0.0113686015829444,-0.0166773460805416,-0.00563463335856795,-0.0354450829327106
537,-0.00508255045861006,-0.0458102747797966,-0.00960508175194263,-0.0170242376625538,-0.0118574593216181,-0.0292418822646141
538,-0.00495174201205373,-0.0367026254534721,-0.00781344994902611,-0.01705870218575,-0.0142208933830261,-0.0233417972922325
539,-0.0029233293607831,-0.0300453100353479,-0.00747330347076058,-0.016926109790802,-0.013339807279408,-0.0238170977681875
540,0.000240100183873437,-0.0264842677861452,-0.00975292641669512,-0.0166704338043928,-0.0107689639553428,-0.0262161642313004
541,0.00311094685457647,-0.0251425802707672,-0.0138173438608646,-0.0149633549153805,-0.00822687335312366,-0.0217253267765045
542,0.00339276413433254,-0.0258854385465384,-0.0175108630210161,-0.0106998896226287,-0.00857904460281134,-0.0107909617945552
543,0.0020301875192672,-0.0274204518646002,-0.0193798430263996,-0.00532112270593643,-0.0119450027123094,-0.00152351218275726
544,0.00366132031194866,-0.0274851266294718,-0.0192119218409061,-0.0018180285114795,-0.014986390247941,0.000230234480113722
545,0.0086643798276782,-0.0281305965036154,-0.0186536908149719,-0.00331477052532136,-0.0170345213264227,-0.00654679257422686
546,0.0100910188630223,-0.034465815871954,-0.0198970753699541,-0.0100003574043512,-0.0202331729233265,-0.0200892668217421
547,0.0037864160258323,-0.0435201972723007,-0.0214952547103167,-0.0161887090653181,-0.0235215406864882,-0.034926850348711
548,-0.00601750100031495,-0.0473390221595764,-0.0197593178600073,-0.0162870157510042,-0.0224760286509991,-0.0440923906862736
549,-0.0141213564202189,-0.0457097999751568,-0.0135229751467705,-0.0114016886800528,-0.0149075221270323,-0.0440087132155895
550,-0.0176055859774351,-0.0414116978645325,-0.00370827270671725,-0.00438407436013222,-0.0029061168897897,-0.0331742614507675
551,-0.0147715024650097,-0.0346964485943317,0.00731811206787825,0.00415207911282778,0.00939453300088644,-0.0142005272209644
552,-0.00873109418898821,-0.0279663316905499,0.0152976857498288,0.0122718773782253,0.0172115098685026,0.0037628326099366
553,-0.00574258714914322,-0.0247053373605013,0.0175368580967188,0.0166014358401299,0.017635827884078,0.0133150536566973
554,-0.00792373903095722,-0.0258808117359877,0.0149277253076434,0.0159165002405643,0.0118601778522134,0.0148085281252861
555,-0.0122851682826877,-0.0290824640542269,0.010081360116601,0.0130872502923012,0.00390882510691881,0.0134849706664681
556,-0.0163311678916216,-0.0304115153849125,0.00590935302898288,0.0117657678201795,-0.0020233285613358,0.0123984459787607
557,-0.0196066331118345,-0.0285802911967039,0.0049293227493763,0.0122038684785366,-0.00356278568506241,0.0093547310680151
558,-0.0215658731758595,-0.0249003190547228,0.00777992932125926,0.0124965142458677,-0.00148369825910777,0.00302657741121948
559,-0.0219507869333029,-0.0200098995119333,0.012259372510016,0.0113624166697264,0.00174577324651182,-0.00317983492277563
560,-0.0212405044585466,-0.0144238723441958,0.0152314519509673,0.00921820569783449,0.00507366750389338,-0.00516804587095976
561,-0.0207060389220715,-0.0105100981891155,0.0152715258300304,0.00709348544478416,0.00821988098323345,-0.00260071083903313
562,-0.0215613003820181,-0.00947977602481842,0.0131234657019377,0.00551479635760188,0.0100651485845447,0.00206697755493224
563,-0.0231184288859367,-0.0100316340103745,0.0106731010600924,0.00393293192610145,0.00949882343411446,0.00619059382006526
564,-0.0237956084311008,-0.0108417002484202,0.00967630557715893,0.00151698163244873,0.00676446221768856,0.00840527936816216
565,-0.0232299827039242,-0.0108884526416659,0.00962858367711306,-0.00165609095711261,0.00345967034809291,0.00799820106476545
566,-0.020765345543623,-0.00974049605429173,0.00835191924124956,-0.00521330116316676,0.00171723798848689,0.00360536458902061
567,-0.0158532522618771,-0.00840114988386631,0.00583695434033871,-0.0072074867784977,0.00199741497635841,-0.0035039319191128
568,-0.0104696303606033,-0.00740896072238684,0.00400514248758554,-0.00488364091143012,0.0022823940962553,-0.00931101758033037
569,-0.00701639568433166,-0.00676685059443116,0.00281917653046548,-0.000141325857839547,0.00153132807463408,-0.012792157009244
570,-0.00547057436779141,-0.00741188134998083,0.00133007601834834,0.00245934911072254,0.00150778773240745,-0.0151948677375913
571,-0.00423051370307803,-0.00928317196667194,0.000582637789193541,0.0023998748511076,0.00367985758930445,-0.01545081846416
572,-0.00308334175497293,-0.0106238080188632,0.00129751767963171,0.00201469240710139,0.00644461624324322,-0.0124715343117714
573,-0.00302613154053688,-0.00983747001737356,0.00215629977174103,0.00249301944859326,0.00714089814573526,-0.00884018093347549
574,-0.00377012905664742,-0.00665630912408233,0.00159973255358636,0.00322111765854061,0.00458394875749946,-0.00870801694691181
575,-0.00428590830415487,-0.00220532226376235,0.000762295152526349,0.00316454190760851,9.71650006249547E-05,-0.0135746542364359
576,-0.00495007168501616,0.00229698768816888,0.00201944541186094,0.00208368198946118,-0.00293451873585582,-0.0188957843929529
577,-0.00705773150548339,0.00666690804064274,0.00452742166817188,0.000573245517443866,-0.00192109972704202,-0.0175074692815542
578,-0.0109152868390083,0.0102731613442302,0.0058742631226778,-0.000812732614576817,0.00301264738664031,-0.00963677279651165
579,-0.0159241762012243,0.011698535643518,0.00485723139718175,-0.00211443519219756,0.00864906515926123,-0.00320696248672903
580,-0.0204288512468338,0.0116814598441124,0.002119907643646,-0.00302108656615019,0.0123550398275256,-0.00269606523215771
581,-0.0214579366147518,0.0137834893539548,0.000457896036095917,-0.00250161672011018,0.0152024971321225,-0.00424968870356679
582,-0.0183908361941576,0.019957397133112,0.00154884334187955,-0.000563042238354683,0.0174586623907089,-0.00349688809365034
583,-0.0151045173406601,0.0271419063210487,0.00336801446974278,0.00181172741577029,0.016521705314517,-0.000674777897074819
584,-0.0151688735932112,0.0319107547402382,0.00372335338033736,0.00440851598978043,0.0123536717146635,0.00289288884960115
585,-0.0190565548837185,0.0332778543233871,0.00273476215079427,0.00609248038381338,0.00732832076027989,0.00465018395334482
586,-0.0246158633381128,0.0294253546744585,0.00175583537202328,0.00589289143681526,0.00256410194560885,0.00186801759991795
587,-0.0260311216115952,0.0211917143315077,0.0036079736892134,0.00740079814568162,0.00119760236702859,-0.00131090148352087
588,-0.0191645789891481,0.0130367744714022,0.00976999290287495,0.0138724017888308,0.00657722260802984,0.00152330426499248
589,-0.0079323323443532,0.00516034523025155,0.0169679429382086,0.0213027093559504,0.0156673472374678,0.00882024876773357
590,0.000645250955130905,-0.00406844774261117,0.0213614888489246,0.0244563091546297,0.0228529013693333,0.0145990327000618
591,0.00368949538096786,-0.0103176524862647,0.0228545628488064,0.0240164566785097,0.0266386102885008,0.0157909858971834
592,0.0029135241638869,-0.00848958548158407,0.0224133804440498,0.0223827995359898,0.0285033751279116,0.0126630691811442
593,0.00209923577494919,-0.000152615626575425,0.0202659424394369,0.0198712926357985,0.0297653917223215,0.00774133205413818
594,0.00287406984716654,0.0082769263535738,0.0168631821870804,0.0162360891699791,0.0300918333232403,0.00346221448853612
595,0.00344318547286093,0.0118213780224323,0.0129095260053873,0.0119280768558383,0.0283203981816769,-0.000244139169808477
596,0.00214438792318106,0.0108961835503578,0.00889094360172749,0.00792109873145819,0.0242041628807783,-0.00453798519447446
597,-0.000986146973446012,0.00960299652069807,0.00461700698360801,0.00423885323107243,0.0175419691950083,-0.0089118517935276
598,-0.00452424865216017,0.0127168484032154,0.000349254289176315,0.000191731654922478,0.00922264065593481,-0.0112571027129889
599,-0.00778536964207888,0.0214177742600441,-0.00284695369191468,-0.00442402344197035,0.00217809737659991,-0.0115295499563217
600,-0.0106891132891178,0.0312219467014074,-0.00342072430066764,-0.00815892033278942,-0.000879506464116275,-0.0103916097432375
601,-0.0119410194456577,0.0364734008908272,-0.00101682299282402,-0.00873997714370489,2.11275364563335E-05,-0.00602136179804802
602,-0.0111941108480096,0.035345196723938,0.0018652721773833,-0.00574502581730485,0.00206076703034341,0.00086284609278664
603,-0.00900633540004492,0.0305107496678829,0.00361521262675524,0.000213966661249287,0.00435610814020038,0.00459574116393924
604,-0.00691431993618608,0.0241018943488598,0.00486066518351436,0.00738305784761906,0.00831154081970453,0.00238912343047559
605,-0.00770616950467229,0.0162500329315662,0.00598976435139775,0.0130544127896428,0.0137403700500727,-0.00207952968776226
606,-0.0120150092989206,0.00941262766718864,0.00741287833079696,0.0171046368777752,0.018377173691988,-0.00483315158635378
607,-0.0170538276433945,0.00716335140168667,0.00990096479654312,0.0210291408002377,0.0198347568511963,-0.00444760080426931
608,-0.0200940426439047,0.00873244926333427,0.0128613002598286,0.0235367435961962,0.0175224393606186,-0.00139027880504727
609,-0.0214352607727051,0.00971335917711258,0.014046254567802,0.0211342927068472,0.0125906085595489,0.00264991680160165
610,-0.0220545027405024,0.00774280400946736,0.0120000243186951,0.0136493695899844,0.00747273676097393,0.00643250066787004
611,-0.0209991987794638,0.00418743630871177,0.00811152718961239,0.00593564286828041,0.00480851018801332,0.00896959379315376
612,-0.0168500039726496,0.00124810182023793,0.00579936755821109,0.00235534878447652,0.0058408584445715,0.00837225932627916
613,-0.0106256017461419,-0.000967749627307057,0.00647515105083585,0.00172199064400047,0.00939218327403069,0.00128226005472243
614,-0.00490359263494611,-0.00325551489368081,0.008082983084023,0.000631149567198008,0.0129971280694008,-0.0116354431957006
615,-0.000253136618994176,-0.00392031576484442,0.00917798280715942,-0.000676942057907581,0.0159491430968046,-0.0221847537904978
616,0.00360910291783512,-0.000802335736807436,0.00983136519789696,-0.000939246732741594,0.0186692476272583,-0.0255807284265757
617,0.00579016609117389,0.00519985845312476,0.00909995380789042,-0.00182221131399274,0.0197773482650518,-0.0262461341917515
618,0.00587307196110487,0.0122595578432083,0.00601010536774993,-0.00500726653262973,0.017912894487381,-0.0278668683022261
619,0.00530337449163198,0.0188132151961327,0.00131299498025328,-0.0087983924895525,0.0138704488053918,-0.027843102812767
620,0.00769075145944953,0.0220085065811872,-0.0019625355489552,-0.00802241545170546,0.0100125903263688,-0.0213254392147064
621,0.0150579316541553,0.0212743245065212,3.49631682183826E-06,0.00101997691672295,0.00962117314338684,-0.00745531870052218
622,0.0236464235931635,0.0205086469650269,0.00739172985777259,0.0146998297423124,0.0137730576097965,0.00755871180444956
623,0.0281116925179958,0.0204963143914938,0.0158287491649389,0.0250480212271214,0.0201843772083521,0.0155885750427842
624,0.027772294357419,0.0169905107468367,0.0221385452896357,0.029041288420558,0.0266920551657677,0.0134567124769092
625,0.0253261625766754,0.00913153495639563,0.0269601810723543,0.0304044988006353,0.031931359320879,0.00430975016206503
626,0.0229150429368019,0.00221212394535542,0.0313300266861916,0.0321925655007362,0.035040158778429,-0.0046093063428998
627,0.0205605775117874,0.00142739259172231,0.0344952717423439,0.0321746692061424,0.0362665988504887,-0.00800615735352039
628,0.017030157148838,0.00664813863113523,0.0348255895078182,0.0266238301992416,0.0363057777285576,-0.00729399034753442
629,0.0136469276621938,0.0151926353573799,0.0337658599019051,0.0171443670988083,0.0370006859302521,-0.00531733175739646
630,0.0122337369248271,0.024125324562192,0.0340222902595997,0.00852544885128737,0.03803376480937,-0.00273753330111504
631,0.0106770973652601,0.0292547009885311,0.0335510149598122,0.00267379707656801,0.0349550656974316,-0.00152642163448036
632,0.00835537817329168,0.0293193534016609,0.0300430450588465,-0.000448654958745465,0.0279264487326145,-0.00302420114167035
633,0.00891924276947975,0.0287015624344349,0.0258971955627203,-0.00117480044718832,0.024115651845932,-0.00518684415146708
634,0.0116973947733641,0.030687203630805,0.0228318609297276,-0.000891985313501209,0.026309160515666,-0.00720642553642392
635,0.0110170124098659,0.033196609467268,0.0196860749274492,-0.00206315028481185,0.0282700546085835,-0.01115582883358
636,0.00582517357543111,0.0334414802491665,0.0165028609335423,-0.00603624247014523,0.0234894081950188,-0.0167956054210663
637,-0.000578835606575012,0.031016344204545,0.0150902215391397,-0.0101239001378417,0.013729689642787,-0.0201740972697735
638,-0.00641769682988524,0.0274358168244362,0.0173188541084528,-0.00932118762284517,0.00703075155615807,-0.0182716380804777
639,-0.0107915280386806,0.0252271573990583,0.0237874798476696,-0.0018323331605643,0.00851587951183319,-0.0122395977377892
640,-0.0117652891203761,0.0250922329723835,0.0321176648139954,0.0093277944251895,0.0149370608851314,-0.00477982964366674
641,-0.00791477970778942,0.0243272986263037,0.0382955297827721,0.0195517148822546,0.0189695097506046,0.00279009132646024
642,-0.000521931448020041,0.0203860905021429,0.0408086702227592,0.025978209450841,0.0183936078101397,0.00818227045238018
643,0.00651310058310628,0.0140404449775815,0.0409092530608177,0.0276728626340628,0.0163420289754868,0.00750904250890017
644,0.00928803160786629,0.00926742050796747,0.0404357053339481,0.0254102032631636,0.0146827986463904,0.00182300806045532
645,0.00659488188102841,0.00998581387102604,0.0403562746942043,0.0213967319577932,0.0127308890223503,-0.00260758376680315
646,0.000378658238332719,0.0146611072123051,0.039886835962534,0.0168113596737385,0.00985981151461601,-0.00374646275304258
647,-0.00694938655942678,0.0179562661796808,0.0371894612908363,0.0113000506535172,0.00498906522989273,-0.00500683393329382
648,-0.01404501311481,0.0176838953047991,0.0320162624120712,0.0052404454909265,-0.00231158710084856,-0.00730716995894909
649,-0.0191296581178904,0.016346238553524,0.0269896220415831,0.000395084440242499,-0.0086802588775754,-0.00770736392587423
650,-0.0207377783954144,0.0170142445713282,0.0245188921689987,-0.0019239861285314,-0.0106726652011275,-0.00547290546819568
651,-0.0187583658844233,0.0205232668668032,0.0249588564038277,-0.00164066324941814,-0.00830615032464266,-0.00331661407835782
652,-0.0150402700528502,0.02693971991539,0.0271804556250572,0.000329571805195883,-0.0037939315661788,-0.00314148189499974
653,-0.0131533443927765,0.0353560000658035,0.0292277410626411,0.0025589840952307,-0.000101446690678131,-0.00495660770684481
654,-0.0141596486791968,0.0418197587132454,0.0306142289191484,0.00418037176132202,0.00129201379604638,-0.00870967656373978
655,-0.0162600949406624,0.0430492982268333,0.0321297310292721,0.00471550691872835,0.000854871293995529,-0.0135591374710202
656,-0.0185599531978369,0.0404798053205013,0.0328167900443077,0.00373745034448802,-0.00134831597097218,-0.0178939048200846
657,-0.0195861607789993,0.036847610026598,0.0320052839815617,0.00230335746891797,-0.00487337866798043,-0.0199097506701946
658,-0.0171478185802698,0.0321828871965408,0.0312468037009239,0.00238139647990465,-0.00680121313780546,-0.0178960934281349
659,-0.0123141994699836,0.0273656789213419,0.0317334868013859,0.00500746117904782,-0.00380463642068207,-0.0128343161195517
660,-0.00815838668495417,0.0252882372587919,0.0334195643663406,0.00985384546220303,0.00402528792619705,-0.00833997130393982
661,-0.00552078429609537,0.0257249232381582,0.03603570535779,0.0156795252114534,0.0128563139587641,-0.00579197471961379
662,-0.00326456199400127,0.0264899637550116,0.0389740988612175,0.0217560846358538,0.0187985710799694,-0.00139067461714149
663,-0.00100772362202406,0.0286998189985752,0.0407946966588497,0.0277204196900129,0.020561819896102,0.0069774673320353
664,0.000803905073553324,0.0356119982898235,0.0404250547289848,0.0318256728351116,0.0183428842574358,0.0140728782862425
665,0.00157250778283924,0.0454654768109322,0.0382230430841446,0.0314018726348877,0.0127711836248636,0.0137162962928414
666,0.00088386912830174,0.0503539405763149,0.0356850847601891,0.0262599047273397,0.00675322115421295,0.00588611233979464
667,0.000456824665889144,0.0462425500154495,0.035243459045887,0.0210031997412443,0.00505248596891761,-0.00382766290567815
668,0.00296233221888542,0.0388335138559341,0.0388875789940357,0.0213141292333603,0.00915641058236361,-0.00982607062906027
669,0.00802977383136749,0.0350738652050495,0.0454985350370407,0.0270809326320887,0.0157463811337948,-0.0120244957506657
670,0.0129224359989166,0.0355506911873817,0.051570188254118,0.0327642783522606,0.0210417807102203,-0.0141123374924064
671,0.0154299139976501,0.0372895635664463,0.0535688959062099,0.0333640426397324,0.022211704403162,-0.0176116153597832
672,0.0166992340236902,0.0392603278160095,0.050290759652853,0.0282729305326939,0.0182518810033798,-0.0214602462947369
673,0.0204492993652821,0.0423757545650005,0.0436801388859749,0.0196430888026953,0.0120591223239899,-0.0256721153855324
674,0.0253874454647303,0.0467006377875805,0.0358287543058395,0.00929624401032925,0.00653528701514006,-0.0301746055483818
675,0.0261117201298475,0.0531420521438122,0.0290207304060459,0.000395515089621767,0.00231961812824011,-0.0307888798415661
676,0.0214320030063391,0.0610292926430702,0.025298286229372,-0.00355986529029906,-0.000517619482707232,-0.023950707167387
677,0.0147819770500064,0.0654429867863655,0.0247540026903152,-0.00205716537311673,-0.00128604215569794,-0.0137249138206244
678,0.0103331049904227,0.0632417947053909,0.0270541198551655,0.00291117071174085,0.0022799801081419,-0.00842679478228092
679,0.00997919030487537,0.0560631230473518,0.0304553601890802,0.00833670329302549,0.00925940461456776,-0.0122434319928288
680,0.0125549910590053,0.0478207133710384,0.0323147922754288,0.0122863668948412,0.014015912078321,-0.0214126203209162
681,0.0152401523664594,0.041324757039547,0.0319278351962566,0.0142373070120811,0.0132462158799171,-0.0283563230186701
682,0.015642074868083,0.0360130295157433,0.0296096559613943,0.0133806904777884,0.00785426888614893,-0.0297201834619045
683,0.0147962449118495,0.030590083450079,0.0267799142748117,0.00985600892454386,0.00122714263852686,-0.0277173314243555
684,0.0155502557754517,0.0255835000425577,0.0250945687294006,0.00552853709086776,-0.00338784675113857,-0.0252075083553791
685,0.0176680143922567,0.0227276347577572,0.0235563684254885,0.00224461662583053,-0.00633721565827727,-0.0230236444622278
686,0.0190107151865959,0.0239963196218014,0.0211007744073868,0.00096239399863407,-0.00860890652984381,-0.0215916279703379
687,0.0187568105757236,0.0293357707560062,0.0188348181545734,0.0013166475109756,-0.00980356521904469,-0.0222057942301035
688,0.0184531901031733,0.0372864045202732,0.0184048227965832,0.00285255280323327,-0.00981166958808899,-0.0236391089856625
689,0.0203909911215305,0.0468999817967415,0.0204017069190741,0.00554191181436181,-0.00882851891219616,-0.0224246736615896
690,0.023101506754756,0.0554599612951279,0.0228635687381029,0.00792003888636827,-0.00826216768473387,-0.0184252057224512
691,0.0241765789687634,0.059748113155365,0.0237139314413071,0.0087767019867897,-0.00941562838852406,-0.0141880111768842
692,0.0261115096509457,0.0600170530378819,0.0238473732024431,0.00858347862958908,-0.0105927251279354,-0.0109003102406859
693,0.0320949889719486,0.0590175800025463,0.0251932311803102,0.00786838866770267,-0.00890654418617487,-0.00897500757128
694,0.0407915376126766,0.0584487654268742,0.0283897016197443,0.00783091597259045,-0.0035136507358402,-0.00967352837324142
695,0.0490372702479362,0.057426281273365,0.0327412933111191,0.00981630571186543,0.00371053046546876,-0.0132719846442342
696,0.0546929277479649,0.0548534728586674,0.0369967855513096,0.0129295354709029,0.00913190841674805,-0.0166601575911045
697,0.0568682365119457,0.0518557094037533,0.0400022827088833,0.0153241781517863,0.0105688357725739,-0.0162508059293032
698,0.0567946061491966,0.0514146573841572,0.0411655977368355,0.017157269641757,0.00991468690335751,-0.0121950684115291
699,0.0554280653595924,0.0534828081727028,0.0397256277501583,0.0181851647794247,0.00836273562163115,-0.0083680460229516
700,0.0523168556392193,0.0529291220009327,0.0350731089711189,0.0160015244036913,0.00438735075294971,-0.00915748719125986
701,0.0477394089102745,0.0464568063616753,0.0281298626214266,0.0101640364155173,-0.00164286070503294,-0.0150320548564196
702,0.0422600880265236,0.0363924913108349,0.0210690926760435,0.00336396764032543,-0.00704438285902143,-0.021541889756918
703,0.0374538078904152,0.0283806659281254,0.0168713461607695,-0.00100693525746465,-0.00877990387380123,-0.0230070427060127
704,0.0361439660191536,0.0266560837626457,0.0180253367871046,-0.000794303545262665,-0.00520493695512414,-0.017940504476428
705,0.0392718203365803,0.0300311427563429,0.0243092831224203,0.00362878921441734,0.00281552993692458,-0.0108305234462023
706,0.0447697415947914,0.0338808968663216,0.0324394442141056,0.00965165533125401,0.0121887214481831,-0.00667253276333213
707,0.0488038957118988,0.0336850173771381,0.0383022613823414,0.0139498934149742,0.0185649283230305,-0.00639166543260217
708,0.0487707406282425,0.0284613948315382,0.040122464299202,0.0154614476487041,0.0200691856443882,-0.00775257311761379
709,0.0463767610490322,0.0235101711004972,0.0393475107848644,0.0162522420287132,0.0196446646004915,-0.00819605030119419
710,0.0446207486093044,0.0245700366795063,0.0378865003585815,0.0166748948395252,0.0201031137257814,-0.00731789413839579
711,0.0436811223626137,0.0300087369978428,0.0359489284455776,0.0143717862665653,0.0201807003468275,-0.00490438006818295
712,0.0415765158832073,0.0345755219459534,0.0327479876577854,0.00879187788814306,0.0174834653735161,0.000275964150205255
713,0.0377112850546837,0.0367902331054211,0.0285847503691912,0.00199938542209566,0.0130460299551487,0.00674785207957029
714,0.0340036116540432,0.0375395901501179,0.0252010971307755,-0.00339494412764907,0.0103232236579061,0.00955645926296711
715,0.0318045541644096,0.0367773994803429,0.0233943089842796,-0.00566426711156964,0.01043192576617,0.00532811507582664
716,0.0307909492403269,0.0342945456504822,0.0228706449270248,-0.00470337551087141,0.012296861037612,-0.00415165349841118
717,0.0307803861796856,0.0309059992432594,0.0238721556961536,-0.00145058939233422,0.0147309182211757,-0.0141266565769911
718,0.03243288397789,0.0285179167985916,0.0261490903794765,0.0029951932374388,0.0166620295494795,-0.0207713078707457
719,0.0348484963178635,0.0282907783985138,0.0282210968434811,0.00737758446484804,0.017548244446516,-0.0219944044947624
720,0.0349646992981434,0.0289214961230755,0.028457360342145,0.0101188477128744,0.0168637447059155,-0.0175730958580971
721,0.0321992821991444,0.0285355132073164,0.02652039937675,0.0102720027789474,0.0146832326427102,-0.0111022396013141
722,0.0288537852466106,0.0273623429238796,0.0239093415439129,0.00853702798485756,0.0130291925743222,-0.00770010566338897
723,0.0261308588087559,0.0262054968625307,0.0218925699591637,0.00583821116015315,0.0132633540779352,-0.00920663494616747
724,0.0245562437921762,0.0243408400565386,0.0203336589038372,0.00290446076542139,0.0141718918457627,-0.0130110858008266
725,0.0240042302757502,0.0214535184204578,0.018843412399292,0.000855899706948549,0.0138339456170797,-0.0147770093753934
726,0.0230097323656082,0.0190096404403448,0.0177210327237844,0.000232000515097752,0.0120638720691204,-0.0123447813093662
727,0.0212391279637814,0.018048819154501,0.0171886887401342,0.000526361458469182,0.0101550947874784,-0.00728130573406816
728,0.0199873521924019,0.0185382999479771,0.0166426841169596,0.00135035580024123,0.00849113427102566,-0.00296513922512531
729,0.0190130770206451,0.0192300379276276,0.0151080405339599,0.00196756538935006,0.00643699616193771,-0.00134357076603919
730,0.0166452191770077,0.0183558706194162,0.0124807395040989,0.00056040589697659,0.00459055230021477,-0.000663713959511369
731,0.0133036328479648,0.0168234221637249,0.0100373271852732,-0.00309367873705924,0.00477725965902209,0.0020113477949053
732,0.0102556087076664,0.0161688625812531,0.00747067341580987,-0.00834429915994406,0.00546092446893454,0.00474173063412309
733,0.00752041395753622,0.0150719536468387,0.00306608621031046,-0.0154907340183854,0.00222591706551611,0.00275124562904239
734,0.00549050653353333,0.0119148092344403,-0.00195473060011864,-0.02275032363832,-0.0047788955271244,-0.00393658317625523
735,0.00510598672553897,0.00779754854738712,-0.00452347612008452,-0.02559445053339,-0.0100057171657681,-0.00958529394119978
736,0.00616887863725424,0.00574707938358188,-0.00342920166440308,-0.0213269405066967,-0.00963003188371658,-0.00837880931794643
737,0.00687753036618233,0.00731306662783027,2.76161472356762E-06,-0.0127678830176592,-0.00530902342870831,0.000116128401714377
738,0.00590168312191963,0.0112020028755069,0.00339204235933721,-0.00513197435066104,-0.0001213789510075,0.0113475536927581
739,0.00349096884019673,0.0152939390391111,0.00554266385734081,-0.000908962159883231,0.0052813570946455,0.0210950989276171
740,0.000204511859919876,0.01768540404737,0.00666235387325287,0.000450279709184542,0.0104975486174226,0.0288069080561399
741,-0.00301913940347731,0.0168260838836432,0.00695867091417313,0.000552270328626037,0.0135822184383869,0.0346072167158127
742,-0.00412440579384565,0.0130262980237603,0.00701430765911937,0.00136301107704639,0.0142741343006492,0.0374728888273239
743,-0.00248158886097372,0.00758776860311627,0.00734400236979127,0.00323639251291752,0.0137687055394053,0.0360429286956787
744,-0.000557504128664732,0.00130168499890715,0.00686904788017273,0.0037094799336046,0.0115969451144338,0.0286431424319744
745,0.000225039519136772,-0.00274507189169526,0.00537190865725279,0.00208138674497604,0.00835617072880268,0.0180831365287304
746,0.0010504589881748,-0.00196416885592043,0.00411973521113396,0.000232508493354544,0.00656710984185338,0.0105056865140796
747,0.00256902421824634,0.00110578758176416,0.00369533128105104,-0.000347820663591847,0.00708865886554122,0.00901888590306044
748,0.0038302312605083,0.00213598995469511,0.00452504865825176,0.00119062070734799,0.00891343224793673,0.0130879944190383
749,0.00440639536827803,-0.000215158026549034,0.00705878064036369,0.00470895413309336,0.0113699650391936,0.0189163908362389
750,0.00554459076374769,-0.0031493934802711,0.0104133589193225,0.00937001220881939,0.0143783213570714,0.0218489486724138
751,0.00897567719221115,-0.0028913973364979,0.0127471834421158,0.0139098316431046,0.0171962976455688,0.0203910358250141
752,0.0152539638802409,0.00211854232475162,0.0129310023039579,0.0163407996296883,0.0178622361272573,0.017549455165863
753,0.021393459290266,0.00944982375949621,0.0108067253604531,0.0149137685075402,0.0151695962995291,0.0169506017118692
754,0.0225105378776789,0.0139729464426637,0.00688586384057999,0.0100581422448158,0.010481090284884,0.0187697112560272
755,0.0177449937909842,0.013376172631979,0.00251224962994456,0.00476399902254343,0.00589016173034906,0.0209486223757267
756,0.011624819599092,0.0107432026416063,0.000204884083359502,0.00232942472212017,0.00374259171076119,0.0218849461525679
757,0.00742332125082612,0.00924085825681686,0.00189619127195328,0.00358467176556587,0.00603671185672283,0.0204390306025743
758,0.00284729362465441,0.00854429323226213,0.00610388861969113,0.00721538253128529,0.0112492870539427,0.0177564267069101
759,-0.00451449630782008,0.00865665916353464,0.00906500313431025,0.0115723256021738,0.0151765402406454,0.0200883019715548
760,-0.0132320607081056,0.00943749025464058,0.00891598034650087,0.0147554408758879,0.0153966620564461,0.0293376985937357
761,-0.0205758605152369,0.00875915214419365,0.00696148304268718,0.0158194024115801,0.0125297689810395,0.0357382148504257
762,-0.0254868362098932,0.00657022418454289,0.00434949062764645,0.0151259088888764,0.00748049933463335,0.0299241188913584
763,-0.0285074934363365,0.00639540469273925,0.00120510661508888,0.0130170537158847,0.00149662292096764,0.015459886752069
764,-0.030099043622613,0.00958397518843412,-0.00171028869226575,0.00886035058647394,-0.00209425063803792,0.0024860103148967
765,-0.0305509176105261,0.0129956230521202,-0.00375579227693379,0.00247739907354116,-0.000405301136197522,-0.00486741727218032
766,-0.0290952753275633,0.0156511720269918,-0.00403584726154804,-0.00251868250779808,0.00597688043490052,-0.00618043215945363
767,-0.025547293946147,0.0184337683022022,-0.00315758236683905,-0.00387724908068776,0.0117635941132903,-0.00200599478557706
768,-0.0222234576940537,0.0197687800973654,-0.00369178061373532,-0.00436605419963598,0.0118301827460527,0.00321309710852802
769,-0.0205173380672932,0.0197670590132475,-0.0051190503872931,-0.00514997821301222,0.00755989970639348,0.00682403240352869
770,-0.0202017799019814,0.02112683840096,-0.00523892231285572,-0.00462914817035198,0.00256522791460156,0.0111530479043722
771,-0.0200544856488705,0.0243156161159277,-0.00363313988782465,-0.00189180695451796,-0.000670553825329989,0.0181854106485844
772,-0.0184604190289974,0.0263751484453678,-0.000748489052057266,0.00223687244579196,-0.000276814622338861,0.0261224675923586
773,-0.0166902486234903,0.0238728541880846,0.00180588499642909,0.00572223123162985,0.0015322002582252,0.0316864475607872
774,-0.0167783237993717,0.0166600942611694,0.00253801746293902,0.0076108262874186,0.00139623542781919,0.0338873565196991
775,-0.0175423622131348,0.00827918667346239,0.00193317933008075,0.00858923699706793,-2.64343234448461E-05,0.0339861400425434
776,-0.0171645488590002,0.00237442599609494,0.000579037005081773,0.00913775060325861,-0.00180812599137425,0.0333383716642857
777,-0.016272246837616,-8.24910457595252E-05,-0.00119361549150199,0.00896820332854986,-0.00414361851289868,0.0329119339585304
778,-0.0171781480312347,-0.00020569731714204,-0.00259017408825457,0.00740123447030783,-0.00566946109756827,0.0325620099902153
779,-0.0205334443598986,0.00288011087104678,-0.00318481540307403,0.00485117733478546,-0.00515490351244807,0.0318080000579357
780,-0.0240034051239491,0.010539323091507,-0.0026596647221595,0.00381621858105063,-0.00307104154489934,0.0316414274275303
781,-0.0250768680125475,0.0184843428432941,-0.000711080559995025,0.00628702761605382,-0.000143619196023792,0.0333696231245995
782,-0.0233124513179064,0.0206569321453571,0.00214447826147079,0.0110826445743442,0.00313841970637441,0.037833109498024
783,-0.02079844661057,0.0156232696026564,0.00427719159051776,0.0149293756112456,0.00585075607523322,0.0428453385829926
784,-0.0191721580922604,0.00585451768711209,0.00492669967934489,0.0165563113987446,0.00792422331869602,0.0437543801963329
785,-0.0169579517096281,-0.00539081729948521,0.00572153646498919,0.0171997062861919,0.0112850517034531,0.0399018973112106
786,-0.0132594360038638,-0.0160384960472584,0.00771093554794788,0.0167889762669802,0.016520481556654,0.0344026312232018
787,-0.0103930216282606,-0.0247428361326456,0.00925797782838345,0.0138666499406099,0.0203965492546558,0.0291911773383617
788,-0.0110010113567114,-0.029897753149271,0.00856620911508799,0.00839608442038298,0.0195332728326321,0.0245209373533726
789,-0.014932812191546,-0.0306861475110054,0.00637318706139922,0.0027367842849344,0.0148165198042989,0.0214231368154287
790,-0.0199443381279707,-0.0286634787917137,0.00461037829518318,-0.000961384561378509,0.00994390062987804,0.020894393324852
791,-0.0239749290049076,-0.0254425276070833,0.00413350015878677,-0.00305558065883815,0.00746324472129345,0.0228237602859735
792,-0.0262079779058695,-0.0204817894846201,0.00468061165884137,-0.00419690972194076,0.00756692606955767,0.0271864719688892
793,-0.0270371399819851,-0.0142849152907729,0.00541030243039131,-0.00431825825944543,0.00905122421681881,0.0321525149047375
794,-0.0271821226924658,-0.0103331012651324,0.00547716720029712,-0.00429387530311942,0.010683904401958,0.0337093956768513
795,-0.0275074485689402,-0.0120983300730586,0.00383255700580776,-0.00576527696102858,0.011068201623857,0.0301839765161276
796,-0.0275709982961416,-0.0182413216680288,0.000588951807003468,-0.00777477072551847,0.00991723034530878,0.0253051891922951
797,-0.0270778927952051,-0.0243662875145674,-0.0033765162806958,-0.00865810923278332,0.00791640765964985,0.0226407367736101
798,-0.0273807551711798,-0.0273367110639811,-0.00785586517304182,-0.00973560847342014,0.00514403264969587,0.0216445308178663
799,-0.0277425665408373,-0.0246273428201675,-0.0113867027685046,-0.0114767337217927,0.00249738595448434,0.0230251215398312
800,-0.0276347640901804,-0.0177950132638216,-0.0134462453424931,-0.013336586765945,0.00035821640631184,0.0267334394156933
801,-0.0291359461843967,-0.012362034060061,-0.0157498959451914,-0.0158821754157543,-0.00149633944965899,0.0280859936028719
802,-0.0323596522212029,-0.0108092529699206,-0.0186347458511591,-0.0188056584447622,-0.0022286984603852,0.0246098544448614
803,-0.0349999479949474,-0.0119418632239103,-0.0204471666365862,-0.0204981435090303,-0.00190477655269206,0.0203175637871027
804,-0.0356686897575855,-0.0135318590328097,-0.0196262244135141,-0.0199663862586021,-0.00120609696023166,0.0198212377727032
805,-0.0353195182979107,-0.0150847937911749,-0.0174445938318968,-0.0190828070044518,-0.000977833522483706,0.0211764220148325
806,-0.0345374308526516,-0.0171673987060785,-0.0162903480231762,-0.0196880344301462,-0.00114101869985461,0.020289720967412
807,-0.0319441445171833,-0.0172921437770128,-0.0148236453533173,-0.0196088794618845,0.000692709698341787,0.0176506154239178
808,-0.0281510166823864,-0.0132369957864285,-0.0107029732316732,-0.0168771669268608,0.00487905321642756,0.0147767541930079
809,-0.0257973186671734,-0.00653349980711937,-0.00574837997555733,-0.0134264668449759,0.00849364325404167,0.0122926905751228
810,-0.0263130813837051,0.000558810657821596,-0.00378140085376799,-0.011935749091208,0.00907753314822912,0.0108110494911671
811,-0.0295344665646553,0.00589794898405671,-0.00544055225327611,-0.0121940597891808,0.00617870176210999,0.0107185104861856
812,-0.0339468568563461,0.00788787566125393,-0.00813625194132328,-0.0119169605895877,0.00130967306904495,0.0132110631093383
813,-0.0379982143640518,0.00718486635014415,-0.0101844202727079,-0.0103422608226538,-0.00353910611011088,0.0181597825139761
814,-0.0405291169881821,0.00522611476480961,-0.0107804918661714,-0.00808198098093271,-0.00680491840466857,0.0225587096065283
815,-0.0405251309275627,0.00208223960362375,-0.00865458976477385,-0.00541429268196225,-0.00755811668932438,0.0237270686775446
816,-0.0381240472197533,-0.00220273900777102,-0.00396573496982455,-0.00257363286800683,-0.00597295071929693,0.0220990404486656
817,-0.0351083911955357,-0.00668416172266006,0.00104088382795453,-0.000620451988652349,-0.00262354593724012,0.0185035988688469
818,-0.0333108231425285,-0.0105890817940235,0.00461974926292896,-0.000695772410836071,0.00197965302504599,0.0122505687177181
819,-0.0331888645887375,-0.0130266109481454,0.00648138159886003,-0.00229786639101803,0.00645655393600464,0.00482888566330075
820,-0.0350496545433998,-0.0134386466816068,0.00588926253840327,-0.00427951430901885,0.00817483104765415,-0.000394939008401707
821,-0.0382162593305111,-0.0113169429823756,0.00317280390299857,-0.00560205616056919,0.00660882424563169,-0.00182745605707169
822,-0.0417047254741192,-0.00695157097652555,-0.0001822114281822,-0.00601741531863809,0.00313809490762651,0.000208352386835031
823,-0.0461954697966576,-0.00337892444804311,-0.00388265307992697,-0.00679413601756096,-0.00155829754658043,0.00358602614142001
824,-0.0515146926045418,-0.0034697512164712,-0.00769843207672238,-0.00838886946439743,-0.00514001259580255,0.00536817638203502
825,-0.0559898763895035,-0.00674593914300203,-0.0103906691074371,-0.00926153175532818,-0.0049490942619741,0.00517785409465432
826,-0.0584059208631516,-0.0107313180342317,-0.0110833346843719,-0.00835251715034246,-0.00267648883163929,0.00477817980572581
827,-0.0581911765038967,-0.0135770691558719,-0.0101407840847969,-0.00619163736701012,-0.00178496667649597,0.00559844914823771
828,-0.0561912432312965,-0.0154087897390127,-0.00854411534965038,-0.00398592883720994,-0.00312078441493213,0.00792760588228703
829,-0.0545144751667976,-0.0171097349375486,-0.00753984646871686,-0.00327406637370586,-0.00587580027058721,0.0102186454460025
830,-0.0539134480059147,-0.0185159016400576,-0.00786306709051132,-0.00490285456180573,-0.00895149540156126,0.0100451968610287
831,-0.052956085652113,-0.01832564920187,-0.00829513650387526,-0.00697715906426311,-0.0101960171014071,0.00841097999364138
832,-0.0513055026531219,-0.0163238327950239,-0.00735713075846434,-0.00668425159528852,-0.00858946237713099,0.00898029562085867
833,-0.0520095489919186,-0.0142334746196866,-0.00639870390295982,-0.00494487723335624,-0.00703878467902541,0.0106144873425364
834,-0.0559511780738831,-0.0119211198762059,-0.00746734440326691,-0.00434948317706585,-0.00778649142012,0.00909528601914644
835,-0.0596128031611443,-0.00931006204336882,-0.0104667944833636,-0.00577880768105388,-0.00991090945899487,0.00328900176100433
836,-0.0605293102562428,-0.00883471593260765,-0.0136970281600952,-0.00856979470700026,-0.0123456371948123,-0.00356712238863111
837,-0.0584711097180843,-0.0107198068872094,-0.0153949884697795,-0.0105658853426576,-0.0141913387924433,-0.00482150493189693
838,-0.0545185618102551,-0.0134871853515506,-0.0151903349906206,-0.0101143587380648,-0.0146574201062322,0.00161454686895013
839,-0.0506035424768925,-0.0160778779536486,-0.0139613216742873,-0.00748202297836542,-0.0142440358176827,0.00917742494493723
840,-0.0478823557496071,-0.0168116986751556,-0.0130835575982928,-0.00439261365681887,-0.0145201608538628,0.0110205030068755
841,-0.0470737442374229,-0.01521619502455,-0.0140234669670463,-0.00365255260840058,-0.0168152879923582,0.00658645061776042
842,-0.0466574616730213,-0.0116394031792879,-0.0160056632012129,-0.00557191390544176,-0.0196630116552114,0.00227938313037157
843,-0.0443368703126907,-0.00779857998713851,-0.0175377018749714,-0.00793327949941158,-0.0208706595003605,0.00347322854213417
844,-0.041563093662262,-0.00812853593379259,-0.0201841592788696,-0.0104605155065656,-0.0219898987561464,0.00598849169909954
845,-0.0390788540244102,-0.0139045361429453,-0.0246976409107447,-0.0128501299768686,-0.0239698365330696,0.00422179419547319
846,-0.0353083871304989,-0.02113620005548,-0.0287658050656319,-0.0132116843014956,-0.0246209744364023,-0.000120446369692218
847,-0.0310087632387877,-0.0258140154182911,-0.030352795496583,-0.0109714679419994,-0.0226515624672174,-0.00295846979133785
848,-0.0284267570823431,-0.0270706545561552,-0.0284275189042091,-0.00733633246272802,-0.0183746982365847,-0.00343974237330258
849,-0.0282668452709913,-0.0257053524255753,-0.0228312388062477,-0.0036162652540952,-0.0126777356490493,-0.000824990274850279
850,-0.0300905723124743,-0.0227062031626701,-0.0157755240797997,-0.000418985990108922,-0.00743965152651072,0.00628444785252213
851,-0.0333037003874779,-0.0190615840256214,-0.0100776385515928,0.00256340857595205,-0.00405100686475635,0.0154137974604964
852,-0.0367887280881405,-0.014733225107193,-0.00631066877394915,0.00595551077276468,-0.00208723661489785,0.0217850543558598
853,-0.0393590405583382,-0.0106117865070701,-0.00439498573541641,0.00887562707066536,-0.00134785461705178,0.0227001719176769
854,-0.0413414686918259,-0.00931209791451693,-0.00560293439775705,0.00871956162154675,-0.00330295949243009,0.0192713234573603
855,-0.0434071011841297,-0.0097429221495986,-0.0102183930575848,0.00438538799062371,-0.00831618066877127,0.0150295160710812
856,-0.0442184209823608,-0.00775381084531546,-0.0150975557044148,-0.00116725591942668,-0.0131398504599929,0.0131323030218482
857,-0.0425911992788315,-0.00404352927580476,-0.0170726217329502,-0.00471213972195983,-0.0149952992796898,0.0142366355285048
858,-0.0389927513897419,-0.00329973269253969,-0.0157605074346066,-0.00591620802879334,-0.0146901579573751,0.0163603406399488
859,-0.0336228981614113,-0.00705225067213178,-0.0114214811474085,-0.00412778556346893,-0.0131108202040195,0.0188102405518293
860,-0.0269217770546675,-0.0114930840209126,-0.00533777521923184,0.00154920609202236,-0.0101368902251124,0.0222182534635067
861,-0.0198538023978472,-0.0115384897217155,-0.000465789693407714,0.00843645539134741,-0.00621340004727244,0.0250273607671261
862,-0.0140314670279622,-0.00827135145664215,0.00144815270323306,0.0114345271140337,-0.00267684273421764,0.0255099255591631
863,-0.0117206340655684,-0.00672245165333152,0.00153560424223542,0.009541648440063,-0.000180257557076402,0.0257980823516846
864,-0.0127901053056121,-0.00726866396144032,0.00194444530643523,0.00684273149818182,0.00304091419093311,0.0278322659432888
865,-0.0159448236227036,-0.00751218572258949,0.00227455794811249,0.00553009985014796,0.00590094132348895,0.0280858390033245
866,-0.0210742689669132,-0.00703719491139054,0.000643039180431515,0.00499297818168998,0.00346457352861762,0.0238916408270597
867,-0.0271072406321764,-0.00735042663291097,-0.0025734209921211,0.00443027727305889,-0.00412248447537422,0.0179954078048468
868,-0.031307827681303,-0.00911383796483278,-0.00483960844576359,0.00273249321617186,-0.0105279264971614,0.014271411113441
869,-0.0320453532040119,-0.0106919910758734,-0.00475738989189267,-0.000252644764259458,-0.01234186347574,0.0139778675511479
870,-0.0309194754809141,-0.0107935154810548,-0.00382652226835489,-0.0033845417201519,-0.0123530458658934,0.0155959976837039
871,-0.030595175921917,-0.00974773988127708,-0.00351892318576574,-0.00516571570187807,-0.0136708682402968,0.0187213737517595
872,-0.031855147331953,-0.00873855501413345,-0.00397256901487708,-0.00539559125900269,-0.0162410140037537,0.0243530701845884
873,-0.0338456146419048,-0.00756456283852458,-0.00551474653184414,-0.00515031907707453,-0.0187126956880093,0.0312115140259266
874,-0.0342667736113071,-0.0038284002803266,-0.00726427650079131,-0.00333553273230791,-0.0194878168404102,0.0358523316681385
875,-0.0309079624712467,0.00242656725458801,-0.00750744622200727,0.0016663878923282,-0.0173467919230461,0.0353407151997089
876,-0.0265508480370045,0.006321229506284,-0.00730399833992124,0.00624707294628024,-0.0142196798697114,0.0299568511545658
877,-0.0256389807909727,0.00456171901896596,-0.00826548598706722,0.00594006571918726,-0.0126188527792692,0.0239709801971912
878,-0.0270648263394833,-0.000920785765629262,-0.00984566006809473,0.00216223741881549,-0.012000267393887,0.0218287017196417
879,-0.0268312860280275,-0.00820666737854481,-0.0112022031098604,-0.00173235754482448,-0.0102662313729525,0.0221575517207384
880,-0.0230094064027071,-0.0165355075150728,-0.0109548009932041,-0.0047642202116549,-0.00564241735264659,0.0197177976369858
881,-0.0168821271508932,-0.0241732131689787,-0.00827838014811277,-0.00765875075012445,0.000171106745256111,0.0124376798048615
882,-0.0117091182619333,-0.0295551531016827,-0.00519336713477969,-0.0109915370121598,0.00266629457473755,0.00390215055085719
883,-0.00983136240392923,-0.03238420560956,-0.00452262163162231,-0.0145457601174712,0.000130120970425196,-2.57000465353485E-05
884,-0.0116364303976297,-0.0337732471525669,-0.00702416384592652,-0.018217695876956,-0.00554352020844817,0.00128691631834954
885,-0.0163020696491003,-0.0343336835503578,-0.0111568914726377,-0.0213305782526731,-0.0123523660004139,0.00367374857887626
886,-0.0212228745222092,-0.0328539051115513,-0.0139743918552995,-0.0216769967228174,-0.0184463430196047,0.00538205914199352
887,-0.0230642817914486,-0.0291131250560284,-0.0135793834924698,-0.0177677609026432,-0.0218492206186056,0.00717699527740479
888,-0.0201731100678444,-0.0249891150742769,-0.011082106269896,-0.0111827272921801,-0.0210938863456249,0.00917583052068949
889,-0.0132051538676023,-0.0216843988746405,-0.00867395475506783,-0.00512128183618188,-0.0160364061594009,0.0112403770908713
890,-0.00458492897450924,-0.0176226962357759,-0.00690834689885378,-0.000889577611815184,-0.00904203020036221,0.0148423723876476
891,0.0026933467015624,-0.0111479628831148,-0.0057952618226409,0.00178718473762274,-0.00318572577089071,0.0210815165191889
892,0.00624847412109375,-0.00499566039070487,-0.00642622029408813,0.00215790141373873,-0.00037914578570053,0.0268209502100945
893,0.00586454616859555,-0.00267817359417677,-0.00869779102504253,-7.97814209363423E-06,-0.000836542632896453,0.0283630955964327
894,0.00279145664535463,-0.00359668512828648,-0.0111412722617388,-0.00348861142992973,-0.00347772426903248,0.0262740310281515
895,-0.00204600393772125,-0.006013841368258,-0.0134248044341803,-0.00703496066853404,-0.00757628493010998,0.0231384448707104
896,-0.0052343001589179,-0.00843976903706789,-0.0148748382925987,-0.00893768109381199,-0.0117398602887988,0.0205589458346367
897,-0.00216802186332643,-0.00952511746436358,-0.0137277394533157,-0.00844098255038261,-0.0124625619500875,0.0181348863989115
898,0.00493990909308195,-0.0107245203107595,-0.0107982801273465,-0.00720077706500888,-0.00844671856611967,0.0150475967675447
899,0.00918022077530622,-0.0138937691226602,-0.00879980251193047,-0.00631548836827278,-0.00258264108560979,0.0123003274202347
900,0.00777203636243939,-0.0182219184935093,-0.00833760108798742,-0.00585661735385656,0.00200643646530807,0.0115481410175562
901,0.00255965511314571,-0.0226120762526989,-0.00863914843648672,-0.00652801059186459,0.00339408870786428,0.0129956696182489
902,-0.00350680993869901,-0.0269093196839094,-0.00892510917037725,-0.00782216154038906,0.00167933676857501,0.0145574556663632
903,-0.0077023389749229,-0.0310325510799885,-0.00823867879807949,-0.00789016205817461,-0.000518122804351151,0.0140746459364891
904,-0.00790301524102688,-0.033746961504221,-0.00589825678616762,-0.00568881491199136,-0.000705355836544186,0.0124051943421364
905,-0.00417551212012768,-0.0336130410432816,-0.00225324300117791,-0.00200244109146297,0.000796733773313463,0.0112446593120694
906,0.000654697883874178,-0.0312517806887627,0.000800403591711074,0.000662292703054845,0.00134895916562527,0.00996921677142382
907,0.00384214520454407,-0.027919152751565,0.00158227805513889,0.00037384795723483,-0.00084998388774693,0.00797448121011257
908,0.00436075171455741,-0.0237497147172689,0.000373225018847734,-0.00250112335197628,-0.00596258277073503,0.00739408889785409
909,0.00294808181934059,-0.0185248889029026,-0.000982149038463831,-0.00555837154388428,-0.0119609441608191,0.0106262722983956
910,0.00147398142144084,-0.013698311522603,-0.00152512441854924,-0.00665263412520289,-0.0149412797763944,0.0156019032001495
911,0.0017812040168792,-0.0115904696285725,-0.00194057391490787,-0.00588621571660042,-0.0126044172793627,0.0179594401270151
912,0.00503623345866799,-0.0121311824768782,-0.00215678894892335,-0.00410617049783468,-0.00556025700643659,0.017493711784482
913,0.0102165406569839,-0.0132481139153242,-0.00176390807610005,-0.00214303634129465,0.00256202812306583,0.0171713083982468
914,0.0148854367434978,-0.0130497058853507,-0.000946936779655516,-0.000653781753499061,0.0079534100368619,0.0184329506009817
915,0.0171293076127768,-0.0113078653812408,-0.0004159533418715,-8.02947906777263E-05,0.00976877845823765,0.0198679026216269
916,0.0166062191128731,-0.00858659762889147,-0.000885127810761333,-0.000754047883674502,0.00920845475047827,0.0203498844057322
917,0.0151108205318451,-0.00468554394319654,-0.00138717563822865,-0.00118452950846404,0.00853112153708935,0.0214088205248117
918,0.0150797357782722,-0.000265963841229677,0.000248725904384628,0.000828694435767829,0.00991995725780725,0.0248761028051376
919,0.0162788331508636,0.00216129561886191,0.00371905439533293,0.00403350731357932,0.0126852998510003,0.0292544234544039
920,0.0148988524451852,0.00019514920131769,0.00469045247882605,0.00449576089158654,0.0127384690567851,0.0296061094850302
921,0.00982108246535063,-0.00522500229999423,0.00114917929749936,0.00156897574197501,0.00888993218541145,0.0238633900880814
922,0.00478257378563285,-0.0105285029858351,-0.00358910905197263,-0.00186178297735751,0.00465726340189576,0.0159734580665827
923,0.0014959272230044,-0.014361260458827,-0.00738947978243232,-0.00444164359942079,0.00108509254641831,0.0107291135936975
924,-0.000945567444432527,-0.017524316906929,-0.0107350647449493,-0.0057176030240953,-0.00303939520381391,0.00943779293447733
925,-0.00127460213843733,-0.0198075342923403,-0.0130351800471544,-0.00476685492321849,-0.00621871231123805,0.0113254059106112
926,0.00226241024211049,-0.0207166578620672,-0.0135827241465449,-0.00303739705123007,-0.00627700937911868,0.0158025547862053
927,0.00741547858342528,-0.0210396368056536,-0.0128892976790667,-0.00292962719686329,-0.00285952701233327,0.0202394612133503
928,0.00955200474709272,-0.0216427873820066,-0.0113870101049542,-0.00411238009110093,0.00207941839471459,0.0209576655179262
929,0.00699504045769572,-0.0224296450614929,-0.00926299206912518,-0.00486132269725204,0.0048646661452949,0.0190696120262146
930,0.00234039314091206,-0.0226049013435841,-0.00670476211234927,-0.00411283643916249,0.0041291443631053,0.0185370314866304
931,-0.00161938078235835,-0.0218388624489307,-0.00443589314818382,-0.00239639030769467,0.00145548558793962,0.018936924636364
932,-0.00488277385011315,-0.0209374781697989,-0.0042742071673274,-0.00192269484978169,-0.00199783383868635,0.0168911758810282
933,-0.00786361563950777,-0.0202881675213575,-0.00670303078368306,-0.00361257698386908,-0.00536153325811028,0.012105573900044
934,-0.0103389602154493,-0.0199161730706692,-0.0102398712188005,-0.00631155865266919,-0.00794829986989498,0.00673068594187498
935,-0.0126303620636463,-0.0189789459109306,-0.013644895516336,-0.00897409953176975,-0.0103667257353663,0.00267596426419914
936,-0.0155489547178149,-0.0168156083673239,-0.0171083584427834,-0.0122504411265254,-0.0138037465512753,0.000182665709871799
937,-0.0196517743170261,-0.0167924892157316,-0.0215339027345181,-0.0169032216072083,-0.0189324952661991,-0.000785850163083524
938,-0.0228601768612862,-0.0212640129029751,-0.0259685702621937,-0.0207567885518074,-0.0242003500461578,0.000238821332459338
939,-0.0218542274087667,-0.0260735098272562,-0.0284804608672857,-0.0216862596571445,-0.0270561892539263,0.000686495564877987
940,-0.0172741357237101,-0.0278486628085375,-0.0293360259383917,-0.021595973521471,-0.0269407890737057,-0.00090224202722311
941,-0.0122672617435455,-0.0285712610930204,-0.0279589351266623,-0.0215163640677929,-0.023454625159502,0.000494279549457133
942,-0.00946001429110765,-0.0307916738092899,-0.021336056292057,-0.0192933697253466,-0.0167978554964066,0.00628362689167261
943,-0.0103818029165268,-0.0332999154925346,-0.0100680850446224,-0.0145258149132133,-0.00904021225869656,0.00974110700190067
944,-0.0133652230724692,-0.0313862338662148,0.000472747458843514,-0.00853493437170982,-0.00149625446647406,0.0083742281422019
945,-0.016095332801342,-0.0227313544601202,0.00560394627973437,-0.0038083647377789,0.00386748928576708,0.00466467952355742
946,-0.0181617233902216,-0.010880745947361,0.00577067444100976,-0.00292131979949772,0.00528657389804721,0.000442286283941939
947,-0.0190753825008869,-0.00198238482698798,0.00508370622992516,-0.0047886916436255,0.00412496272474527,-0.00104455987457186
948,-0.0190417300909758,-0.000259907101280987,0.00469190860167146,-0.00660801120102406,0.00108501967042685,7.92469945736229E-05
949,-0.0196781605482101,-0.0060640019364655,0.00215942389331758,-0.00788042508065701,-0.00460838805884123,-0.00179923337418586
950,-0.0205506104975939,-0.0158085655421019,-0.00173730426467955,-0.00964122544974089,-0.00996708776801825,-0.00742192845791578
951,-0.0191709864884615,-0.0235081259161234,-0.00254761055111885,-0.0110125727951527,-0.00954853650182486,-0.0101704867556691
952,-0.014621676877141,-0.0253936462104321,0.00136142910923809,-0.00990522000938654,-0.00237089861184359,-0.00570124061778188
953,-0.00758297694846988,-0.0221939869225025,0.00751886563375592,-0.00626879464834929,0.00744799943640828,0.00381152029149234
954,-0.00104937446303666,-0.0170148387551308,0.0129614882171154,-0.0022064617369324,0.0151819121092558,0.0129165668040514
955,0.000199395319214091,-0.0127568487077951,0.0161590985953808,0.000375874718884006,0.0183233227580786,0.0174597650766373
956,-0.00486837280914187,-0.00974378176033497,0.0162058044224977,0.00124533555936068,0.0166147146373987,0.0175515338778496
957,-0.0124595304951072,-0.00630659516900778,0.0127105871215463,0.000827222655061632,0.0113086896017194,0.0161109175533056
958,-0.0178112834692001,-0.00156211899593472,0.00758936209604144,0.000146946564200334,0.00554852886125445,0.016496067866683
959,-0.0181956868618727,0.00465245125815272,0.00440696440637112,0.00126776448450983,0.00284193083643913,0.0209933780133724
960,-0.0147010888904333,0.0114247724413872,0.00424698228016496,0.0043923151679337,0.00336630665697157,0.0274885091930628
961,-0.010033130645752,0.0164168942719698,0.00463146576657891,0.00732854241505265,0.00402411632239819,0.0310218334197998
962,-0.00321416673250496,0.0187902674078941,0.00282919593155384,0.00852729752659798,0.00203360873274505,0.0295068807899952
963,0.00709504121914506,0.0197478942573071,-0.00174494530074298,0.00755658885464072,-0.00249743345193565,0.0239098463207483
964,0.0154426982626319,0.0199184138327837,-0.00668281922116876,0.00539987254887819,-0.00709397345781326,0.0170425586402416
965,0.015870051458478,0.0195660255849361,-0.00822526402771473,0.00413787364959717,-0.00939516164362431,0.0124544575810432
966,0.010974083095789,0.0212612561881542,-0.00415565492585301,0.00516406865790486,-0.00788225047290325,0.0117275537922978
967,0.00699599739164114,0.0270538926124573,0.00347933662123978,0.00771501054987311,-0.00384199130348861,0.0126791931688786
968,0.00486651295796037,0.0339403115212917,0.00840275082737207,0.00859285052865744,-0.00253832619637251,0.0103217586874962
969,0.00297117442823946,0.0372321754693985,0.00755744241178036,0.00600923225283623,-0.00571322487667203,0.00299241952598095
970,0.00293464842252433,0.0361971594393253,0.00480425916612148,0.0026447563432157,-0.00889940932393074,-0.00520346453413367
971,0.00496570533141494,0.0318034216761589,0.00378915132023394,0.00262394524179399,-0.00965392030775547,-0.0104269767180085
972,0.00565974786877632,0.0223405919969082,0.00541273644194007,0.00704442849382758,-0.00774211250245571,-0.0110605284571648
973,0.00458891037851572,0.00876232702285051,0.0101002668961883,0.0141517147421837,-0.00129090517293662,-0.00574715156108141
974,0.0040970565751195,-0.00240082526579499,0.0149658787995577,0.0215805731713772,0.00804583262652159,0.0033381727989763
