,AF3,AF4,Fp1,Fp2,AF7,AF8
0,-0.00420556077733636,-0.0119976252317429,-0.0188644453883171,0.000977380084805191,-0.0126495715230703,-0.0306838769465685
1,-0.00667287176474929,-0.0123084615916014,-0.0223081279546022,-0.000557994702830911,-0.0143362833186984,-0.0334651209414005
2,-0.00863146595656872,-0.0121092721819878,-0.0253267958760262,-0.00203837477602065,-0.0157586392015219,-0.0335466414690018
3,-0.00737333111464977,-0.00942161772400141,-0.0259600635617971,-0.00157161324750632,-0.0145052075386047,-0.0293563883751631
4,-0.00288102892227471,-0.00507948733866215,-0.0237350147217512,0.000530569290276617,-0.0100167607888579,-0.0235474240034819
5,0.00205773138441145,-0.00127197615802288,-0.0204520281404257,0.00260090106166899,-0.00415134429931641,-0.018860962241888
6,0.004803033079952,0.000472865882329643,-0.0183027051389217,0.00368011044338346,0.000505343952681869,-0.0159022007137537
7,0.00370639120228589,-0.00110395788215101,-0.0190194956958294,0.00256608659401536,0.000951656140387058,-0.0158060546964407
8,-0.000496926310006529,-0.00520889600738883,-0.0225812532007694,-0.00101200118660927,-0.00351448892615736,-0.0188330560922623
9,-0.00457170233130455,-0.00876435730606318,-0.0265380125492811,-0.00500277616083622,-0.00908154528588057,-0.0223576817661524
10,-0.00633210781961679,-0.00974913407117128,-0.0288390181958675,-0.00773697998374701,-0.0118439486250281,-0.0236035529524088
11,-0.00682046357542276,-0.00905227568000555,-0.0303014758974314,-0.00983160734176636,-0.0119911162182689,-0.0224298425018787
12,-0.00780969532206655,-0.00912542082369328,-0.0324383601546288,-0.0130981355905533,-0.0113182226195931,-0.0216327626258135
13,-0.00930683128535748,-0.0105054276064038,-0.0349042341113091,-0.0177469402551651,-0.0103902630507946,-0.0227619465440512
14,-0.0107147954404354,-0.0115130767226219,-0.0369320809841156,-0.0219603590667248,-0.00961943529546261,-0.0237587634474039
15,-0.0103294672444463,-0.0101146753877401,-0.0370798856019974,-0.0230550114065409,-0.00805387366563082,-0.0215299632400274
16,-0.00663257902488112,-0.00596493296325207,-0.0338430292904377,-0.0198849495500326,-0.00366618181578815,-0.015779422596097
17,-0.000819335517007858,-0.00082063174340874,-0.0280854012817144,-0.0143142212182283,0.00317172799259424,-0.00932623352855444
18,0.00550484796985984,0.0040640365332365,-0.0214494746178389,-0.00833813939243555,0.0105441315099597,-0.0041728257201612
19,0.00991202145814896,0.00694219395518303,-0.0164751056581736,-0.00421200646087527,0.0153733547776937,-0.00178732024505734
20,0.00900668278336525,0.00520355440676212,-0.0162522159516811,-0.00481419125571847,0.0144217601045966,-0.00404834002256393
21,0.0036449849139899,0.000220973219256848,-0.0198042448610067,-0.00905798561871052,0.00924499146640301,-0.00932730082422495
22,-0.00128946697805077,-0.00283665489405394,-0.0230206921696663,-0.0124205388128757,0.00517395837232471,-0.0132689829915762
23,-0.00318235065788031,-0.00190466281492263,-0.0239651147276163,-0.0124590992927551,0.0047221933491528,-0.0139415049925447
24,-0.00326059432700276,-5.65002483199351E-05,-0.0235205683857203,-0.0101738562807441,0.00584433553740382,-0.0123925395309925
25,-0.00324563821777701,0.000144182718941011,-0.0229833703488112,-0.00754078337922692,0.00559821911156178,-0.00927671790122986
26,-0.00292961043305695,2.54558926826576E-05,-0.0225324239581823,-0.00518831051886082,0.00354308751411736,-0.00378627609461546
27,-0.00124834454618394,0.00171066634356976,-0.0218574050813913,-0.00290830712765455,0.00121906213462353,0.00362728629261255
28,0.00152137491386384,0.00496441964060068,-0.0212229322642088,-0.00100309296976775,-0.000238098335103132,0.0110391778871417
29,0.00465332018211484,0.00864353124052286,-0.0201084557920694,0.000408563180826604,0.000372928276192397,0.0175158083438873
30,0.00806521251797676,0.0126288076862693,-0.0170184038579464,0.00184763735160232,0.00423425156623125,0.0231184586882591
31,0.0109530203044415,0.0156578123569489,-0.0123377190902829,0.00284639978781343,0.00963672157377005,0.0267418511211872
32,0.0120845455676317,0.0151629718020558,-0.0083867684006691,0.00205533183179796,0.0130700273439288,0.0267797596752644
33,0.0123849119991064,0.0121681038290262,-0.00579860340803862,0.000598185870330781,0.0142781278118491,0.0248618219047785
34,0.012683404609561,0.00918771326541901,-0.00388253945857286,0.000200563707039692,0.0145887918770313,0.0231161881238222
35,0.0125370593741536,0.00673479307442904,-0.00238610594533384,0.000642578699626029,0.0143177341669798,0.021723285317421
36,0.0136214820668101,0.00640634307637811,-0.000443970231572166,0.00210254429839551,0.0154798738658428,0.0220593810081482
37,0.0167343840003014,0.00887325406074524,0.00161548110190779,0.00394798628985882,0.0187657233327627,0.0244301147758961
38,0.0191067233681679,0.0110917938873172,0.00136016251053661,0.00392862036824226,0.0208155941218138,0.0257249567657709
39,0.0179550126194954,0.00969383865594864,-0.00271404534578323,0.000921897008083761,0.0184979978948832,0.0227145217359066
40,0.0139496074989438,0.005405283998698,-0.00893132947385311,-0.00306748575530946,0.0126956440508366,0.0163879226893187
41,0.0109295034781098,0.00234002596698701,-0.0133288148790598,-0.00433253450319171,0.00757593009620905,0.0115577299147844
42,0.0099819740280509,0.00133366766385734,-0.0148925138637424,-0.0035366821102798,0.00459635583683848,0.00938038341701031
43,0.00897025782614946,0.000712168461177498,-0.0156168146058917,-0.0040965392254293,0.00185786362271756,0.00713699217885733
44,0.00674286065623164,0.000359242461854592,-0.016489939764142,-0.00651268986985087,-0.00185523729305714,0.00394414085894823
45,0.00271095870994031,-0.000924085732549429,-0.0182509087026119,-0.0105778547003865,-0.00696750497445464,-0.000625451735686511
46,-0.00129891745746136,-0.0029247123748064,-0.0201674550771713,-0.0145803429186344,-0.0115075018256903,-0.00554526224732399
47,-0.00253430707380176,-0.00300469435751438,-0.0204207021743059,-0.0157669186592102,-0.0129592502489686,-0.008028794080019
48,-0.00190021691378206,-0.00154784449841827,-0.0194391757249832,-0.0148832388222218,-0.0121957706287503,-0.00854630023241043
49,-0.000356426404323429,0.000350183283444494,-0.0175689328461885,-0.012809812091291,-0.00990320183336735,-0.00827691424638033
50,0.00279893260449171,0.00374765833839774,-0.0140643883496523,-0.0087796188890934,-0.00548028806224465,-0.00608342839404941
51,0.00630509527400136,0.00832572765648365,-0.0100979972630739,-0.00398283964022994,-0.000976533279754221,-0.00264771748334169
52,0.00718338042497635,0.0115028461441398,-0.00838045403361321,-0.0010696891695261,-0.000254890881478786,-0.00103427155409008
53,0.00447466084733605,0.0114290015771985,-0.0100343730300665,-0.00110302935354412,-0.00453010713681579,-0.00197048322297633
54,0.00146802957169712,0.00946367159485817,-0.0125304916873574,-0.00239381263963878,-0.010138189420104,-0.00263197277672589
55,0.00165964523330331,0.00877525005489588,-0.0128615377470851,-0.00304058380424976,-0.0127526894211769,-0.00102937128394842
56,0.00341857690364122,0.00987780932337046,-0.0120414765551686,-0.00376763264648616,-0.0128353592008352,0.00108741864096373
57,0.00342609384097159,0.0107467323541641,-0.0122828781604767,-0.0058915177360177,-0.0129726761952043,0.00149091926869005
58,0.00244467332959175,0.0113502331078053,-0.0125719588249922,-0.00789062492549419,-0.0125788887962699,0.00143554713577032
59,0.00243824347853661,0.0131273474544287,-0.0111340647563338,-0.0075500919483602,-0.0101224174723029,0.00331572932191193
60,0.00324524031020701,0.0163933522999287,-0.00845665112137794,-0.00516848545521498,-0.00696529308333993,0.00739455688744783
61,0.00270680710673332,0.0187476202845573,-0.00728837726637721,-0.00399202620610595,-0.0066192070953548,0.0107000218704343
62,-0.000760316732339561,0.0177745763212442,-0.00936691928654909,-0.0061755096539855,-0.0102866115048528,0.0106274960562587
63,-0.0046190950088203,0.0154482442885637,-0.0119560090824962,-0.0088419858366251,-0.0142236482352018,0.00937029905617237
64,-0.00727814575657249,0.012548073194921,-0.0132857887074351,-0.0107272760942578,-0.0161642972379923,0.00775028299540281
65,-0.0101509327068925,0.00742895109578967,-0.0150670222938061,-0.0140583012253046,-0.0173883270472288,0.00384918111376464
66,-0.0120655475184321,0.00278764730319381,-0.0169562958180904,-0.017548156902194,-0.0173826925456524,-0.000129143867525272
67,-0.0110765788704157,0.00260728038847446,-0.0172300320118666,-0.0183077212423086,-0.0154314823448658,-0.000459002127172425
68,-0.00831507798284292,0.0057361270301044,-0.01620420999825,-0.0167543329298496,-0.0129095390439034,0.00233938195742667
69,-0.00562827568501234,0.00887009967118502,-0.014677713625133,-0.0144146448001266,-0.0107309017330408,0.00543518364429474
70,-0.00315601378679276,0.0118568167090416,-0.0125586204230785,-0.0111977504566312,-0.00902817491441965,0.00790457520633936
71,0.000405117432819679,0.0161584448069334,-0.00893883593380451,-0.00597147084772587,-0.00742175243794918,0.011517352424562
72,0.00523231318220496,0.0204392150044441,-0.00365693820640445,0.00104454206302762,-0.00556204468011856,0.017497330904007
73,0.00882167648524046,0.0211419835686684,0.000631400442216545,0.00694649294018745,-0.00473860604688525,0.0228895600885153
74,0.00898797530680895,0.0172714982181787,0.00104692683089525,0.00902886968106031,-0.00640534283593297,0.0238032042980194
75,0.00690557528287172,0.0121829425916076,-0.00129808951169252,0.0083150677382946,-0.00902255345135927,0.0212223157286644
76,0.00575238093733788,0.00981516670435667,-0.00256603490561247,0.00796320009976625,-0.00878678448498249,0.0190990529954433
77,0.00761438859626651,0.01157998573035,-0.000491329992655665,0.0100616458803415,-0.00351010542362928,0.0195906031876802
78,0.0111338011920452,0.0153519483283162,0.00311343395151198,0.0136088840663433,0.0042478134855628,0.0207746382802725
79,0.0126805678009987,0.016941649839282,0.00427976297214627,0.015037658624351,0.00896351411938667,0.0186397768557072
80,0.0111624198034406,0.0146937798708677,0.00245947018265724,0.0132725890725851,0.00914720725268126,0.0129988668486476
81,0.00802346225827932,0.0100757442414761,-0.000174079817952588,0.00996927078813314,0.00733753573149443,0.00687109353020787
82,0.00539536587893963,0.00606640614569187,-0.00215504388324916,0.00660073524340987,0.00596091989427805,0.00218033255077899
83,0.00468566175550222,0.0042701349593699,-0.00296201277524233,0.00383485504426062,0.00613916432484984,-0.00142061687074602
84,0.00553351594135165,0.00391856161877513,-0.0024612273555249,0.00228238897398114,0.0074812020175159,-0.00396065413951874
85,0.00664935214444995,0.00378154753707349,-0.000836943509057164,0.00216985098086298,0.0091326292604208,-0.00458387518301606
86,0.0068195192143321,0.00315991905517876,0.0013984089018777,0.00240139104425907,0.0111289704218507,-0.00372974574565887
87,0.0064380788244307,0.00288346293382347,0.00409647822380066,0.00248293159529567,0.0141253797337413,-0.00182595232035965
88,0.00590819958597422,0.00313771236687899,0.00656926771625876,0.00234146183356643,0.0169876590371132,0.00051370618166402
89,0.0064768185839057,0.00466043688356876,0.00964838732033968,0.00337300705723464,0.0195678994059563,0.00385782425291836
90,0.00961198937147856,0.00862862635403872,0.0147168058902025,0.00681243930011988,0.0230631828308105,0.00887494999915361
91,0.013171180151403,0.0126581434160471,0.0193495266139507,0.00994595233350992,0.025576313957572,0.0128580359742045
92,0.0157557670027018,0.0152800958603621,0.0216469597071409,0.0112940054386854,0.0261234603822231,0.0147754391655326
93,0.0179064273834229,0.0177347417920828,0.0225952062755823,0.0121536683291197,0.0265219677239656,0.0158873815089464
94,0.0184123851358891,0.0197586491703987,0.0221243370324373,0.0124700041487813,0.0268161427229643,0.0154227539896965
95,0.0169156473129988,0.0209097433835268,0.0197873748838902,0.0119083998724818,0.0258302334696054,0.0130116622895002
96,0.0146149760112166,0.0218460559844971,0.0162904374301434,0.0107238264754415,0.0232375506311655,0.0100318314507604
97,0.0116857551038265,0.0225579421967268,0.0124045116826892,0.00910918042063713,0.0191300138831139,0.00769489398226142
98,0.00884418375790119,0.0231423396617174,0.00945849996060133,0.00799759943038225,0.0147437192499638,0.00694235321134329
99,0.0068906145170331,0.0238560363650322,0.00814118981361389,0.0077878194861114,0.0111782606691122,0.0080938208848238
100,0.00459160842001438,0.0238304566591978,0.00708900019526482,0.00716532673686743,0.00789414811879396,0.0100513743236661
101,0.0013763839378953,0.0225507561117411,0.00567625695839524,0.00517118722200394,0.00526120094582438,0.0115151610225439
102,-0.000913103693164885,0.0212946850806475,0.00500062853097916,0.0027493501547724,0.00465550273656845,0.012657075189054
103,-0.000539454631507397,0.0221650656312704,0.00582725601270795,0.00179253658279777,0.00623526889830828,0.0145352454856038
104,0.0008955710218288,0.0250828228890896,0.00724475737661123,0.0026108652818948,0.00789910648018122,0.0168869122862816
105,0.000568558054510504,0.027625048533082,0.00788485258817673,0.00377723597921431,0.00737937493249774,0.018740763887763
106,-0.00102300895377994,0.0283997189253569,0.0079301605001092,0.00468621822074056,0.0054794610477984,0.0203425567597151
107,-0.00270446063950658,0.0271819438785315,0.00749582285061479,0.00491114147007465,0.00367265939712524,0.0213192645460367
108,-0.00533418264240026,0.0245378743857145,0.00568941608071327,0.00343057326972485,0.00172324012964964,0.0202636122703552
109,-0.00754103995859623,0.0230032633990049,0.00401954492554069,0.00213266653008759,0.00105980201624334,0.0185713730752468
110,-0.00706877326592803,0.0233483519405127,0.00443683192133904,0.00325115211308002,0.00344329420477152,0.0183397196233273
111,-0.00534222461283207,0.0229399409145117,0.00539110461249948,0.00479406770318747,0.00707495538517833,0.0185281969606876
112,-0.00379717908799648,0.0210286881774664,0.00583873363211751,0.00544251967221498,0.0103952204808593,0.0189316160976887
113,-0.00263259024359286,0.0184586197137833,0.00631319032981992,0.00598199013620615,0.0130221182480454,0.020012192428112
114,-0.00286196451634169,0.0148164443671703,0.00636783055961132,0.00626427959650755,0.013566117733717,0.0201924853026867
115,-0.00497667724266648,0.0103003662079573,0.00565055944025517,0.00593933975324035,0.0112644117325544,0.0187981780618429
116,-0.00811557378619909,0.00613648351281881,0.00474715186282992,0.0048752031289041,0.00715495040640235,0.0164701621979475
117,-0.0102991964668036,0.00363859813660383,0.00490522058680654,0.00400844449177384,0.00412763981148601,0.0140160415321589
118,-0.0104297930374742,0.00318292691372335,0.00655213138088584,0.00443457579240203,0.00387669540941715,0.0120212575420737
119,-0.00946597568690777,0.00365563132800162,0.00862232223153114,0.00527980271726847,0.00482640601694584,0.0103344423696399
120,-0.00776736531406641,0.00470441998913884,0.0108739556744695,0.00584155600517988,0.00594668323174119,0.00951455999165773
121,-0.0048261689953506,0.0061732311733067,0.0137081034481525,0.00612200610339642,0.00814567971974611,0.00943384412676096
122,-0.00305246911011636,0.00561287254095078,0.0149107910692692,0.004159199539572,0.00978899654000998,0.00669702235609293
123,-0.00489859282970428,0.00326096755452454,0.0126760825514793,-0.000708071049302816,0.00824375078082085,0.000140495350933634
124,-0.00826285686343908,0.00293710851110518,0.00912915728986263,-0.00577643373981118,0.00469887023791671,-0.00639497954398394
125,-0.0101460963487625,0.00523999566212296,0.00669917836785316,-0.00926519930362701,0.0017670844681561,-0.0101070087403059
126,-0.00959540531039238,0.0080546485260129,0.00627187872305512,-0.0106587735936046,0.00110038812272251,-0.0103958928957582
127,-0.0072763036005199,0.0096794068813324,0.00773619953542948,-0.00976643990725279,0.00325691374018788,-0.0073122326284647
128,-0.0036363541148603,0.0103196194395423,0.0107259750366211,-0.0068335672840476,0.00819511525332928,-0.00230155792087317
129,0.000682647514622658,0.0110213737934828,0.0142874447628856,-0.00298164691776037,0.0143115734681487,0.00179822742938995
130,0.00422340538352728,0.0119110541418195,0.01703991740942,0.00061188917607069,0.0191321447491646,0.00362584483809769
131,0.00691348500549793,0.0138974050059915,0.0187410730868578,0.0040598101913929,0.0221076495945454,0.00467335060238838
132,0.00826641917228699,0.0165174975991249,0.0186917819082737,0.00592963676899672,0.0226607471704483,0.00476427143439651
133,0.00737001048400998,0.0171113200485706,0.0164617970585823,0.0043021822348237,0.0206706896424294,0.00201900862157345
134,0.00608362909406424,0.015532311052084,0.0143318297341466,0.00111914228182286,0.0184249263256788,-0.00173832569271326
135,0.0068649360910058,0.014040119946003,0.0145890871062875,-0.000260091881500557,0.0175338834524155,-0.00281867710873485
136,0.00848653074353933,0.0128089943900704,0.0157980155199766,-0.000362433202099055,0.01609056442976,-0.00184421229641885
137,0.00807166658341885,0.0104488115757704,0.0149417817592621,-0.00196571950800717,0.0115711223334074,-0.00207935180515051
138,0.00630683545023203,0.0079762963578105,0.0122201694175601,-0.00429723784327507,0.00554768741130829,-0.00351391639560461
139,0.00523917470127344,0.00688696140423417,0.00991408340632916,-0.00472510419785976,0.00104329246096313,-0.00436333753168583
140,0.0036468303296715,0.00551767088472843,0.00789085403084755,-0.00438519567251205,-0.00259761791676283,-0.00573141546919942
141,-0.00034924378269352,0.00204109726473689,0.00406790804117918,-0.00596389314159751,-0.00741983624175191,-0.00917216949164867
142,-0.0052443714812398,-0.00173633790109307,-0.000983485369943082,-0.0084738889709115,-0.0120996357873082,-0.0127091435715556
143,-0.00774225872009993,-0.00259918556548655,-0.00375868496485054,-0.00862184073776007,-0.0135295456275344,-0.0133334454149008
144,-0.00786060281097889,-0.00105757638812065,-0.00376100372523069,-0.00683867512270808,-0.012351424433291,-0.0117990560829639
145,-0.00823329016566277,-0.000138380244607106,-0.00359468022361398,-0.00649351719766855,-0.0113997161388397,-0.0109905982390046
146,-0.00915893074125052,-0.000121148164907936,-0.00367215392179787,-0.00762063497677445,-0.0109041342511773,-0.0113135408610106
147,-0.00860525015741587,0.00144829787313938,-0.00237723579630256,-0.00720951054245234,-0.00920572131872177,-0.0108852405101061
148,-0.00517253810539842,0.0058572250418365,0.00122860784176737,-0.00373673695139587,-0.00496055511757731,-0.00798902381211519
149,-0.000686477462295443,0.0103813018649817,0.00555280456319451,0.000506981741636992,0.000439475639723241,-0.00339830294251442
150,0.00180173257831484,0.011484039016068,0.00767794623970985,0.00225004251115024,0.00374602060765028,0.000613248150330037
151,0.00229988945648074,0.00957998353987932,0.00718505773693323,0.0017410647124052,0.00390236568637192,0.00368456356227398
152,0.00251382612623274,0.00717746699228883,0.00596572319045663,0.00132548052351922,0.00255890586413443,0.00643187668174505
153,0.0025400195736438,0.00528487144038081,0.00498006958514452,0.00116494786925614,0.0011928939493373,0.00795865710824728
154,0.00120395747944713,0.00353364227339625,0.00397120416164398,7.2104056016542E-05,-0.000787893368396908,0.00757528934627771
155,-0.0019658301025629,0.00125523179303855,0.00257104611955583,-0.0019911602139473,-0.0043754787184298,0.00648666452616453
156,-0.00581852719187737,-0.0017102271085605,0.00109201180748641,-0.00420248275622725,-0.0085270619019866,0.00635741464793682
157,-0.00802885182201862,-0.00395527156069875,0.00120074255391955,-0.00519747473299503,-0.0103430580347776,0.00862671993672848
158,-0.00729423342272639,-0.00429642247036099,0.00350343901664019,-0.00459461519494653,-0.00832415465265512,0.0132333654910326
159,-0.00427978904917836,-0.00317375245504081,0.00637144269421697,-0.00342055526562035,-0.00406411569565535,0.0177255775779486
160,-0.000325431319652125,-0.00129922747146338,0.00865256506949663,-0.00210962956771255,0.000390003813663498,0.0201349332928658
161,0.00313713634386659,0.000582488777581602,0.010317575186491,-0.000403869024012238,0.00393286347389221,0.0206419788300991
162,0.00489853834733367,0.00134603236801922,0.0111074354499578,0.00125924882013351,0.00565971620380878,0.0197272095829248
163,0.00462332600727677,0.00027656287420541,0.0107077062129974,0.00206796382553875,0.00543857226148248,0.0177052523940802
164,0.0036086468026042,-0.00155495444778353,0.00978542678058147,0.00261487276293337,0.00502787809818983,0.0159103535115719
165,0.00346023309975863,-0.00229617138393223,0.00946198869496584,0.00384219386614859,0.00666364608332515,0.0152927869930863
166,0.00386576075106859,-0.00159066228661686,0.00984649267047644,0.00523726223036647,0.0104368599131703,0.0152522698044777
167,0.00374299893155694,-0.000465717312181368,0.0102967629209161,0.005659946706146,0.014681595377624,0.0150378597900271
168,0.0033010970801115,0.000453021610155702,0.0105537492781878,0.00468911696225405,0.0181710757315159,0.0145507240667939
169,0.00358879123814404,0.0014845987316221,0.0109280180186033,0.00315767922438681,0.0205512195825577,0.0139648960903287
170,0.00449937721714377,0.00267975428141654,0.0114477043971419,0.00195866473950446,0.0213141404092312,0.0132240252569318
171,0.00452511431649327,0.00383400404825807,0.0110816834494472,0.000952299276832491,0.019635409116745,0.0122864665463567
172,0.00204286584630609,0.0040380279533565,0.00833076983690262,-0.00133882602676749,0.0150453308597207,0.0102396262809634
173,-0.00238711107522249,0.00227265618741512,0.00395282125100493,-0.0055307992734015,0.00926647428423166,0.00663285469636321
174,-0.00530615402385592,8.89556686161086E-05,0.00104611669667065,-0.00892142672091722,0.00592663325369358,0.00433291448280215
175,-0.00464196549728513,-0.000348511675838381,0.00118409097194672,-0.00867661368101835,0.00646831886842847,0.00630361307412386
176,-0.00228622183203697,0.000300002488074824,0.00323986960574985,-0.00556193990632892,0.00860284082591534,0.0113916238769889
177,-0.00134160602465272,-0.00023321557091549,0.00528972595930099,-0.00298268930055201,0.00912080425769091,0.0155603447929025
178,-0.00182817922905087,-0.00172144989483058,0.00716215465217829,-0.00183046737220138,0.00832764524966478,0.0181287322193384
179,-0.00232597789727151,-0.00293632200919092,0.00897269602864981,-0.00109240075107664,0.00854580942541361,0.0210880450904369
180,-0.00408315658569336,-0.00487406319007277,0.00881170481443405,-0.00214415742084384,0.00888809096068144,0.0235894117504358
181,-0.00759577006101608,-0.0068108169361949,0.00613368209451437,-0.0050858287140727,0.0077493516728282,0.025133429095149
182,-0.0106282811611891,-0.00682122632861137,0.00282385013997555,-0.00776964239776134,0.00613084342330694,0.0260513015091419
183,-0.0123215559870005,-0.00601215101778507,-0.00017135425878223,-0.00987407471984625,0.00463662156835198,0.0247508715838194
184,-0.0124407429248095,-0.00401009991765022,-0.00189949257764965,-0.0103928707540035,0.00376732740551233,0.0226205624639988
185,-0.00957869831472635,0.00150348816532642,-0.00047179966350086,-0.0067197154276073,0.00499033275991678,0.0239102654159069
186,-0.00566939311102033,0.00744183035567403,0.00278206146322191,-0.000662242295220494,0.00657829316332936,0.0274155978113413
187,-0.00415199622511864,0.00917199999094009,0.00485754199326038,0.00360970431938767,0.00628186156973243,0.0288142692297697
188,-0.00417434284463525,0.00769528606906533,0.00574258808046579,0.00574831664562225,0.00559425260871649,0.0280055925250053
189,-0.00300831277854741,0.00653456943109632,0.00721223885193467,0.00798282492905855,0.0068924562074244,0.0280973706394434
190,-0.000379612290998921,0.00681816274300218,0.00973364803940058,0.0112050455063581,0.0104960575699806,0.0309587847441435
191,0.00199362239800394,0.0072428435087204,0.0120723443105817,0.0142310699447989,0.0145705686882138,0.0352012552320957
192,0.00270921271294355,0.00646180845797062,0.0131885129958391,0.0158477984368801,0.0171648971736431,0.038410909473896
193,0.00115759554319084,0.0040650931186974,0.012907131575048,0.0155808925628662,0.0174110494554043,0.0389264859259129
194,-0.00319889024831355,6.585809023818E-05,0.0108374217525125,0.0131548158824444,0.0144322225823998,0.035560667514801
195,-0.0102318823337555,-0.0051356521435082,0.00688733067363501,0.00883821584284306,0.00765297701582313,0.0286494828760624
196,-0.0161953214555979,-0.00896870158612728,0.00396679202094674,0.0053339833393693,0.000808392884209752,0.0219830963760614
197,-0.0166111495345831,-0.00839150696992874,0.0054440489038825,0.00602470058947802,-0.0012219698401168,0.0207964796572924
198,-0.0131544824689627,-0.00482121761888266,0.00946614053100348,0.00973149482160807,2.4465300157317E-05,0.025409173220396
199,-0.00989973545074463,-0.00121023063547909,0.012929754331708,0.0137705039232969,0.00136878120247275,0.0315617099404335
200,-0.00794085580855608,0.0017755632288754,0.0161494240164757,0.0183601509779692,0.00294543500058353,0.0360019467771053
201,-0.00852590706199408,0.00199719914235175,0.018529437482357,0.0218301042914391,0.00389908952638507,0.0361097790300846
202,-0.01233478076756,-0.00225105858407915,0.0183101203292608,0.0209817960858345,0.00312291085720062,0.0307472236454487
203,-0.0165713261812925,-0.00754710892215371,0.0167786721140146,0.0169799700379372,0.00245361495763063,0.0234553813934326
204,-0.0177076887339354,-0.00914407707750797,0.017261728644371,0.0142887122929096,0.0045262067578733,0.0192494187504053
205,-0.0151339052245021,-0.00680857943370938,0.02039710059762,0.0147475488483906,0.00926519092172384,0.0188340246677399
206,-0.0110092833638191,-0.00367394159547985,0.0234210155904293,0.01648960262537,0.0137142678722739,0.0195204466581345
207,-0.00703092152252793,-0.00116645987145603,0.0246926043182611,0.0182114951312542,0.0163487084209919,0.0198560617864132
208,-0.00396881205961108,0.000542214373126626,0.0242215823382139,0.018605949357152,0.0176876820623875,0.0187041480094194
209,-0.00257856422103941,0.00080855650594458,0.0217352919280529,0.0161566287279129,0.0176086854189634,0.0148462792858481
210,-0.00253322720527649,0.000177378649823368,0.0185027960687876,0.0125661287456751,0.0164700634777546,0.00985691323876381
211,-0.00338120362721384,-0.000580564723350108,0.0165788549929857,0.0101960925385356,0.0151813142001629,0.00637626275420189
212,-0.00539853656664491,-0.00178046291694045,0.0160837695002556,0.00885473378002644,0.0136856399476528,0.00474512856453657
213,-0.00806653313338757,-0.00338652357459068,0.0161394383758307,0.00752325868234038,0.0115428846329451,0.00331692746840417
214,-0.010713760741055,-0.0048385257832706,0.0157964397221804,0.00556044187396765,0.0084332674741745,0.000644113169983029
215,-0.0140937669202685,-0.0063467537984252,0.0135652562603354,0.00228720880113542,0.00382665731012821,-0.00387903512455523
216,-0.0176857430487871,-0.00740184215828776,0.0103278299793601,-0.00103658204898238,-0.00071056664455682,-0.00886234175413847
217,-0.0190014913678169,-0.00632383162155747,0.00976649671792984,-0.00167931395117193,-0.00194654089864343,-0.0117854671552777
218,-0.0177422873675823,-0.00374201708473265,0.0128050921484828,0.000317120342515409,-4.11817563872319E-05,-0.0129944290965796
219,-0.0154362758621573,-0.00170891860034317,0.016923425719142,0.00327133340761065,0.00254474766552448,-0.0140460766851902
220,-0.0133816748857498,-0.00130399817135185,0.019186332821846,0.00558882113546133,0.00398155720904469,-0.0156860649585724
221,-0.0120837753638625,-0.0029718428850174,0.0183217544108629,0.00587956886738539,0.00366349192336202,-0.0185108967125416
222,-0.0101021509617567,-0.00553963147103786,0.0164000950753689,0.00537482090294361,0.00383145152591169,-0.0214557200670242
223,-0.00687226466834545,-0.00738687627017498,0.0159545708447695,0.00608371431007981,0.00659948261454701,-0.0231538116931915
224,-0.00485567934811115,-0.00877836998552084,0.0164046939462423,0.00741470418870449,0.0102051673457026,-0.0246080663055182
225,-0.00567624811083078,-0.00989782530814409,0.0157100632786751,0.00768998032435775,0.0119271595031023,-0.0273987706750631
226,-0.00753249507397413,-0.00954913254827261,0.013689186424017,0.00659215124323964,0.0118833724409342,-0.0310520268976688
227,-0.00810000114142895,-0.00744221732020378,0.0119633451104164,0.00513545284047723,0.0117806009948254,-0.0337734632194042
228,-0.00719317281618714,-0.0042849276214838,0.0116657475009561,0.00444104289636016,0.0122822122648358,-0.0344134531915188
229,-0.00553446635603905,-0.000217977067222819,0.0128565244376659,0.00487621687352657,0.0131404092535377,-0.0331535190343857
230,-0.00325334444642067,0.00398135418072343,0.0151519104838371,0.00584459071978927,0.0143682910129428,-0.0315596982836723
231,-0.000876655802130699,0.00609510624781251,0.017964405938983,0.00651251571252942,0.015789944678545,-0.0313522256910801
232,0.000580456282477826,0.00496032275259495,0.0206724591553211,0.00677277706563473,0.0168821755796671,-0.0322871208190918
233,0.00197418313473463,0.00264849257655442,0.0234836246818304,0.00774256279692054,0.0182960797101259,-0.031436700373888
234,0.00438992632552981,0.00122645637020469,0.0261167511343956,0.00913031399250031,0.0201112516224384,-0.0277609676122665
235,0.00741833494976163,0.000588754657655954,0.0274255443364382,0.0091288723051548,0.0214494615793228,-0.0244655441492796
236,0.00987928733229637,0.000253241218160838,0.0269364695996046,0.00778739992529154,0.0218553319573402,-0.0238551776856184
237,0.00951114017516375,-0.00106252613477409,0.0237768944352865,0.00524463038891554,0.0197578053921461,-0.026517104357481
238,0.00553448591381311,-0.00432127248495817,0.0176390968263149,0.00113835267256945,0.0141075737774372,-0.0323908962309361
239,-0.00029407039983198,-0.00930045358836651,0.0105712544173002,-0.00342539674602449,0.00640579639002681,-0.039770595729351
240,-0.00483632739633322,-0.0143851097673178,0.00596719840541482,-0.00607205741107464,0.000166850426467136,-0.0457838252186775
241,-0.00582759501412511,-0.0167318787425756,0.00540845235809684,-0.00523648364469409,-0.00228754989802837,-0.0484556332230568
242,-0.00402277102693915,-0.0152254197746515,0.00747204059734941,-0.00172786950133741,-0.00190790940541774,-0.048395399004221
243,-0.00142408849205822,-0.0113366534933448,0.0100675281137228,0.00192802771925926,-0.000296236190479249,-0.0477258004248142
244,-0.000358852557837963,-0.00830606743693352,0.0108192656189203,0.00278198206797242,0.000441815529484302,-0.0491007901728153
245,-0.00207759835757315,-0.00878997892141342,0.00833993870764971,0.000199962189071812,-0.00135421706363559,-0.054286103695631
246,-0.00399099662899971,-0.0112392539158463,0.00495395762845874,-0.00264819385483861,-0.00345469079911709,-0.0611467249691486
247,-0.00357442256063223,-0.0128881828859448,0.00306455534882843,-0.00376174272969365,-0.00381666119210422,-0.0666680037975311
248,-0.00276648881845176,-0.0141848707571626,0.00182275380939245,-0.00508459145203233,-0.00442014262080193,-0.0713498964905739
249,-0.0040342858992517,-0.0162010863423347,0.000182511095772497,-0.00794244557619095,-0.00668200198560953,-0.0758776292204857
250,-0.00667175278067589,-0.0185731519013643,-0.00131013116333634,-0.0115401549264789,-0.00935862585902214,-0.0788234695792198
251,-0.00791081320494413,-0.0199655573815107,-0.00111663748975843,-0.0143698938190937,-0.0106208696961403,-0.0787929445505142
252,-0.00757891591638327,-0.0208341516554356,0.000373108894564211,-0.0170965623110533,-0.0109831485897303,-0.0784135684370995
253,-0.00851447228342295,-0.0233471263200045,0.000555593229364604,-0.0216937270015478,-0.0126549461856484,-0.0814986824989319
254,-0.0111415833234787,-0.026922257617116,-0.00117438391316682,-0.0267209485173225,-0.0156356636434793,-0.0862680822610855
255,-0.0118772918358445,-0.0279334858059883,-0.00192028935998678,-0.028437739238143,-0.0168739762157202,-0.0875794887542725
256,-0.00809824094176292,-0.0244055818766356,0.000875050609465688,-0.025620860978961,-0.0139508778229356,-0.0838871449232101
257,-0.00303813116624951,-0.0196582991629839,0.00479900790378451,-0.0219880770891905,-0.00972465239465237,-0.079469621181488
258,-0.0022091397549957,-0.0182931572198868,0.00487876543775201,-0.0225146654993296,-0.00974201317876577,-0.0795266255736351
259,-0.00607996759936213,-0.0196135453879833,0.0005597387207672,-0.027001166716218,-0.0144031103700399,-0.0838499590754509
260,-0.00976083241403103,-0.0191496908664703,-0.00363019970245659,-0.0304829701781273,-0.0180417858064175,-0.0869323834776878
261,-0.0111400969326496,-0.0164194572716951,-0.00581195950508118,-0.0314228944480419,-0.0182899497449398,-0.0860271379351616
262,-0.0121909147128463,-0.0142891816794872,-0.00764441909268498,-0.0318438857793808,-0.01790383271873,-0.0828618332743645
263,-0.0124959144741297,-0.0128623992204666,-0.0083249993622303,-0.0312114004045725,-0.0168184023350477,-0.0784104689955711
264,-0.0113661726936698,-0.0114755071699619,-0.00670867692679167,-0.0291205178946257,-0.0138685815036297,-0.0734468027949333
265,-0.0108914608135819,-0.0112900556996465,-0.00444963900372386,-0.0276503581553698,-0.0110419075936079,-0.0698530152440071
266,-0.0112000247463584,-0.011893411166966,-0.00266466708853841,-0.0273317284882069,-0.00893241912126541,-0.0680551081895828
267,-0.00967579148709774,-0.0110733127221465,-0.000453881511930376,-0.0265794731676579,-0.0056061171926558,-0.0660730004310608
268,-0.00680137006565928,-0.0097369309514761,0.00173242902383208,-0.0258375369012356,-0.00197251280769706,-0.0637441053986549
269,-0.00603923248127103,-0.0108811678364873,0.00120476994197816,-0.0274808015674353,-0.00115102634299546,-0.0638076364994049
270,-0.00783250108361244,-0.0142359146848321,-0.00261218892410398,-0.0316326692700386,-0.00257242168299854,-0.0668380558490753
271,-0.00865880027413368,-0.0162711814045906,-0.00616907700896263,-0.0348753035068512,-0.0018530209781602,-0.0692841038107872
272,-0.00646219635382295,-0.0149021008983254,-0.00673485966399312,-0.0343672037124634,0.00254427455365658,-0.0678916126489639
273,-0.00359440431930125,-0.0123678557574749,-0.00615233555436134,-0.032074861228466,0.00676399189978838,-0.0640740618109703
274,-0.00304312095977366,-0.0119130797684193,-0.00738357938826084,-0.0318828150629997,0.00753873912617564,-0.061632689088583
275,-0.00545835867524147,-0.0140940584242344,-0.0112417945638299,-0.0351434946060181,0.00493597565218806,-0.0625418126583099
276,-0.00818309187889099,-0.0160616803914309,-0.015218804590404,-0.0388062559068203,0.00133618258405477,-0.0644103288650513
277,-0.00792441330850124,-0.015132412314415,-0.0154996458441019,-0.0387731306254864,-0.000166827972861938,-0.0633392632007599
278,-0.00522904517129064,-0.0123837403953075,-0.0117778982967138,-0.0352438688278198,0.000749879982322454,-0.0596866644918919
279,-0.00196359190158546,-0.0093776248395443,-0.00626770313829184,-0.0304688382893801,0.00273774843662977,-0.0557616427540779
280,0.00114572991151363,-0.00676452415063977,-0.00102222093846649,-0.0257496424019337,0.00478483084589243,-0.0518150292336941
281,0.00302935973741114,-0.00563412299379706,0.00250767194665968,-0.0217888113111258,0.00552784604951739,-0.0471397563815117
282,0.00248046172782779,-0.00597452186048031,0.00404793582856655,-0.0188102796673775,0.003764578839764,-0.0415355898439884
283,-7.86033633630723E-05,-0.00644828286021948,0.00414953473955393,-0.0168633032590151,0.000264029280515388,-0.0359608568251133
284,-0.00244151521474123,-0.00563013320788741,0.00398132763803005,-0.0153384525328875,-0.00215977523475885,-0.0313765816390514
285,-0.0033895936794579,-0.00306386710144579,0.00432153698056936,-0.0133716678246856,-0.00246678502298892,-0.0275026690214872
286,-0.00313839130103588,0.000893933756742626,0.00518637569621205,-0.0105230128392577,-0.0017808306729421,-0.0236405357718468
287,-0.00122730212751776,0.00643936032429338,0.0069292988628149,-0.00610796781256795,-0.000292654905933887,-0.0189999639987946
288,0.00146966357715428,0.0121592115610838,0.00870977714657784,-0.00136386975646019,0.000998338568024337,-0.0152312945574522
289,0.00350293214432895,0.0159930661320686,0.00968250725418329,0.00165322294924408,0.00135701976250857,-0.0151262488216162
290,0.00660337787121534,0.0190090127289295,0.0115406597033143,0.00421660579741001,0.00311731896363199,-0.0171910524368286
291,0.0103669641539454,0.0203962996602058,0.0134934242814779,0.0059337979182601,0.00555369770154357,-0.0202117692679167
292,0.0119478385895491,0.0177504699677229,0.0132320625707507,0.00452859047800303,0.00581306358799338,-0.0248619541525841
293,0.0119425486773252,0.0125300083309412,0.0120411617681384,0.00164970813784748,0.00495977373793721,-0.0291747692972422
294,0.0114620253443718,0.00722377188503742,0.0110350586473942,-0.000275597209110856,0.00410673581063747,-0.0312641374766827
295,0.0109098255634308,0.00426334328949451,0.0105064688250422,-0.000207587581826374,0.00350209209136665,-0.030357314273715
296,0.01121811196208,0.00475004920735955,0.0107629653066397,0.00136279303114861,0.0037485659122467,-0.0267200972884893
297,0.0114238671958447,0.00561278639361262,0.0097298938781023,0.0013681105338037,0.00349188037216663,-0.023272767663002
298,0.00949882436543703,0.00390663370490074,0.0057699684984982,-0.00214190036058426,0.00148872914724052,-0.0228694472461939
299,0.0064194449223578,0.00152730941772461,0.00134475587401539,-0.006371661555022,-0.000175844033947214,-0.0245018359273672
300,0.00501591945067048,0.00170532229822129,-0.000188369609531946,-0.007415312808007,0.00125123234465718,-0.0251176711171865
301,0.00523853395134211,0.00366817601025105,0.000834828359074891,-0.00567327439785004,0.00494923768565059,-0.0245490297675133
302,0.00517014926299453,0.00485809426754713,0.00174400862306356,-0.00366569263860583,0.00766966119408607,-0.0241406802088022
303,0.0051826355047524,0.00556732388213277,0.00174431980121881,-0.00163342908490449,0.00830670539289713,-0.0231131464242935
304,0.00648400606587529,0.00718413945287466,0.00169081473723054,0.000876389560289681,0.00795313250273466,-0.0204768590629101
305,0.00848457496613264,0.00924511812627316,0.00165578979067504,0.00306722847744823,0.00723580038174987,-0.0171049851924181
306,0.0101645570248365,0.0108926137909293,0.00128636043518782,0.00446447683498263,0.00634289951995015,-0.0145765580236912
307,0.0115952994674444,0.0129735423251987,0.00120393419638276,0.00611410057172179,0.00634356401860714,-0.0129721835255623
308,0.0133693777024746,0.0161153357475996,0.00241222535260022,0.00894775334745646,0.00868995673954487,-0.0112771699205041
309,0.0150834964588284,0.0182442776858807,0.00429854262620211,0.011857089586556,0.0123398452997208,-0.00949141476303339
310,0.0152331115677953,0.0169838145375252,0.00492067355662584,0.0129580907523632,0.0138312317430973,-0.00810372829437256
311,0.0131661863997579,0.0128410551697016,0.00362372118979692,0.0120124500244856,0.0118745304644108,-0.00752316787838936
312,0.0104845874011517,0.00878904946148396,0.00220599118620157,0.0111998720094562,0.00931271631270647,-0.00780777772888541
313,0.00869732070714235,0.00643576215952635,0.00223018601536751,0.0119692413136363,0.00829293206334114,-0.00871221628040075
314,0.00722495652735233,0.00466616731137037,0.00329699832946062,0.0128168351948261,0.00771112879738212,-0.0109544852748513
315,0.00503593729808927,0.00264497869648039,0.00455218087881804,0.012179764918983,0.00680025946348906,-0.0151592725887895
316,0.00239200075156987,0.00136433751322329,0.00573171023279428,0.0105838337913156,0.00614024233072996,-0.0194078125059605
317,-8.32228906801902E-05,0.00131343957036734,0.0063582262955606,0.00884176418185234,0.00524832215160131,-0.021604347974062
318,-0.00263813184574246,0.00116164470091462,0.00563462637364864,0.00673815282061696,0.00280498061329126,-0.0223790314048529
319,-0.00486789224669337,0.000767164689023048,0.00439413730055094,0.00498818187043071,-0.000358611752744764,-0.022237041965127
320,-0.00470661139115691,0.00183541909791529,0.00479094311594963,0.00571831222623587,-0.000830844684969634,-0.0200809072703123
321,-0.00120421522296965,0.0044016195461154,0.00760309072211385,0.00935377832502127,0.00328095862641931,-0.0156696680933237
322,0.00276901968754828,0.0061120823957026,0.0105388425290585,0.0129441171884537,0.00875867903232574,-0.0112014366313815
323,0.00339831225574017,0.00527876382693648,0.0101447906345129,0.0133867673575878,0.0102984793484211,-0.00965331587940454
324,0.000941568345297128,0.00290042487904429,0.00660211639478803,0.0114357704296708,0.00724085373803973,-0.0110395848751068
325,-0.00139686977490783,0.00143758917693049,0.00357158249244094,0.0100149912759662,0.00343484221957624,-0.0125107858330011
326,-0.00237363739870489,0.00224209064617753,0.00301143084652722,0.0104074385017157,0.00140708067920059,-0.0116364741697907
327,-0.00222028815187514,0.00500292703509331,0.00450301263481379,0.0128918308764696,0.00176765699870884,-0.00685646245256066
328,-0.000888997805304825,0.00808377470821142,0.0071500027552247,0.0165786501020193,0.00471106404438615,0.00156269432045519
329,0.00109437666833401,0.00949298217892647,0.00980414263904095,0.0187280531972647,0.00950831826776266,0.0103236483410001
330,0.00293322955258191,0.00842218194156885,0.0114923948422074,0.0178035646677017,0.0144099500030279,0.0157403517514467
331,0.00323342974297702,0.0052886544726789,0.0112501243129373,0.0143024437129498,0.0163400266319513,0.0167454574257135
332,0.000891436415258795,0.00153790949843824,0.008694170974195,0.00903240498155355,0.0131814312189817,0.0153306284919381
333,-0.00300267129205167,-0.0013794784899801,0.00479774689301848,0.0028762430883944,0.00621872488409281,0.013783160597086
334,-0.00613205414265394,-0.00319401337765157,0.00128513772506267,-0.00263894372619689,-0.00141025439370424,0.0124839749187231
335,-0.00720295403152704,-0.0043734353967011,-0.000459391623735428,-0.00597463035956025,-0.00684648426249623,0.010923620313406
336,-0.00599474227055907,-0.00470126466825604,1.49416673593805E-05,-0.00621639890596271,-0.00777666689828038,0.00962644908577204
337,-0.00403062999248505,-0.00450460379943252,0.00132987718097866,-0.00469006830826402,-0.00526169827207923,0.00875839497894049
338,-0.00357043952681124,-0.00447451090440154,0.0016976062906906,-0.00385034829378128,-0.0034449843224138,0.00782320369035006
339,-0.00406324444338679,-0.00304097728803754,0.00139757175929844,-0.0033352633472532,-0.00392180914059281,0.00749674718827009
340,-0.00341985747218132,0.00130198057740927,0.00147665629629046,-0.00131262559443712,-0.00508181843906641,0.00791779812425375
341,-0.00135218934156001,0.00647346116602421,0.00175299891270697,0.00181761267594993,-0.00570916384458542,0.00755337160080671
342,0.000700192293152213,0.00871708057820797,0.00131851271726191,0.00381295918487012,-0.00657170871272683,0.00511765899136662
343,0.00260910578072071,0.00781542900949717,0.00072405458195135,0.00455985032021999,-0.00775642739608884,0.00217110710218549
344,0.00385786895640194,0.00522894645109773,-0.000157813090481795,0.00435984134674072,-0.0100557617843151,3.39702746714465E-05
345,0.00268962746486068,0.00119609863031656,-0.00262467795982957,0.0022456815931946,-0.0148020908236504,-0.00231445278041065
346,0.000396621995605528,-0.00230613211169839,-0.00505075603723526,1.32126042444725E-05,-0.0191228929907084,-0.00399248255416751
347,-0.000126587576232851,-0.00206175725907087,-0.00472535053268075,0.000641151564195752,-0.0194444414228201,-0.00268075219355524
348,0.000578182225581259,0.00142096669878811,-0.00264526018872857,0.00312486756592989,-0.0171765126287937,8.28036281745881E-05
349,-7.87080134614371E-05,0.0039296168833971,-0.00180756102781743,0.0041826837696135,-0.0161668229848146,2.986885192513E-05
350,-0.000768738798797131,0.00467780698090792,-0.00138641125522554,0.00457614753395319,-0.0158568881452084,-0.00234127300791442
351,0.000680119730532169,0.00471758935600519,0.000550663331523538,0.00621700473129749,-0.0136663941666484,-0.00440808618441224
352,0.00234167976304889,0.00237946445122361,0.00245478679426014,0.0076397405937314,-0.0106937121599913,-0.0065264729782939
353,0.00333747221156955,-0.000775285705458373,0.00388039881363511,0.00939652137458324,-0.00791030004620552,-0.00711356895044446
354,0.00481462012976408,-0.0012924283510074,0.00596638675779104,0.013087279163301,-0.00493140798062086,-0.00490513350814581
355,0.00566548481583595,-0.000737309106625617,0.00724454317241907,0.0158467050641775,-0.00343573279678822,-0.00317521532997489
356,0.00484679825603962,-0.00119346403516829,0.00614770175889134,0.0151024460792542,-0.00449666474014521,-0.00333527801558375
357,0.00442949589341879,-0.000835640297736973,0.00421309284865856,0.0130017343908548,-0.00578842265531421,-0.00319000682793558
358,0.00680044200271368,0.00216605723835528,0.00369935808703303,0.0123301707208157,-0.00481352442875504,-0.00192907731980085
359,0.0103478999808431,0.00549207301810384,0.00388574972748756,0.0119322901591659,-0.00304014352150261,-0.00202880753204226
360,0.0116959512233734,0.00555413728579879,0.00273389974609017,0.00964474584907293,-0.00336238602176309,-0.00559974741190672
361,0.0113586392253637,0.00362016586586833,0.00121707643847913,0.00728165544569492,-0.0047297622077167,-0.00970351696014404
362,0.0106010064482689,0.0016282806172967,9.91628912743181E-05,0.00591563107445836,-0.00584746338427067,-0.0118379145860672
363,0.00886114500463009,-0.00137506553437561,-0.00172405084595084,0.00386134162545204,-0.00754754245281219,-0.0134242400527
364,0.00684091076254845,-0.00492824381217361,-0.00322880363091826,0.00162303878460079,-0.00898726470768452,-0.0143092991784215
365,0.00449430337175727,-0.00892021507024765,-0.00416598515585065,-0.000867015973199159,-0.0100379288196564,-0.0145851727575064
366,0.00137658137828112,-0.0132073322311044,-0.00559690874069929,-0.00409268354997039,-0.0116605861112475,-0.0146693820133805
367,-0.00184363732114434,-0.0158372670412064,-0.00703366659581661,-0.00655222591012716,-0.0135279716923833,-0.0129564236849546
368,-0.00537481065839529,-0.0166566092520952,-0.0086094168946147,-0.00848875567317009,-0.0156042408198118,-0.010205052793026
369,-0.00833880063146353,-0.0162290222942829,-0.0101466570049524,-0.0100127058103681,-0.0172779448330402,-0.00823300424963236
370,-0.00969698745757341,-0.0147889526560903,-0.0111360289156437,-0.00986192841082811,-0.0184083878993988,-0.00669532781466842
371,-0.0102392556145787,-0.0132559230551124,-0.012069677002728,-0.00792732462286949,-0.0198320392519236,-0.00451351096853614
372,-0.00966610293835402,-0.0118599077686667,-0.0119282994419336,-0.00423981016501784,-0.0199716575443745,-0.00118949206080288
373,-0.00793601851910353,-0.0113086495548487,-0.00984950270503759,-0.000353698851540685,-0.0174483228474855,0.00077013042755425
374,-0.00715688383206725,-0.0128312446177006,-0.00798884313553572,0.000538479012902826,-0.0143555840477347,-0.0021618390455842
375,-0.00765013927593827,-0.0150255784392357,-0.00791905634105206,-0.00119972554966807,-0.012541277334094,-0.00817007105797529
376,-0.00772925605997443,-0.0160225220024586,-0.00858513079583645,-0.00272121583111584,-0.011570742353797,-0.0126454588025808
377,-0.00682626664638519,-0.0160993058234453,-0.00900107435882092,-0.00326726096682251,-0.0109393959864974,-0.0142544154077768
378,-0.00649757729843259,-0.017017500475049,-0.00999797880649567,-0.00439386302605271,-0.011673298664391,-0.0153299691155553
379,-0.00880295783281326,-0.0207382459193468,-0.0125950099900365,-0.00790625624358654,-0.0148584051057696,-0.0190131906419992
380,-0.0124521562829614,-0.0258944779634476,-0.0150143653154373,-0.012343198992312,-0.018397169187665,-0.0238790418952703
381,-0.0141989309340715,-0.0287175327539444,-0.0145921874791384,-0.0144486092031002,-0.0192797854542732,-0.0249643977731466
382,-0.0125574050471187,-0.0270508080720901,-0.0108861839398742,-0.0128146540373564,-0.0169392880052328,-0.0206016544252634
383,-0.00821691006422043,-0.0214488450437784,-0.00547505170106888,-0.00809390284121037,-0.0122848115861416,-0.0134761016815901
384,-0.00377436820417643,-0.0146258622407913,-0.000865064852405339,-0.00255468604154885,-0.00712608825415373,-0.00679917866364121
385,-0.00218088994733989,-0.00922509655356407,0.00107282924000174,0.00128553807735443,-0.00409986823797226,-0.00217243586666882
386,-0.00329282344318926,-0.00545553211122751,0.0011601202422753,0.00297349411994219,-0.00360109633766115,0.000644395418930799
387,-0.00531400553882122,-0.00305811641737819,0.00106416258495301,0.00301953358575702,-0.00433166837319732,0.00216520112007856
388,-0.00753692770376801,-0.00219117384403944,0.00111701979767531,0.00132421473972499,-0.00617334945127368,0.00248059933073819
389,-0.00964072719216347,-0.00209395540878177,0.00146856752689928,-0.00152062554843724,-0.00893151387572289,0.00219102879054844
390,-0.0124196484684944,-0.00290358671918511,0.00103769323322922,-0.0050326706841588,-0.012903505936265,0.00100042845588177
391,-0.0154786910861731,-0.00418060040101409,-0.000872304837685078,-0.0081866541877389,-0.0175745766609907,-0.000637801771517843
392,-0.0164078418165445,-0.00420097494497895,-0.0026264030020684,-0.00919965375214815,-0.0201837010681629,-0.000442008225945756
393,-0.0149785494431853,-0.00347443367354572,-0.00336945476010442,-0.00860721711069345,-0.019854137673974,0.00178652512840927
394,-0.012164393439889,-0.00299380999058485,-0.00316644459962845,-0.00751210330054164,-0.0174734387546778,0.00512384157627821
395,-0.00810276810079813,-0.00182310992386192,-0.00161840149667114,-0.00540362996980548,-0.0130287241190672,0.00954528246074915
396,-0.00478469347581267,-0.000336464116116986,3.40038168360479E-05,-0.00315790041349828,-0.00836983788758516,0.0135866021737456
397,-0.00335270375944674,0.000452657375717536,0.00084966397844255,-0.00185836723539978,-0.00482659041881561,0.0163259077817202
398,-0.00221476936712861,0.000563574314583093,0.00199657888151705,-0.00108447670936584,-0.000720369222108275,0.0182052813470364
399,-0.00115659483708441,-0.000298630504403263,0.00351506238803267,-0.000602858955971897,0.00343001564033329,0.0191689282655716
400,-0.000394747621612623,-0.00149607216008008,0.00480118859559298,0.000447990867542103,0.00600184919312596,0.0200609713792801
401,-8.23703885544091E-05,-0.00260613881982863,0.00536983646452427,0.0016091198194772,0.0070095444098115,0.0207162871956825
402,-0.00304730958305299,-0.00557951116934419,0.00268242508172989,-0.00103756366297603,0.00439175171777606,0.0181386768817902
403,-0.0106963096186519,-0.0106467185541987,-0.00439973827451468,-0.00891567673534155,-0.00318483030423522,0.0117022916674614
404,-0.0183489322662354,-0.0139594720676541,-0.0114703271538019,-0.0171659328043461,-0.0105715291574597,0.00627608830109239
405,-0.0211434829980135,-0.0137677704915404,-0.0143866706639528,-0.021532678976655,-0.0128998570144176,0.00592625420540571
406,-0.0178461745381355,-0.0107251461595297,-0.0125175612047315,-0.0208849869668484,-0.00996080413460732,0.0111606242135167
407,-0.0102435611188412,-0.0056597157381475,-0.00726642273366451,-0.0161537323147058,-0.0039039917755872,0.0198457576334476
408,-0.00331568415276706,-0.00148677476681769,-0.00246381387114525,-0.0114218229427934,0.000742803502362221,0.0274288635700941
409,-0.000175463486812077,0.000255263701546937,-0.000738603237550706,-0.00936783198267221,0.00125860061962157,0.0314846225082874
410,0.0010360365267843,0.00159222073853016,-0.000919681857340038,-0.0085632624104619,-0.000309543305775151,0.0329497344791889
411,0.00265443767420948,0.00440491642802954,-0.000911276147235185,-0.00719544338062406,-0.00130027637351304,0.0330662243068218
412,0.00299552315846086,0.00723731378093362,-0.00132377760019153,-0.00635135127231479,-0.00300151552073658,0.0317627489566803
413,0.000434848392615095,0.00809651985764503,-0.00332450750283897,-0.00718614645302296,-0.00690401345491409,0.0298288874328136
414,-0.00210179109126329,0.00784461013972759,-0.00500215403735638,-0.00767534784972668,-0.00982900708913803,0.0302081853151321
415,-0.0014796678442508,0.00768768507987261,-0.00448585394769907,-0.00595049699768424,-0.00863058120012283,0.0341199263930321
416,0.00169002264738083,0.00686447648331523,-0.00331478449515998,-0.0032314348500222,-0.00494828214868903,0.038803443312645
417,0.00522436993196607,0.004689687397331,-0.00373525056056678,-0.0013227736344561,-0.0020147564355284,0.0409345179796219
418,0.00851087924093008,0.00265526096336544,-0.00523145915940404,2.17639772017719E-05,-0.00058078090660274,0.0403998680412769
419,0.0120008662343025,0.00243916804902256,-0.00604057731106877,0.00169533782172948,0.00020005161059089,0.0388432294130325
420,0.0153269013389945,0.00366369471885264,-0.00574918836355209,0.00370633811689913,0.00108991784509271,0.037195909768343
421,0.0182796735316515,0.00546354334801435,-0.00461170636117458,0.00633904570713639,0.00315059814602137,0.0365785844624043
422,0.0205513704568148,0.00678749661892653,-0.00332133541814983,0.00931674707680941,0.00607417104765773,0.0370920076966286
423,0.0203952025622129,0.00615818100050092,-0.00325774610973895,0.0105786714702845,0.00700988294556737,0.0367977507412434
424,0.0174634214490652,0.00416584685444832,-0.00452374760061502,0.00926867593079805,0.00429039262235165,0.0356584936380386
425,0.0137830255553126,0.00236836750991642,-0.00558644020929933,0.00703815463930368,-0.000499337329529226,0.0355220325291157
426,0.0100578675046563,3.4304139262531E-05,-0.00590209942311049,0.00461184000596404,-0.00576505297794938,0.0357980616390705
427,0.00583238946273923,-0.00334956496953964,-0.00607947446405888,0.00152206816710532,-0.0109623651951551,0.0358053743839264
428,0.0023310617543757,-0.0049623972736299,-0.00572782661765814,-0.00104020396247506,-0.0145244086161256,0.0381875969469547
429,-5.77519494981971E-05,-0.0033709576819092,-0.00527811562642455,-0.00268094660714269,-0.0164538379758596,0.0429902821779251
430,-0.00259594176895916,-0.00168262980878353,-0.00665471656247973,-0.00524747464805841,-0.0189202968031168,0.0456258431077003
431,-0.00415624957531691,-0.00163987057749182,-0.00904321298003197,-0.00813106074929237,-0.0213575903326273,0.0454523265361786
432,-0.00291852606460452,-0.0017824888927862,-0.00951833743602037,-0.00857047829777002,-0.0216641053557396,0.0460052043199539
433,-1.39265321195126E-05,-0.00205137114971876,-0.00749855441972613,-0.00656609749421477,-0.0199128817766905,0.0475093647837639
434,0.00273219007067382,-0.00302049238234758,-0.00408061360940337,-0.0037683246191591,-0.0169470310211182,0.0484178997576237
435,0.00420809863135219,-0.00427607446908951,-0.000618747959379107,-0.00155320216435939,-0.0137574607506394,0.0480659306049347
436,0.00344986957497895,-0.00616890750825405,0.000963009020779282,-0.00142867921385914,-0.011947164312005,0.0453238002955914
437,0.00197354378178716,-0.00781254284083843,0.00127198093105108,-0.00177625822834671,-0.0111410794779658,0.0418021120131016
438,0.0015489743091166,-0.0081849442794919,0.00203438801690936,-0.000483412411995232,-0.0106138195842505,0.039661068469286
439,0.00159941974561661,-0.00797224324196577,0.00290765543468297,0.00135305663570762,-0.0110088009387255,0.038201630115509
440,0.00196715164929628,-0.00666629429906607,0.003866130951792,0.00323219690471888,-0.0117686204612255,0.0377484373748302
441,0.00176752835977823,-0.0047616851516068,0.0038335220888257,0.00406656367704272,-0.0134914079681039,0.0379757657647133
442,1.56362802954391E-05,-0.00342367263510823,0.00163505203090608,0.00249905954115093,-0.0167155973613262,0.037813562899828
443,-0.00248550064861774,-0.00204969081096351,-0.00110135017894208,-0.000107199033664074,-0.0194756481796503,0.038067139685154
444,-0.00535020371899009,-0.000808309705462307,-0.00322493095882237,-0.00220094691030681,-0.02093799225986,0.038704052567482
445,-0.00779259065166116,0.00021120770543348,-0.00470664165914059,-0.00285068084485829,-0.0209199525415897,0.0393413752317429
446,-0.0090652396902442,0.00104285404086113,-0.00574085116386414,-0.00207711174152792,-0.0196718275547028,0.039889607578516
447,-0.0115053215995431,-5.46034607395995E-05,-0.00808003451675177,-0.00242719636298716,-0.0203579962253571,0.0385927259922028
448,-0.0153949968516827,-0.00206579081714153,-0.0115362731739879,-0.00453435629606247,-0.0233410317450762,0.036302737891674
449,-0.0162536688148975,-0.00105901923961937,-0.012117107398808,-0.0047268713824451,-0.0240644421428442,0.0385506823658943
450,-0.0132900038734078,0.00218684854917228,-0.00916661228984594,-0.00239366618916392,-0.0221625175327063,0.0467128045856953
451,-0.00935995206236839,0.00453452207148075,-0.0056505729444325,-5.96699974266812E-05,-0.0202677231281996,0.0560242831707001
452,-0.00627287244424224,0.00500374427065253,-0.00337132741697133,0.001143510453403,-0.0194870568811893,0.0618254728615284
453,-0.00480159744620323,0.00319245480932295,-0.00321675138548017,0.000138700153911486,-0.0209324322640896,0.062354288995266
454,-0.00375184626318514,0.000611852505244315,-0.00434208987280726,-0.0031971822027117,-0.0236509870737791,0.0597666427493095
455,-0.00165757699869573,-0.000376027543097734,-0.00497900834307075,-0.00717029953375459,-0.0251007676124573,0.0575018785893917
456,0.00130013271700591,-2.46614108618815E-05,-0.00481739500537515,-0.0101946517825127,-0.0241819210350513,0.0569547675549984
457,0.00412202859297395,-0.000120764139865059,-0.00471394695341587,-0.0119610922411084,-0.0219406262040138,0.0580254755914211
458,0.00568832596763968,-0.00133811985142529,-0.0057244491763413,-0.0131065817549825,-0.0203990545123816,0.0599189549684525
459,0.00473057618364692,-0.00364360376261175,-0.00857925228774548,-0.0147040765732527,-0.020879253745079,0.060586579144001
460,0.00115925923455507,-0.00720224156975746,-0.0128331314772367,-0.0175554677844048,-0.0232635270804167,0.0583358742296696
461,-0.00279225222766399,-0.0111275454983115,-0.016406150534749,-0.0205152686685324,-0.0256506893783808,0.0551825426518917
462,-0.00357632245868444,-0.0124441813677549,-0.0163679663091898,-0.0200479663908482,-0.0249763634055853,0.0561468377709389
463,-0.000246142240939662,-0.0100284554064274,-0.0121306404471397,-0.0152967646718025,-0.0205674041062593,0.0620818100869656
464,0.00421892665326595,-0.0068096942268312,-0.00664994493126869,-0.0101127121597528,-0.0152321886271238,0.0682043582201004
465,0.0079429866746068,-0.00454932590946555,-0.00216966052539647,-0.0067457458935678,-0.0106971254572272,0.0717348903417587
466,0.0114875929430127,-0.00250419462099671,0.00127250654622912,-0.00446156458929181,-0.00668252538889647,0.0731768757104874
467,0.0145162157714367,-0.000631494040135294,0.00332070188596845,-0.00318075343966484,-0.00378991523757577,0.0731761679053307
468,0.0162886250764132,0.000570535019505769,0.00401159236207604,-0.00271468865685165,-0.00231348956003785,0.0732049942016602
469,0.0165167357772589,5.67768584005535E-05,0.00404154416173697,-0.00273889489471912,-0.00172123732045293,0.0736557841300964
470,0.0152036547660828,-0.00232482142746449,0.00330640841275454,-0.0041496641933918,-0.00207408051937819,0.0725015997886658
471,0.0138244051486254,-0.00368736265227199,0.00174595322459936,-0.0070753931067884,-0.00305897020734847,0.0693345814943314
472,0.0143332704901695,-0.00116781308315694,0.000508285709656775,-0.00957849901169539,-0.00340457889251411,0.0666689649224281
473,0.0166749805212021,0.00491170864552259,0.000600461848080158,-0.00988937728106976,-0.00235986267216504,0.0662921592593193
474,0.019578205421567,0.0121294017881155,0.00182382937055081,-0.00826175231486559,0.00012543449702207,0.0676521137356758
475,0.02223658002913,0.0176021903753281,0.0035945272538811,-0.00617918511852622,0.00360926566645503,0.0690030232071877
476,0.0243517681956291,0.019350353628397,0.0053562056273222,-0.00446033757179976,0.00668738642707467,0.0687383115291595
477,0.0261030122637749,0.0178932882845402,0.00667808530852199,-0.00291359471157193,0.00778875034302473,0.0667300522327423
478,0.0266585182398558,0.0146270385012031,0.00686671771109104,-0.00218469393439591,0.00585128925740719,0.0635931119322777
479,0.0254724342375994,0.0108633348718286,0.00583092495799065,-0.00275634764693677,0.00221807230263948,0.0598982088267803
480,0.0223790463060141,0.00628113746643066,0.00304170581512153,-0.00555250095203519,-0.00153474952094257,0.0542757362127304
481,0.0168582480400801,-0.000476674205856398,-0.00210709497332573,-0.0115901045501232,-0.00550345005467534,0.0452678240835667
482,0.0114411301910877,-0.00679783802479506,-0.00693097524344921,-0.0178757626563311,-0.0079337190836668,0.0363763272762299
483,0.00883831921964884,-0.0088198222219944,-0.00900277961045504,-0.021106418222189,-0.00756955286487937,0.0319380722939968
484,0.00865110196173191,-0.00623956928029656,-0.00864668935537338,-0.021053409203887,-0.00551299611106515,0.0328888781368732
485,0.010103652253747,-0.0014968499308452,-0.00652611488476396,-0.0184216480702162,-0.00263777980580926,0.038115531206131
486,0.0112998690456152,0.00113219232298434,-0.0047121737152338,-0.0155839156359434,-0.00119205622468144,0.0439305305480957
487,0.0101559013128281,-0.00100913213100284,-0.00516800815239549,-0.0146855404600501,-0.00282820267602801,0.0463440343737602
488,0.00758460815995932,-0.00627276301383972,-0.00707186991348863,-0.015448272228241,-0.00557895936071873,0.0443832874298096
489,0.00495993997901678,-0.0119707491248846,-0.00929840002208948,-0.0176039524376392,-0.00797387398779392,0.0395227856934071
490,0.00254565780051053,-0.0159601625055075,-0.0113159408792853,-0.0202478282153606,-0.0100468276068568,0.0348867885768414
491,0.00089120923075825,-0.0166981369256973,-0.0121193341910839,-0.0209923684597015,-0.0111747300252318,0.0332163274288177
492,0.000873577373567969,-0.0144245391711593,-0.0108059709891677,-0.0187125597149134,-0.0104447538033128,0.0347320064902306
493,0.00196067779324949,-0.0112560717388988,-0.00806377734988928,-0.0153443310409784,-0.00850862637162209,0.0370705723762512
494,0.00209482759237289,-0.00918185990303755,-0.00614963006228209,-0.0137519789859653,-0.00781392306089401,0.037933599203825
495,0.000985265010967851,-0.00732773216441274,-0.00598616246134043,-0.0139845265075564,-0.00918917264789343,0.038102388381958
496,0.000337752484483644,-0.00395119749009609,-0.00629614014178514,-0.0138839958235621,-0.0110286045819521,0.0394015833735466
497,0.00121381867211312,0.000284720299532637,-0.00570063665509224,-0.0122539363801479,-0.0116791557520628,0.041837751865387
498,0.00253617949783802,0.00324661144986749,-0.00464945426210761,-0.0101296911016107,-0.0111379697918892,0.0437656156718731
499,0.00203097611665726,0.00319954683072865,-0.0051017296500504,-0.00961008947342634,-0.0110940206795931,0.0434210635721684
500,-0.000846594455651939,-0.000279794476227835,-0.00824255961924791,-0.0118062635883689,-0.0127070508897305,0.0401245430111885
501,-0.003977513872087,-0.00518626160919666,-0.0131557583808899,-0.0154192838817835,-0.0146926753222942,0.0346439853310585
502,-0.00480666477233171,-0.00827815011143684,-0.0171224549412727,-0.0173824541270733,-0.014463497325778,0.0295494385063648
503,-0.00273468648083508,-0.00839824881404638,-0.0177355911582708,-0.0160113461315632,-0.0109753990545869,0.0273745078593493
504,0.00120534398593009,-0.00644609937444329,-0.0149558251723647,-0.0119163990020752,-0.00558244762942195,0.0284077245742083
505,0.00592628214508295,-0.00352685572579503,-0.0108585711568594,-0.00668816082179546,-0.000575184007175267,0.031450130045414
506,0.0103650381788611,-0.00101162563078105,-0.00775634730234742,-0.00263571878895164,0.00253541325218976,0.0343485027551651
507,0.0129743199795485,-0.000221269234316424,-0.00672275526449084,-0.00172289635520428,0.0036872539203614,0.0347021259367466
508,0.0125695895403624,-0.00140180857852101,-0.0077198650687933,-0.00443424377590418,0.00351701723411679,0.0313845500349998
509,0.0103187821805477,-0.0027108418289572,-0.00907473545521498,-0.00877263583242893,0.00316426856443286,0.026140546426177
510,0.00913723837584257,-0.00129793444648385,-0.00825914368033409,-0.0112190237268806,0.00395523058250546,0.0232726912945509
511,0.00950286444276571,0.00216303137131035,-0.00557060679420829,-0.0113144246861339,0.00527197867631912,0.0239422209560871
512,0.0084490580484271,0.00400692271068692,-0.00415808102115989,-0.0123389661312103,0.00448339572176337,0.0246304571628571
513,0.00535303633660078,0.00399769656360149,-0.00461017386987805,-0.015450787730515,0.00223622377961874,0.0239688046276569
514,0.00243554729968309,0.00349781755357981,-0.00497077032923698,-0.0190856177359819,0.00164875946938992,0.0226965639740229
515,-0.000651074224151671,0.00103537214454263,-0.00546747678890824,-0.0231688395142555,0.00181361637078226,0.0195532757788897
516,-0.00419888738542795,-0.00245619262568653,-0.00621904525905848,-0.0264736190438271,0.00121096847578883,0.0154975326731801
517,-0.00575475255027413,-0.00275258277542889,-0.00529394671320915,-0.0258582681417465,0.00124112772755325,0.0141328377649188
518,-0.00351376063190401,0.00169169844593853,-0.00172070239204913,-0.0209012050181627,0.003263252787292,0.0162915196269751
519,0.00121087534353137,0.00859076529741287,0.00290746544487774,-0.0146769639104605,0.00612096255645156,0.0197330377995968
520,0.00569787481799722,0.0145125854760408,0.00609997566789389,-0.0105433324351907,0.00764434458687902,0.0219905115664005
521,0.00858462229371071,0.0171998348087072,0.00715723307803273,-0.00928702112287283,0.00781748723238707,0.0222127828747034
522,0.00932103488594294,0.0162638183683157,0.0067129866220057,-0.00970904994755983,0.00729935523122549,0.0208762176334858
523,0.00752157066017389,0.0128802582621574,0.00473370170220733,-0.0108590200543404,0.00529835652559996,0.0185819137841463
524,0.00400069681927562,0.00907049980014563,0.00123376585543156,-0.0121743865311146,0.00116574612911791,0.0164897833019495
525,0.000576625869143754,0.00675782328471541,-0.00224152486771345,-0.0130518889054656,-0.00361896585673094,0.0160949677228928
526,-0.00140919536352158,0.00613049976527691,-0.00376741262152791,-0.0133681977167726,-0.0066171158105135,0.0165581107139587
527,-0.00194080453366041,0.00528217805549502,-0.00285182544030249,-0.0134428087621927,-0.00664222938939929,0.0154353445395827
528,-0.00149199855513871,0.00345938489772379,-0.000174733228050172,-0.0131241055205464,-0.0036300509236753,0.0127906613051891
529,5.00205023854505E-05,0.00189504469744861,0.00363886705599725,-0.0116710988804698,0.00181967450771481,0.0105119431391358
530,0.00222610193304718,0.00108082930091769,0.00745771592482924,-0.00962397456169128,0.00749332411214709,0.00897311791777611
531,0.00324510782957077,3.34780634148046E-05,0.00907410774379969,-0.00932726450264454,0.0102217029780149,0.0066944514401257
532,0.00191328930668533,-0.00263676582835615,0.00737240072339773,-0.0122551806271076,0.00877136923372746,0.0021429187618196
533,0.000294810102786869,-0.0058327610604465,0.00475140707567334,-0.0159387663006783,0.00626321043819189,-0.00304655102081597
534,0.000941763631999493,-0.00718843471258879,0.00392881222069263,-0.0171368438750505,0.00642270222306252,-0.00581987760961056
535,0.00197387486696243,-0.00783850997686386,0.00329380389302969,-0.0175497606396675,0.00766326626762748,-0.00703010335564613
536,0.000342397688655183,-0.0099559361115098,0.000385062274290249,-0.0203250292688608,0.00666025141254067,-0.00916240736842155
537,-0.00390498735941947,-0.0134524460881948,-0.00393960392102599,-0.0249815359711647,0.00367516162805259,-0.0122615313157439
538,-0.00761316157877445,-0.0164369214326143,-0.00660720327869058,-0.0283248163759708,0.00185614638030529,-0.0144436974078417
539,-0.00769411772489548,-0.0172792635858059,-0.00598163157701492,-0.0282316524535418,0.00304138800129294,-0.0146581204608083
540,-0.00578103819862008,-0.0177430026233196,-0.00501808850094676,-0.0271021947264671,0.00446371734142303,-0.0150729529559612
541,-0.00431018648669124,-0.0192430634051561,-0.00612659147009254,-0.0272675566375256,0.00428242096677423,-0.0171912014484406
542,-0.00317736179567873,-0.0208730641752481,-0.00780316023156047,-0.0276086665689945,0.0040924521163106,-0.0201169103384018
543,-0.00207964610308409,-0.02193340100348,-0.00848466157913208,-0.0265898928046227,0.0049879914149642,-0.0228888541460037
544,-0.000244787690462545,-0.0207021068781614,-0.00716177700087428,-0.0231314618140459,0.00771554559469223,-0.0231625158339739
545,0.00215853308327496,-0.0170029848814011,-0.00435335468500853,-0.018677519634366,0.0112706674262881,-0.0197719242423773
546,0.00370927061885595,-0.0139725422486663,-0.00262099271640182,-0.0167329255491495,0.0127425389364362,-0.0156212765723467
547,0.00453448109328747,-0.0131445033475757,-0.0022860134486109,-0.0172625165432692,0.011669373139739,-0.0127985021099448
548,0.00487518776208162,-0.0140915438532829,-0.00199290784075856,-0.0180769711732864,0.00966093130409718,-0.0116694429889321
549,0.0045084529556334,-0.0160508845001459,-0.00180918991100043,-0.018359299749136,0.008270263671875,-0.0125162983313203
550,0.00543846841901541,-0.0168767347931862,-0.00104784825816751,-0.016912030056119,0.00974870100617409,-0.013429201208055
551,0.00752162840217352,-0.0171881020069122,8.44308306113817E-05,-0.0149948867037892,0.0133273433893919,-0.0144404731690884
552,0.00724838022142649,-0.0197578221559525,-0.000702624500263482,-0.0158880949020386,0.0149570917710662,-0.0179243795573711
553,0.0048826364800334,-0.0226892847567797,-0.00275040767155588,-0.0180202517658472,0.0146424472332001,-0.0216449853032827
554,0.00306776305660605,-0.0224803015589714,-0.00374797405675054,-0.0179264284670353,0.0150808161124587,-0.0221298933029175
555,0.00214095739647746,-0.0199694335460663,-0.00393277034163475,-0.0166127663105726,0.016026621684432,-0.0213199481368065
556,0.00243870937265456,-0.0175137836486101,-0.00330812972970307,-0.0158845521509647,0.0171858128160238,-0.0221280213445425
557,0.00404870836064219,-0.0162047296762466,-0.00151411956176162,-0.0153863998129964,0.019030848518014,-0.0246283877640963
558,0.00559222977608442,-0.0161957275122404,0.000120318902190775,-0.0144391488283873,0.0202595312148333,-0.0272808205336332
559,0.0067018368281424,-0.0166991353034973,0.00117478950414807,-0.0127301076427102,0.0201146807521582,-0.0279646161943674
560,0.0078189754858613,-0.017232421785593,0.00228153821080923,-0.010889308527112,0.0194241385906935,-0.0270495489239693
561,0.00881007499992847,-0.0175519119948149,0.00324912741780281,-0.00943238474428654,0.0187338497489691,-0.0263775531202555
562,0.00981860887259245,-0.0171992909163237,0.00381035800091922,-0.0081819100305438,0.0186095163226128,-0.0263543296605349
563,0.0123640485107899,-0.0159303341060877,0.00491976831108332,-0.00667559448629618,0.0210497844964266,-0.0264385081827641
564,0.0161936301738024,-0.0150280045345426,0.00644736783578992,-0.00544173875823617,0.0258972682058811,-0.0271344911307096
565,0.0177310463041067,-0.0160248782485724,0.00601513125002384,-0.006185217294842,0.0290929041802883,-0.0299672242254019
566,0.0158819667994976,-0.0169582609087229,0.00354340602643788,-0.00824679248034954,0.0291903130710125,-0.0335640124976635
567,0.0124130789190531,-0.0163828171789646,0.00100726564414799,-0.0100991539657116,0.0278233885765076,-0.0356811471283436
568,0.00935293734073639,-0.0151930348947644,-0.000295402365736663,-0.0111948745325208,0.0271982382982969,-0.0359735935926437
569,0.00946953985840082,-0.0120479380711913,0.000961516925599426,-0.00968494452536106,0.0301760751754045,-0.0330970659852028
570,0.012500406242907,-0.00655216490849853,0.0041298745200038,-0.00542724411934614,0.0357849150896072,-0.0270537808537483
571,0.0148400580510497,-0.0018180450424552,0.0065797227434814,-0.00169785565230995,0.0400156043469906,-0.0215784180909395
572,0.0150573654100299,0.000681692734360695,0.00744391744956374,-0.000457380898296833,0.0416150353848934,-0.0191922206431627
573,0.0148283550515771,0.00249849609099329,0.00801085121929646,-0.000299740175250918,0.0423356108367443,-0.0185984130948782
574,0.0139519795775414,0.0028558720368892,0.00785394664853811,-0.00103268399834633,0.0421569831669331,-0.0196512639522552
575,0.0105531718581915,-0.000161327654495835,0.00544944312423468,-0.00401582848280668,0.0392865277826786,-0.0236568786203861
576,0.00579757755622268,-0.00421383092179894,0.00214172550477088,-0.00768256699666381,0.0345106907188892,-0.0282014776021242
577,0.000109428372525144,-0.00769095541909337,-0.00175930897239596,-0.0112346466630697,0.0274350550025702,-0.0314709283411503
578,-0.00675538601353765,-0.0108210071921349,-0.00703988457098603,-0.0150039978325367,0.0173388533294201,-0.0344479419291019
579,-0.0117666311562061,-0.0114159984514117,-0.0114228744059801,-0.0166926402598619,0.00812245905399323,-0.0364367924630642
580,-0.0141029581427574,-0.00871140230447054,-0.0137841049581766,-0.0155376708135009,0.00180742959491909,-0.0372411571443081
581,-0.0153632052242756,-0.00425263680517673,-0.014998628757894,-0.0131373517215252,-0.00314182857982814,-0.0378922373056412
582,-0.0152670685201883,0.000258742016740143,-0.0149515578523278,-0.0110123157501221,-0.00651271641254425,-0.0394226089119911
583,-0.0130579974502325,0.00296659232117236,-0.0133190276101232,-0.00999976601451635,-0.00698193721473217,-0.0425836630165577
584,-0.00898457039147615,0.00347600621171296,-0.0100996810942888,-0.00918304920196533,-0.00437483936548233,-0.0459045730531216
585,-0.00346304243430495,0.00355411483906209,-0.00527307018637657,-0.00638148607686162,0.00093190063489601,-0.0464517362415791
586,0.00262290821410716,0.00427213776856661,0.000462004827568308,-0.000391418143408373,0.00801346637308598,-0.0427462980151176
587,0.00717720435932279,0.00427896715700626,0.00495836185291409,0.00681043742224574,0.0142948776483536,-0.0366673357784748
588,0.00908203516155481,0.00275368988513947,0.00652819545939565,0.0118174124509096,0.0172225683927536,-0.0316724926233292
589,0.00915206130594015,0.000782661489211023,0.00592319527640939,0.0136805260553956,0.0168053526431322,-0.0288897473365068
590,0.00856898538768291,-0.000226811258471571,0.00520282937213779,0.01394715718925,0.0158038698136806,-0.0270882192999125
591,0.00723315868526697,-0.000548501557204872,0.00491800904273987,0.0131896277889609,0.016170859336853,-0.0268431287258863
592,0.00393532635644078,-0.00229422142729163,0.00376887549646199,0.0102259935811162,0.0162319038063288,-0.0303821098059416
593,-0.000633592077065259,-0.00547449802979827,0.00169630825985223,0.0056938105262816,0.0142130749300122,-0.0365675911307335
594,-0.00414608651772141,-0.00746217416599393,0.000147029699292034,0.00223407126031816,0.0106348097324371,-0.0412090122699738
595,-0.00592579133808613,-0.00708241760730743,-0.000401062658056617,0.00112570205237716,0.00626912200823426,-0.0422934181988239
596,-0.00784378498792648,-0.00637094955891371,-0.00128590897656977,0.00103276339359581,0.000441350741311908,-0.0419151037931442
597,-0.0115368058905005,-0.00733201066032052,-0.00382914440706372,0.000575229001697153,-0.00735944882035255,-0.0422244928777218
598,-0.0147347990423441,-0.00785546936094761,-0.00608213618397713,0.00148678419645876,-0.0135526079684496,-0.041409969329834
599,-0.0148594118654728,-0.00599823333323002,-0.00566569762304425,0.00476480321958661,-0.0141837792471051,-0.0378621444106102
600,-0.0141650214791298,-0.00470605213195086,-0.00487485248595476,0.00717554287984967,-0.0119485445320606,-0.0345312543213367
601,-0.0147300465032458,-0.00541813997551799,-0.00595700787380338,0.0073060323484242,-0.01069868914783,-0.0336589403450489
602,-0.013958727940917,-0.00445025786757469,-0.00626600487157702,0.00856373459100723,-0.00853987596929073,-0.0331885702908039
603,-0.0105821536853909,-0.000589023402426392,-0.00402590865269303,0.0121784480288625,-0.00404805969446898,-0.0323331952095032
604,-0.00714843580499291,0.00289918435737491,-0.00115452124737203,0.0150143885985017,0.000299399573123083,-0.0332854948937893
605,-0.00595890311524272,0.00354025885462761,0.000308700924506411,0.0146560296416283,0.00247299950569868,-0.0369808301329613
606,-0.0082857608795166,0.000968522857874632,-0.000953557610046119,0.0114310504868627,0.00147425674367696,-0.0422192104160786
607,-0.0125001706182957,-0.0025232785847038,-0.00388683727942407,0.00853359047323465,-0.00174977153073996,-0.0458053052425385
608,-0.0154934916645288,-0.00441166013479233,-0.00593300862237811,0.00800171121954918,-0.00518625322729349,-0.0460821054875851
609,-0.0169102810323238,-0.00515261618420482,-0.00659548817202449,0.00806405767798424,-0.00834175851196051,-0.0453886203467846
610,-0.0174898691475391,-0.00587331457063556,-0.00666776392608881,0.00761085422709584,-0.0109675964340568,-0.0452841930091381
611,-0.0180450305342674,-0.00725018419325352,-0.00715055409818888,0.00682618608698249,-0.0132098691537976,-0.045344777405262
612,-0.0189641416072845,-0.00941431988030672,-0.00784489791840315,0.00614774087443948,-0.014984929934144,-0.0450238585472107
613,-0.0187107194215059,-0.011232546530664,-0.00669957790523767,0.00673224357888103,-0.0147927217185497,-0.0436379835009575
614,-0.0155509253963828,-0.0113612953573465,-0.00253318180330098,0.0091756759211421,-0.0119488481432199,-0.040170818567276
615,-0.00959437899291515,-0.00891226250678301,0.00417041452601552,0.0136849451810122,-0.00745975924655795,-0.0335721001029015
616,-0.00348948454484344,-0.00509503716602921,0.0114148464053869,0.0187661629170179,-0.00383241730742157,-0.0258314628154039
617,-0.00166154513135552,-0.0036488869227469,0.01529779471457,0.019781980663538,-0.00474880309775472,-0.0223974660038948
618,-0.00599138531833887,-0.00618618912994862,0.0138389887288213,0.0139313209801912,-0.0111887259408832,-0.0255889669060707
619,-0.0116709843277931,-0.00872845854610205,0.011279558762908,0.00580695178359747,-0.0179996900260448,-0.0302258413285017
620,-0.0132318958640099,-0.00766594614833593,0.0120998974889517,0.00150158093310893,-0.0201503839343786,-0.0309856105595827
621,-0.0126239312812686,-0.00588089413940907,0.0140284532681108,0.000152478023665026,-0.0201436225324869,-0.0296803060919046
622,-0.0136938700452447,-0.00689544854685664,0.013816854916513,-0.00167212961241603,-0.0219922717660666,-0.0300101693719625
623,-0.0167657043784857,-0.0107627464458346,0.0114781837910414,-0.00506323482841253,-0.0258161388337612,-0.0333105102181435
624,-0.0201795548200607,-0.0157166626304388,0.00836519058793783,-0.00909619219601154,-0.0296901855617762,-0.0388517305254936
625,-0.0213633924722672,-0.0186055470257998,0.00677035795524716,-0.011063551530242,-0.0306994803249836,-0.0433271043002605
626,-0.0199552327394485,-0.0183631870895624,0.00730725470930338,-0.0100698536261916,-0.0282945279031992,-0.0441732183098793
627,-0.0191839523613453,-0.018043490126729,0.00737058371305466,-0.00948024727404118,-0.0261085163801908,-0.0432258732616901
628,-0.0211688708513975,-0.0199966449290514,0.00508989160880446,-0.0119011914357543,-0.0269593689590693,-0.0430461205542088
629,-0.0239206496626139,-0.0227992758154869,0.00171637465246022,-0.0155074167996645,-0.0292408932000399,-0.0433161668479443
630,-0.0247639287263155,-0.0240292996168137,-0.000940642494242638,-0.0176477022469044,-0.0302800368517637,-0.0430199429392815
631,-0.0223852340131998,-0.021919559687376,-0.00122406205628067,-0.0161165483295918,-0.0282050184905529,-0.0405479222536087
632,-0.0168241579085588,-0.0165235977619886,0.00169060507323593,-0.00994433928281069,-0.0222623161971569,-0.0348713248968124
633,-0.0111299864947796,-0.0115587143227458,0.00502697471529245,-0.00284149125218391,-0.0155224790796638,-0.0291096530854702
634,-0.00883710104972124,-0.0107506150379777,0.00559873133897781,0.000604089407715946,-0.0116410152986646,-0.0270161312073469
635,-0.00907887332141399,-0.0125086959451437,0.00454247975721955,0.0012501897290349,-0.0095587307587266,-0.0276220720261335
636,-0.00865689385682344,-0.0131757827475667,0.00468588713556528,0.00245693372562528,-0.00665023876354098,-0.0278577283024788
637,-0.00678370520472527,-0.0123778805136681,0.00679102726280689,0.00489005958661437,-0.00271240388974547,-0.0268553122878075
638,-0.00526465708389878,-0.0123406006023288,0.00944327935576439,0.00706649664789438,0.000457874382846057,-0.0257678348571062
639,-0.00648280838504434,-0.0153072234243155,0.0100160194560885,0.00716516608372331,3.45126427419018E-05,-0.0264044962823391
640,-0.00884338468313217,-0.0191255621612072,0.00934555195271969,0.00686117261648178,-0.00270763598382473,-0.0272444933652878
641,-0.00797792710363865,-0.0191260632127523,0.0114978384226561,0.0102062737569213,-0.00249521201476455,-0.0245782937854528
642,-0.00437159463763237,-0.0160534679889679,0.0161863584071398,0.0161050762981176,0.00133371364790946,-0.020079180598259
643,-0.00110802450217307,-0.013298686593771,0.0202373899519444,0.020793130621314,0.00544989109039307,-0.0176274999976158
644,0.00202109385281801,-0.0111716799438,0.0233277101069689,0.0236796718090773,0.00901059154421091,-0.0168005004525185
645,0.00557116791605949,-0.00956590380519629,0.0256933253258467,0.0246186908334494,0.0123315751552582,-0.0166491381824017
646,0.00769947934895754,-0.00849646329879761,0.0260552987456322,0.022819334641099,0.01357426866889,-0.0180498119443655
647,0.00758315762504935,-0.00673336442559958,0.0244882870465517,0.019645556807518,0.0116839306429029,-0.0204964391887188
648,0.00589681370183825,-0.00506224669516087,0.0219872370362282,0.0167762637138367,0.00841237138956785,-0.0229465365409851
649,0.00248928647488356,-0.00595429865643382,0.018665537238121,0.0143014006316662,0.00536005711182952,-0.0252210833132267
650,-0.00267014582641423,-0.00957410037517548,0.0146930310875177,0.0120500447228551,0.00237532006576657,-0.0267493352293968
651,-0.00856767036020756,-0.0144384559243917,0.0100561119616032,0.0090510556474328,-0.00112286803778261,-0.0284650716930628
652,-0.0132343750447035,-0.0189645327627659,0.00525102112442255,0.00494877947494388,-0.00417988980188966,-0.0318800695240498
653,-0.0142668588086963,-0.0209650918841362,0.00276306341402233,0.00262022274546325,-0.00397094758227468,-0.0346753895282745
654,-0.0112417424097657,-0.019856171682477,0.00421183835715055,0.00440368801355362,0.00102180731482804,-0.0340871699154377
655,-0.00691329408437014,-0.0179371871054173,0.00760503625497222,0.00827027764171362,0.00806078687310219,-0.0313427783548832
656,-0.00437233364209533,-0.0172221790999174,0.00969511736184359,0.0107225235551596,0.0124703785404563,-0.0292215384542942
657,-0.00398997962474823,-0.0174957718700171,0.00925185717642307,0.0105906361714005,0.0125709753483534,-0.028823958709836
658,-0.00467806635424495,-0.0178752057254314,0.00691380025818944,0.0087562557309866,0.00961987487971783,-0.029883025214076
659,-0.00530318822711706,-0.0172109343111515,0.00434693461284041,0.0070604388602078,0.00533463945612311,-0.0309982988983393
660,-0.0036843370180577,-0.0134364496916533,0.00447735050693154,0.0081567894667387,0.00264725089073181,-0.0288978815078735
661,0.000888939248397946,-0.00704937940463424,0.00855998136103153,0.0122551005333662,0.0034833662211895,-0.0232313815504313
662,0.00614586472511292,-0.00124833080917597,0.0144839398562908,0.0162373818457127,0.00651535438373685,-0.0178315490484238
663,0.0104758059605956,0.00284373550675809,0.0197460036724806,0.0184503104537725,0.00990660022944212,-0.014524893835187
664,0.0132279302924871,0.00553427916020155,0.0227416455745697,0.0192798245698214,0.0116378143429756,-0.0127763375639915
665,0.0136454496532679,0.00677197612822056,0.023436650633812,0.0190815050154924,0.00989387650042772,-0.0123557187616825
666,0.0124604953452945,0.0070033622905612,0.0234174467623234,0.0182710494846106,0.00575423752889037,-0.0132844392210245
667,0.0125317955389619,0.00825643539428711,0.0241773203015327,0.0178208090364933,0.00282902223989367,-0.0142390113323927
668,0.013078598305583,0.00919808819890022,0.0233409572392702,0.0155846290290356,0.000365585874533281,-0.0160784162580967
669,0.00927574094384909,0.00421272311359644,0.01648860424757,0.00698107061907649,-0.00639798631891608,-0.023387024179101
670,0.00196112086996436,-0.00603159284219146,0.00535670295357704,-0.00587589805945754,-0.0159598831087351,-0.0354050621390343
671,-0.00328181660734117,-0.0146699771285057,-0.00389057886786759,-0.0155314421281219,-0.0222167558968067,-0.0450847409665585
672,-0.00376145890913904,-0.0176929775625467,-0.00755053013563156,-0.0181204359978437,-0.022578751668334,-0.0477174334228039
673,-0.00241901120170951,-0.0174940470606089,-0.0076569183729589,-0.0165661592036486,-0.0212371572852135,-0.0461323261260986
674,-0.00277934968471527,-0.0180453639477491,-0.00848152302205563,-0.0160081405192614,-0.0235749520361423,-0.0463435649871826
675,-0.00371483364142478,-0.0195536706596613,-0.0106789758428931,-0.0183160919696093,-0.0281960945576429,-0.0498102940618992
676,-0.00320225208997726,-0.020088754594326,-0.0128453336656094,-0.0222250688821077,-0.0311789512634277,-0.0537523105740547
677,-0.000989614403806627,-0.0179134719073772,-0.0140661522746086,-0.0252605956047773,-0.0321195982396603,-0.0551049299538136
678,0.00194318173453212,-0.0138267213478684,-0.0143970269709826,-0.0265625063329935,-0.0328541174530983,-0.0536481700837612
679,0.00400028564035892,-0.0105322701856494,-0.0149578172713518,-0.0275095663964748,-0.0345681458711624,-0.051671739667654
680,0.00481116538867354,-0.00848465133458376,-0.0164056271314621,-0.0285500343888998,-0.0364687293767929,-0.0503625646233559
681,0.00495596509426832,-0.00676056602969766,-0.0186121873557568,-0.0295772980898619,-0.0373035110533237,-0.0499885417521
682,0.0044648596085608,-0.00578355602920055,-0.0215168818831444,-0.0318143852055073,-0.0373223833739758,-0.0511606857180595
683,0.00312289828434587,-0.00634724646806717,-0.025019247084856,-0.0359197109937668,-0.0378208793699741,-0.053714707493782
684,0.000723210338037461,-0.00834232475608587,-0.0291427560150623,-0.0411262586712837,-0.040133859962225,-0.0572629943490028
685,-0.00209568138234317,-0.0103959143161774,-0.0331322550773621,-0.0455584339797497,-0.0439102128148079,-0.0608756765723228
686,-0.00390571472235024,-0.0111908419057727,-0.0355075486004353,-0.0474001541733742,-0.0473472997546196,-0.0631340220570564
687,-0.00448671262711287,-0.011083803139627,-0.0363771021366119,-0.0478340797126293,-0.0499591715633869,-0.0648536309599876
688,-0.00424773339182138,-0.0103579554706812,-0.0371916256844997,-0.0497643351554871,-0.0525056570768356,-0.0676716938614845
689,-0.00245979614555836,-0.00771268643438816,-0.0383069030940533,-0.0529288686811924,-0.054719340056181,-0.0698120892047882
690,0.0010658660903573,-0.00311671360395849,-0.0388176068663597,-0.0550989210605621,-0.0552162788808346,-0.0686925873160362
691,0.00381121272221208,0.000579841958824545,-0.0389623045921326,-0.0566017925739288,-0.054517388343811,-0.0656437128782272
692,0.00416844198480248,0.00202693464234471,-0.0391829609870911,-0.0575358644127846,-0.054051510989666,-0.062079980969429
693,0.00349984364584088,0.00226806267164648,-0.0389876775443554,-0.057097751647234,-0.0537060908973217,-0.058550700545311
694,0.0023311753757298,0.000970845052506775,-0.0394431948661804,-0.0574028864502907,-0.0538332387804985,-0.0582011826336384
695,0.000287532689981163,-0.00231353449635208,-0.0416727811098099,-0.0600195750594139,-0.0543522275984287,-0.0623776912689209
696,-0.00191145413555205,-0.00613343715667725,-0.0445371307432652,-0.0632031634449959,-0.0538392104208469,-0.0681527480483055
697,-0.00212114281021059,-0.00772972870618105,-0.0457330793142319,-0.06410251557827,-0.0507598258554935,-0.0714256763458252
698,-4.22804005211219E-05,-0.00633343122899532,-0.0449957884848118,-0.0621333159506321,-0.0462993234395981,-0.0707956776022911
699,0.000954261398874223,-0.00503188883885741,-0.045372411608696,-0.0602252744138241,-0.0452773384749889,-0.069685310125351
700,9.80377371888608E-05,-0.00521145854145288,-0.0476732663810253,-0.0593647994101048,-0.048504326492548,-0.0712476447224617
701,-9.29062443901785E-05,-0.005142314825207,-0.0493021756410599,-0.0575211718678474,-0.05180299654603,-0.0748421847820282
702,0.00107292679604143,-0.00369467306882143,-0.0494263470172882,-0.0541115626692772,-0.053136233240366,-0.0783419534564018
703,0.0024000455159694,-0.000725573743693531,-0.0492654144763947,-0.0498935990035534,-0.0532110929489136,-0.0802151262760162
704,0.00267586368136108,0.00302649987861514,-0.0493463166058064,-0.0457446090877056,-0.0527834519743919,-0.0805712789297104
705,0.00202877540141344,0.00701376935467124,-0.0492179095745087,-0.0423903949558735,-0.0518999956548214,-0.0802741944789886
706,0.000620083825197071,0.0106909461319447,-0.0497404634952545,-0.0408521443605423,-0.0516389831900597,-0.0804409459233284
707,-0.00194766034837812,0.0124344816431403,-0.0521617084741592,-0.0418002530932426,-0.0533837117254734,-0.0816535130143166
708,-0.00528623070567846,0.010798916220665,-0.0559233464300632,-0.0444011054933071,-0.0567136071622372,-0.0830815061926842
709,-0.00883303303271532,0.00555865000933409,-0.0600207634270191,-0.0475400909781456,-0.0604549869894981,-0.0843496471643448
710,-0.0113060614094138,-0.00158287433441728,-0.0634554773569107,-0.0500958301126957,-0.0626623332500458,-0.0861208066344261
711,-0.0116075873374939,-0.00852504745125771,-0.065913513302803,-0.0513907447457314,-0.0625628009438515,-0.0892499312758446
712,-0.0105400998145342,-0.0141544826328754,-0.0677636563777924,-0.0516063421964645,-0.0616414174437523,-0.093767412006855
713,-0.0098506323993206,-0.0178788248449564,-0.0690875947475433,-0.0511826537549496,-0.06117058172822,-0.0982461124658585
714,-0.0106136873364449,-0.0197275336831808,-0.069782942533493,-0.0503289438784122,-0.0611285194754601,-0.100795827805996
715,-0.0112354876473546,-0.0190372616052628,-0.0682961270213127,-0.0479983538389206,-0.0594633519649506,-0.0996649861335754
716,-0.00900676008313894,-0.0149259241297841,-0.063428670167923,-0.0433083213865757,-0.0545314736664295,-0.0945028215646744
717,-0.00482256757095456,-0.00936716422438622,-0.0579806342720985,-0.0383907482028008,-0.0488447993993759,-0.088255263864994
718,-0.0018606319790706,-0.00552293425425887,-0.0555668585002422,-0.0364729724824429,-0.0454526394605637,-0.0849523991346359
719,-0.000748123798985034,-0.0041446890681982,-0.0561502538621426,-0.037928257137537,-0.0435996055603027,-0.0855104550719261
720,-0.000136576374643482,-0.00450765155255795,-0.0576083585619926,-0.0408517308533192,-0.0416339822113514,-0.0880801975727081
721,-0.000432261469541118,-0.00699909031391144,-0.0596759840846062,-0.0446415133774281,-0.0408840291202068,-0.0920667424798012
722,-0.00245441379956901,-0.0116354478523135,-0.0628891661763191,-0.0487828776240349,-0.0429258979856968,-0.0971161723136902
723,-0.0047064246609807,-0.0163092538714409,-0.0658203661441803,-0.0507603622972965,-0.0456394478678703,-0.100567661225796
724,-0.00622815964743495,-0.0193205829709768,-0.0675176605582237,-0.0494051054120064,-0.0469961054623127,-0.100489161908627
725,-0.00751190958544612,-0.0201184377074242,-0.068335548043251,-0.0459033623337746,-0.047534815967083,-0.0969841182231903
726,-0.00924058631062508,-0.019270395860076,-0.0689640268683434,-0.0421755202114582,-0.0482571348547935,-0.0915610417723656
727,-0.0125216878950596,-0.0187282841652632,-0.0703463032841682,-0.0396388508379459,-0.0501036159694195,-0.0869095847010612
728,-0.0172959323972464,-0.0192859582602978,-0.0721914321184158,-0.0381168127059937,-0.0528647378087044,-0.0843233093619347
729,-0.0211917646229267,-0.0193537957966328,-0.0726999416947365,-0.0361642427742481,-0.054259330034256,-0.0816591084003448
730,-0.0212671831250191,-0.0170218702405691,-0.0696107745170593,-0.0322660468518734,-0.0507682263851166,-0.0756345838308334
731,-0.0167585182934999,-0.0127142732962966,-0.0624948255717754,-0.0268727298825979,-0.0410930402576923,-0.0664947554469109
732,-0.00964324176311493,-0.00824747234582901,-0.054045308381319,-0.0220090709626675,-0.0288295894861221,-0.0573097914457321
733,-0.00215791491791606,-0.00374963344074786,-0.0468552373349667,-0.0181460417807102,-0.0187808610498905,-0.0488157793879509
734,0.00374597706831992,0.000696905073709786,-0.0420601889491081,-0.0149585576727986,-0.0135313104838133,-0.0403894856572151
735,0.00617590639740229,0.00345558091066778,-0.0402710437774658,-0.0132490275427699,-0.0127877751365304,-0.0336333401501179
736,0.00558878481388092,0.00471702218055725,-0.0399877913296223,-0.0127915889024735,-0.0132935075089335,-0.0303324572741985
737,0.0048038219101727,0.00691212853416801,-0.0387712568044662,-0.0119061060249805,-0.0124266752973199,-0.030003197491169
738,0.00490217888727784,0.00962334033101797,-0.0371974483132362,-0.0108273709192872,-0.011515717022121,-0.0318071506917477
739,0.00457920599728823,0.0095343329012394,-0.0369315817952156,-0.0112725347280502,-0.0120450258255005,-0.0358344353735447
740,0.00391820119693875,0.00604993430897594,-0.0371710099279881,-0.0130059709772468,-0.0118509959429502,-0.041806984692812
741,0.00251808855682611,0.000930234149564058,-0.0381533987820148,-0.0156873911619186,-0.0107273627072573,-0.0490989424288273
742,-0.00107618526089936,-0.00366081646643579,-0.0414841845631599,-0.0196778140962124,-0.0115975560620427,-0.0557293742895126
743,-0.0049454839900136,-0.00505976658314466,-0.0452933982014656,-0.0229994114488363,-0.0135764414444566,-0.0581609345972538
744,-0.00649851420894265,-0.00363242789171636,-0.0467549376189709,-0.0240812394768,-0.0139334462583065,-0.055841576308012
745,-0.00576876336708665,-0.0017540940316394,-0.045680820941925,-0.0235034972429276,-0.012398598715663,-0.0508618466556072
746,-0.00415049912407994,4.3421041482361E-05,-0.0432014837861061,-0.0214205998927355,-0.00940930470824242,-0.0442983917891979
747,-0.00307801715098321,0.00168850505724549,-0.0402615293860435,-0.0174790006130934,-0.0051808818243444,-0.0366484448313713
748,-0.00293160183355212,0.00253502652049065,-0.037227027118206,-0.0123021304607391,-0.000498788664117455,-0.0290651526302099
749,-0.00379773345775902,0.00121218804270029,-0.0349743105471134,-0.00873016379773617,0.00284634041599929,-0.0243798214942217
750,-0.00549592124298215,-0.00290839816443622,-0.034408338367939,-0.00884363893419504,0.00331207946874201,-0.0242308545857668
751,-0.00708296149969101,-0.00720309233292937,-0.0352568179368973,-0.0109688499942422,0.000923830142710358,-0.0259386003017426
752,-0.00789684243500233,-0.00884029734879732,-0.0362997613847256,-0.0121174659579992,-0.00257032061927021,-0.0258586462587118
753,-0.00962577387690544,-0.00987543258816004,-0.0377797819674015,-0.0127058327198029,-0.00624706922098994,-0.0248502884060144
754,-0.014236762188375,-0.0137980030849576,-0.0413469821214676,-0.0156290121376514,-0.010935970582068,-0.0264078229665756
755,-0.0187869276851416,-0.0183663330972195,-0.0451160296797752,-0.0192283540964127,-0.0146034481003881,-0.0293262954801321
756,-0.0197303742170334,-0.0197397638112307,-0.0456732623279095,-0.0195638444274664,-0.013862413354218,-0.0301922634243965
757,-0.0186604224145412,-0.0189080312848091,-0.0430931448936462,-0.0166849978268147,-0.00948706828057766,-0.0291518773883581
758,-0.0174057129770517,-0.0173672158271074,-0.0378982685506344,-0.0109728872776031,-0.00343826459720731,-0.0261277761310339
759,-0.0150031326338649,-0.0138552635908127,-0.0297682080417871,-0.00182930333539844,0.00432902574539185,-0.0197763312608004
760,-0.0110516771674156,-0.00743190385401249,-0.0206414386630058,0.00854258332401514,0.0132349273189902,-0.0109253078699112
761,-0.00623082043603063,0.000670375942718238,-0.0131414951756597,0.0171985682100058,0.0216292925179005,-0.00170636409893632
762,-0.00151330465450883,0.00713882176205516,-0.00795104820281267,0.0231805741786957,0.0283013191074133,0.00550287123769522
763,0.00120314839296043,0.00846022088080645,-0.00486684078350663,0.0263804700225592,0.0318587683141232,0.0089499456807971
764,0.000614419812336564,0.00414145458489656,-0.00332057103514671,0.0274339448660612,0.0314919240772724,0.00893760286271572
765,-0.00217503006570041,-0.00273440009914339,-0.0017933426424861,0.0282978285104036,0.0286866556853056,0.00733356876298785
766,-0.00404105568304658,-0.00749955652281642,0.0017667057691142,0.0314950123429298,0.027132285758853,0.00724443327635527
767,-0.00331996451131999,-0.00854838266968727,0.007418108638376,0.0367681570351124,0.0296042263507843,0.00990822073072195
768,-0.00227469555102289,-0.00897157751023769,0.0125591708347201,0.0406961552798748,0.0346808731555939,0.0127855017781258
769,-0.00312451203353703,-0.0108095528557897,0.0158200152218342,0.0422648824751377,0.0390399098396301,0.0149025842547417
770,-0.00569651741534472,-0.0131008187308908,0.0172236990183592,0.0428358763456345,0.0401942916214466,0.0178221073001623
771,-0.00859170127660036,-0.0137147000059485,0.0167966540902853,0.0432857424020767,0.0380123518407345,0.0224372316151857
772,-0.00948362704366446,-0.00990848988294601,0.0166575666517019,0.0452817156910896,0.036141999065876,0.029326381161809
773,-0.00843265373259783,-0.00255844532512128,0.0180285703390837,0.0484406761825085,0.0369556918740273,0.0369284152984619
774,-0.00861067418009043,0.00310345459729433,0.0183899104595184,0.0489576794207096,0.038291472941637,0.0410582944750786
775,-0.010517543181777,0.00456154951825738,0.016823772341013,0.0458935759961605,0.0388851277530193,0.0403005480766296
776,-0.0119818178936839,0.00338988099247217,0.0152540560811758,0.0419263131916523,0.039678867906332,0.0367872789502144
777,-0.0113537143915892,0.00205305684357882,0.0158373489975929,0.0401935949921608,0.0422825552523136,0.0340327322483063
778,-0.00769966328516603,0.00257413927465677,0.0202949810773134,0.0429926291108131,0.0485574975609779,0.0353457629680634
779,-0.00354268890805542,0.00355655746534467,0.0265719573944807,0.0477249324321747,0.0563207231462002,0.0386490374803543
780,-0.00311008701100945,0.0020228517241776,0.0300165433436632,0.0491852425038815,0.0605274103581905,0.0384876616299152
781,-0.00586812058463693,-0.000562070810701698,0.0301629360765219,0.0478241443634033,0.0606962405145168,0.0352880097925663
782,-0.00928571168333292,-0.00163552141748369,0.0293858870863914,0.0472062416374683,0.059071458876133,0.0334406234323978
783,-0.0127118146046996,-0.000913830357603729,0.0289664268493652,0.0486138686537743,0.0564798451960087,0.0352646447718143
784,-0.0149020170792937,0.00218215095810592,0.0302490647882223,0.0522067286074162,0.0547447688877583,0.0406275950372219
785,-0.0141605138778687,0.00717421900480986,0.0337701328098774,0.057139128446579,0.0565588735044003,0.0469344183802605
786,-0.0103773307055235,0.0115231471136212,0.0383953452110291,0.0618829689919949,0.0627414658665657,0.0518460646271706
787,-0.00624964712187648,0.0122847678139806,0.0421178117394447,0.0649627223610878,0.0702024921774864,0.0549882315099239
788,-0.00338190491311252,0.0103955809026957,0.0447249636054039,0.0671833679080009,0.0759919136762619,0.0583756789565086
789,-0.000800135487224907,0.00889704842120409,0.0474337413907051,0.0697581470012665,0.079812228679657,0.062777504324913
790,0.00134212290868163,0.00767151638865471,0.0498597510159016,0.0710283294320107,0.0812027081847191,0.0652795433998108
791,0.00271690404042602,0.00641176989302039,0.0516993291676044,0.0707769170403481,0.0807467773556709,0.0650372058153152
792,0.00388769269920886,0.00630650436505675,0.0536553785204887,0.0710310041904449,0.0798307731747627,0.0642212405800819
793,0.00416360376402736,0.00704818125814199,0.0551531203091145,0.0715094283223152,0.0777737498283386,0.0635723993182182
794,0.000884796550963074,0.00591547368094325,0.0534907393157482,0.0692089572548866,0.07215216755867,0.0608716793358326
795,-0.00527560757473111,0.002590591320768,0.0487085469067097,0.064429335296154,0.0644889250397682,0.0561175234615803
796,-0.00967903062701225,0.000289501447696239,0.0449001416563988,0.0615993551909924,0.0603126958012581,0.0538839362561703
797,-0.0106333559378982,0.000256269966484979,0.0439177192747593,0.0623744986951351,0.0610755607485771,0.0563232339918613
798,-0.00955477636307478,0.00140858918894082,0.0443590544164181,0.0647268891334534,0.063751682639122,0.0611671134829521
799,-0.00716701196506619,0.00313845695927739,0.0452760197222233,0.0671177133917809,0.0664986073970795,0.0665451064705849
800,-0.00328237819485366,0.0053132101893425,0.0471548698842525,0.0699099078774452,0.0701025947928429,0.0722744092345238
801,0.000717461225576699,0.00678036082535982,0.0496675558388233,0.0726424530148506,0.0744504258036613,0.0770729184150696
802,0.00160875567235053,0.00588367506861687,0.0507593229413033,0.0727180317044258,0.0767804533243179,0.078593835234642
803,-0.000393554393667728,0.00403782539069653,0.0507155247032642,0.0704855769872665,0.0772983059287071,0.0781819894909859
804,-0.00176013715099543,0.00420403340831399,0.0522554293274879,0.0693661645054817,0.0799998417496681,0.0789617821574211
805,-0.00241328240372241,0.00560989184305072,0.0548599772155285,0.0691955387592316,0.0849242061376572,0.0798990577459335
806,-0.00489162560552359,0.0054767751134932,0.0556687563657761,0.067394457757473,0.0879812017083168,0.0785916298627853
807,-0.00926684867590666,0.00359612097963691,0.0543192476034164,0.0643656179308891,0.0871350988745689,0.0760427638888359
808,-0.0128291500732303,0.00242119538597763,0.0531547628343105,0.0631287172436714,0.0849233269691467,0.0755248889327049
809,-0.0132676074281335,0.00397312175482512,0.0542609989643097,0.0654803737998009,0.0853065624833107,0.0785566344857216
810,-0.0118896374478936,0.00699960486963391,0.0566673465073109,0.0693096742033958,0.087854266166687,0.0828459486365318
811,-0.0125991618260741,0.00777358748018742,0.0569959469139576,0.0702095329761505,0.0876490026712418,0.0840515568852425
812,-0.0158688761293888,0.00600201124325395,0.0545349270105362,0.0676359385251999,0.0826531797647476,0.0816933587193489
813,-0.0182498656213284,0.00545288203284144,0.0521478615701199,0.0655359104275703,0.0762844085693359,0.0802250877022743
814,-0.0174104794859886,0.00782000087201595,0.0520752109587193,0.0663824304938316,0.0722441747784615,0.0823958069086075
815,-0.0131567372009158,0.0113228149712086,0.0547390170395374,0.0693006962537766,0.0719214156270027,0.0864412412047386
816,-0.0068723252043128,0.0135199362412095,0.0590912401676178,0.0722149461507797,0.0748019367456436,0.0891866758465767
817,-0.000488191348267719,0.0143848266452551,0.0637808963656425,0.0745600312948227,0.0793739929795265,0.0901920422911644
818,0.00559831038117409,0.016205133870244,0.0690281242132187,0.0780953168869019,0.0846688598394394,0.0926455706357956
819,0.0114677678793669,0.0193670000880957,0.0750517621636391,0.0834914222359657,0.089442677795887,0.0986550599336624
820,0.014163046143949,0.0197623204439878,0.0789785757660866,0.0867615565657616,0.0901926085352898,0.103343494236469
821,0.0122422417625785,0.0153145231306553,0.0790600925683975,0.0852174982428551,0.08608428388834,0.101416930556297
822,0.00927209202200174,0.00987987406551838,0.0777210146188736,0.0817496106028557,0.0809048935770988,0.0952002182602882
823,0.00817529018968344,0.00785756297409534,0.0770480036735535,0.0797650143504143,0.0775817111134529,0.0895734950900078
824,0.00772001640871167,0.00953939091414213,0.0763006880879402,0.0794728770852089,0.0758547931909561,0.0855861455202103
825,0.00634601013734937,0.0122704617679119,0.0748651549220085,0.0798266306519508,0.0748340040445328,0.0823575034737587
826,0.00603610975667834,0.0146697638556361,0.0743189603090286,0.0814130827784538,0.0753885060548782,0.0806513875722885
827,0.0077468641102314,0.0155956698581576,0.0746127367019653,0.084013506770134,0.0767128169536591,0.0802571699023247
828,0.0103180659934878,0.0145101873204112,0.0747138634324074,0.0870197042822838,0.0773860216140747,0.0801003947854042
829,0.013192399404943,0.0133894309401512,0.07504802942276,0.0906484872102737,0.0780816227197647,0.0798420533537865
830,0.0155400047078729,0.0138880563899875,0.075657844543457,0.0939531475305557,0.0789448395371437,0.0796357393264771
831,0.0163390412926674,0.0150687862187624,0.0759739279747009,0.0952451527118683,0.0795134603977203,0.0802574530243874
832,0.0150699131190777,0.0147852478548884,0.0752919092774391,0.0933305397629738,0.0796860978007317,0.0810746178030968
833,0.0125297149643302,0.0127957435324788,0.073592908680439,0.0888954550027847,0.0795550122857094,0.0807420685887337
834,0.0102843511849642,0.0117069920524955,0.0716533288359642,0.0844980180263519,0.0785009115934372,0.0800742655992508
835,0.00868908315896988,0.0132539533078671,0.0697727426886559,0.0817303732037544,0.0751725137233734,0.0798275619745255
836,0.00752068078145385,0.0157962311059237,0.0680494979023933,0.0803144872188568,0.0697408393025398,0.0791885852813721
837,0.00771480659022927,0.0172363426536322,0.0672425702214241,0.0802543014287949,0.064842164516449,0.0786182209849358
838,0.00961565412580967,0.0163878686726093,0.0676064193248749,0.0814119279384613,0.0625478178262711,0.0786341354250908
839,0.0119346864521503,0.0135634578764439,0.0683175548911095,0.0829836949706078,0.0623714178800583,0.0787893906235695
840,0.014680135063827,0.0117848664522171,0.069416917860508,0.0856904834508896,0.0640821605920792,0.0803282707929611
841,0.018067853525281,0.0127475894987583,0.0707193538546562,0.0898995250463486,0.0670845732092857,0.0836553648114204
842,0.0193949844688177,0.0134797291830182,0.0699341595172882,0.0928912460803986,0.0677201971411705,0.0853920951485634
843,0.0163530837744474,0.0108491014689207,0.0654554665088654,0.0918121039867401,0.0630885362625122,0.0833279192447662
844,0.0101811122149229,0.00540071632713079,0.0584276653826237,0.0862282961606979,0.0546835064888,0.0788136497139931
845,0.0045945099554956,0.00049014703836292,0.0523178838193417,0.0792293697595596,0.0467848889529705,0.0741294473409653
846,0.00255522876977921,-0.000337988371029496,0.0502595528960228,0.0761084407567978,0.042252890765667,0.0723758190870285
847,0.00286264903843403,0.00222908076830208,0.0512058734893799,0.0775668546557426,0.0398922562599182,0.0739295333623886
848,0.00265507982112467,0.00478758849203587,0.0516360625624657,0.0794481113553047,0.0371177196502686,0.0753337219357491
849,0.00207043928094208,0.00726691400632262,0.0504295900464058,0.0799198150634766,0.0334489978849888,0.0758276134729385
850,0.00381775642745197,0.0121443597599864,0.0499926544725895,0.0808895528316498,0.0316766537725925,0.0778726190328598
851,0.00756345596164465,0.0178597550839186,0.0513236820697784,0.0820369496941566,0.0333779975771904,0.0806137323379517
852,0.0101406835019588,0.0207159835845232,0.0525656081736088,0.0811709687113762,0.0365213416516781,0.0816154032945633
853,0.0112361246719956,0.0213600937277079,0.0534794181585312,0.0797126293182373,0.0400215089321136,0.0824444964528084
854,0.0112478919327259,0.021279314532876,0.0540917105972767,0.0790973752737045,0.0431288219988346,0.0842698886990547
855,0.00978981237858534,0.0209208410233259,0.0533302798867226,0.0781921371817589,0.0446196980774403,0.0856579318642616
856,0.00733712082728744,0.0212478209286928,0.0509935356676579,0.0761951431632042,0.0441255122423172,0.0860665813088417
857,0.00476358644664288,0.0221602227538824,0.0481638014316559,0.0739819183945656,0.042281661182642,0.0862553641200066
858,0.00317401275970042,0.0224838983267546,0.0461896806955338,0.0727775692939758,0.040967408567667,0.0865873023867607
859,0.00369701441377401,0.0214288346469402,0.0457858815789223,0.0726898387074471,0.0421483181416988,0.0863804593682289
860,0.00691548734903336,0.0194483511149883,0.0475537925958633,0.0741682052612305,0.0465633347630501,0.0851557999849319
861,0.0107894763350487,0.0165895856916904,0.0504291877150536,0.0765789821743965,0.051701296120882,0.0825953483581543
862,0.0135309481993318,0.0135025726631284,0.0529514737427235,0.078338623046875,0.0551978275179863,0.0805423781275749
863,0.0157097857445478,0.0113207707181573,0.054841224104166,0.0787671208381653,0.0571840219199657,0.0816308259963989
864,0.0158671364188194,0.00844281818717718,0.0540920943021774,0.0760513022542,0.0559373609721661,0.0829124450683594
865,0.0129372673109174,0.004321055021137,0.0496770553290844,0.0699624866247177,0.0505255237221718,0.0811402797698975
866,0.00947940442711115,0.00140188331715763,0.0445682294666767,0.0641954392194748,0.0441633686423302,0.07880599796772
867,0.00734835956245661,0.000546640832908452,0.0413631498813629,0.0612795054912567,0.0397098027169704,0.0776248425245285
868,0.00613328535109758,0.000872060423716903,0.0393697507679462,0.0605390928685665,0.0367465615272522,0.0768716707825661
869,0.00592964701354504,0.00267396424897015,0.03775305300951,0.0617549866437912,0.0348740927875042,0.0779197886586189
870,0.0070331497117877,0.00593641679733992,0.0367955304682255,0.0645861402153969,0.0351021178066731,0.0806228518486023
871,0.00908207707107067,0.00968284253031015,0.0360671617090702,0.0671184211969376,0.037015438079834,0.0817457288503647
872,0.010241225361824,0.0122394375503063,0.0344024747610092,0.0673642754554749,0.0377381257712841,0.0788909271359444
873,0.00820180866867304,0.01196329575032,0.0315713174641132,0.0645783618092537,0.0352993123233318,0.0721820965409279
874,0.0041954624466598,0.0102799274027348,0.0291040204465389,0.0606053881347179,0.0316702462732792,0.0649186298251152
875,-0.000670646026264876,0.0080622797831893,0.0265455842018127,0.0558533184230328,0.0276768449693918,0.0583946853876114
876,-0.00714528234675527,0.00449605472385883,0.0220199786126614,0.0486834570765495,0.0221542231738567,0.0514646023511887
877,-0.0122719863429666,0.00217675836756825,0.0179085172712803,0.0416720546782017,0.0177851244807243,0.0466285459697247
878,-0.0132166119292378,0.00359341315925121,0.0170900281518698,0.0384343415498734,0.0164967607706785,0.0456189028918743
879,-0.0120279593393207,0.00647684140130877,0.0179544631391764,0.0379252657294273,0.015251163393259,0.0455261580646038
880,-0.0101501904428005,0.00813006050884724,0.0191340036690235,0.0386033058166504,0.0128509495407343,0.0453409664332867
881,-0.00730030471459031,0.00773232011124492,0.0205540060997009,0.040033720433712,0.0107225617393851,0.0465221107006073
882,-0.00492363283410668,0.00516746146604419,0.0205296650528908,0.0403798148036003,0.00810311175882816,0.0485844127833843
883,-0.00366457551717758,0.00233800453133881,0.0189116634428501,0.039179839193821,0.00482010934501886,0.0509899258613586
884,-0.00228359876200557,0.00130487116985023,0.0176879223436117,0.0380000323057175,0.0026743677444756,0.0540226474404335
885,-0.000983422272838652,0.000787804718129337,0.0170001517981291,0.0367470346391201,0.00135377934202552,0.056229691952467
886,-0.000131103428429924,-0.000332409486873075,0.0164571460336447,0.0353433266282082,-9.31091926759109E-05,0.0567736737430096
887,0.000872229575179517,-0.000480394170153886,0.0160788856446743,0.0346469767391682,-0.00149321265053004,0.0565957948565483
888,0.00151995441410691,0.000753220927435905,0.014594592154026,0.0330918990075588,-0.00299491127952933,0.054682731628418
889,0.00124367757234722,0.00210897997021675,0.0118553331121802,0.0289923511445522,-0.00411343248561025,0.0499508231878281
890,0.000872591743245721,0.00382317462936044,0.00975467637181282,0.0244256276637316,-0.00385130476206541,0.0457450821995735
891,0.000731321284547448,0.00611370662227273,0.00907605886459351,0.0220000017434359,-0.00287916092202067,0.0458951368927956
892,-0.000238696651649661,0.00739472592249513,0.00891192257404327,0.0215998776257038,-0.0025089920964092,0.049833957105875
893,-0.00244354107417166,0.0076802377589047,0.00837371032685041,0.0226357355713844,-0.00285769579932094,0.0555093549191952
894,-0.00496349902823567,0.00891514029353857,0.00736586889252067,0.0252570752054453,-0.00401731068268418,0.0614231526851654
895,-0.00614266283810139,0.0117663890123367,0.00683629512786865,0.0291644651442766,-0.00549863092601299,0.0656428411602974
896,-0.00585164315998554,0.0145380236208439,0.00659880740568042,0.0319317020475864,-0.00716810487210751,0.0659274756908417
897,-0.00547118205577135,0.0156661812216043,0.00503982044756413,0.0308946780860424,-0.0103061199188232,0.061758141964674
898,-0.00513288658112288,0.015189622528851,0.00220212666317821,0.0272850003093481,-0.0148145202547312,0.0563725605607033
899,-0.00477388082072139,0.0126936174929142,-0.000674373295623809,0.0239308625459671,-0.0195205491036177,0.0534605532884598
900,-0.00507113430649042,0.00828142836689949,-0.00294503942131996,0.0215692389756441,-0.0237337257713079,0.0527917556464672
901,-0.00564843649044633,0.00435923784971237,-0.0035703384783119,0.0205572657287121,-0.026223486289382,0.0528889186680317
902,-0.00584832113236189,0.00266201747581363,-0.00220627593807876,0.0211347918957472,-0.0267376154661179,0.0537762828171253
903,-0.00521925091743469,0.00362688442692161,0.000221034075366333,0.0228617414832115,-0.0260201059281826,0.0561505407094955
904,-0.00286141643300653,0.00755599094554782,0.00364590575918555,0.0256492160260677,-0.0234614610671997,0.060334850102663
905,0.000585801259148866,0.0128387007862329,0.00784070417284966,0.0287293270230293,-0.0194176528602839,0.0649301409721375
906,0.0032965203281492,0.0173524972051382,0.0115889795124531,0.0309339202940464,-0.0158854108303785,0.0684330835938454
907,0.00415307236835361,0.0208568815141916,0.01372782420367,0.0319440886378288,-0.0142245842143893,0.0707896873354912
908,0.0030557275749743,0.0238839350640774,0.013817117549479,0.0318931937217712,-0.0143508426845074,0.0715697705745697
909,0.000120017502922565,0.0254000499844551,0.0118137346580625,0.0300696156919003,-0.0154785700142384,0.068982370197773
910,-0.00479553546756506,0.0233397260308266,0.00758557906374335,0.0252361055463552,-0.0177203007042408,0.0617372691631317
911,-0.00956649146974087,0.018814992159605,0.00301052746362984,0.0191777814179659,-0.0200483370572329,0.051882691681385
912,-0.011567329056561,0.0146460318937898,0.000650795176625252,0.0151649955660105,-0.0204127281904221,0.0426389761269093
913,-0.0119942836463451,0.0107850758358836,-0.000430129060987383,0.0128158191218972,-0.0197727587074041,0.0346525236964226
914,-0.0122222937643528,0.00732835521921515,-0.00133443309459835,0.0108440844342113,-0.0194517783820629,0.0290892515331507
915,-0.0111776171252131,0.00633765803650022,-0.000526525895111263,0.00991954188793898,-0.0187577828764915,0.0281162168830633
916,-0.00880904030054808,0.0085513899102807,0.00222791405394673,0.0100859273225069,-0.0178193189203739,0.0312528312206268
917,-0.0069209854118526,0.0127955684438348,0.00481139402836561,0.0103061199188232,-0.0180830508470535,0.0365443117916584
918,-0.00626760860905051,0.0171954408288002,0.00604982022196054,0.0102022709324956,-0.0199274830520153,0.0418008118867874
919,-0.00534951500594616,0.0203061029314995,0.00727559486404061,0.0100249722599983,-0.0209376234561205,0.0443493388593197
920,-0.00391010195016861,0.0208241567015648,0.00859243981540203,0.00863349158316851,-0.0198783483356237,0.0421275421977043
921,-0.00290527520701289,0.0184002202004194,0.00842885114252567,0.0057595195248723,-0.0181165523827076,0.0363881625235081
922,-0.00207192357629538,0.01463055703789,0.00700704706832767,0.0034791340585798,-0.016512855887413,0.0309826470911503
923,-0.0021342970430851,0.0099823297932744,0.00458432594314218,0.00153608806431293,-0.0162637233734131,0.0264573246240616
924,-0.00380173535086215,0.0043136989697814,0.000909455178771168,-0.0017161148134619,-0.0177549254149199,0.0209330264478922
925,-0.0057125361636281,-0.000558240164536983,-0.00297286664135754,-0.0053438707254827,-0.0193967372179031,0.0151448091492057
926,-0.00644635781645775,-0.00266077066771686,-0.00546981068328023,-0.00739938672631979,-0.0199283361434937,0.0116136940196157
927,-0.00544660165905952,-0.00162723904941231,-0.00574298202991486,-0.0074837589636445,-0.0190736055374146,0.0120966983959079
928,-0.00319805322214961,0.00156864628661424,-0.00425949040800333,-0.00674282014369965,-0.0170128550380468,0.0166224204003811
929,-0.00159283389803022,0.00531013868749142,-0.00265384325757623,-0.00663468614220619,-0.0148630049079657,0.0230869371443987
930,-0.00260119675658643,0.007802814245224,-0.00325667508877814,-0.00818082131445408,-0.0154211679473519,0.0282735042273998
931,-0.00613278243690729,0.0081375977024436,-0.00687778368592262,-0.0112450858578086,-0.0203736983239651,0.0302866064012051
932,-0.00948822498321533,0.00772210536524653,-0.0108056282624602,-0.0139275565743446,-0.0266775004565716,0.0297588091343641
933,-0.0107396570965648,0.007878920994699,-0.0125632658600807,-0.0149118807166815,-0.0304304417222738,0.0278145223855972
934,-0.0102088842540979,0.00860974844545126,-0.0123172998428345,-0.0139485187828541,-0.0309593956917524,0.0260716751217842
935,-0.00855055823922157,0.010257619433105,-0.0107237156480551,-0.011032990179956,-0.0291016194969416,0.0263732895255089
936,-0.00721085630357265,0.0119878863915801,-0.00952079985290766,-0.00851823482662439,-0.0270929746329784,0.0273569766432047
937,-0.00753959454596043,0.0128533868119121,-0.0101592484861612,-0.00786776188760996,-0.027247779071331,0.0275002792477608
938,-0.00970202963799238,0.0128708081319928,-0.012034279294312,-0.00781988445669413,-0.0294539257884026,0.0266467723995447
939,-0.0123500982299447,0.0121623696759343,-0.0134650897234678,-0.0071773873642087,-0.0312646701931953,0.0249266214668751
940,-0.0122711341828108,0.0121826957911253,-0.0121232476085424,-0.00470855319872499,-0.0295045338571072,0.0246991440653801
941,-0.00835940334945917,0.0139330448582768,-0.0077484049834311,-0.000709389278199524,-0.023987652733922,0.0269255395978689
942,-0.00368492538109422,0.0157669372856617,-0.00300839194096625,0.00229444145224988,-0.0182393901050091,0.0290179308503866
943,-0.000962871650699526,0.0166189167648554,-1.46092679642607E-05,0.00311026209965348,-0.0152460262179375,0.030095811933279
944,0.000511315767653286,0.0183348301798105,0.00148034433368593,0.00307000731118023,-0.0145678007975221,0.0324576310813427
945,0.00178557075560093,0.0211705174297094,0.00259848521091044,0.00277684908360243,-0.0141068724915385,0.0360312648117542
946,0.00161528470925987,0.0218630060553551,0.00284489593468606,0.000983527512289584,-0.0138040482997894,0.0376529321074486
947,-0.000348527159076184,0.0192966125905514,0.00148673797957599,-0.00225777947343886,-0.0150712979957461,0.0368790924549103
948,-0.00173329678364098,0.0162090379744768,0.000189481550478376,-0.00485944515094161,-0.0173564720898867,0.0361489802598953
949,-0.00165352900512517,0.0141450213268399,-3.54600160790142E-05,-0.00598559761419892,-0.0198804438114166,0.0359500460326672
950,-0.000799350906163454,0.0130935683846474,0.000266324554104358,-0.00575326848775148,-0.0226321462541819,0.0358207784593105
951,0.000826588715426624,0.013266216032207,0.000673706585075706,-0.00437685288488865,-0.0255639124661684,0.0359021723270416
952,0.00242448109202087,0.0136699182912707,4.7037912736414E-05,-0.0036717860493809,-0.029539430513978,0.0349386148154736
953,0.00330814253538847,0.0136820040643215,-0.0018093230901286,-0.00434563448652625,-0.0340683571994305,0.0323651619255543
954,0.00323806703090668,0.0140415765345097,-0.00412873737514019,-0.00521111255511642,-0.0382047705352306,0.0295569282025099
955,0.00187220552470535,0.0152279464527965,-0.0065027461387217,-0.00563607225194573,-0.0420919768512249,0.0282544139772654
956,-0.000865992857143283,0.0162627473473549,-0.00876453332602978,-0.00652798218652606,-0.0455388873815537,0.028030801564455
957,-0.00455011194571853,0.0155215915292501,-0.0112187750637531,-0.00934387370944023,-0.0481316708028317,0.0257986430078745
958,-0.00703581282868981,0.013190621510148,-0.0128421103581786,-0.013071053661406,-0.0485400073230267,0.0210238583385944
959,-0.00635790312662721,0.0104237124323845,-0.0115086389705539,-0.0151932425796986,-0.0457419492304325,0.0164971593767405
960,-0.00443040952086449,0.00722499610856175,-0.00809134915471077,-0.0154097462072968,-0.0427687279880047,0.0137608842924237
961,-0.0037574062589556,0.00478528626263142,-0.00499520311132073,-0.0140974000096321,-0.0430380366742611,0.0131324771791697
962,-0.0033382554538548,0.00560457678511739,-0.0022410973906517,-0.0110620390623808,-0.0446938164532185,0.0144984079524875
963,-0.00285454117693007,0.00786767061799765,-0.000613467593211681,-0.00888501480221748,-0.0459674932062626,0.015458938665688
964,-0.00405422365292907,0.00675867358222604,-0.00250831036828458,-0.0111233675852418,-0.0488101243972778,0.0132456459105015
965,-0.00587824685499072,0.00294743431732059,-0.00683782761916518,-0.0160916913300753,-0.0529939979314804,0.00899046286940575
966,-0.00519392592832446,0.0016576835187152,-0.00945374276489019,-0.0185064021497965,-0.054780624806881,0.00647013308480382
967,-0.00219927541911602,0.00378678040578961,-0.00915980059653521,-0.0172587614506483,-0.0528330467641354,0.00651029078289866
968,0.000934960495214909,0.00628400035202503,-0.0075661507435143,-0.0150621514767408,-0.0489025786519051,0.00768335815519094
969,0.00319106807000935,0.00722190272063017,-0.00583389820531011,-0.0136541873216629,-0.0452329628169537,0.00929665844887495
970,0.00453220494091511,0.00712874950841069,-0.0042524104937911,-0.0131456423550844,-0.0434337481856346,0.0105389580130577
