,AF3,AF4,Fp1,Fp2,AF7,AF8
0,0.000381166173610836,-0.0053038252517581,-0.00209089042618871,0.5,-0.00193593639414757,0.0179877411574125
1,-0.000784907257184386,-0.00642505660653114,-0.00177799968514591,0.5,0.000604191969614476,0.0157833602279425
2,-0.00117219565436244,-0.00719682779163122,-0.00168811541516334,0.5,0.00344413658604026,0.0122883841395378
3,3.67551401723176E-05,-0.00665311329066753,-0.0010016723535955,0.5,0.00684560742229223,0.0101975342258811
4,0.00142722704913467,-0.00604706630110741,-0.000296027486911044,0.5,0.00936954841017723,0.0101328054443002
5,0.000399576558265835,-0.0076685082167387,-0.00187909067608416,0.5,0.00836740806698799,0.00995579268783331
6,-0.00287825125269592,-0.0109569327905774,-0.00618343753740191,0.5,0.00355929415673018,0.00829849857836962
7,-0.00590375903993845,-0.0135437194257975,-0.0109810857102275,0.5,-0.00270955450832844,0.00498628849163651
8,-0.00697149708867073,-0.0138563644140959,-0.0142842084169388,0.5,-0.00774094136431813,0.00100226642098278
9,-0.0060049882158637,-0.0115410108119249,-0.0156471971422434,0.5,-0.00975533947348595,-0.00101289560552686
10,-0.00443037087097764,-0.00805876776576042,-0.015923673287034,0.5,-0.00938409566879272,0.000875687692314386
11,-0.00331335910595953,-0.00507952086627483,-0.0156180830672383,0.5,-0.00827037077397108,0.00653412472456694
12,-0.00200030556879938,-0.00261777336709201,-0.0141103025525808,0.5,-0.00640536565333605,0.0143117010593414
13,0.000267143215751275,-7.83177238190547E-05,-0.0108446022495627,0.5,-0.00291936565190554,0.0218267124146223
14,0.00332023343071342,0.0025818208232522,-0.00604277849197388,0.5,0.00198820047080517,0.0268703084439039
15,0.00630018906667829,0.00456803059205413,-0.00141747435554862,0.5,0.00649818498641253,0.0278230272233486
16,0.00811451021581888,0.00533199356868863,0.000722045369911939,0.5,0.00875688530504704,0.0248358324170113
17,0.00808755774050951,0.00509201595559716,-0.000236277541262098,0.5,0.00865289941430092,0.0204341299831867
18,0.00664275046437979,0.00403294712305069,-0.00319888000376523,0.5,0.00707975449040532,0.0173836443573236
19,0.00459302728995681,0.00180094013921916,-0.00692659243941307,0.5,0.00446363864466548,0.0149549655616283
20,0.00226693949662149,-0.00171099544968456,-0.0106782168149948,0.5,0.0013118825154379,0.0107666524127126
21,-0.000406441075028852,-0.00577989825978875,-0.0144503284245729,0.5,-0.00180346157867461,0.0055931294336915
22,-0.00293138087727129,-0.00885200127959251,-0.0179054234176874,0.5,-0.00443421630188823,0.0028537642210722
23,-0.00401532975956798,-0.00983631610870361,-0.0199806652963161,0.5,-0.00566696701571345,0.00330542819574475
24,-0.00351269193924963,-0.00975749175995588,-0.0203807335346937,0.5,-0.00497488165274262,0.00373313599266112
25,-0.00186728988774121,-0.0093134231865406,-0.0188254117965698,0.5,-0.00179613730870187,0.00287868641316891
26,0.00051939015975222,-0.00824771355837584,-0.0153502989560366,0.5,0.00365697266533971,0.00166383478790522
27,0.00223214132711291,-0.00745887961238623,-0.0118520669639111,0.5,0.00882764253765345,-0.00031164291431196
28,0.00198572291992605,-0.0077776787802577,-0.0104844691231847,0.5,0.0108697488903999,-0.00324091664515436
29,6.65115512674674E-05,-0.00842335075139999,-0.0117355734109879,0.5,0.00878936145454645,-0.00569559959694743
30,-0.0013460002373904,-0.00809710659086704,-0.0143031040206552,0.5,0.00463767070323229,-0.00634174002334476
31,0.000135381575091742,-0.00651480257511139,-0.0160511005669832,0.5,0.00222411449067295,-0.0051799900829792
32,0.00374377239495516,-0.00470689963549376,-0.0161062758415937,0.5,0.00273854052647948,-0.00271845143288374
33,0.00649278471246362,-0.00374568440020084,-0.0149808898568153,0.5,0.00451203575357795,0.000857773702591658
34,0.00742468517273664,-0.00358157325536013,-0.0128081599250436,0.5,0.00664669182151556,0.00490866228938103
35,0.00788263324648142,-0.00343922944739461,-0.00941664446145296,0.5,0.0100627625361085,0.00798693858087063
36,0.00879209581762552,-0.00296154152601957,-0.00541759328916669,0.5,0.0154965715482831,0.00920786336064339
37,0.00940239243209362,-0.00303026428446174,-0.00235242047347128,0.5,0.0208485741168261,0.00851499941200018
38,0.00930587109178305,-0.00403288379311562,-0.000672006863169372,0.5,0.0229613333940506,0.0069539207033813
39,0.00920602865517139,-0.00503042666241527,0.000446789839770645,0.5,0.0209156479686499,0.00572286220267415
40,0.00870060734450817,-0.00589774781838059,0.000409030268201604,0.5,0.01520209107548,0.0034206211566925
41,0.0076673049479723,-0.00662118103355169,-0.00138094229623675,0.5,0.00795270130038261,-0.00147668074350804
42,0.00757790356874466,-0.00607321783900261,-0.00327033805660903,0.5,0.00267258193343878,-0.00633232807740569
43,0.00845992472022772,-0.00431171152740717,-0.00390454451553524,0.5,0.000509605451952666,-0.0072299768216908
44,0.00883039087057114,-0.00284139532595873,-0.00363494642078877,0.5,0.000193193496670574,-0.00363304349593818
45,0.0080214636400342,-0.00265074311755598,-0.00347663927823305,0.5,0.00042043108260259,0.00166103441733867
46,0.00673129223287106,-0.00358989764936268,-0.00396244460716844,0.5,0.000915298820473254,0.00574065325781703
47,0.00605688989162445,-0.00492104515433311,-0.00474318861961365,0.5,0.00244770292192698,0.00804831273853779
48,0.0062941680662334,-0.00581705942749977,-0.00549230445176363,0.5,0.00553850363940001,0.00949981436133385
49,0.00720110163092613,-0.00543608795851469,-0.00609586993232369,0.5,0.0099656330421567,0.0107683436945081
50,0.007962416857481,-0.00385899818502367,-0.00678496295586228,0.5,0.0145222768187523,0.0117921195924282
51,0.0079077584668994,-0.00183883798308671,-0.00756207434460521,0.5,0.017822066321969,0.0132687343284488
52,0.00777528155595064,0.000197887464310043,-0.0076719094067812,0.5,0.0200576558709145,0.0163147058337927
53,0.00856187660247087,0.0017885061679408,-0.00670251715928316,0.5,0.0222913455218077,0.0194358136504889
54,0.0108269518241286,0.00308652594685555,-0.00453970208764076,0.5,0.0252380687743425,0.0205069128423929
55,0.0140487374737859,0.00461349496617913,-0.00164997181855142,0.5,0.0283270850777626,0.0195539314299822
56,0.0157778058201075,0.00574972573667765,5.54243379156105E-05,0.5,0.0293482635170221,0.0179892666637897
57,0.0147140994668007,0.00582502875477076,-0.000674962357152253,0.405178099870682,0.0275233201682568,0.0174278561025858
58,0.0125642642378807,0.00506317522376776,-0.00271794595755637,0.0564532801508904,0.0250118672847748,0.0175480283796787
59,0.0116850100457668,0.00431850086897612,-0.00417981762439013,-0.367581635713577,0.0239808037877083,0.017639035359025
60,0.0124496873468161,0.00446974998340011,-0.00453059514984488,-0.5,0.0241314899176359,0.0186917502433062
61,0.0132826846092939,0.00515502318739891,-0.00476526981219649,-0.5,0.0237817168235779,0.0207702219486237
62,0.0131673170253634,0.00512453587725759,-0.00575371645390987,-0.5,0.0225345902144909,0.0219429302960634
63,0.0121618350967765,0.00370556325651705,-0.00703840516507626,-0.5,0.0214090775698423,0.0203471537679434
64,0.0106874955818057,0.00165543961338699,-0.00746149849146605,-0.5,0.0213699527084827,0.0164764411747456
65,0.00839825253933668,-0.000440189323853701,-0.00748269213363528,-0.5,0.0217093862593174,0.0115208951756358
66,0.00444470765069127,-0.00332519342191517,-0.00892317667603493,-0.5,0.0206232164055109,0.00506546720862389
67,9.92499408312142E-05,-0.00669202301651239,-0.0114768659695983,-0.5,0.0183865092694759,-0.00259107491001487
68,-0.00235177576541901,-0.00872230064123869,-0.0131940906867385,-0.5,0.0169040635228157,-0.00887870974838734
69,-0.00206283270381391,-0.00782943051308393,-0.0133139193058014,-0.5,0.0171397756785154,-0.00990989711135626
70,-9.54230199567974E-05,-0.0043252119794488,-0.0125738438218832,-0.5,0.0185165591537952,-0.00419448642060161
71,0.0007629687897861,-0.00118690601084381,-0.0125039257109165,-0.5,0.0190310385078192,0.00391754088923335
72,-0.000952143047470599,-0.000947245978750288,-0.0131294317543507,-0.5,0.0179556217044592,0.00877036061137915
73,-0.00310608744621277,-0.00252827000804245,-0.0119331162422895,-0.5,0.0173859763890505,0.00985411182045937
74,-0.00327439024113119,-0.00359194492921233,-0.00767311733216047,-0.5,0.0183965023607016,0.00935204792767763
75,-0.00190639588981867,-0.0040140557102859,-0.00260969577357173,-0.5,0.0194087512791157,0.00741296727210283
76,-0.000602193817030638,-0.00438861316069961,0.000335404882207513,-0.5,0.0188321936875582,0.00408039381727576
77,0.000731307198293507,-0.00395488832145929,0.00099096295889467,-0.5,0.0176969841122627,0.000957121083047241
78,0.00275639863684773,-0.00259733851999044,0.00120765727479011,-0.5,0.0183476097881794,-0.00111030240077525
79,0.00430579716339707,-0.00170086836442351,0.00146924261935055,-0.5,0.0201403181999922,-0.0025897272862494
80,0.00442644953727722,-0.00136069639120251,0.00145246728789061,-0.5,0.0211446285247803,-0.00331198424100876
81,0.00401211390271783,-0.000351346621755511,0.00162891543004662,-0.5,0.0217697788029909,-0.00221754983067513
82,0.00475190486758947,0.00202356604859233,0.003081000642851,-0.5,0.0237916596233845,0.00183250452391803
83,0.007666259072721,0.00549203623086214,0.0065454263240099,-0.5,0.0281154029071331,0.00850848201662302
84,0.0108707351610065,0.00758685590699315,0.00992566160857677,-0.5,0.0325444601476192,0.0132884122431278
85,0.011423914693296,0.00589664373546839,0.00999766495078802,-0.5,0.0337158516049385,0.0116104828193784
86,0.00973168294876814,0.00228899321518838,0.00711995968595147,-0.5,0.0315472073853016,0.00545816728845239
87,0.00869446434080601,0.000455869390862063,0.00438590301200747,-0.5,0.028787462040782,-0.000200593305635266
88,0.00986445229500532,0.00121805910021067,0.00390261481516063,-0.5,0.0279009025543928,-0.00331381149590015
89,0.0126830860972404,0.00349642150104046,0.00604981556534767,-0.5,0.029768344014883,-0.00348732061684132
90,0.0153924832120538,0.00591331673786044,0.00960943847894669,-0.5,0.033341433852911,-0.00119440688285977
91,0.0153393261134624,0.00593913067132235,0.0113665023818612,-0.5,0.0351942777633667,0.000576802412979305
92,0.0119479903951287,0.00302519672550261,0.00934034492820501,-0.5,0.0329277738928795,0.000374925468349829
93,0.00875208061188459,0.000516173837240785,0.00599281536415219,-0.5,0.0290794353932142,0.000713892688509077
94,0.00815250258892775,0.000300520361633971,0.0037550856359303,-0.5,0.0265325699001551,0.00277118780650198
95,0.00875202752649784,0.00124507828149945,0.00201283278875053,-0.5,0.0247102212160826,0.00510428892448545
96,0.00877522397786379,0.00205589598044753,-7.51446941649192E-06,-0.5,0.0225679129362106,0.00629709009081125
97,0.00783402100205421,0.00216109328903258,-0.0021094037219882,-0.5,0.0203369222581387,0.00526497326791286
98,0.00692906696349382,0.00210210774093866,-0.00347392656840384,-0.5,0.0189803745597601,0.0020229103974998
99,0.00709254899993539,0.00248727574944496,-0.00323311425745487,-0.5,0.0193519163876772,-0.00162529293447733
100,0.00802005641162395,0.00310005201026797,-0.00175021355971694,-0.5,0.0209248345345259,-0.00347823509946465
101,0.00887034181505442,0.00398732116445899,-0.00032193391234614,-0.5,0.0220228191465139,-0.00253912131302059
102,0.00896623264998198,0.00512757897377014,0.00043210553121753,-0.5,0.0218944177031517,-0.000168528567883186
103,0.00726858992129564,0.00494618620723486,-5.58831197849941E-05,-0.5,0.0204058066010475,0.000586838345043361
104,0.00357513898052275,0.00238556764088571,-0.00239137373864651,-0.5,0.0172615889459848,-0.000239619606873021
105,-0.000215952430153266,-0.000747268146369606,-0.00514573324471712,-0.5,0.0134245902299881,0.000592222553677857
106,-0.00231451401486993,-0.00228822231292725,-0.00608045374974608,-0.5,0.0107491072267294,0.00348811806179583
107,-0.00401870300993323,-0.00330831436440349,-0.00580435991287231,-0.5,0.00870393309742212,0.00469527672976255
108,-0.0076449983753264,-0.00596316065639257,-0.00654340628534555,-0.5,0.00536400033161044,0.000826333125587553
109,-0.0121148144826293,-0.00921017304062843,-0.00818692427128553,-0.5,0.00166241568513215,-0.00687314430251718
110,-0.0150872310623527,-0.0111876409500837,-0.00944682862609625,-0.5,-0.000925829343032092,-0.0137916151434183
111,-0.016575213521719,-0.0121261849999428,-0.0102453557774425,-0.5,-0.00329293613322079,-0.016144335269928
112,-0.0169835612177849,-0.0120319584384561,-0.0104004964232445,-0.5,-0.0058148680254817,-0.0126849683001637
113,-0.0157119166105986,-0.0101190581917763,-0.00928104110062122,-0.5,-0.0072681219317019,-0.00493187736719847
114,-0.0131483254954219,-0.00716221844777465,-0.00778749538585544,-0.5,-0.00713831698521972,0.00331547460518777
115,-0.0108500868082047,-0.00495539605617523,-0.00731018790975213,-0.5,-0.00573588674888015,0.00890160817652941
116,-0.0089715588837862,-0.00354285398498178,-0.00674890214577317,-0.5,-0.00305974832735956,0.0118313105776906
117,-0.00642984034493566,-0.00180312735028565,-0.00443781213834882,-0.5,0.000557363091502339,0.0131039433181286
118,-0.00305647705681622,0.000544208742212504,-0.00102865078952163,-0.5,0.00422687968239188,0.0131679121404886
119,0.000552872661501169,0.00343286409042776,0.0022057022433728,-0.5,0.00736710615456104,0.0137544870376587
120,0.0029447372071445,0.00613654032349586,0.00445954641327262,-0.5,0.00940006971359253,0.0159815270453691
121,0.0034665297716856,0.00740721775218844,0.00541907735168934,-0.5,0.0103448294103146,0.0179797913879156
122,0.003331113839522,0.00642118277028203,0.00500906305387616,-0.5,0.0106788100674748,0.0172740966081619
123,0.00321300444193184,0.00357106444425881,0.00357841933146119,-0.5,0.0103135332465172,0.0145554905757308
124,0.0026131069753319,0.000598923361394554,0.00243101525120437,-0.5,0.0100202262401581,0.0127592738717794
125,0.000490662583615631,-0.00200871587730944,0.00194417813327163,-0.5,0.0108897089958191,0.0117856469005346
126,-0.0030310160946101,-0.0044458550401032,0.0016604115953669,-0.5,0.0126262586563826,0.00956289283931255
127,-0.00625688210129738,-0.00599843170493841,0.00122160429600626,-0.5,0.0137603683397174,0.00613659946247935
128,-0.00887290388345718,-0.00724226282909513,-3.06178844766691E-05,-0.5,0.0123024880886078,0.00264183175750077
129,-0.0118731232360005,-0.00907510332763195,-0.00194738153368235,-0.5,0.00791215989738703,0.000133452995214611
130,-0.0145313963294029,-0.010315315797925,-0.00316082895733416,-0.5,0.00313371256925166,-0.00107351189944893
131,-0.0164476465433836,-0.0105949873104692,-0.00357795250602067,-0.5,-0.000560130982194096,-0.00241870176978409
132,-0.0179760828614235,-0.0103397574275732,-0.00389603991061449,-0.442596018314362,-0.00336209801025689,-0.00310239568352699
133,-0.0181643795222044,-0.00885356310755014,-0.00355681078508496,-0.109442703425884,-0.00440422771498561,0.000171842169947922
134,-0.0165846701711416,-0.0064758681692183,-0.00195139390416443,-0.0102609824389219,-0.00305374735035002,0.00652165617793798
135,-0.0132264560088515,-0.00424955599009991,0.00113085319753736,-0.0687365755438805,0.000609126698691398,0.011696002446115
136,-0.00862793810665607,-0.00298556196503341,0.00510394806042314,-0.1673334389925,0.00576565088704228,0.0131918340921402
137,-0.00496995821595192,-0.00343384663574398,0.00811934843659401,-0.232736229896545,0.0101952077820897,0.0106755569577217
138,-0.00335873244330287,-0.00489136669784784,0.00918423663824797,-0.252605646848679,0.0125352535396814,0.0058533432893455
139,-0.00254397420212626,-0.00576743949204683,0.00925286673009396,-0.23846098780632,0.0137666221708059,0.00200159684754908
140,-0.00233070156536996,-0.00575024029240012,0.00839024875313044,-0.202891439199448,0.0140167092904449,0.000889406190253794
141,-0.00350152794271708,-0.00514564290642738,0.00586344255134463,-0.16191677749157,0.0123581178486347,0.00221085199154913
142,-0.00514601776376367,-0.00411140965297818,0.00307488744147122,-0.158038601279259,0.00977387465536594,0.00458000460639596
143,-0.00607079965993762,-0.00318859284743667,0.00179575011134148,-0.231143906712532,0.00795779936015606,0.00614173710346222
144,-0.00616039056330919,-0.00226734904572368,0.00175655982457101,-0.330981343984604,0.00728132389485836,0.00671973545104265
145,-0.00581802614033222,-0.000611108494922519,0.00159268162678927,-0.363276541233063,0.00683308066800237,0.00745503464713693
146,-0.00556040648370981,0.00170990021433681,0.000343532330589369,-0.318472445011139,0.00569941708818078,0.0087713161483407
147,-0.00572040677070618,0.00395537633448839,-0.00161857879720628,-0.250298142433167,0.00423264689743519,0.0102529404684901
148,-0.00618542684242129,0.00534066511318088,-0.00288420799188316,-0.186054021120071,0.00363209238275886,0.0104059539735317
149,-0.00645557325333357,0.00569220772013068,-0.00250961910933256,-0.118366681039333,0.00457437941804528,0.00850019417703152
150,-0.00628493446856737,0.00568501651287079,-0.000978782307356596,-0.0310494508594275,0.00635963445529342,0.00699008256196976
151,-0.00590372178703547,0.00596788665279746,0.000173466483829543,0.0749846547842026,0.00766595592722297,0.00836457218974829
152,-0.00572670809924603,0.0066444524563849,-0.000369248999049887,0.167647361755371,0.00762714445590973,0.0116970036178827
153,-0.00538988783955574,0.00772480200976133,-0.00184932176489383,0.206255078315735,0.00685787294059992,0.0143644632771611
154,-0.00441816356033087,0.0090132225304842,-0.00225009233690798,0.156976521015167,0.00658807624131441,0.014635369181633
155,-0.00307005317881703,0.0103900153189898,-0.00096365885110572,-0.0141298696398735,0.00673941243439913,0.012930172495544
156,-0.00107738433871418,0.012412172742188,0.00121823162771761,-0.301151901483536,0.00674061337485909,0.0115156769752502
157,-0.000139882511575706,0.0132902348414063,0.00189534423407167,-0.5,0.00482782581821084,0.0104984641075134
158,-0.00275152106769383,0.0105080772191286,-0.000901585095562041,-0.5,-0.000420808180933818,0.00848140101879835
159,-0.00666206749156117,0.00609531393274665,-0.00486287660896778,-0.5,-0.00590079417452216,0.00668625766411424
160,-0.00874831900000572,0.0028188694268465,-0.0066491374745965,-0.274170994758606,-0.00773300975561142,0.00565453199669719
161,-0.00863263197243214,0.00127926969435066,-0.00529492925852537,0.0275101270526648,-0.00499737309291959,0.00452052941545844
162,-0.00695903180167079,0.00136428326368332,-0.0014802822843194,0.226577922701836,0.00111874553840607,0.00390522135421634
163,-0.0058177225291729,0.00165100500453264,0.00233087479136884,0.340209990739822,0.00698199449107051,0.00460916990414262
164,-0.00569584406912327,0.00193560600746423,0.00472918711602688,0.441511929035187,0.010628473944962,0.00720801576972008
165,-0.00439884839579463,0.00380525807850063,0.00684545887634158,0.5,0.0135642373934388,0.0106305545195937
166,-0.00145388941746205,0.00715784868225455,0.00932305585592985,0.5,0.0160530395805836,0.0121279861778021
167,0.00147821474820375,0.00985430646687746,0.0114295110106468,0.5,0.0168255362659693,0.0112649789080024
168,0.00315135717391968,0.0101646613329649,0.0122790513560176,0.401396244764328,0.0156411863863468,0.00975587591528893
169,0.00435869069769979,0.00920647382736206,0.0122542008757591,0.220023825764656,0.0142804877832532,0.00919961184263229
170,0.00626030750572681,0.00907167233526707,0.0121387410908937,-0.0205321777611971,0.0146071407943964,0.00953802466392517
171,0.00756628205999732,0.0089079150930047,0.011255738325417,-0.315269857645035,0.01559002045542,0.00791129376739264
172,0.00737520447000861,0.00749301724135876,0.00958098750561476,-0.5,0.0160562358796597,0.00321529875509441
173,0.00697520980611444,0.00579199986532331,0.00832580681890249,-0.5,0.0167273636907339,-0.002075778786093
174,0.00671204272657633,0.00405901204794645,0.00748096546158195,-0.5,0.0175425875931978,-0.0068685133010149
175,0.00636664964258671,0.00216990825720131,0.00678742164745927,-0.5,0.0183496922254562,-0.0101278927177191
176,0.00580117153003812,0.000855246966239065,0.0063930731266737,-0.5,0.0193068720400333,-0.00862044654786587
177,0.00405390234664083,0.000209795791306533,0.00577196385711432,-0.5,0.0196391753852367,-0.00143988232593983
178,0.000526571995578706,-0.000102240272099152,0.00451920973137021,-0.5,0.0189821925014257,0.00722572486847639
179,-0.00396135635674,-2.76579630735796E-05,0.00337540940381587,-0.455181270837784,0.0182003267109394,0.0124755036085844
180,-0.00749051850289106,0.000306836096569896,0.00338566792197526,0.0738437920808792,0.0183503665030003,0.0137232057750225
181,-0.00929003767669201,6.15452518104576E-05,0.00421237433329225,0.5,0.0193308535963297,0.0127842398360372
182,-0.0101446975022554,-0.00128280068747699,0.00497221481055021,0.5,0.0204155333340168,0.0107707129791379
183,-0.0099679883569479,-0.00292771332897246,0.0059672761708498,0.5,0.0217165034264326,0.00862622447311878
184,-0.0087107066065073,-0.0042358823120594,0.00744745275005698,0.5,0.0231902580708265,0.00647620763629675
185,-0.00700884265825152,-0.00485342275351286,0.00919818039983511,0.5,0.0241666845977306,0.00397652201354504
186,-0.00531040644273162,-0.00459696399047971,0.0109902983531356,0.5,0.0240372996777296,0.00127569341566414
187,-0.00409293174743652,-0.00384193263016641,0.0123359439894557,0.5,0.0229001063853502,-0.00112374348100275
188,-0.00299279764294624,-0.00229763728566468,0.0132341627031565,0.5,0.022380294278264,-0.00110236543696374
189,-0.0012680315412581,1.3946844774182E-05,0.0137421218678355,0.5,0.0238296911120415,0.00275758327916265
190,0.00113598327152431,0.00202749855816364,0.0137026626616716,0.5,0.0267851371318102,0.00828324537724257
191,0.00350703531876206,0.00274407095275819,0.0129625173285604,0.5,0.0295021813362837,0.0123391170054674
192,0.00525245349854231,0.00228132121264935,0.0116254650056362,0.5,0.0307287275791168,0.0139224603772163
193,0.00580691685900092,0.00073456484824419,0.0098355682566762,0.5,0.0306614395231009,0.012473514303565
194,0.00469087436795235,-0.00239433581009507,0.00750020937994123,0.5,0.0298548676073551,0.0073081748560071
195,0.0035869674757123,-0.00557707063853741,0.00584694370627403,0.5,0.0294856019318104,0.0003641820512712
196,0.0048910966143012,-0.00585920596495271,0.00664569716900587,0.5,0.0309434309601784,-0.00457430863752961
197,0.00816134363412857,-0.00274944747798145,0.00939095858484507,0.5,0.0332727953791618,-0.00558917224407196
198,0.0113529292866588,0.00217928783968091,0.0126114236190915,0.5,0.0344261340796947,-0.00240754801779985
199,0.0131838899105787,0.00764879677444696,0.015494242310524,0.5,0.0339171811938286,0.00541011663153768
200,0.0123801892623305,0.0115759698674083,0.0166019219905138,0.5,0.0316295251250267,0.0160522367805243
201,0.00906581245362759,0.0124390684068203,0.0155774587765336,0.328817963600159,0.0281538888812065,0.0249778591096401
202,0.00505897076800466,0.0108271026983857,0.0136589454486966,-0.0534137487411499,0.024799358099699,0.0279241856187582
203,0.00129614653997123,0.00770313385874033,0.0114458641037345,-0.231518626213074,0.0218052100390196,0.0244357772171497
204,-0.00223716488108039,0.00376539165154099,0.00926826521754265,-0.147309333086014,0.0189228504896164,0.0179302897304296
205,-0.00577827682718635,-0.000842354376800358,0.00739794131368399,0.191964715719223,0.0160238295793533,0.0111214742064476
206,-0.00920399930328131,-0.00582996616140008,0.00574066070839763,0.5,0.0133407460525632,0.0046852296218276
207,-0.0119239734485745,-0.0101400809362531,0.00431987503543496,0.5,0.0113096367567778,-0.000848871073685586
208,-0.0132138822227716,-0.0126058310270309,0.00359973846934736,0.5,0.0103509295731783,-0.00409028958529234
209,-0.0121306162327528,-0.01220010407269,0.00456040678545833,0.5,0.0114803165197372,-0.00343195209279656
210,-0.0086744511500001,-0.00903224945068359,0.00734420632943511,0.5,0.0147559754550457,0.000741673808079213
211,-0.00446054944768548,-0.00475666578859091,0.0102748675271869,0.5,0.0180092938244343,0.00570874102413654
212,-0.00140025501605123,-0.00134297565091401,0.0114806033670902,0.5,0.0190753601491451,0.00848837569355965
213,-0.000388232321711257,0.000190294376807287,0.0106451930478215,0.5,0.0176532287150621,0.00867014098912477
214,-0.000681401637848467,6.82498866808601E-05,0.0089739290997386,0.5,0.0152282631024718,0.00828465353697538
215,-0.000676960509736091,-0.00102103385142982,0.00802939385175705,0.5,0.0139494109898806,0.00779679510742426
216,0.000419240357587114,-0.00235191290266812,0.00866377539932728,0.5,0.0147610018029809,0.00605298159644008
217,0.00210304162465036,-0.00325191346928477,0.0104350866749883,0.5,0.0165256429463625,0.00347027997486293
218,0.00368207157589495,-0.00298942718654871,0.0124003365635872,0.5,0.0180273372679949,0.00238215923309326
219,0.00540316151455045,-0.00157826533541083,0.0140222916379571,0.5,0.0201634224504232,0.00390759762376547
220,0.00731967808678746,-0.000394701259210706,0.0144293056800961,0.5,0.0234818495810032,0.00595837272703648
221,0.00808381289243698,0.000154976689373143,0.0131312273442745,0.5,0.0258468426764011,0.00712396949529648
222,0.00679549248889089,0.000753538799472153,0.0110319079831243,0.5,0.0250780563801527,0.00883718021214008
223,0.00449003558605909,0.000787347205914557,0.00920213852077723,0.5,0.0214858725667,0.011716527864337
224,0.00309157744050026,-0.000134326328407042,0.00860376376658678,0.5,0.0175836943089962,0.0143987881019711
225,0.00381054054014385,-0.000891107774805278,0.0100822411477566,0.5,0.0157708469778299,0.0154801141470671
226,0.00540230888873339,-0.00182319548912346,0.0127216260880232,0.5,0.0156842302531004,0.0137668633833528
227,0.00600201776251197,-0.00390164577402174,0.0149475513026118,0.5,0.0159077923744917,0.00965550169348717
228,0.00553624797612429,-0.00600291462615132,0.0163906682282686,0.5,0.0159614644944668,0.00634771957993507
229,0.00378082110546529,-0.00762707926332951,0.0163983497768641,0.5,0.0148931182920933,0.00614299299195409
230,0.00132329552434385,-0.00904878415167332,0.014971780590713,0.5,0.0131155522540212,0.00838295463472605
231,0.000390165689168498,-0.00925544556230307,0.0138853369280696,0.5,0.012889351695776,0.0120079461485147
232,0.0021452724467963,-0.00722479913383722,0.0141855720430613,0.5,0.0149123221635818,0.0168594270944595
233,0.00575027382001281,-0.0032979513052851,0.0155742922797799,0.5,0.0181587748229504,0.0221130736172199
234,0.00908518116921186,0.000529344950336963,0.0173637662082911,0.5,0.0213534012436867,0.0253437031060457
235,0.0103625310584903,0.00224264012649655,0.0185237042605877,0.5,0.0228957757353783,0.0249138455837965
236,0.00934229977428913,0.00196186453104019,0.0183507800102234,0.5,0.0216833055019379,0.0223178863525391
237,0.00734526757150888,0.000989289139397442,0.0172427278012037,0.110503107309341,0.0188761968165636,0.019413597881794
238,0.00559208961203694,-0.00060431205201894,0.0160100813955069,-0.234471723437309,0.0167307332158089,0.0152671206742525
239,0.00440517766401172,-0.00306695653125644,0.0150680178776383,-0.49166476726532,0.0166499596089125,0.00895755458623171
240,0.00384601205587387,-0.00576663250103593,0.0142213441431522,-0.5,0.0185560490936041,0.00164093042258173
241,0.00317929964512587,-0.00801172479987144,0.0127866603434086,-0.5,0.0204794351011515,-0.00448494730517268
242,0.00152405851986259,-0.00877034105360508,0.0104138990864158,-0.5,0.020137220621109,-0.00594266364350915
243,-0.00110344961285591,-0.00764484796673059,0.00731432531028986,-0.474646329879761,0.0170578472316265,-0.000755484856199473
244,-0.00338332634419203,-0.00529454462230206,0.00461121695116162,-0.395654857158661,0.0133984945714474,0.00836031511425972
245,-0.00358064891770482,-0.00260275602340698,0.00389083195477724,-0.393348425626755,0.0122915338724852,0.0164687391370535
246,-0.0020876417402178,-0.0013096584007144,0.00507408240810037,-0.435966849327087,0.0143371541053057,0.0201703663915396
247,-0.00092998769832775,-0.00279888696968555,0.00653525302186608,-0.477922111749649,0.0173610579222441,0.0194390434771776
248,-0.000840649357996881,-0.00619295379146934,0.00720287766307592,-0.499923199415207,0.0194200035184622,0.0166333969682455
249,-0.00103672698605806,-0.00944120436906815,0.00762022752314806,-0.5,0.0205735415220261,0.0131907574832439
250,-0.00119054852984846,-0.0115607716143131,0.00864706747233868,-0.5,0.0218739286065102,0.00918444618582726
251,-0.00194873451255262,-0.0129971327260137,0.00962550099939108,-0.5,0.0232520345598459,0.00515832705423236
252,-0.00364280655048788,-0.0142859984189272,0.00932525098323822,-0.5,0.0236331690102816,0.00190880708396435
253,-0.00509542599320412,-0.0149534689262509,0.00815186835825443,-0.5,0.0230298712849617,0.000389961118344218
254,-0.00559246400371194,-0.0149255637079477,0.00712837558239698,-0.5,0.0221333391964436,0.000891935313120484
255,-0.00548942619934678,-0.0148273063823581,0.00658620009198785,-0.5,0.0219180416315794,0.00210939371027052
256,-0.00404583988711238,-0.0141175435855985,0.00718419998884201,-0.5,0.0233977027237415,0.00284919235855341
257,-0.000289489078568295,-0.0115907127037644,0.00976179726421833,-0.5,0.0263606440275908,0.00379019742831588
258,0.00482677482068539,-0.00758206890895963,0.0136737190186977,-0.5,0.0295059140771627,0.00601463206112385
259,0.00856858491897583,-0.00449016643688083,0.0164931230247021,-0.5,0.0308234114199877,0.00855913106352091
260,0.00988556165248156,-0.00359973032027483,0.0170841552317142,-0.5,0.0297618135809898,0.00957511644810438
261,0.00991473346948624,-0.00441282242536545,0.0163206998258829,-0.5,0.027463510632515,0.00763762416318059
262,0.0089589161798358,-0.00700766127556562,0.0147149572148919,-0.5,0.0245003066956997,0.00183297868352383
263,0.00694302562624216,-0.0110065713524818,0.0126969795674086,-0.5,0.0210419166833162,-0.00722741661593318
264,0.00560605339705944,-0.0137046650052071,0.0118661755695939,-0.344454169273376,0.0183402132242918,-0.0158150400966406
265,0.00616068951785564,-0.0129550732672215,0.0129870120435953,-0.111085459589958,0.0174359437078238,-0.0195592511445284
266,0.00672880280762911,-0.0101764695718884,0.0140994675457478,0.0923639163374901,0.0170798078179359,-0.0177607443183661
267,0.00666314316913486,-0.00711992103606462,0.013817897066474,0.243223041296005,0.0168793573975563,-0.0121408170089126
268,0.00720212887972593,-0.00466267485171556,0.0124875297769904,0.320364534854889,0.0175291728228331,-0.00611187145113945
269,0.00820251181721687,-0.00388819095678627,0.010554127395153,0.333853781223297,0.0180978644639254,-0.00332983070984483
270,0.00946308020502329,-0.00434844056144357,0.00937484763562679,0.276929378509521,0.0184695869684219,-0.00279537565074861
271,0.0113270683214068,-0.00447345711290836,0.0104010347276926,0.111057996749878,0.0199624858796597,-0.000688143831212074
272,0.0129743246361613,-0.00421665608882904,0.0125607186928391,-0.157439187169075,0.0220063682645559,0.00241690967231989
273,0.0124899810180068,-0.0054221791215241,0.0129639273509383,-0.458110839128494,0.0221363082528114,0.00151157868094742
274,0.0103026255965233,-0.00829576421529055,0.0113288126885891,-0.5,0.0202389229089022,-0.0049549313262105
275,0.00846390891820192,-0.0111111663281918,0.00968878902494907,-0.5,0.0182000380009413,-0.013097140006721
276,0.0074619404040277,-0.012565977871418,0.00895646959543228,-0.5,0.0168123356997967,-0.0179995056241751
277,0.00701232347637415,-0.0120673915371299,0.0085887024179101,-0.5,0.0159630179405212,-0.0175830256193876
278,0.00689858663827181,-0.0100236060097814,0.00811050552874804,-0.5,0.0154955983161926,-0.013575010932982
279,0.00726857548579574,-0.00730181485414505,0.0082590002566576,-0.5,0.0165544413030148,-0.00842363480478525
280,0.00793342012912035,-0.00510004861280322,0.00912970397621393,-0.5,0.0205620583146811,-0.00369792198762298
281,0.0091084185987711,-0.00335919624194503,0.0104697430506349,-0.5,0.0270924549549818,0.000643026374746114
282,0.0112095344811678,-0.00128464121371508,0.0124338706955314,-0.5,0.0331379361450672,0.0040846667252481
283,0.0130957970395684,8.79112485563383E-05,0.0141168516129255,-0.5,0.0349325351417065,0.00411847699433565
284,0.0136526422575116,-0.000240804714849219,0.0150771178305149,-0.5,0.0321596600115299,0.000573116180021316
285,0.0129489777609706,-0.00189844169653952,0.0159757919609547,-0.5,0.0276560354977846,-0.00407394533976913
286,0.0116983084008098,-0.00397676741704345,0.016833882778883,-0.5,0.0236143842339516,-0.00759003031998873
287,0.0110318483784795,-0.00536547414958477,0.0175021663308144,-0.5,0.0209126342087984,-0.00853306613862515
288,0.0103771779686213,-0.00641929870471358,0.0172667689621449,-0.5,0.0187787376344204,-0.00764222256839275
289,0.0076698400080204,-0.00851444341242313,0.0147757260128856,-0.5,0.0152356745675206,-0.00669837230816484
290,0.00453975005075336,-0.00985817797482014,0.0116316433995962,-0.5,0.0113889425992966,-0.00362099427729845
291,0.00420782715082169,-0.00798888131976128,0.0104725835844874,-0.5,0.00982846692204475,0.00261421664617956
292,0.00579897686839104,-0.00482764979824424,0.0105058560147882,-0.5,0.0102155087515712,0.00654538115486503
293,0.00742293754592538,-0.0031400416046381,0.0106498170644045,-0.5,0.0119067346677184,0.00486266613006592
294,0.00848979875445366,-0.00350021501071751,0.0111892577260733,-0.5,0.0145573420450091,-0.000339836667990312
295,0.00845968257635832,-0.00536902993917465,0.0117840338498354,-0.5,0.0164460893720388,-0.00696831382811069
296,0.00741868792101741,-0.00775711098685861,0.0119958724826574,-0.5,0.0164883565157652,-0.0137900393456221
297,0.00591395841911435,-0.0102073457092047,0.01152887288481,-0.5,0.0151492347940803,-0.0196751151233912
298,0.00482414057478309,-0.0121448999270797,0.0105863530188799,-0.5,0.0138276759535074,-0.0230360720306635
299,0.00454674940556288,-0.0129563668742776,0.00979282706975937,-0.5,0.0136584416031837,-0.0228818655014038
300,0.00396614475175738,-0.0135728372260928,0.00879678595811129,-0.5,0.0139831751585007,-0.0211731605231762
301,0.00243355333805084,-0.015172841027379,0.00715716648846865,-0.5,0.0138300461694598,-0.0210713166743517
302,0.00204845704138279,-0.0164777263998985,0.00642384355887771,-0.5,0.0146392239257693,-0.0225126892328262
303,0.00519333546981215,-0.014785198494792,0.00852797646075487,-0.5,0.0182730685919523,-0.0214812960475683
304,0.00992260873317719,-0.0108362240716815,0.0121022947132587,-0.5,0.0229816231876612,-0.0163862463086843
305,0.0123783936724067,-0.00784926302731037,0.0139725990593433,-0.5,0.0255058072507381,-0.0111911995336413
306,0.0121287321671844,-0.00603540427982807,0.0133232669904828,-0.5,0.0250507574528456,-0.00935730244964361
307,0.00998580176383257,-0.00539098167791963,0.0106949070468545,-0.5,0.0217538513243198,-0.0123602179810405
308,0.00642157951369882,-0.00721543980762362,0.00689467648044229,-0.5,0.0166342314332724,-0.0196357294917107
309,0.00334209832362831,-0.0100047076120973,0.00366197153925896,-0.5,0.012559512630105,-0.0262609384953976
310,0.00183168577495962,-0.0117279598489404,0.00189175235573202,-0.5,0.0109558021649718,-0.0279796794056892
311,0.000723000324796885,-0.0127560887485743,0.000785668729804456,-0.5,0.0103251282125711,-0.0252918545156717
312,-0.000453885353635997,-0.0134636359289289,-0.000385137420380488,-0.5,0.00948774721473455,-0.0207142774015665
313,0.000612650590483099,-0.0127083603292704,-0.000772210885770619,-0.5,0.00993036665022373,-0.0160506200045347
314,0.00481935264542699,-0.0104861548170447,1.6184641935979E-05,-0.5,0.0121708270162344,-0.0132414540275931
315,0.00849144347012043,-0.00898149237036705,0.000262134504737332,-0.5,0.0138326892629266,-0.0145000778138638
316,0.0076584299094975,-0.00986124575138092,-0.0015080205630511,-0.5,0.0128049002960324,-0.0195274893194437
317,0.0026994242798537,-0.0122612807899714,-0.00406143581494689,-0.5,0.00983832962810993,-0.024590915068984
318,-0.00251178513281047,-0.0136855896562338,-0.00481601152569056,-0.5,0.00754447374492884,-0.025408212095499
319,-0.00514570344239473,-0.0131039563566446,-0.00337272440083325,-0.5,0.00703657371923327,-0.0217110607773066
320,-0.00499095534905791,-0.0116479089483619,-0.00132882141042501,-0.5,0.00787193235009909,-0.0180575456470251
321,-0.00327240000478923,-0.0104577504098415,-8.37522020447068E-05,-0.5,0.00913920160382986,-0.0179705787450075
322,-0.00168414122890681,-0.00963392481207848,-0.00040149106644094,-0.5,0.00985122937709093,-0.0192484818398952
323,-0.00170085055287927,-0.00957948621362448,-0.00255656754598022,-0.5,0.00906291604042053,-0.0186228789389133
324,-0.00388458650559187,-0.0111534800380468,-0.00612469017505646,-0.5,0.00617321534082294,-0.0173638667911291
325,-0.0071923085488379,-0.0142443412914872,-0.0100930193439126,-0.5,0.0022867436055094,-0.0190383736044168
326,-0.00972741562873125,-0.0175492092967033,-0.0132713429629803,-0.5,-0.000721679534763098,-0.023864071816206
327,-0.0104426303878427,-0.0192018635571003,-0.0148831056430936,-0.5,-0.00200722389854491,-0.0280791781842709
328,-0.00924844294786453,-0.0179078094661236,-0.0147493472322822,-0.5,-0.00135490158572793,-0.0283756256103516
329,-0.00690226210281253,-0.0148732848465443,-0.0131823746487498,-0.5,0.000822031230200082,-0.0254534520208836
330,-0.00547410408034921,-0.0134185710921884,-0.011636896058917,-0.393399506807327,0.00243459362536669,-0.0229887086898088
331,-0.00580210192129016,-0.0142152570188046,-0.0111883329227567,0.0940675213932991,0.00222547072917223,-0.0218404456973076
332,-0.00640128972008824,-0.0150785446166992,-0.0112975435331464,0.5,0.0019664247520268,-0.0198844950646162
333,-0.00529140513390303,-0.0145941218361259,-0.0106361405923963,0.5,0.0040000188164413,-0.0162383839488029
334,-0.00250270683318377,-0.0133866118267179,-0.00914359744638205,0.5,0.00740402285009623,-0.0123082650825381
335,-0.0001242804719368,-0.0127328215166926,-0.00847089011222124,0.5,0.00899299141019583,-0.0101668937131763
336,0.00216264463961124,-0.0114856921136379,-0.00831383094191551,0.5,0.00876857154071331,-0.00948466546833515
337,0.00569489924237132,-0.00863117352128029,-0.00724231172353029,0.5,0.00930223893374205,-0.0090217087417841
338,0.00893200468271971,-0.00618800427764654,-0.00612755585461855,0.5,0.0114123933017254,-0.0090342229232192
339,0.0103762885555625,-0.00560823129490018,-0.00648387754335999,0.5,0.0136158540844917,-0.00962413009256125
340,0.0101159876212478,-0.00659474171698093,-0.00880305375903845,0.5,0.012927608564496,-0.0104854442179203
341,0.00805156864225864,-0.00928028579801321,-0.0129005825147033,0.5,0.00726422900334001,-0.0123426942154765
342,0.00511406362056732,-0.0129438312724233,-0.0170444790273905,0.5,-0.00109380506910384,-0.0157601647078991
343,0.00334881478920579,-0.0155017143115401,-0.0188686847686768,0.5,-0.00795859284698963,-0.0199562497437
344,0.00343647785484791,-0.0158728137612343,-0.0179312191903591,0.5,-0.0120547255501151,-0.0237198639661074
345,0.00486067496240139,-0.0142740085721016,-0.0156159112229943,0.5,-0.014283673837781,-0.0256542414426804
346,0.00670476211234927,-0.0118541391566396,-0.0137399816885591,0.5,-0.0152309527620673,-0.0248870365321636
347,0.00805694423615932,-0.00975420139729977,-0.0130542581900954,0.5,-0.0148812411352992,-0.022105423733592
348,0.00973226688802242,-0.00693876016885042,-0.0121792033314705,0.5,-0.0123847797513008,-0.0173359327018261
349,0.0127614503726363,-0.00237222108989954,-0.010015070438385,0.5,-0.00761239835992455,-0.0100034382194281
350,0.0151979606598616,0.00141042156610638,-0.0082742590457201,0.5,-0.00363315432332456,-0.00313624693080783
351,0.0152009129524231,0.00173167954199016,-0.00850088335573673,0.450569868087769,-0.00294441659934819,-0.000863249064423144
352,0.0147162331268191,0.0004450753913261,-0.00929838232696056,0.306254595518112,-0.00362642155960202,-0.00233539612963796
353,0.0158815979957581,0.000704767822753638,-0.00879763066768646,0.112743608653545,-0.00320599181577563,-0.00407205987721682
354,0.0171973332762718,0.00168677081819624,-0.00723968306556344,-0.125537514686584,-0.00238553225062788,-0.00607276847586036
355,0.016042111441493,0.000742181087844074,-0.00619017845019698,-0.322894483804703,-0.00309768109582365,-0.0105226533487439
356,0.0130686154589057,-0.00162029534112662,-0.0056396434083581,-0.450929015874863,-0.00482938811182976,-0.0167806651443243
357,0.0117373233661056,-0.00241244491189718,-0.0037928931415081,-0.5,-0.00482235988602042,-0.0216819792985916
358,0.0130026154220104,-0.000894345343112946,-0.000735970214009285,-0.5,-0.00242376117967069,-0.0233903843909502
359,0.014832766726613,0.000902151863556355,0.00182586314622313,-0.5,0.000716781360097229,-0.0221338048577309
360,0.0163322910666466,0.00157629500608891,0.00335307791829109,-0.5,0.0037393206730485,-0.0191324893385172
361,0.0167720355093479,0.000224322910071351,0.00312585267238319,-0.5,0.00534310145303607,-0.0176244731992483
362,0.0148464646190405,-0.00373249757103622,0.000337099540047348,-0.5,0.00370555510744452,-0.0201115701347589
363,0.0108864000067115,-0.0087063480168581,-0.00391868036240339,-0.5,-0.00103776343166828,-0.0245351642370224
364,0.00626922445371747,-0.0123092494904995,-0.00788272172212601,-0.5,-0.00721954135224223,-0.0274468939751387
365,0.0020387526601553,-0.0136840874329209,-0.0101101435720921,-0.5,-0.0126225715503097,-0.0276672076433897
366,-0.00116328592412174,-0.013451456092298,-0.00952874217182398,-0.5,-0.0149813629686832,-0.0258257761597633
367,-0.00254936306737363,-0.0123034287244082,-0.00630930159240961,-0.5,-0.0134939253330231,-0.0230605434626341
368,-0.00150429259520024,-0.0110041573643684,-0.00252343923784792,-0.5,-0.00971464067697525,-0.0215822532773018
369,0.000786858145147562,-0.0111442394554615,-0.00190542486961931,-0.5,-0.00685987435281277,-0.0241809170693159
370,0.0023767629172653,-0.0130310673266649,-0.00626595551148057,-0.5,-0.00723765417933464,-0.0300062242895365
371,0.00262928148731589,-0.0152142094448209,-0.0132132852450013,-0.5,-0.0103401243686676,-0.0350568853318691
372,0.00189077795948833,-0.0166185908019543,-0.0192120093852282,-0.5,-0.0141646293923259,-0.0373001545667648
373,0.00092055049026385,-0.0168148186057806,-0.0224484205245972,-0.5,-0.0170895643532276,-0.0378797389566898
374,0.000572798657231033,-0.0153766637668014,-0.0229754541069269,-0.460414260625839,-0.0182704124599695,-0.0379375442862511
375,0.000938952027354389,-0.0123203732073307,-0.0222245696932077,-0.24266816675663,-0.0180869847536087,-0.0368853695690632
376,0.00187704258132726,-0.00865918584167957,-0.0213922262191772,-0.0812690481543541,-0.0169832650572062,-0.0342420265078545
377,0.00361204799264669,-0.0057530109770596,-0.0198732446879148,0.0475103594362736,-0.0142122190445662,-0.0305560417473316
378,0.00506624113768339,-0.00503204157575965,-0.0174249205738306,0.173651367425919,-0.0106156775727868,-0.0277229268103838
379,0.00535294460132718,-0.0067635984160006,-0.0145113542675972,0.284537464380264,-0.00768826948478818,-0.0277594607323408
380,0.00524742947891355,-0.00955436006188393,-0.0111182015389204,0.334633260965347,-0.00548812001943588,-0.0295988563448191
381,0.005072012078017,-0.0118212671950459,-0.00801104865968227,0.302397400140762,-0.0047481288202107,-0.0293676685541868
382,0.00457519758492708,-0.0129312872886658,-0.00648733461275697,0.207598984241486,-0.00595437455922365,-0.0260324161499739
383,0.00404203031212091,-0.0136237125843763,-0.00677653029561043,0.114099286496639,-0.007542057428509,-0.0234713386744261
384,0.00361927435733378,-0.0150760505348444,-0.00820270180702209,0.0930776819586754,-0.00819023419171572,-0.0250664595514536
385,0.0033644987270236,-0.0171750653535128,-0.0094931460916996,0.137755319476128,-0.00774274161085486,-0.0298160705715418
386,0.00396308908239007,-0.0187762640416622,-0.00901040714234114,0.158864870667458,-0.00574534712359309,-0.0340790264308453
387,0.00595368770882487,-0.0190458968281746,-0.00646903505548835,0.065441258251667,-0.00229574018158019,-0.0346560813486576
388,0.00997221190482378,-0.0174246337264776,-0.00253601185977459,-0.187930911779404,0.00233396561816335,-0.0313932076096535
389,0.0156053313985467,-0.0146453101187944,0.00166452047415078,-0.5,0.00772790843620896,-0.0273993946611881
390,0.0205108448863029,-0.0126609141007066,0.00419630669057369,-0.5,0.0120591521263123,-0.0249744635075331
391,0.023363733664155,-0.0126712704077363,0.00400897487998009,-0.5,0.0142409792169929,-0.0244699027389288
392,0.0251496024429798,-0.0144995460286736,0.00206979108043015,-0.5,0.0155176781117916,-0.0256694722920656
393,0.0265289098024368,-0.0172132290899754,-9.05574197531678E-05,-0.5,0.0171447787433863,-0.0273591093719006
394,0.0262828636914492,-0.0198630578815937,-0.00196878192946315,-0.5,0.0183892603963614,-0.0278823655098677
395,0.023389108479023,-0.0218639001250267,-0.00400209287181497,-0.5,0.0174910128116608,-0.0269335582852364
396,0.018964346498251,-0.0229019969701767,-0.00644423346966505,-0.5,0.0141099207103252,-0.0255065076053143
397,0.0150707419961691,-0.0229490045458078,-0.00855606701225042,-0.5,0.0101363332942128,-0.0241936109960079
398,0.0123667791485786,-0.0227971747517586,-0.00957844499498606,-0.5,0.0075998711399734,-0.0235733948647976
399,0.0104206455871463,-0.02316689863801,-0.00943444296717644,-0.5,0.0072656343691051,-0.0248485263437033
400,0.00885993801057339,-0.0235610473901033,-0.0087508000433445,-0.5,0.00849220249801874,-0.0281367264688015
401,0.00690158177167177,-0.0236682929098606,-0.00883837975561619,-0.5,0.00933824200183153,-0.0321347713470459
402,0.00396816851571202,-0.023834090679884,-0.0100721837952733,-0.5,0.0086281904950738,-0.0351050272583961
403,0.00150758970994502,-0.0227136239409447,-0.0105420481413603,-0.095373623073101,0.0076956944540143,-0.0337014719843864
404,0.000942588085308671,-0.0191951766610146,-0.00866994075477123,0.355399787425995,0.0078080678358674,-0.0269936509430408
405,0.0025351142976433,-0.0143810771405697,-0.00491113169118762,0.5,0.00944872945547104,-0.0191748794168234
406,0.00626330496743321,-0.00935489591211081,-0.000264611036982387,0.5,0.0131566226482391,-0.0131133692339063
407,0.00979378819465637,-0.00568153522908688,0.00354146445170045,0.5,0.016922052949667,-0.00894826278090477
408,0.0107387322932482,-0.00449672667309642,0.00504812225699425,0.5,0.0180338975042105,-0.00548253720626235
409,0.0101339584216475,-0.00457357987761498,0.00468024658039212,0.5,0.0168689005076885,-0.000653070514090359
410,0.0102268485352397,-0.00467734970152378,0.00364593206904829,0.5,0.0158111117780209,0.00448217615485191
411,0.0123853962868452,-0.00432468485087156,0.00337150134146214,0.5,0.0170500762760639,0.007059620693326
412,0.0159860551357269,-0.00354766030795872,0.00416822591796517,0.498333185911179,0.0198822785168886,0.00643183244392276
413,0.0180563498288393,-0.00399233400821686,0.00415294710546732,0.406892091035843,0.0210975762456656,0.00275521166622639
414,0.0176289472728968,-0.00584092875942588,0.0026473281905055,0.309562087059021,0.0202250108122826,-0.00260901660658419
415,0.016715744510293,-0.00695320265367627,0.000991874258033931,0.120812468230724,0.0193120613694191,-0.00674721226096153
416,0.0161590073257685,-0.00707861594855785,-0.000236564126680605,-0.164218425750732,0.0191304013133049,-0.00859999284148216
417,0.0149866724386811,-0.00774341635406017,-0.00165135087445378,-0.464255154132843,0.0187813527882099,-0.00872996170073748
418,0.0123585211113095,-0.00887935701757669,-0.0037941609043628,-0.5,0.0167964398860931,-0.0071868714876473
419,0.00890290550887585,-0.00883997604250908,-0.00638736598193645,-0.5,0.0129182524979115,-0.00365174515172839
420,0.00611135875806212,-0.00699608121067286,-0.00891236588358879,-0.5,0.00851355493068695,0.00107053725514561
421,0.00488233799114823,-0.00452369917184114,-0.0110023925080895,-0.5,0.00503019569441676,0.00399795267730951
422,0.00482077058404684,-0.00299450452439487,-0.0124133368954062,-0.5,0.00260924128815532,0.00271898857317865
423,0.00482096010819077,-0.00273760338313878,-0.0129131339490414,-0.5,0.000705663464032114,-0.00141094753053039
424,0.00428959354758263,-0.002952522598207,-0.0126050729304552,-0.5,-0.00102378451265395,-0.00523997843265533
425,0.00330347893759608,-0.00329026114195585,-0.0123328948393464,-0.5,-0.00289112352766097,-0.00777398562058806
426,0.00205322308465838,-0.00423320475965738,-0.0128518147394061,-0.490378588438034,-0.00500287441536784,-0.010326785966754
427,0.00113238231278956,-0.00539044197648764,-0.0136176077648997,-0.449732482433319,-0.00624767830595374,-0.0131118912249804
428,0.00140464748255908,-0.0051737898029387,-0.0131068630144,-0.364562481641769,-0.00474672904238105,-0.0141928903758526
429,0.00194390537217259,-0.00376120978035033,-0.0110361790284514,-0.249136835336685,-0.00108160544186831,-0.0127530721947551
430,0.00135337805841118,-0.00286647886969149,-0.00818186718970537,-0.110233135521412,0.00253279460594058,-0.00968118198215961
431,3.92163783544675E-05,-0.00289658317342401,-0.00514758517965674,0.0349404998123646,0.00496910093352199,-0.00504515133798122
432,-0.00111140904482454,-0.0034741279669106,-0.00307831587269902,0.162085995078087,0.00579410744830966,0.000552287616301328
433,-0.000893437594641,-0.00373218557797372,-0.00266577675938606,0.264832526445389,0.00566587969660759,0.00507014291360974
434,0.000968106265645474,-0.00323001854121685,-0.0036294343881309,0.342225730419159,0.00519612804055214,0.00709026027470827
435,0.0028779786080122,-0.00312791671603918,-0.0054322499781847,0.390259087085724,0.00418282859027386,0.0061827041208744
436,0.0040384354069829,-0.00378121039830148,-0.00705662043765187,0.4254290163517,0.00342329684644938,0.00346873817034066
437,0.0041104257106781,-0.00488406326621771,-0.00832834932953119,0.5,0.00320033845491707,0.000460860464954749
438,0.00267237843945622,-0.00662320479750633,-0.00956692453473806,0.5,0.00284477369859815,-0.00249622692354023
439,0.00120445142965764,-0.00819233525544405,-0.00974387675523758,0.5,0.00345862843096256,-0.00438690138980746
440,0.0013354376424104,-0.00863556936383247,-0.00826412066817284,0.5,0.00631420873105526,-0.00443721422925591
441,0.00298210908658803,-0.00796921458095312,-0.00602593552321196,0.5,0.01069350913167,-0.00408374750986695
442,0.0049214418977499,-0.00676507456228137,-0.00414735917001963,0.5,0.0148257715627551,-0.00565014127641916
443,0.00573192117735744,-0.00552209792658687,-0.00309580750763416,0.5,0.0171728022396564,-0.0093215461820364
444,0.00562310125678778,-0.00371946161612868,-0.00265475618652999,0.5,0.0176843889057636,-0.0119065716862679
445,0.00540101155638695,-0.00131556682754308,-0.00313365971669555,0.5,0.0168592110276222,-0.0113722160458565
446,0.0044464492239058,7.9848374298308E-05,-0.00510384887456894,0.5,0.0143765732645988,-0.00932356994599104
447,0.00273160263895988,4.37559720012359E-05,-0.00773229822516441,0.5,0.0107120275497437,-0.00656605511903763
448,0.00102373538538814,-0.000535861705429852,-0.00988489668816328,0.5,0.00707690138369799,-0.00220604636706412
449,-0.000488910300191492,-0.00146694283466786,-0.0112750083208084,0.5,0.00442523322999477,0.00351871177554131
450,-0.00161514384672046,-0.00251375767402351,-0.0118036111816764,0.5,0.00350762670859694,0.00886974763125181
451,-0.00276086572557688,-0.00326471612788737,-0.0118409441784024,0.5,0.00357870850712061,0.0122652649879456
452,-0.00414110347628593,-0.00353443739004433,-0.0115842930972576,0.5,0.00360074173659086,0.013572920113802
453,-0.00526925316080451,-0.00361556210555136,-0.010980473831296,0.5,0.00335864094085991,0.0127670411020517
454,-0.0061002355068922,-0.00395319238305092,-0.0107535244897008,0.5,0.00255887885577977,0.0100824506953359
455,-0.00616848887875676,-0.00395083660259843,-0.0110822403803468,0.5,0.00160423619672656,0.00725223543122411
456,-0.00460701482370496,-0.00292581925168633,-0.0108758183196187,0.5,0.00148532423190773,0.00540124671533704
457,-0.00213441019877791,-0.00181668205186725,-0.00975011102855206,0.5,0.00197607837617397,0.00374032254330814
458,-0.000655526760965586,-0.00198083347640932,-0.0089718010276556,0.5,0.00166882760822773,0.00174783391412348
459,-0.00105579011142254,-0.00305976904928684,-0.00952471978962421,0.5,9.56945405050647E-06,0.000757899426389486
460,-0.00317174568772316,-0.00385906198062003,-0.0106781078502536,0.5,-0.00200531492009759,0.00201836228370667
461,-0.00587881775572896,-0.00399971520528197,-0.0108583141118288,0.5,-0.00270123360678554,0.00463143875822425
462,-0.00691784918308258,-0.00311114592477679,-0.00913350097835064,0.5,-0.00115718564484268,0.00769867468625307
463,-0.00544066959992051,-0.00104063365142792,-0.00634961575269699,0.5,0.00162214552983642,0.011548294685781
464,-0.00363421300426126,0.000796637905295938,-0.00464312918484211,0.5,0.00329209468327463,0.0151522941887379
465,-0.00379217904992402,0.000576012826059014,-0.00517571857199073,0.5,0.00250303489156067,0.0162847731262445
466,-0.00510399229824543,-0.00150644115637988,-0.00657689711079001,0.5,0.000647047301754355,0.0147048467770219
467,-0.0059888600371778,-0.00375276571139693,-0.00689839757978916,0.5,-0.000577881350181997,0.0118405343964696
468,-0.00759531650692225,-0.00558596989139915,-0.006393076851964,0.5,-0.00201878929510713,0.00877156015485525
469,-0.0112609975039959,-0.00714016333222389,-0.00605558045208454,0.5,-0.0045864237472415,0.00661081401631236
470,-0.0155603596940637,-0.00800510495901108,-0.00578879471868277,0.5,-0.00695858197286725,0.00675260880962014
471,-0.01883808337152,-0.00833563413470984,-0.00552037078887224,0.5,-0.00805875845253468,0.00921965017914772
472,-0.020822549238801,-0.00855760835111141,-0.00550776068121195,0.5,-0.00818679295480251,0.0122864525765181
473,-0.0213632006198168,-0.00799506809562445,-0.00585078820586205,0.5,-0.00775521202012897,0.0149752050638199
474,-0.0201183967292309,-0.00567949609830976,-0.00606661243364215,0.5,-0.00659117475152016,0.0181502383202314
475,-0.0170859787613153,-0.00181706657167524,-0.00531683815643191,0.5,-0.00397152546793222,0.0222227536141872
476,-0.013205504976213,0.00223665474914014,-0.00364938308484852,0.5,-0.000242547073867172,0.0257968474179506
477,-0.00968003831803799,0.0051699667237699,-0.00181004288606346,0.5,0.00320393987931311,0.0276169311255217
478,-0.00749089615419507,0.00631745345890522,-0.000803509377874434,0.5,0.00546572310850024,0.0279735922813416
479,-0.00720683811232448,0.00576849188655615,-0.0012586445081979,0.5,0.00617939699441195,0.0277318879961967
480,-0.00837832782417536,0.00427598692476749,-0.00233131181448698,0.5,0.00551255699247122,0.0267032366245985
481,-0.00983322225511074,0.00292134471237659,-0.00265262182801962,0.5,0.00471883080899715,0.0248542111366987
482,-0.00966164004057646,0.0034533750731498,-0.00130795431323349,0.5,0.0061456891708076,0.0251609478145838
483,-0.00753884110599756,0.00630548782646656,0.00111806811764836,0.5,0.0100584020838141,0.0298191737383604
484,-0.00532642379403114,0.00945836212486029,0.00317459227517247,0.5,0.0142246130853891,0.0359351560473442
485,-0.00359342037700117,0.011884892359376,0.00499717239290476,0.5,0.0176734030246735,0.0400522649288177
486,-0.00223343237303197,0.0138871939852834,0.00673814350739121,0.5,0.0198235791176558,0.0412131734192371
487,-0.00146712665446103,0.0153849655762315,0.00734775327146053,0.5,0.0196120981127024,0.0392796248197556
488,-0.00133970333263278,0.0158854480832815,0.00584118720144033,0.5,0.0169745944440365,0.0345516167581081
489,-0.00198732316493988,0.0150895426049829,0.00258859107270837,0.5,0.0128230201080441,0.0281663183122873
490,-0.00342916254885495,0.013147228397429,-0.000638067489489913,0.5,0.00838075485080481,0.0212549362331629
491,-0.00547435041517019,0.0103346183896065,-0.00281067425385118,0.5,0.00484028644859791,0.014481583610177
492,-0.00721058854833245,0.00796977151185274,-0.00375933269970119,0.5,0.00309840892441571,0.00969257112592459
493,-0.0085743498057127,0.00659169722348452,-0.00440951390191913,0.5,0.00232302909716964,0.00869142264127731
494,-0.0108278701081872,0.00490910606458783,-0.00665856618434191,0.5,0.000570588046684861,0.0108740329742432
495,-0.0132665792480111,0.00347229698672891,-0.0100217144936323,0.5,-0.00209328252822161,0.0153730688616633
496,-0.0137839941307902,0.00420792633667588,-0.0120905144140124,0.5,-0.0038347311783582,0.0222739446908236
497,-0.0125055136159062,0.00654305191710591,-0.0124361049383879,0.5,-0.00433108536526561,0.0296570491045713
498,-0.0116464933380485,0.00770857790485024,-0.0131319155916572,0.5,-0.00537544256076217,0.032674316316843
499,-0.0120892133563757,0.00665230769664049,-0.0155815435573459,0.5,-0.00798998307436705,0.0285030137747526
500,-0.0124119706451893,0.00536415306851268,-0.0187318827956915,0.5,-0.0109184272587299,0.0202103909105062
501,-0.0118704875931144,0.00541767850518227,-0.0206308010965586,0.231482490897179,-0.0124586625024676,0.0130130611360073
502,-0.0116889486089349,0.00582173792645335,-0.0206899978220463,-0.133586421608925,-0.0127622904255986,0.00921923108398914
503,-0.0131009938195348,0.00469131022691727,-0.0201024860143662,-0.422316640615463,-0.013333915732801,0.00735306087881327
504,-0.0154341729357839,0.00193298072554171,-0.0197940934449434,-0.5,-0.014680209569633,0.00508691230788827
505,-0.0172911789268255,-0.000728126498870552,-0.0201376788318157,-0.356105297803879,-0.0167902819812298,0.00230086222290993
506,-0.0192223861813545,-0.00291937170550227,-0.0222445446997881,0.012570665217936,-0.0205721203237772,-0.000380433339159936
507,-0.0225002579391003,-0.00543224718421698,-0.0262001436203718,0.5,-0.0259278193116188,-0.0026962524279952
508,-0.0272491853684187,-0.00808198843151331,-0.0304417721927166,0.5,-0.0313852429389954,-0.00394401093944907
509,-0.031941719353199,-0.00992907490581274,-0.0329841524362564,0.5,-0.0351432338356972,-0.00345542374998331
510,-0.034027062356472,-0.0100410720333457,-0.0320510566234589,0.5,-0.0353649593889713,-0.00167664035689086
511,-0.033415537327528,-0.00923955906182528,-0.0286596603691578,0.5,-0.0330274999141693,-0.000178099609911442
512,-0.0312663652002811,-0.00837043859064579,-0.0250697433948517,0.5,-0.0300806183367968,0.00183294515591115
513,-0.0267833359539509,-0.00599134247750044,-0.0209783706814051,0.5,-0.0255730878561735,0.00669949967414141
514,-0.0205587390810251,-0.0023720080498606,-0.0161508824676275,0.5,-0.0193777922540903,0.0127934599295259
515,-0.0157195422798395,-0.000214912419323809,-0.0122422110289335,0.5,-0.0139851830899715,0.0166898109018803
516,-0.0131482388824224,0.000226030286285095,-0.00996063835918903,0.5,-0.0103624304756522,0.0182667132467031
517,-0.0110074421390891,0.000815668783616275,-0.00807503238320351,0.5,-0.00723718525841832,0.0190940871834755
518,-0.00830344669520855,0.00209180009551346,-0.00520891416817904,0.5,-0.00371675379574299,0.0198317933827639
519,-0.00612584967166185,0.00275440840050578,-0.00185120454989374,0.5,-0.000568371498957276,0.0201785527169704
520,-0.00500377453863621,0.00225546909496188,0.00150687480345368,0.5,0.00211833557114005,0.0202006734907627
521,-0.00426748720929027,0.00161940266843885,0.00540412031114101,0.5,0.00532526709139347,0.0208899304270744
522,-0.00465928995981812,0.000894907105248421,0.00850488245487213,0.209147393703461,0.00764805776998401,0.0231226701289415
523,-0.00675567518919706,-0.000362066755769774,0.00918337609618902,-0.0295285545289516,0.00722577562555671,0.0262966975569725
524,-0.00924597028642893,-0.00167669099755585,0.00839792285114527,-0.155502140522003,0.00508313346654177,0.0275629349052906
525,-0.0110660148784518,-0.00297839962877333,0.00761739583685994,-0.174882084131241,0.00323158968240023,0.0245620012283325
526,-0.0116517087444663,-0.00440315576270223,0.00730004999786615,-0.104957893490791,0.00282439007423818,0.0192397013306618
527,-0.0101648969575763,-0.0050776400603354,0.00767613155767322,-0.0242055077105761,0.00402816291898489,0.0161482840776443
528,-0.00770952366292477,-0.00467870710417628,0.0080783674493432,-0.0292398072779179,0.00559765892103314,0.0162813682109118
529,-0.00600490067154169,-0.00334462989121675,0.00811664760112762,-0.141192033886909,0.00685953069478273,0.017501674592495
530,-0.00483429990708828,-0.00119983428157866,0.00872600823640823,-0.317361414432526,0.00834694784134626,0.0186031647026539
531,-0.00447077490389347,0.00042824653792195,0.00966768339276314,-0.497299343347549,0.00938945822417736,0.0189310032874346
532,-0.00594750791788101,0.000478914298582822,0.00962004717439413,-0.5,0.00906462967395782,0.0182976499199867
533,-0.00859870668500662,-0.00027498570852913,0.00887824036180973,-0.480325907468796,0.00806103367358446,0.0180203597992659
534,-0.0105428975075483,-0.000492243736516684,0.00889074802398682,-0.208185732364655,0.00760133005678654,0.0194562003016472
535,-0.0110045932233334,0.000143085169838741,0.00988955423235893,0.13319805264473,0.00799141824245453,0.0223613064736128
536,-0.01120625436306,0.000724914716556668,0.010496249422431,0.467159539461136,0.00805583316832781,0.02507677488029
537,-0.0115185678005219,0.000894796685315669,0.0100731775164604,0.5,0.00731420563533902,0.0264645256102085
538,-0.0109406849369407,0.00112231157254428,0.00938384607434273,0.5,0.00697758374735713,0.0264839753508568
539,-0.00959913805127144,0.0014150618808344,0.0091117424890399,0.5,0.00785325840115547,0.0254307445138693
540,-0.00759215420112014,0.00211425451561809,0.00995402038097382,0.5,0.0102218082174659,0.025256983935833
541,-0.00467743957415223,0.00360396038740873,0.0117202205583453,0.5,0.0135209010913968,0.0274198073893785
542,-0.00215521361678839,0.00466676661744714,0.0125172631815076,0.491333365440369,0.0155484424903989,0.0292354319244623
543,-0.00198210030794144,0.00353621784597635,0.0107787856832147,0.414272159337997,0.0145001811906695,0.0268746726214886
544,-0.00429416261613369,0.000525059993378818,0.00688977586105466,0.427135974168777,0.0107186650857329,0.0202780738472939
545,-0.00727751106023788,-0.00225323950871825,0.00256111682392657,0.5,0.00584839191287756,0.0128229800611734
546,-0.00881667342036963,-0.0031666939612478,-0.000418901297962293,0.5,0.00203458359465003,0.00777379609644413
547,-0.0091927032917738,-0.00302750221453607,-0.00202303752303123,0.5,-0.00046033036778681,0.00527692912146449
548,-0.0100111421197653,-0.00341239385306835,-0.00334046268835664,0.5,-0.00312862521968782,0.00379476044327021
549,-0.010526298545301,-0.00336892972700298,-0.00431270385161042,0.5,-0.00563274463638663,0.00314416433684528
550,-0.00975282955914736,-0.00140311720315367,-0.00472241220995784,0.32619509100914,-0.00684638135135174,0.00358482054434717
551,-0.00984523445367813,0.000837122381199151,-0.00601635361090302,0.115000277757645,-0.00807514879852533,0.00337943504564464
552,-0.01239406876266,0.00149563234299421,-0.00928000267595053,-0.0459190234541893,-0.0110212797299027,0.0016091336729005
553,-0.0150632122531533,0.00211618305183947,-0.012699537910521,-0.0813289359211922,-0.0147022493183613,0.00109580543357879
554,-0.0158420410007238,0.00359919737093151,-0.0142141366377473,0.0514888986945152,-0.0174941085278988,0.00262925727292895
555,-0.015508103184402,0.00430253706872463,-0.0142791708931327,0.357138812541962,-0.0192665290087461,0.00323669775389135
556,-0.0154277076944709,0.00349768833257258,-0.0140179162845016,0.5,-0.0207605976611376,0.00195188575889915
557,-0.0159812066704035,0.00231245486065745,-0.0134621541947126,0.5,-0.0225283838808537,0.00136167486198246
558,-0.0168652106076479,0.00207590661011636,-0.0128109445795417,0.5,-0.0253431480377913,0.00330821401439607
559,-0.0180982556194067,0.00284601328894496,-0.0131263677030802,0.5,-0.0302691273391247,0.00571267167106271
560,-0.0199328735470772,0.003559285774827,-0.0152454478666186,0.5,-0.0369469113647938,0.00610144203528762
561,-0.0210226308554411,0.00449990900233388,-0.0176715347915888,0.5,-0.042062696069479,0.0056954356841743
562,-0.0200564544647932,0.00595215661451221,-0.0178917963057756,0.5,-0.042482104152441,0.00547526497393847
563,-0.0185090340673923,0.00614152243360877,-0.0161411035805941,0.5,-0.039226271212101,0.00364531669765711
564,-0.0177947878837585,0.00512434868142009,-0.0140918558463454,0.5,-0.0351029075682163,0.00112664676271379
565,-0.0177749469876289,0.005103949457407,-0.0129124978557229,0.5,-0.032243900001049,0.00177957525011152
566,-0.0181049574166536,0.00648953532800078,-0.0135309034958482,0.5,-0.0318221561610699,0.00634235655888915
567,-0.0183235127478838,0.00768938008695841,-0.0154807651415467,0.5,-0.0328652821481228,0.0113110551610589
568,-0.0175482369959354,0.00835099257528782,-0.0161223020404577,0.5,-0.0326247662305832,0.0145773719996214
569,-0.0149839734658599,0.0100300833582878,-0.0132409064099193,0.5,-0.0296146832406521,0.0176999792456627
570,-0.0119421826675534,0.0122323604300618,-0.00874741841107607,0.5,-0.0261092130094767,0.0205369237810373
571,-0.0106791984289885,0.0125870676711202,-0.00619127694517374,0.5,-0.0249682907015085,0.0199941992759705
572,-0.0102787064388394,0.0113777900114655,-0.0053891884163022,0.5,-0.0248472485691309,0.01534444373101
573,-0.00914166588336229,0.0102202100679278,-0.0044421530328691,0.5,-0.0234672054648399,0.00895510334521532
574,-0.00829484779387712,0.00939688924700022,-0.00297613278962672,0.5,-0.021197035908699,0.00341054471209645
575,-0.00857993587851524,0.0089914770796895,-0.00131455657538027,0.5,-0.0190466921776533,0.000853109173476696
576,-0.00953100342303514,0.00879101827740669,-0.000131189357489347,0.5,-0.0178337637335062,0.00171922729350626
577,-0.0103214820846915,0.00825202371925116,-4.27079648943618E-05,0.5,-0.0176645014435053,0.00460853287950158
578,-0.0100350212305784,0.00740701612085104,-0.000961032987106591,0.5,-0.0173001438379288,0.00773448962718248
579,-0.0093430383130908,0.00607290398329496,-0.00277229328639805,0.5,-0.0164626929908991,0.00915725901722908
580,-0.00966291036456823,0.00412101577967405,-0.00502560613676906,0.5,-0.0160787589848042,0.00841185171157122
581,-0.0100018316879869,0.00275930645875633,-0.00574982166290283,0.5,-0.0152640212327242,0.00715238275006413
582,-0.00858202483505011,0.00270310649648309,-0.00336552830412984,0.5,-0.0124303074553609,0.00578691810369492
583,-0.00584795558825135,0.00293604494072497,0.00108492758590728,0.5,-0.00820927321910858,0.0035256096161902
584,-0.0033827181905508,0.00269249710254371,0.00545430090278387,0.5,-0.00454449560493231,0.001669469056651
585,-0.00177028821781278,0.00218089763075113,0.00871124025434256,0.5,-0.00218382617458701,0.00213946611620486
586,-0.000603914493694901,0.00198364560492337,0.0106781851500273,0.5,-0.000583661370910704,0.00498712249100208
587,7.04955600667745E-05,0.00232869107276201,0.0106379529461265,0.5,6.99613301549107E-05,0.00815733429044485
588,-0.000128247120301239,0.00284305261448026,0.00815487466752529,0.5,-0.000863538065459579,0.00947980489581823
589,-0.000518490734975785,0.00385853415355086,0.00475580617785454,0.5,-0.00268170353956521,0.00993216689676046
590,-0.000362316204700619,0.00637096911668777,0.00254659983329475,0.5,-0.00422526057809591,0.0119934985414147
591,-0.000229907614993863,0.0102128554135561,0.00194338103756309,0.5,-0.00549269746989012,0.016040712594986
592,-0.000844133377540857,0.0137658650055528,0.00185788341332227,0.5,-0.00701761804521084,0.0199917536228895
593,-0.0018260523211211,0.0159852355718613,0.00131787930149585,0.5,-0.0087697422131896,0.0209739208221436
594,-0.00233849999494851,0.0173458699136972,0.000294174475129694,0.5,-0.0102900555357337,0.0181175991892815
595,-0.00206639198586345,0.0186837315559387,-0.000693848181981593,0.5,-0.011045147664845,0.0138788716867566
596,-0.00147205567918718,0.0199171509593725,-0.00152524269651622,0.5,-0.0110015813261271,0.0113866785541177
597,-0.00176837260369211,0.0198975540697575,-0.00262659229338169,0.5,-0.0111476127058268,0.0108178285881877
598,-0.00370557932183146,0.0180288646370173,-0.00415993435308337,0.5,-0.0123537955805659,0.00981507543474436
599,-0.00630319491028786,0.0156867690384388,-0.00612212019041181,0.5,-0.0143977412953973,0.00745817413553596
600,-0.00802251044660807,0.0149117130786181,-0.00843190774321556,0.5,-0.0168306101113558,0.00501247402280569
601,-0.00846591033041477,0.0158065482974052,-0.0105077512562275,0.5,-0.0192474108189344,0.00367079745046794
602,-0.00847322680056095,0.0167076885700226,-0.0121960127726197,0.5,-0.0214291047304869,0.00401521660387516
603,-0.00900450348854065,0.0165789537131786,-0.0138812903314829,0.5,-0.0234330929815769,0.00542081613093615
604,-0.00993111729621887,0.0158412884920835,-0.0151059292256832,0.5,-0.0248802043497562,0.00673001306131482
605,-0.00999913457781076,0.0158654358237982,-0.0145134069025517,0.5,-0.0247957333922386,0.00881041586399078
606,-0.00804134365171194,0.0175296366214752,-0.0112722953781486,0.5,-0.0221435278654099,0.0131951998919249
607,-0.00406152568757534,0.0201145876199007,-0.0060246204957366,0.5,-0.0172784477472305,0.0190365444868803
608,0.000114059323095717,0.0214121751487255,-0.00111289683263749,0.5,-0.0128609361127019,0.0232188552618027
609,0.0024352865293622,0.0198837742209435,0.0013243246357888,0.5,-0.0111653171479702,0.023269509896636
610,0.00314902956597507,0.0168518368154764,0.00169190124142915,0.5,-0.0115491561591625,0.0197554919868708
611,0.00319819361902773,0.0140146678313613,0.00135146477259696,0.5,-0.0124586904421449,0.0146209793165326
612,0.00252967397682369,0.0114647885784507,0.000685930484905839,0.5,-0.0132871065288782,0.00926077272742987
613,0.00101679598446935,0.00889506470412016,-0.000627797970082611,0.5,-0.0141936298459768,0.00473882397636771
614,-0.000651216367259622,0.00681014871224761,-0.00248247850686312,0.5,-0.0148698817938566,0.00213284371420741
615,-0.000897430581972003,0.00632344838231802,-0.00390525022521615,0.5,-0.0141791794449091,0.00183370127342641
616,0.000732513261027634,0.00711470609530807,-0.00459422776475549,0.5,-0.0122953075915575,0.00267739570699632
617,0.00246550142765045,0.00733995530754328,-0.00518277194350958,0.5,-0.0107536977156997,0.00316637963987887
618,0.00276824925094843,0.00617551244795322,-0.00571991922333837,0.5,-0.00996869336813688,0.00329954852350056
619,0.00231848354451358,0.00487177213653922,-0.00527699245139956,0.5,-0.00851418916136026,0.0046734563075006
620,0.00258538802154362,0.00455987965688109,-0.00317938253283501,0.5,-0.0053337961435318,0.00780167523771524
621,0.00326144648715854,0.0041086794808507,-0.00103954935912043,0.5,-0.00207881955429912,0.00989546254277229
622,0.00298795034177601,0.00232506054453552,-0.00125177763402462,0.5,-0.000919055892154574,0.00831062719225883
623,0.00142508954741061,-3.14883764076512E-05,-0.00368205411359668,0.5,-0.00181565678212792,0.00417270557954907
624,-0.000419094547396526,-0.00156956142745912,-0.00614026328548789,0.5,-0.00349299376830459,0.000795112282503396
625,-0.00167678692378104,-0.00186485960148275,-0.00703588267788291,0.5,-0.0052906833589077,-0.000103519654658157
626,-0.00245887390337884,-0.00131263781804591,-0.00624001445248723,0.5,-0.00714640831574798,0.00116442306898534
627,-0.00213475758209825,0.00010274832311552,-0.00384133728221059,0.5,-0.00794373825192451,0.00406742421910167
628,0.000484676653286442,0.00275761703960598,0.000293187651550397,0.5,-0.00603614374995232,0.00794858671724796
629,0.00471882708370686,0.00601231399923563,0.00505189737305045,0.5,-0.00222862954251468,0.0115158315747976
630,0.00811940804123878,0.00788819883018732,0.00802342593669891,0.5,0.000463191157905385,0.012926540337503
631,0.00969432666897774,0.00783154834061861,0.00870157033205032,0.5,0.00129190389998257,0.0121380379423499
632,0.0108605371788144,0.00775012373924255,0.00909826718270779,0.336988657712936,0.00217435183003545,0.0120133282616735
633,0.0118878604844213,0.00825625844299793,0.00963869411498308,-0.097951702773571,0.00315325963310897,0.0140132438391447
634,0.010886144824326,0.007701326161623,0.00849859323352575,-0.5,0.00225483486428857,0.0156106278300285
635,0.00830620992928743,0.00622528698295355,0.00626827264204621,-0.5,0.000343849853379652,0.0151112470775843
636,0.00646435236558318,0.00575342075899243,0.00558598060160875,-0.5,7.82868482929189E-06,0.0142239667475224
637,0.00498405424878001,0.00630014156922698,0.00647636270150542,-0.5,0.000572754186578095,0.013995410874486
638,0.00213546445593238,0.00619132444262505,0.00670926878228784,-0.5,-0.000562114058993757,0.0127652622759342
639,-0.00187055778224021,0.00483227800577879,0.00549970706924796,-0.5,-0.00406397366896272,0.00932307634502649
640,-0.00499730044975877,0.00343133648857474,0.00417094537988305,-0.320165157318115,-0.00803590100258589,0.00584458746016026
641,-0.00515879644080997,0.00384495384059846,0.00394725147634745,0.0485295206308365,-0.00997891929000616,0.00624874094501138
642,-0.00207416363991797,0.00657486310228705,0.00493379170075059,0.303334355354309,-0.00906296167522669,0.0110353175550699
643,0.00219235313124955,0.00975108705461025,0.00635223928838968,0.425928473472595,-0.00677528558298945,0.0164085496217012
644,0.00551532208919525,0.0114582683891058,0.00725551415234804,0.439896762371063,-0.00527461245656013,0.0200926531106234
645,0.00736872851848602,0.0117791825905442,0.00720604276284575,0.376505315303802,-0.00561410607770085,0.0226956624537706
646,0.00725753232836723,0.0110197560861707,0.00531281810253859,0.277528464794159,-0.00856883823871613,0.023167448118329
647,0.00517281889915466,0.00921133998781443,0.00102264026645571,0.184684216976166,-0.0136644775047898,0.0196340624243021
648,0.00286320992745459,0.00752100255340338,-0.00406055338680744,0.111714318394661,-0.0180330965667963,0.0134540479630232
649,0.00133536977227777,0.00662250118330121,-0.00795754790306091,0.0554194375872612,-0.0199406277388334,0.0077981143258512
650,0.000686720770318061,0.00619163224473596,-0.00934509187936783,0.026726583018899,-0.0192746501415968,0.00502915680408478
651,0.0010613885242492,0.00584433786571026,-0.00789119210094213,0.0279379542917013,-0.0164847783744335,0.0052387835457921
652,0.00159682903904468,0.00491668097674847,-0.00508889509364963,0.0269042681902647,-0.0135715967044234,0.00521688628941774
653,0.00149728613905609,0.00363861117511988,-0.00257432507351041,0.0172314289957285,-0.0123849734663963,0.00225431681610644
654,0.00106577074620873,0.0033246201928705,-0.00084998836973682,0.0277928784489632,-0.0129915932193398,-0.00195384048856795
655,0.00054032530169934,0.00433079991489649,-0.000121032724564429,0.0265955794602633,-0.0144870206713676,-0.00434144493192434
656,0.000711770728230476,0.00658085057511926,0.000403156533138826,-0.0797761604189873,-0.0152040673419833,-0.00292970985174179
657,0.00331192882731557,0.0105216968804598,0.00278817536309361,-0.35699188709259,-0.0135640781372786,0.00298995920456946
658,0.00783028732985258,0.0151353310793638,0.00678095081821084,-0.5,-0.0106888739392161,0.0110810091719031
659,0.0112344045192003,0.0180339422076941,0.00906487368047237,-0.5,-0.00958514865487814,0.0172697361558676
660,0.0118837021291256,0.0181041043251753,0.00773778138682246,-0.5,-0.0110878692939878,0.0192979853600264
661,0.0108515853062272,0.016368268057704,0.00453414814546704,-0.5,-0.0129922507330775,0.0181398447602987
662,0.0100500546395779,0.0151431793347001,0.00245776702649891,-0.5,-0.0130375297740102,0.017188373953104
663,0.0096534313634038,0.0154598681256175,0.00217136368155479,-0.5,-0.0119717326015234,0.018579063937068
664,0.00881238747388124,0.0161222945898771,0.00268362206406891,-0.5,-0.011285656131804,0.0203897841274738
665,0.00849720742553473,0.0165664535015821,0.00420693820342422,-0.5,-0.00986935943365097,0.0199711099267006
666,0.00893726292997599,0.0162713117897511,0.00611259043216705,-0.5,-0.00718267681077123,0.0164997577667236
667,0.00880196504294872,0.014633378945291,0.00697869388386607,-0.5,-0.00429345527663827,0.0112587539479136
668,0.00808694772422314,0.0132483458146453,0.00696155289188027,-0.5,-0.00210983096621931,0.00828825961798429
669,0.00716779567301273,0.0136219533160329,0.00635194452479482,-0.5,-0.00160397670697421,0.0109168216586113
670,0.00615368317812681,0.0151426494121552,0.0052421223372221,-0.5,-0.00261047016829252,0.0176079049706459
671,0.00522906193509698,0.0162937548011541,0.00417113117873669,-0.5,-0.00404693186283112,0.0236097630113363
672,0.00441866088658571,0.0164486784487963,0.00361250666901469,-0.5,-0.00552608398720622,0.026292622089386
673,0.00441092578694224,0.0168429408222437,0.00411496637389064,-0.5,-0.00648825662210584,0.0271131079643965
674,0.00561017263680696,0.0183778442442417,0.00590480025857687,-0.5,-0.0066029760055244,0.0281051360070705
675,0.00744393933564425,0.020333856344223,0.00866157282143831,-0.5,-0.00638816226273775,0.029657918959856
676,0.00931854173541069,0.0218352861702442,0.0115858502686024,-0.5,-0.00579450931400061,0.0308668576180935
677,0.0104234339669347,0.0218605063855648,0.0133241675794125,-0.5,-0.00459115067496896,0.0296427924185991
678,0.0104681719094515,0.0201778803020716,0.0136235598474741,-0.5,-0.00304780364967883,0.0252565946429968
679,0.00969964731484652,0.0179606061428785,0.013150061480701,-0.5,-0.00183321617078036,0.0194238647818565
680,0.00797412917017937,0.0155952079221606,0.011868666857481,-0.5,-0.000936805561650544,0.0136653985828161
681,0.00545669952407479,0.0126096736639738,0.00952199101448059,-0.5,0.000299549836199731,0.00849742908030748
682,0.0031237683724612,0.00959048606455326,0.00633529527112842,-0.5,0.00108988105785102,0.00445156311616302
683,0.00175725982990116,0.00744348810985684,0.0028098807670176,-0.5,-0.000431453518103808,0.00231604813598096
684,0.000952565169427544,0.00601247372105718,-0.000539218774065375,-0.5,-0.00496346736326814,0.00239844876341522
685,-0.000172437736182474,0.00479866750538349,-0.0031302256975323,-0.5,-0.0109287677332759,0.0037772967480123
686,-0.00230707973241806,0.00344538851641119,-0.00481408229097724,-0.5,-0.0162355322390795,0.00487118167802691
687,-0.00501811737194657,0.00237261294387281,-0.00541185401380062,-0.5,-0.0194565206766129,0.00493993610143662
688,-0.00616588117554784,0.00265132007189095,-0.00397149752825499,-0.5,-0.019103555008769,0.00423440895974636
689,-0.00586874457076192,0.00307369348593056,-0.00139033154118806,-0.5,-0.0164157841354609,0.00253045302815735
690,-0.00650345021858811,0.00184083904605359,1.46861284520128E-05,-0.5,-0.0146715333685279,0.000760999566409737
691,-0.00752838654443622,0.000565886672120541,0.000545757182408124,-0.5,-0.0138404732570052,0.00223234994336963
692,-0.00731390016153455,0.000759964343160391,0.00148031546268612,-0.5,-0.0125252809375525,0.0070946803316474
693,-0.00637073908001184,0.000790914811659604,0.00207020388916135,-0.5,-0.0115934424102306,0.010094627737999
694,-0.0050770859234035,-0.000594909128267318,0.0015696071786806,-0.5,-0.0113361869007349,0.00749334413558245
695,-0.00229686684906483,-0.00218477984890342,0.000992497312836349,-0.5,-0.0102038234472275,0.00139009940903634
696,0.00155950034968555,-0.00299414293840528,0.00102460430935025,-0.5,-0.00866358540952206,-0.00344134774059057
697,0.00394319044426084,-0.0029884718824178,0.00110829982440919,-0.5,-0.00876161735504866,-0.00380992703139782
698,0.00443733623251319,-0.0011771977879107,0.00106951361522079,-0.5,-0.0101724518463016,-9.12915857043117E-05
699,0.00467201136052608,0.00280436384491622,0.00164159724954516,-0.5,-0.0109543912112713,0.0047137183137238
700,0.00422062911093235,0.00618852395564318,0.00265108072198927,-0.5,-0.0106375887989998,0.00707843760028481
701,0.00113461900036782,0.00540873827412724,0.00211981008760631,-0.5,-0.0107222190126777,0.00501742726191878
702,-0.00407534139230847,0.000768950267229229,-0.000450423918664455,-0.5,-0.0120147820562124,0.00039258596370928
703,-0.00910008978098631,-0.0044691301882267,-0.0033977935090661,-0.238530233502388,-0.014082157984376,-0.00283110095188022
704,-0.0126670645549893,-0.00816812925040722,-0.00576442433521152,0.2258440554142,-0.0165873449295759,-0.00303260050714016
705,-0.0150733329355717,-0.0105736143887043,-0.0078148040920496,0.5,-0.0192668251693249,-0.00257588690146804
706,-0.0166842173784971,-0.0121347336098552,-0.00934829749166965,0.5,-0.0212891008704901,-0.00347356148995459
707,-0.0157882366329432,-0.0110924001783133,-0.00817856192588806,0.5,-0.0206293892115355,-0.00285711325705051
708,-0.0122454315423965,-0.00757305603474379,-0.00375753757543862,0.5,-0.0169352982193232,0.000221356895053759
709,-0.00854368694126606,-0.0045779887586832,0.00160936126485467,0.5,-0.0119414534419775,0.00180404086131603
710,-0.00500107416883111,-0.00222092703916132,0.00688468432053924,0.5,-0.00622454052790999,0.00143300800118595
711,-0.000946794520132244,0.00106546189635992,0.0114086521789432,0.5,-0.000490530044771731,0.00182192889042199
712,0.00280805723741651,0.00470220670104027,0.0133933471515775,0.5,0.00334496656432748,0.00378430937416852
713,0.00592763908207417,0.00813949573785067,0.0127448840066791,0.231395438313484,0.00512503646314144,0.00775284739211202
714,0.00807621330022812,0.0111439935863018,0.0111123537644744,-0.376994460821152,0.00572030665352941,0.0125691629946232
715,0.00763754034414887,0.0121508371084929,0.00907082855701447,-0.5,0.00449074013158679,0.0151612274348736
716,0.00490769231691957,0.0109923360869288,0.00682830763980746,-0.5,0.00201373570598662,0.0158967133611441
717,0.0022081732749939,0.00922233425080776,0.00483392644673586,-0.5,2.83893641608302E-05,0.0166114792227745
718,0.000343304796842858,0.00729960249736905,0.00273314001969993,-0.5,-0.00140092964284122,0.0158028211444616
719,-0.001709014759399,0.00420720782130957,5.41111439815722E-05,-0.5,-0.00289903464727104,0.0105892177671194
720,-0.00301730050705373,0.000855619029607624,-0.00150315894279629,-0.5,-0.00312757003121078,0.00211252365261316
721,-0.00192819361109287,-0.000446478603407741,-0.000145768106449395,-0.5,-0.00119639257900417,-0.00500020571053028
722,-0.000199756163056009,-0.000306005560560152,0.00224328343756497,-0.5,0.000590484938584268,-0.00833167694509029
723,0.00115213729441166,0.00051405921112746,0.00399416871368885,-0.5,0.00177974987309426,-0.00728645687922835
724,0.0032593603245914,0.00256164558231831,0.00575777189806104,-0.5,0.00416232412680984,-0.00292861741036177
725,0.00548555934801698,0.00472251558676362,0.00747977104038,-0.5,0.00718070007860661,0.000656484859064221
726,0.00530876312404871,0.00479535898193717,0.00794785190373659,-0.5,0.00822692736983299,0.00034162012161687
727,0.00258991657756269,0.00293005630373955,0.00752987572923303,-0.5,0.00703315250575542,-0.00260440842248499
728,-0.000441413256339729,0.000759765738621354,0.0076524238102138,-0.5,0.0055165714584291,-0.00588763877749443
729,-0.00359960179775953,-0.00155960256233811,0.00759240565821528,-0.5,0.0032990116160363,-0.00883186049759388
730,-0.0070283180102706,-0.00414105318486691,0.00660125771537423,-0.5,-0.000238176304264925,-0.0104981064796448
731,-0.00950751453638077,-0.00641857832670212,0.00560445943847299,-0.5,-0.00329910567961633,-0.0104321790859103
732,-0.0102953407913446,-0.00750737497583032,0.00514916609972715,-0.5,-0.00425067776814103,-0.00929184071719646
733,-0.0100244134664536,-0.00757807772606611,0.00460473634302616,-0.5,-0.00366881582885981,-0.00834934040904045
734,-0.00975333992391825,-0.00786561891436577,0.00343170901760459,-0.5,-0.00275367451831698,-0.00895453058183193
735,-0.00977255031466484,-0.00850747060030699,0.00212976313196123,-0.5,-0.00187540182378143,-0.0101912217214704
736,-0.010268279351294,-0.00897232256829739,0.0013257215032354,-0.5,-0.00142311002127826,-0.00985760986804962
737,-0.0111722005531192,-0.00932273920625448,0.00164575688540936,-0.5,-0.00102317298296839,-0.00833008624613285
738,-0.011189759708941,-0.00989304762333632,0.0037355599924922,-0.5,0.00102907500695437,-0.00797183811664581
739,-0.00939024984836578,-0.0109195997938514,0.00660223606973886,-0.101592898368835,0.00505240820348263,-0.00937434379011393
740,-0.00718900840729475,-0.0125524206086993,0.00768109271302819,0.294425368309021,0.00849184393882751,-0.0111523345112801
741,-0.00615064240992069,-0.0144148133695126,0.00603044871240854,0.5,0.00933412183076143,-0.0124160507693887
742,-0.00602657254785299,-0.015413218177855,0.00328423525206745,0.5,0.00846965424716473,-0.0135368788614869
743,-0.00577570544555783,-0.014313654974103,0.00134281150531024,0.5,0.00785241462290287,-0.0138548836112022
744,-0.00421551847830415,-0.0104554845020175,0.00154128030408174,0.5,0.00916584767401218,-0.0105251390486956
745,-0.00226834416389465,-0.00601654313504696,0.00330677744932473,0.5,0.0115542877465487,-0.00393462786450982
746,-0.00239145616069436,-0.00434211641550064,0.00420921435579658,0.5,0.0120081128552556,0.0014805484097451
747,-0.00410345755517483,-0.00491840019822121,0.00358271203003824,0.5,0.0102034918963909,0.00366899208165705
748,-0.00521362386643887,-0.00576902367174625,0.00285296491347253,0.5,0.00844832975417376,0.00248213764280081
749,-0.00533679686486721,-0.00697976909577847,0.00312375230714679,0.5,0.00823067780584097,-0.00264903600327671
750,-0.00613322574645281,-0.00915089156478643,0.00360720395110548,0.5,0.00844670180231333,-0.0108580840751529
751,-0.00839418545365334,-0.011036423034966,0.00300261424854398,0.5,0.00745998695492744,-0.017428956925869
752,-0.00960103329271078,-0.0098293162882328,0.00232814531773329,0.5,0.00695155700668693,-0.0162157192826271
753,-0.00731420191004872,-0.00477469712495804,0.00342302303761244,0.5,0.00989390164613724,-0.00699008582159877
754,-0.00263391295447946,0.00145874451845884,0.0063265641219914,0.5,0.0164429657161236,0.0042248759418726
755,0.00138665293343365,0.00568927032873034,0.0095966262742877,0.5,0.0243536774069071,0.0122809167951345
756,0.0032660358119756,0.00740635069087148,0.0119568957015872,0.5,0.0307650957256556,0.0166480261832476
757,0.00430820975452662,0.00836895126849413,0.0135499257594347,0.5,0.0336722247302532,0.0190239883959293
758,0.00588084058836102,0.00953513570129871,0.014732769690454,0.5,0.032957024872303,0.0199937466531992
759,0.00738796545192599,0.0100684007629752,0.0147182773798704,0.5,0.0296112913638353,0.018484104424715
760,0.00867443066090345,0.00997264310717583,0.0136554799973965,0.0918031111359596,0.0254292618483305,0.014888945966959
761,0.00977429375052452,0.00967314187437296,0.0124928671866655,-0.403396487236023,0.0217161923646927,0.0108714094385505
762,0.00904936157166958,0.00796081963926554,0.0108227683231235,-0.5,0.0177846550941467,0.00592763908207417
763,0.00577790103852749,0.00441439310088754,0.00824132189154625,-0.5,0.0129988444969058,-0.000539946835488081
764,0.0014118516119197,0.000653870869427919,0.00561749888584018,-0.5,0.00835281144827604,-0.00654405215755105
765,-0.00196010340005159,-0.00175570975989103,0.00424167374148965,-0.5,0.00545383617281914,-0.00908347964286804
766,-0.00378169980831444,-0.00296320440247655,0.00423919735476375,-0.5,0.00495366612449288,-0.00731177115812898
767,-0.0045736781321466,-0.0030763812828809,0.00497136823832989,-0.409224271774292,0.00673536770045757,-0.00272780866362154
768,-0.00477475207298994,-0.0018270795699209,0.00542444130405784,-0.205791845917702,0.0091690681874752,0.00255974917672575
769,-0.00547078065574169,-0.000535914790816605,0.00423412071540952,0.0471275821328163,0.00924459937959909,0.00607718387618661
770,-0.00576963508501649,0.00038880793727003,0.00275931530632079,0.344888657331467,0.00795354135334492,0.00713485479354858
771,-0.00420471979305148,0.00115108920726925,0.00324700330384076,0.5,0.00863440427929163,0.00717896036803722
772,-0.00288133579306304,0.000519146560691297,0.0047719688154757,0.5,0.0105191338807344,0.00759786041453481
773,-0.00294068362563849,-0.000443043449195102,0.00618685549125075,0.5,0.0118377599865198,0.00992994662374258
774,-0.00301647046580911,0.000229112032684498,0.00714631099253893,0.5,0.0123613988980651,0.0139018194749951
775,-0.00338328443467617,0.000999701907858253,0.00632394012063742,0.5,0.0113680874928832,0.0160741750150919
776,-0.00392338074743748,0.000386219006031752,0.00413439562544227,0.428333640098572,0.00980375334620476,0.014619080349803
777,-0.00346144824288785,-0.000874775345437229,0.00276823481544852,0.0722817704081535,0.00966052897274494,0.0114733334630728
778,-0.00286823138594627,-0.00237006926909089,0.00287203956395388,-0.332633256912231,0.010332596488297,0.00924044009298086
779,-0.00293461070396006,-0.00366272567771375,0.0042559620924294,-0.5,0.0107587510719895,0.00976479612290859
780,-0.00348079786635935,-0.00448062503710389,0.0062179365195334,-0.5,0.0105601325631142,0.0127838095650077
781,-0.00508705014362931,-0.0053280801512301,0.00702886050567031,-0.5,0.00864993501454592,0.0157650299370289
782,-0.00734586594626307,-0.00589489471167326,0.00603748671710491,-0.5,0.00507378298789263,0.0170882269740105
783,-0.0096200117841363,-0.00637777708470821,0.00348189962096512,-0.5,0.000789059035014361,0.0156506914645433
784,-0.0119236288592219,-0.00725148990750313,-0.000122745812404901,-0.5,-0.00324082793667912,0.0112664503976703
785,-0.0130575420334935,-0.00704162940382957,-0.00319307087920606,-0.5,-0.00551279960200191,0.00701827183365822
786,-0.0124102355912328,-0.00522192288190126,-0.00467170029878616,-0.5,-0.00584650365635753,0.00507779652252793
787,-0.011488938704133,-0.00369405490346253,-0.00518734380602837,-0.5,-0.00601211236789823,0.00450583314523101
788,-0.0118425842374563,-0.00388656603172421,-0.00604345789179206,-0.439003169536591,-0.00778806861490011,0.00491445465013385
789,-0.0131087135523558,-0.00520035298541188,-0.00755164166912436,-0.297310590744019,-0.0107111493125558,0.00708498060703278
790,-0.013518045656383,-0.00601148651912808,-0.00870818085968494,-0.093506895005703,-0.0121595729142427,0.0104853976517916
791,-0.0124156391248107,-0.00619211047887802,-0.00909609906375408,0.173653393983841,-0.010695374570787,0.0123308710753918
792,-0.0104945236817002,-0.00694084540009499,-0.00928442925214767,0.468430697917938,-0.00751252518966794,0.0109778679907322
793,-0.00813235621899366,-0.00763384532183409,-0.00904443021863699,0.5,-0.004119663964957,0.00910353474318981
794,-0.00611592642962933,-0.00681018782779574,-0.00761041045188904,0.5,-0.000893607269972563,0.00940785836428404
795,-0.00519797950983047,-0.00468079093843699,-0.004790551494807,0.5,0.00251152063719928,0.0115199573338032
796,-0.00513317435979843,-0.00216885772533715,-0.000961320649366826,0.336406111717224,0.00589634943753481,0.0141989821568131
797,-0.00560903828591108,0.000140126532642171,0.00294004147872329,-0.100750930607319,0.00821739248931408,0.016183765605092
798,-0.00600936869159341,0.00209936965256929,0.00627154437825084,-0.5,0.0093005420640111,0.0170343406498432
799,-0.00557372206822038,0.00419582612812519,0.00955718848854303,-0.5,0.010045406408608,0.0177759155631065
800,-0.00455959513783455,0.00685229944065213,0.0129532273858786,-0.5,0.0106486324220896,0.0191854722797871
801,-0.00372549635358155,0.00965307187289,0.0152954235672951,-0.5,0.0103631103411317,0.020782396197319
802,-0.00340558704920113,0.0119656464084983,0.0158658679574728,-0.5,0.00881311949342489,0.0222234539687634
803,-0.00338208628818393,0.0135624911636114,0.015243873000145,-0.5,0.0064387614838779,0.0232301522046328
804,-0.00373767805285752,0.0139342378824949,0.0136250453069806,-0.5,0.00343085615895689,0.0222460962831974
805,-0.00550191523507237,0.0125086288899183,0.00984903890639544,-0.5,-0.000906226574443281,0.0186564847826958
806,-0.00866430904716253,0.0102026304230094,0.0040255724452436,-0.5,-0.00617226865142584,0.0152853820472956
807,-0.0120532857254148,0.0078671220690012,-0.00153119605965912,-0.5,-0.010505965910852,0.01464509870857
808,-0.0144773218780756,0.00551973376423121,-0.00449264794588089,-0.5,-0.0122903920710087,0.0165376253426075
809,-0.0151254590600729,0.00368696707300842,-0.00449167238548398,-0.5,-0.0115250293165445,0.0194320231676102
810,-0.0142674455419183,0.00283542252145708,-0.00319232186302543,-0.5,-0.00982012320309877,0.0212859734892845
811,-0.0123058827593923,0.0030138879083097,-0.00193796318490058,-0.5,-0.00805902108550072,0.0209121145308018
812,-0.00972357299178839,0.004117744974792,-0.000983453821390867,-0.5,-0.00595806119963527,0.0185989234596491
813,-0.00735782226547599,0.00578488735482097,-0.000369850313290954,-0.5,-0.00349994422867894,0.0158897936344147
814,-0.00534508377313614,0.00698673352599144,7.79879919718951E-05,-0.5,-0.00100486411247402,0.0144460052251816
815,-0.00298278382979333,0.00715143280103803,0.00125924695748836,-0.5,0.00192972738295794,0.0158411283046007
816,0.000119760181405582,0.00684468541294336,0.00358040118589997,-0.5,0.0059261335991323,0.0203310996294022
817,0.00333529734052718,0.00647261366248131,0.0058023389428854,-0.5,0.0103399278596044,0.0254217833280563
818,0.00634056003764272,0.00650662463158369,0.00730719976127148,-0.5,0.0144381383433938,0.0288441553711891
819,0.00904492102563381,0.00710481591522694,0.00849443301558495,-0.5,0.0178671889007092,0.0297954585403204
820,0.0102221090346575,0.00717053795233369,0.00864868145436049,-0.5,0.0192874055355787,0.0279013346880674
821,0.00864354614168406,0.00569660728797317,0.0066661792807281,-0.5,0.0175505690276623,0.0238988250494003
822,0.00533125177025795,0.00331909372471273,0.00321643520146608,-0.5,0.0138523066416383,0.0197596605867147
823,0.00281277229078114,0.00169076269958168,0.000326347770169377,-0.5,0.0106778042390943,0.0168247390538454
824,0.00193408818449825,0.00160973006859422,-0.00117456645239145,-0.5,0.0091045992448926,0.0150074101984501
825,0.00167481426615268,0.00251900777220726,-0.00208273832686245,-0.5,0.00856827944517136,0.0143981939181685
826,0.0012756185606122,0.00364904920570552,-0.00285890861414373,-0.5,0.00847994070500135,0.0156620778143406
827,0.00122118403669447,0.00495764706283808,-0.00317541044205427,-0.5,0.00891647674143314,0.0190530605614185
828,0.00195835181511939,0.0063114701770246,-0.00327108683995903,-0.5,0.00941482931375504,0.0234024003148079
829,0.00282567855902016,0.00717912567779422,-0.00380803970620036,-0.5,0.00893405918031931,0.0269225370138884
830,0.00322352419607341,0.00731795839965343,-0.00488858064636588,-0.5,0.00724276201799512,0.0287658367305994
831,0.00318590551614761,0.00675051053985953,-0.00622531259432435,-0.5,0.00500042922794819,0.0288993511348963
832,0.00307338358834386,0.00576589908450842,-0.00752106914296746,-0.5,0.00326929404400289,0.0270884465426207
833,0.00368378148414195,0.00497408444061875,-0.00833489932119846,-0.5,0.00321765197440982,0.0226361490786076
834,0.00532834930345416,0.00440412620082498,-0.00828759744763374,-0.5,0.00532535370439291,0.0159236621111631
835,0.00716982269659638,0.00370505009777844,-0.00732003431767225,-0.5,0.00859504099935293,0.00951135717332363
836,0.00851863157004118,0.00337647367268801,-0.00534982234239578,-0.5,0.0115722306072712,0.00678075617179275
837,0.00894321221858263,0.00331182009540498,-0.00330509105697274,-0.5,0.0130742397159338,0.00834403559565544
838,0.00814302731305361,0.00207868195138872,-0.00273771467618644,-0.5,0.0127401184290648,0.0103676160797477
839,0.00714773731306195,-0.000299625447951257,-0.00308492337353528,-0.5,0.011896651238203,0.00963422376662493
840,0.00686297426000237,-0.00245116162113845,-0.00310632050968707,-0.5,0.0111200492829084,0.00740633206441998
841,0.0062992824241519,-0.00442488864064217,-0.00319349230267107,-0.5,0.00898380111902952,0.00557200005277991
842,0.00445024529471993,-0.00692877126857638,-0.00412001274526119,-0.5,0.00492789037525654,0.00397127633914351
843,0.0022286637686193,-0.00888401456177235,-0.00567387230694294,-0.5,0.000708349631167948,0.00306007149629295
844,0.00037231229362078,-0.00911442562937737,-0.00728552276268601,-0.5,-0.00203279824927449,0.00365404062904418
845,-0.00162361236289144,-0.00835937354713678,-0.00873100478202105,-0.5,-0.00264653889462352,0.00495208986103535
846,-0.00228763092309237,-0.00624988600611687,-0.0086319325491786,-0.5,8.98306170711294E-05,0.00712972600013018
847,-0.000380689598387107,-0.00249895243905485,-0.00642556557431817,-0.5,0.00448588328436017,0.00983791332691908
848,0.00166264805011451,0.000268042815150693,-0.0047567430883646,-0.424150317907333,0.00549531867727637,0.0100751696154475
849,0.00129591673612595,0.000154545210534707,-0.00586742488667369,-0.216767489910126,0.00130606768652797,0.00611012103036046
850,-0.00149354082532227,-0.00205291877500713,-0.00906180962920189,-0.0159206856042147,-0.00534552428871393,-0.000314829958369955
851,-0.00519231660291553,-0.00453133694827557,-0.0125003177672625,0.242477148771286,-0.0111450375989079,-0.00537547748535872
852,-0.00803329702466726,-0.0056063742376864,-0.0151314539834857,0.5,-0.014922053553164,-0.00671870680525899
853,-0.00873599760234356,-0.00472866138443351,-0.016365909948945,0.5,-0.0167396571487188,-0.00580369168892503
854,-0.00771817471832037,-0.00342200137674809,-0.0161939542740583,0.5,-0.0170374065637589,-0.00590403098613024
855,-0.00658568274229765,-0.00345831224694848,-0.0156722906976938,0.5,-0.0170817449688911,-0.00734629482030869
856,-0.00582825765013695,-0.00446900120005012,-0.0153100220486522,0.5,-0.0169547852128744,-0.00747909909114242
857,-0.00544210243970156,-0.00550304725766182,-0.0146911470219493,0.5,-0.0155633920803666,-0.00563011132180691
858,-0.00554264150559902,-0.00618614535778761,-0.0133109744638205,0.5,-0.0128062590956688,-0.00318494904786348
859,-0.00524688186123967,-0.0057064751163125,-0.0108385644853115,0.5,-0.00942153763025999,-0.000418050069129094
860,-0.00425679422914982,-0.00414728885516524,-0.00841380003839731,0.5,-0.00701074721291661,0.00250792363658547
861,-0.0032240676227957,-0.00279091857373714,-0.0073317177593708,0.5,-0.00647317059338093,0.00433350959792733
862,-0.00204022577963769,-0.0022375553380698,-0.00698463665321469,0.5,-0.0065261791460216,0.00456708716228604
863,-0.000721010554116219,-0.00238579488359392,-0.00678181322291493,0.5,-0.00614653714001179,0.0042555583640933
864,2.59763473877683E-05,-0.00258863694034517,-0.00673065707087517,0.5,-0.00553746614605188,0.00476328283548355
865,-0.000196074979612604,-0.00240015564486384,-0.00646703084930778,0.5,-0.00485709123313427,0.00561053585261106
866,-0.00108647963497788,-0.00243410374969244,-0.00583714293316007,0.5,-0.00403709476813674,0.00490740593522787
867,-0.0018853967776522,-0.00306672533042729,-0.00503526534885168,0.5,-0.00310941506177187,0.00225721625611186
868,-0.00174902926664799,-0.00351588916964829,-0.00400846963748336,0.5,-0.0019056792370975,-0.000345463253324851
869,-7.05355196259916E-05,-0.00254736235365272,-0.00241912039928138,0.5,0.000276779348496348,0.000750405190046877
870,0.00277774734422565,0.000183591764653102,-0.000334832584485412,0.5,0.00355211482383311,0.0071484288200736
871,0.00531556736677885,0.00317160785198212,0.00134745554532856,0.5,0.00664652651175857,0.0140823293477297
872,0.0067523387260735,0.00435710046440363,0.00134275248274207,0.5,0.00851841177791357,0.0149329071864486
873,0.0071095465682447,0.00291865994222462,-0.000672964786645025,0.5,0.00903891120105982,0.00931821763515472
874,0.00642171176150441,0.000202973082195967,-0.00277947774156928,0.5,0.0086177010089159,0.00289185927249491
875,0.00519648101180792,-0.00183197052683681,-0.00282864389009774,0.5,0.00808083359152079,6.65807310724631E-05
876,0.00364386872388422,-0.00327573227696121,-0.00118471658788621,0.5,0.00740055181086063,-0.000183485986781307
877,0.00151233153883368,-0.00493225688114762,0.000550792610738426,0.5,0.00576168252155185,-0.000681445992086083
878,-0.000686167448293418,-0.00643726764246821,0.00180376332718879,0.5,0.00371648324653506,-0.00214447267353535
879,-0.00153103400953114,-0.00672851642593741,0.00325538800098002,0.5,0.00345940538682044,-0.00357408775016665
880,-0.000240628942265175,-0.00536729721352458,0.00570901902392507,0.495822578668594,0.00603552488610148,-0.0047250366769731
881,0.00303108803927898,-0.0026021976955235,0.00965146441012621,0.0368176139891148,0.0106804799288511,-0.0055712228640914
882,0.00669574225321412,0.000133766865474172,0.0137898782268167,-0.5,0.0151488520205021,-0.00530482921749353
883,0.00746800005435944,0.000258840154856443,0.0146605223417282,-0.5,0.0157104600220919,-0.00437233643606305
884,0.00462284358218312,-0.00239361566491425,0.0114849898964167,-0.5,0.011474329046905,-0.0034174807369709
885,0.00062692048959434,-0.00567905465140939,0.00728035066276789,-0.5,0.00546855898573995,-0.00231783487834036
886,-0.00270908884704113,-0.00851900223642588,0.00451908074319363,-0.5,0.000465449033072218,-0.002003702102229
887,-0.00485221017152071,-0.0110983327031136,0.00318504613824189,-0.5,-0.00245445920154452,-0.00383750139735639
888,-0.00602817069739103,-0.013479488901794,0.00181019783485681,-0.5,-0.00367131340317428,-0.00775725301355124
889,-0.00651933578774333,-0.0150914415717125,-7.08825173205696E-05,-0.5,-0.00394087936729193,-0.0118536883965135
890,-0.00598486699163914,-0.0155272027477622,-0.00115173333324492,-0.5,-0.00295300246216357,-0.014496847987175
891,-0.00530017353594303,-0.0160591881722212,-0.0011101245181635,-0.5,-0.0011117784306407,-0.0169886853545904
892,-0.00562346819788218,-0.017873203381896,-0.00108154024928808,-0.5,0.000107359192043077,-0.0205830223858356
893,-0.00618001539260149,-0.0197854414582253,-0.00153332797344774,-0.5,0.000306457106489688,-0.0237738881260157
894,-0.00654140347614884,-0.0203023608773947,-0.00230036466382444,-0.5,-0.000566584116313607,-0.0246041286736727
895,-0.00752296252176166,-0.0194220934063196,-0.00330692273564637,-0.5,-0.00290801702067256,-0.0222540814429522
896,-0.0084456279873848,-0.0171861499547958,-0.00397642236202955,-0.5,-0.00524822669103742,-0.0170763786882162
897,-0.00741087878122926,-0.0133265238255262,-0.00348165049217641,-0.5,-0.00458194641396403,-0.0109059307724237
898,-0.00495510827749968,-0.00982928276062012,-0.00280746095813811,-0.5,-0.000620551349129528,-0.00835491716861725
899,-0.0026975276414305,-0.00892288517206907,-0.00349481776356697,-0.5,0.00430827308446169,-0.0124755511060357
900,-0.00111648521851748,-0.0100804539397359,-0.0053609199821949,-0.489941716194153,0.00794110354036093,-0.0200230088084936
901,-0.00132490252144635,-0.012502696365118,-0.00774814607575536,-0.336185127496719,0.00825307425111532,-0.0258697103708982
902,-0.00328735657967627,-0.0149322906509042,-0.00981177948415279,-0.181658059358597,0.00508243683725595,-0.0262431260198355
903,-0.00508713023737073,-0.015497530810535,-0.0108682615682483,-0.0628064200282097,0.000305680179735646,-0.0201874021440744
904,-0.00651475228369236,-0.0147607680410147,-0.0120394062250853,0.00210122182033956,-0.00511455256491899,-0.0117112854495645
905,-0.0074855606071651,-0.0135622667148709,-0.0134959416463971,0.0161707084625959,-0.00975520629435778,-0.00578532041981816
906,-0.00643022311851382,-0.0114936642348766,-0.0129207521677017,-0.0225964803248644,-0.0101021341979504,-0.00422031758353114
907,-0.0037051213439554,-0.00961267296224833,-0.00982904247939587,-0.093838170170784,-0.0051626511849463,-0.00638203322887421
908,-0.00184334325604141,-0.00942200515419245,-0.00671932520344853,-0.127622425556183,0.000792156206443906,-0.0103947343304753
909,-0.00213312404230237,-0.010399017482996,-0.00577942095696926,-0.0282109975814819,0.00304867303930223,-0.0143623938784003
910,-0.00275248032994568,-0.0104555720463395,-0.00648697838187218,0.223696932196617,0.00181777600664645,-0.016902718693018
911,-0.00211371318437159,-0.00883756019175053,-0.00735648814588785,0.5,-0.000496568100061268,-0.0176433473825455
912,-0.00172419100999832,-0.0074358657002449,-0.00883771106600761,0.5,-0.00395740615203977,-0.0178045332431793
913,-0.00242470158264041,-0.00722786458209157,-0.0112999826669693,0.5,-0.00873067229986191,-0.0175491087138653
914,-0.00281752599403262,-0.00680792424827814,-0.013218748383224,0.5,-0.0130290957167745,-0.0154307968914509
915,-0.00228388700634241,-0.00550952646881342,-0.0135524161159992,0.5,-0.0156242856755853,-0.0117266848683357
916,-0.00247917766682804,-0.00509238056838512,-0.0137510634958744,0.5,-0.0176228247582912,-0.00885528884828091
917,-0.00523745827376843,-0.00755639933049679,-0.0154380174353719,0.5,-0.0199924856424332,-0.00812295731157064
918,-0.00885829329490662,-0.0118390582501888,-0.0169197544455528,0.5,-0.0204736087471247,-0.00858768168836832
919,-0.0112772956490517,-0.0163923352956772,-0.0169222466647625,0.5,-0.018111789599061,-0.0111463498324156
920,-0.0129833240061998,-0.0209124628454447,-0.0168476700782776,0.5,-0.0154439061880112,-0.016697546467185
921,-0.0136589976027608,-0.0234863329678774,-0.0170292239636183,0.5,-0.0136770168319345,-0.0212524402886629
922,-0.0135341584682465,-0.0230986606329679,-0.0175715088844299,0.5,-0.0132625652477145,-0.0214094370603561
923,-0.0138545585796237,-0.0207500662654638,-0.0185708850622177,0.5,-0.0145642850548029,-0.0178691782057285
924,-0.0138475904241204,-0.0170392878353596,-0.0185920055955648,0.5,-0.0156278777867556,-0.0123383030295372
925,-0.0124117517843843,-0.012767281383276,-0.0168439745903015,0.5,-0.0142478840425611,-0.00666693551465869
926,-0.00976915564388037,-0.0088516753166914,-0.0139363454654813,0.5,-0.0103759802877903,-0.00236543128266931
927,-0.00700389826670289,-0.00642914930358529,-0.0112027479335666,0.5,-0.00577383767813444,-0.00124449061695486
928,-0.0052526630461216,-0.00674080243334174,-0.00982393976300955,0.5,-0.00204118411056697,-0.00480977678671479
929,-0.0035417175386101,-0.00892581231892109,-0.00922590307891369,0.5,0.0011185952462256,-0.0108781708404422
930,-0.000575864978600293,-0.0106903249397874,-0.00848632398992777,0.5,0.00389101961627603,-0.0150221288204193
931,0.00196993513964117,-0.0108714010566473,-0.0080625768750906,0.5,0.00484617752954364,-0.0149651449173689
932,0.0019818723667413,-0.0099986232817173,-0.00837078224867582,0.5,0.00336014828644693,-0.0119818923994899
933,0.000423277117079124,-0.00871530827134848,-0.0083540678024292,0.5,0.00151161756366491,-0.00774186989292502
934,-0.000323665211908519,-0.00707933818921447,-0.00678848614916205,0.5,0.00195315550081432,-0.0020548349712044
935,0.000190856604604051,-0.005757509265095,-0.00428199442103505,0.5,0.00448350608348846,0.0040679476223886
936,0.00139408302493393,-0.00543745560571551,-0.00238514342345297,0.5,0.00723938411101699,0.00791924819350243
937,0.00326737249270082,-0.00576857570558786,-0.00182162004057318,0.5,0.00938268285244703,0.00831224117428064
938,0.00483467755839229,-0.00630291271954775,-0.0027918629348278,0.5,0.0101653421297669,0.00577606773003936
939,0.00488068629056215,-0.00696557341143489,-0.00469663133844733,0.5,0.00934922602027655,0.0011403247481212
940,0.00426097353920341,-0.00764592923223972,-0.00555789982900023,0.5,0.00838941801339388,-0.00471839588135481
941,0.00360096851363778,-0.00881445407867432,-0.0048599555157125,0.5,0.00750835239887238,-0.0109301330521703
942,0.00302525353617966,-0.0100604817271233,-0.00377350440248847,0.5,0.00641651730984449,-0.0152701074257493
943,0.00366386794485152,-0.010034242644906,-0.00280453730374575,0.5,0.00619767792522907,-0.0161197166889906
944,0.00409253919497132,-0.0104629108682275,-0.00315009639598429,0.5,0.00566299585625529,-0.0166858173906803
945,0.00257431948557496,-0.0131435198709369,-0.00525133218616247,0.5,0.00359318777918816,-0.0199585184454918
946,0.000766285811550915,-0.0162334032356739,-0.00731407664716244,0.5,0.00192528916522861,-0.0237287916243076
947,-0.000173043546965346,-0.0180374719202518,-0.00850804336369038,0.5,0.00175442197360098,-0.0244613718241453
948,-5.7523007853888E-05,-0.0178102757781744,-0.00862733088433743,0.5,0.00292736757546663,-0.0205033216625452
949,0.00137783249374479,-0.0156692527234554,-0.00738343130797148,0.5,0.00510051054880023,-0.013668087311089
950,0.00304488698020577,-0.0135152759030461,-0.00634186761453748,0.5,0.00672079063951969,-0.00848267320543528
951,0.00433967635035515,-0.0121483532711864,-0.00689895218238235,0.5,0.0071419682353735,-0.00753458356484771
952,0.00620655715465546,-0.0107249729335308,-0.00800735969096422,0.5,0.00756594492122531,-0.00979569461196661
953,0.00928810704499483,-0.00874948594719172,-0.00787092931568623,0.5,0.00915840268135071,-0.0123741403222084
954,0.0124919041991234,-0.00663294270634651,-0.00608944892883301,0.5,0.0116296065971255,-0.0129530308768153
955,0.0139869041740894,-0.00529352482408285,-0.00323684653267264,0.5,0.0139384903013706,-0.0113368984311819
956,0.0141419600695372,-0.00444888649508357,0.000613653566688299,0.5,0.0162983983755112,-0.00871152710169554
957,0.0144184129312634,-0.00303494930267334,0.0043047540821135,0.5,0.0187022108584642,-0.00667783012613654
958,0.0143095487728715,-0.00148259534034878,0.00492870947346091,0.5,0.019362585619092,-0.00672265840694308
959,0.0125333946198225,-0.000934858340770006,0.00137804599944502,0.5,0.016871701925993,-0.00924894120544195
960,0.00883080344647169,-0.00178915448486805,-0.00436622276902199,0.5,0.0120193213224411,-0.0133610693737864
961,0.00462982337921858,-0.00324932346120477,-0.00907287001609802,0.5,0.00785498879849911,-0.0170447006821632
962,0.0014963592402637,-0.00442783860489726,-0.0110705718398094,0.5,0.00650948006659746,-0.0183418709784746
963,-0.00131113070528954,-0.00602370128035545,-0.0117587698623538,0.5,0.00647674640640616,-0.0173540581017733
964,-0.00383714959025383,-0.00806637667119503,-0.0123006822541356,0.5,0.00646824296563864,-0.0153728667646647
965,-0.00450249528512359,-0.00936117861419916,-0.0121150193735957,0.5,0.00747436797246337,-0.0139891793951392
966,-0.00278834509663284,-0.00943692494183779,-0.0103023899719119,0.5,0.0103648919612169,-0.014015318825841
967,0.00135643326211721,-0.00794006884098053,-0.00602908339351416,0.5,0.0152180250734091,-0.0139032332226634
968,0.00671610934659839,-0.00533108226954937,-0.000426412851084024,0.5,0.0204769298434258,-0.0124677298590541
969,0.0110505595803261,-0.00283071468584239,0.00386883318424225,0.5,0.023946575820446,-0.010195697657764
970,0.013539862819016,-0.000634501571767032,0.00558493426069617,0.5,0.0249263439327478,-0.00743375532329082
971,0.0138628799468279,0.000827724463306367,0.00503636337816715,0.5,0.0236683040857315,-0.00518594728782773
972,0.0122661963105202,0.000693163776304573,0.00372102903202176,0.5,0.0216246377676725,-0.00482132937759161
973,0.010726329870522,-0.000189092868822627,0.00339921680279076,0.431779503822327,0.0207902882248163,-0.00569972349330783
974,0.0108017157763243,-0.000232707447139546,0.00428382772952318,0.280497431755066,0.0213680025190115,-0.00622768141329288
975,0.0120371952652931,0.000835031154565513,0.00514627387747169,0.0810024291276932,0.0218547321856022,-0.00552571099251509
976,0.0134206293150783,0.0026374077424407,0.0056855333968997,-0.161979764699936,0.0215127710253,-0.00250783516094089
977,0.0140579072758555,0.00443332921713591,0.00658750627189875,-0.370097309350967,0.0207258351147175,0.00281708990223706
978,0.0133045315742493,0.00535954348742962,0.00763633986935019,-0.467706352472305,0.0196269284933805,0.00898970477283001
979,0.0119000030681491,0.00565956300124526,0.00857306830585003,-0.454373210668564,0.0188563298434019,0.0148971593007445
980,0.0108537077903748,0.00583970919251442,0.00946345832198858,-0.404091149568558,0.0189263820648193,0.0185456704348326
981,0.0100298402830958,0.00580658623948693,0.0099663594737649,-0.389601498842239,0.0190717820078135,0.0182115361094475
982,0.00975629035383463,0.00598508818075061,0.0105350222438574,-0.424644321203232,0.0192376561462879,0.0151802655309439
983,0.0103187561035156,0.00638245139271021,0.0114132883027196,-0.482609957456589,0.0197551436722279,0.0112343057990074
984,0.011153575964272,0.00639839097857475,0.011824500747025,-0.5,0.0202641952782869,0.00758625660091639
985,0.0119332661852241,0.0060442304238677,0.0117267025634646,-0.5,0.0207158289849758,0.00520535558462143
986,0.0120827127248049,0.00491729192435741,0.0112895229831338,-0.5,0.0209050439298153,0.00302095571532846
987,0.0113351857289672,0.00280579319223762,0.0101355100050569,-0.5,0.0203438363969326,-0.000149207320646383
988,0.0108028501272202,0.00088835135102272,0.00862328428775072,-0.5,0.0193035844713449,-0.00304746115580201
989,0.0112145552411675,-0.000356521632056683,0.00760946376249194,-0.5,0.0185318347066641,-0.00465016160160303
990,0.0117408502846956,-0.00197034003213048,0.00724183488637209,-0.5,0.0188022125512362,-0.00641621742397547
991,0.0116948373615742,-0.00421511987224221,0.00732994778081775,-0.5,0.0204122010618448,-0.00956730917096138
992,0.0108135864138603,-0.00636884896084666,0.00697097927331924,-0.5,0.021711066365242,-0.0133782345801592
993,0.0101107191294432,-0.0066056065261364,0.00606732023879886,-0.450663477182388,0.0214933343231678,-0.0148015655577183
994,0.0110351433977485,-0.00395267596468329,0.00588452257215977,-0.457060962915421,0.020621944218874,-0.011903265491128
995,0.0130669726058841,-0.000130664644530043,0.00664705596864223,-0.5,0.0200114008039236,-0.00722634606063366
996,0.014388975687325,0.00282432069070637,0.00731458934023976,-0.5,0.0192584171891212,-0.00413941685110331
997,0.0140327103435993,0.00422522984445095,0.00723249139264226,-0.5,0.0172360334545374,-0.00340903713367879
998,0.0131758376955986,0.0049883178435266,0.00687410216778517,-0.5,0.0140311373397708,-0.00338141480460763
999,0.0123287392780185,0.00517870578914881,0.00602227635681629,-0.5,0.010070932097733,-0.00366692617535591
1000,0.0105360625311732,0.00343011412769556,0.00382692064158618,-0.5,0.00550012802705169,-0.00600241031497717
1001,0.00846285093575716,0.000277276791166514,0.00097241293406114,-0.5,0.00183394551277161,-0.00946097262203693
1002,0.00771223194897175,-0.0021323817782104,-0.000828132382594049,-0.5,0.00109714001882821,-0.0108274407684803
1003,0.00828791875392199,-0.00309851043857634,-0.00101595022715628,-0.5,0.00309854163788259,-0.0100046936422586
1004,0.00881157070398331,-0.00366441695950925,-0.000900061510037631,-0.5,0.00533539708703756,-0.00980870984494686
1005,0.0081946887075901,-0.00470545189455152,-0.00181790289934725,-0.5,0.00570598477497697,-0.0114790461957455
1006,0.00695455400273204,-0.00558169698342681,-0.00321961427107453,-0.5,0.00462863221764565,-0.0134862018749118
1007,0.0059407283551991,-0.00565370731055737,-0.00389759428799152,-0.5,0.00375088909640908,-0.0143391061574221
1008,0.00499954912811518,-0.00558783393353224,-0.00353012047708035,-0.5,0.00375174009241164,-0.0140853375196457
1009,0.00372810917906463,-0.00616743974387646,-0.00274948077276349,-0.465670228004456,0.00419528735801578,-0.0135109927505255
1010,0.00307928654365242,-0.00647270912304521,-0.0019139020005241,-0.411235511302948,0.00525396736338735,-0.0120751895010471
1011,0.00458170427009463,-0.00472240475937724,-0.000704099016729742,-0.393116563558578,0.00741018075495958,-0.00857101660221815
1012,0.00757669564336538,-0.00123504642397165,0.000835681625176221,-0.409119635820389,0.0100508583709598,-0.00388736580498517
1013,0.00989089999347925,0.00192308740224689,0.00237200502306223,-0.441274642944336,0.012292742729187,0.000318446371238679
1014,0.0099891871213913,0.00312007591128349,0.00315862591378391,-0.454706072807312,0.01327845454216,0.00334766251035035
1015,0.00800825376063585,0.00224707811139524,0.00265515386126935,-0.416494071483612,0.012595048174262,0.00531773315742612
1016,0.00603286037221551,0.00100091053172946,0.00154509884305298,-0.341873049736023,0.0111048286780715,0.00703590549528599
1017,0.00620718719437718,0.00112766970414668,0.000859138614032418,-0.290710359811783,0.00999432802200317,0.00912293791770935
1018,0.00855122227221727,0.00264704064466059,0.00112016475759447,-0.315639019012451,0.0096816523000598,0.0112407160922885
1019,0.0118913631886244,0.00504825124517083,0.00258935033343732,-0.428034216165543,0.0101709486916661,0.0129120806232095
1020,0.0151087222620845,0.00780899077653885,0.00482419552281499,-0.5,0.0110889570787549,0.0136666335165501
1021,0.0174051765352488,0.00971967447549105,0.00679015647619963,-0.5,0.0116952052339911,0.0127526745200157
1022,0.0184470396488905,0.00981324445456266,0.0079346364364028,-0.5,0.0113880531862378,0.00994819309562445
1023,0.0184811092913151,0.00883519370108843,0.00841880869120359,-0.5,0.0102203600108624,0.00721826823428273
1024,0.01745330914855,0.00773418555036187,0.0079873614013195,-0.5,0.00801887549459934,0.00772544182837009
1025,0.0149985570460558,0.00634848698973656,0.00625742180272937,-0.5,0.00464296108111739,0.0117931067943573
1026,0.0118357455357909,0.00457337079569697,0.00395727669820189,-0.5,0.0015294662443921,0.0154843758791685
1027,0.0091124540194869,0.00275197625160217,0.00207409216091037,-0.5,0.000184826421900652,0.0148903606459498
1028,0.00733207538723946,0.00160229043103755,0.00102060090284795,-0.5,0.000519140623509884,0.0109376842156053
1029,0.0056298291310668,0.000769742764532566,3.66117565135937E-05,-0.5,0.00061166420346126,0.00654784170910716
1030,0.00323796551674604,-0.000442446325905621,-0.0015655963215977,-0.5,-0.00113134202547371,0.00328252417966723
1031,0.0016637952066958,-0.00100476678926498,-0.00268797809258103,-0.5,-0.0034798257984221,0.0022415341809392
1032,0.00260574417188764,-0.000154597946675494,-0.002359266160056,-0.5,-0.0044752499088645,0.00313496543094516
1033,0.00526910135522485,0.00134265527594835,-0.0010105911642313,-0.5,-0.00416328478604555,0.00452161999419332
1034,0.00854262709617615,0.00340329972095788,0.00160835217684507,-0.5,-0.0028070982079953,0.00659476034343243
1035,0.0125346947461367,0.00602166214957833,0.0059482823126018,-0.5,-6.55619369354099E-05,0.00926300138235092
1036,0.0164464320987463,0.00783904269337654,0.0105864210054278,-0.5,0.00304035097360611,0.0102971056476235
1037,0.0188040658831596,0.00813654810190201,0.0137496348470449,-0.5,0.00479533337056637,0.008806137368083
1038,0.019563477486372,0.00767895439639688,0.0151324681937695,-0.5,0.00477349478751421,0.00651599420234561
1039,0.0199344139546156,0.00775057822465897,0.0155308106914163,-0.5,0.00391384307295084,0.00561850378289819
1040,0.0195711422711611,0.00809679459780455,0.0149598866701126,-0.5,0.00190975412260741,0.00569927878677845
1041,0.0173754747956991,0.00750379450619221,0.0130292195826769,-0.5,-0.00217429455369711,0.0042350459843874
1042,0.0149864358827472,0.00653276080265641,0.011235092766583,-0.5,-0.0061571067199111,0.000644071318674833
1043,0.0142792565748096,0.00587674975395203,0.0110156256705523,-0.5,-0.00722868135198951,-0.00398938171565533
1044,0.014335042797029,0.00508721033111215,0.0116405738517642,-0.5,-0.00534398201853037,-0.00823457539081573
1045,0.014548609033227,0.00489896256476641,0.0127046629786491,-0.5,-0.000515526393428445,-0.00839888118207455
1046,0.0152881052345037,0.0059703984297812,0.0142768174409866,-0.5,0.00656165974214673,-0.00254666502587497
1047,0.0157016348093748,0.00709000835195184,0.0155526297166944,-0.5,0.0123455310240388,0.00540444394573569
1048,0.015038120560348,0.00753429112955928,0.0160838533192873,-0.5,0.0142510188743472,0.0113967675715685
1049,0.0125277815386653,0.00681156292557716,0.0151112517341971,-0.5,0.0119839739054441,0.0136290686205029
1050,0.00771497469395399,0.00455017108470201,0.0123318824917078,-0.5,0.00667388085275888,0.0116498479619622
1051,0.00255331792868674,0.00218591187149286,0.0100359339267015,-0.5,0.00133319559972733,0.00745204137638211
1052,0.000205693650059402,0.00176065356936306,0.0109298974275589,-0.5,-0.0006976667791605,0.00421337736770511
1053,0.00167385279200971,0.00367122306488454,0.0148013886064291,-0.5,0.00118396303150803,0.00455923052504659
1054,0.0039566345512867,0.00567335356026888,0.0183446984738112,-0.5,0.0037053560372442,0.00803531985729933
1055,0.00425504054874182,0.00577501626685262,0.0189969595521688,-0.5,0.00437586382031441,0.0114624397829175
1056,0.00393771100789309,0.00515666604042053,0.017829330638051,-0.5,0.00483283447101712,0.0133998086676002
1057,0.00507060997188091,0.00555763905867934,0.0173799283802509,-0.5,0.0071455454453826,0.0148714976385236
1058,0.00710510881617665,0.0067212930880487,0.0184468720108271,-0.5,0.010859209112823,0.017398526892066
1059,0.00911057367920876,0.0083673195913434,0.0203319098800421,-0.5,0.0145745351910591,0.0222670529037714
1060,0.0107648875564337,0.010190618224442,0.0220720190554857,-0.5,0.016874723136425,0.0279912818223238
1061,0.0109882839024067,0.0104367649182677,0.0227083899080753,-0.5,0.0163650512695313,0.0306068584322929
1062,0.00927268154919147,0.00796589348465204,0.0220270771533251,-0.5,0.0133957397192717,0.0285814125090837
1063,0.00702643720433116,0.00396101176738739,0.0211965646594763,-0.5,0.0103108836337924,0.0240198522806168
1064,0.00661351019516587,0.00132506899535656,0.0224580205976963,-0.5,0.0097210006788373,0.020453279837966
1065,0.00885516870766878,0.00206602434627712,0.0264126155525446,-0.5,0.0118828034028411,0.0203248001635075
1066,0.0116426711902022,0.0050184577703476,0.0302652139216661,-0.5,0.013821005821228,0.0231268461793661
1067,0.0124802589416504,0.00724889384582639,0.0307128932327032,-0.5,0.0127338347956538,0.0257623679935932
1068,0.0111952880397439,0.00711326347663999,0.0267843212932348,-0.5,0.00860580522567034,0.0247774515300989
1069,0.00859137810766697,0.00475000264123082,0.0199581515043974,-0.5,0.00302737299352884,0.0193216241896153
1070,0.00529100093990564,0.00141731882467866,0.0136856976896524,-0.5,-0.00204148353077471,0.0131065892055631
1071,0.00155886169523001,-0.00169862410984933,0.010258924216032,-0.5,-0.00613226322457194,0.0104283466935158
1072,-0.00323623442091048,-0.0047502270899713,0.00835173577070236,-0.5,-0.0109390001744032,0.010625384747982
1073,-0.00832574535161257,-0.00751362228766084,0.00650163507089019,-0.5,-0.0161034688353539,0.0109555814415216
