,AF3,AF4,Fp1,Fp2,AF7,AF8
0,-0.0111131416633725,0.00187511800322682,-0.000692939735017717,-0.00047677694237791,-0.0261409115046263,-0.00277559924870729
1,-0.010238753631711,0.000553515565115958,-0.000172515516169369,-0.000483715441077948,-0.0249418523162603,-0.00313294376246631
2,-0.00930477306246758,0.000479847862152383,0.000469055201392621,-0.00049720355309546,-0.0248282011598349,-0.00187092740088701
3,-0.00891522504389286,0.00277806678786874,0.00112565024755895,-0.000512218335643411,-0.0253044478595257,0.00207127048633993
4,-0.00893957167863846,0.0084767397493124,0.00168727722484618,-0.000523012829944491,-0.0262036081403494,0.0111004412174225
5,-0.00918267667293549,0.0151586998254061,0.00197177822701633,-0.000526189862284809,-0.0269677452743053,0.0227932743728161
6,-0.00918080098927021,0.0190364476293325,0.00275381072424352,-0.000522423768416047,-0.0255782324820757,0.0315514504909515
7,-0.00813755113631487,0.0194742772728205,0.00500714452937245,-0.000515962776262313,-0.0212844740599394,0.036522101610899
8,-0.007465785369277,0.0174242928624153,0.00692214583978057,-0.000512254016939551,-0.0177123360335827,0.0405157022178173
9,-0.00858142133802176,0.014026646502316,0.00698668975383043,-0.000515016261488199,-0.0175432227551937,0.0448205843567848
10,-0.0100485840812325,0.0112758539617062,0.00663955556228757,-0.000524332281202078,-0.0187894999980927,0.047503974288702
11,-0.0111207962036133,0.0104728788137436,0.00631163688376546,-0.000536736741196364,-0.0195009559392929,0.0451668277382851
12,-0.0128585146740079,0.0103189777582884,0.00395992258563638,-0.000547180126886815,-0.0206896550953388,0.0359974391758442
13,-0.0141903134062886,0.00957331899553537,0.000173898151842877,-0.000551760196685791,-0.0229589249938726,0.0233057141304016
14,-0.0132212350144982,0.00897914636880159,-0.000502673152368516,-0.00054974592057988,-0.0241164993494749,0.0137194087728858
15,-0.0102368667721748,0.00874509382992983,0.00381530239246786,-0.000543847214430571,-0.0223476178944111,0.00995192490518093
16,-0.00682000024244189,0.00733038736507297,0.00925515312701464,-0.000538654217962176,-0.0190772078931332,0.00906595773994923
17,-0.00444742757827044,0.00381787144578993,0.0120288459584117,-0.000538140127900988,-0.0164836272597313,0.0078970966860652
18,-0.0033564125187695,-3.02396729239263E-05,0.0125702628865838,-0.000543585803825408,-0.0143254920840263,0.00688824662938714
19,-0.00365058262832463,-0.00291920453310013,0.0120217148214579,-0.000553008052520454,-0.0117533775046468,0.00662184506654739
20,-0.00574454758316278,-0.00534885516390204,0.0102855274453759,-0.000562334782443941,-0.00989753380417824,0.00559659395366907
21,-0.00898747518658638,-0.00702072912827134,0.00790779478847981,-0.000567638489883393,-0.0107430797070265,0.00332950847223401
22,-0.0123004363849759,-0.00724812457337976,0.00642750645056367,-0.000567204435355961,-0.0137273874133825,0.00113710504956543
23,-0.0145405875518918,-0.00500458478927612,0.0074102720245719,-0.000562348053790629,-0.0153247639536858,0.0007641731062904
24,-0.0148645425215364,0.000236521198530681,0.0104923713952303,-0.000556599348783493,-0.013932716101408,0.00399961555376649
25,-0.013830354437232,0.00622234307229519,0.0131569858640432,-0.000553752295672894,-0.0118443872779608,0.011698073707521
26,-0.0126931490376592,0.00991871580481529,0.0137750282883644,-0.000555855047423393,-0.0113832168281078,0.0216632764786482
27,-0.011955744586885,0.0105624971911311,0.0131084499880672,-0.000562204804737121,-0.0121936295181513,0.0294056497514248
28,-0.0117449518293142,0.00884067732840776,0.0119778197258711,-0.000569834548514336,-0.0131278149783611,0.0314258188009262
29,-0.0123482588678598,0.00573635986074805,0.0100421980023384,-0.000575172365643084,-0.014217889867723,0.0277741402387619
30,-0.0132789891213179,0.00337883643805981,0.00784362759441137,-0.000575947866309434,-0.0153981661424041,0.0230263415724039
31,-0.0135470274835825,0.00358499470166862,0.00680054631084204,-0.00057233078405261,-0.016016997396946,0.0223088879138231
32,-0.0139790698885918,0.00495339138433337,0.00625207368284464,-0.000566735165193677,-0.0166857987642288,0.0252042189240456
33,-0.0155625063925982,0.0056537389755249,0.00466757314279675,-0.000562452478334308,-0.0182151105254889,0.0278044827282429
34,-0.0170862358063459,0.0060879779048264,0.00249853637069464,-0.000561884080525488,-0.0195436794310808,0.0284425262361765
35,-0.0175255555659533,0.00647334102541208,0.000919010431971401,-0.000565322232432663,-0.0189733747392893,0.0282221548259258
36,-0.0170508567243814,0.00616007298231125,8.52118027978577E-05,-0.000570894568227232,-0.0170589610934258,0.0286782216280699
37,-0.0161501094698906,0.00461209565401077,-0.000655355805065483,-0.000575647398363799,-0.0165869351476431,0.02980219386518
38,-0.0153172127902508,0.00239991745911539,-0.00142084260005504,-0.000577145372517407,-0.0182853601872921,0.0300273802131414
39,-0.0153436893597245,0.000219684821786359,-0.00232614506967366,-0.000574723002500832,-0.0207052808254957,0.0278374906629324
40,-0.0158990304917097,-0.00165080546867102,-0.00320166978053749,-0.000569748634006828,-0.0219174362719059,0.0253535676747561
41,-0.0154650025069714,-0.00245424080640078,-0.00289336731657386,-0.000564810296054929,-0.0200064219534397,0.0270302575081587
42,-0.014297335408628,-0.0025547097902745,-0.00155902269762009,-0.000562303466722369,-0.0160664487630129,0.0319563932716846
43,-0.0136249605566263,-0.00296730734407902,-0.000530476274434477,-0.00056319049326703,-0.0135731538757682,0.0349978469312191
44,-0.0136252548545599,-0.00359780667349696,0.000234122999245301,-0.00056657160166651,-0.0140503607690334,0.034580934792757
45,-0.0145481480285525,-0.00454445462673903,0.00116945244371891,-0.000570250849705189,-0.016550287604332,0.0321427658200264
46,-0.0165748223662376,-0.0061566885560751,0.00109193567186594,-0.000571948534343392,-0.0198694784194231,0.0288628954440355
47,-0.0181180443614721,-0.00710933562368155,-0.000557102495804429,-0.000570493342820555,-0.0227623246610165,0.025962233543396
48,-0.0175360944122076,-0.00593037204816937,-0.00238397298380733,-0.0005663734045811,-0.0243272539228201,0.0239036828279495
49,-0.0158143825829029,-0.00362494168803096,-0.0037398727145046,-0.000561393157113343,-0.0254249162971973,0.022195853292942
50,-0.0148741630837321,-0.00109041156247258,-0.00446284469217062,-0.000557664956431836,-0.02668203599751,0.0218032263219357
51,-0.0147515833377838,0.002244817558676,-0.00373305613175035,-0.000556497136130929,-0.0270416904240847,0.0243520122021437
52,-0.0157223343849182,0.00516530917957425,-0.00320003973320127,-0.000557762163225561,-0.0274674110114574,0.0279488675296307
53,-0.018727995455265,0.00591585505753756,-0.00530813494697213,-0.000560046231839806,-0.030038807541132,0.0296571627259254
54,-0.0218575038015842,0.00530125154182315,-0.00821811240166426,-0.000561455613933504,-0.0331887044012547,0.0300490204244852
55,-0.022602004930377,0.00469977781176567,-0.00887057743966579,-0.000560623768251389,-0.0341036319732666,0.029405327513814
56,-0.0208397563546896,0.00433644372969866,-0.00681190239265561,-0.000557384511921555,-0.0322409234941006,0.0264250095933676
57,-0.017336692661047,0.00447568250820041,-0.00300580775365233,-0.000552785350009799,-0.0282941497862339,0.0228950120508671
58,-0.0136113008484244,0.00498981960117817,0.000488763675093651,-0.000548473850358278,-0.0236198659986258,0.0211025811731815
59,-0.0113227181136608,0.00498543679714203,0.00185181468259543,-0.000545815157238394,-0.0196265857666731,0.0195609964430332
60,-0.0104127926751971,0.00432288786396384,0.00154255551751703,-0.000545211078133434,-0.01648716814816,0.0164702534675598
61,-0.00980889704078436,0.00378264812752604,0.000718816823791713,-0.000545958231668919,-0.0134905790910125,0.0129909766837955
62,-0.00907566305249929,0.00397850573062897,-0.000423017918365076,-0.000546681345440447,-0.0105552934110165,0.0114849582314491
63,-0.00840896833688021,0.00511219678446651,-0.00133226101752371,-0.000546079885680228,-0.00820096116513014,0.0133113171905279
64,-0.00860617216676474,0.00668197870254517,-0.00174661562778056,-0.000543584930710495,-0.00720183551311493,0.0176383927464485
65,-0.0105941686779261,0.00754618225619197,-0.00263890973292291,-0.000539597182068974,-0.00815332215279341,0.0211912430822849
66,-0.0128484815359116,0.00858429446816444,-0.00316106574609876,-0.000535215658601373,-0.00921613350510597,0.022261556237936
67,-0.0137885613366961,0.0112434439361095,-0.00219715433195233,-0.00053163303527981,-0.00890398304909468,0.0217211320996284
68,-0.0144198052585125,0.013740542344749,-0.0006831458886154,-0.000529529177583754,-0.0075615867972374,0.0197364687919617
69,-0.0145406806841493,0.0142016569152474,0.00154467928223312,-0.000528769101947546,-0.00382035551592708,0.017146298661828
70,-0.0135893505066633,0.0129580236971378,0.00411040522158146,-0.00052853359375149,0.00161173776723444,0.0155571755021811
71,-0.0128886727616191,0.0111400112509727,0.00466801738366485,-0.000527781608980149,0.00423625996336341,0.0156147954985499
72,-0.0130998566746712,0.0103818457573652,0.00287015130743384,-0.000525785144418478,0.00245253718458116,0.0177057813853025
73,-0.0133774904534221,0.0117552364245057,0.000652495946269482,-0.00052246474660933,-0.000751293264329433,0.0213583838194609
74,-0.013016595505178,0.0143389739096165,-0.000513826264068484,-0.00051837571663782,-0.00237632892094553,0.02421466819942
75,-0.0127036217600107,0.0156657733023167,-0.000737290247343481,-0.000514383718837053,-0.0026771875564009,0.0239055883139372
76,-0.0133205438032746,0.0141671868041158,-0.000666057283524424,-0.000511216698214412,-0.00330955255776644,0.0206432454288006
77,-0.0145743461325765,0.0106530161574483,-0.000197511253645644,-0.000509124365635216,-0.00410569878295064,0.0172838270664215
78,-0.0161610282957554,0.00713404361158609,0.000631498580332845,-0.000507800257764757,-0.00395108852535486,0.0176475252956152
79,-0.0182625390589237,0.00520500540733337,0.000789430225268006,-0.000506577838677913,-0.00300225312821567,0.0222707372158766
80,-0.0201292149722576,0.00550574390217662,7.23867560736835E-05,-0.000504780327901244,-0.00255249114707112,0.026765052229166
81,-0.0205024909228086,0.00731482496485114,-9.29828020161949E-05,-0.000502041599247605,-0.00356952520087361,0.0267071574926376
82,-0.0194029025733471,0.0090344250202179,0.000824486021883786,-0.000498450535815209,-0.00580821139737964,0.0223265122622252
83,-0.0174186378717422,0.0106539707630873,0.00198049121536314,-0.000494469655677676,-0.00759898405522108,0.0184350069612265
84,-0.0149586806073785,0.0129410531371832,0.00311174127273262,-0.000490689184516668,-0.00716065522283316,0.0189983118325472
85,-0.0126753048971295,0.0150012830272317,0.00466867908835411,-0.000487547105876729,-0.0045163375325501,0.0224506221711636
86,-0.0108566610142589,0.015718474984169,0.00699965562671423,-0.00048514420632273,-0.00095876824343577,0.0247058738023043
87,-0.00968562066555023,0.0148229943588376,0.0094548761844635,-0.000483226642245427,0.00211799773387611,0.0247223805636168
88,-0.00919604022055864,0.0131630403921008,0.0108440518379211,-0.000481326715089381,0.00401383684948087,0.024382347241044
89,-0.00866313185542822,0.0123447915539145,0.0110144913196564,-0.000478984817164019,0.00491260690614581,0.0243109874427319
90,-0.00839669909328222,0.0116564650088549,0.0101062022149563,-0.000475950946565717,0.00458349660038948,0.0220112130045891
91,-0.00835366267710924,0.00895363744348288,0.00885877572000027,-0.00047228203038685,0.00415464304387569,0.0160578358918428
92,-0.00653122644871473,0.00475423969328403,0.00883379485458136,-0.00046830321662128,0.00607115961611271,0.00867089070379734
93,-0.00387299293652177,0.000774907181039453,0.00933709274977446,-0.000464456825284287,0.00837916694581509,0.00195819628424942
94,-0.00322974962182343,-0.00180204724892974,0.00930754002183676,-0.0004611071490217,0.0074759004637599,-0.00222909636795521
95,-0.00436917645856738,-0.00262675061821938,0.009186209179461,-0.000458382710348815,0.00395420147106051,-0.00291138864122331
96,-0.00531081948429346,-0.00243577221408486,0.00882636569440365,-0.000456120644230396,0.000265552458586171,-0.000750417879316956
97,-0.00563796143978834,-0.00197918806225061,0.00814410671591759,-0.000453937478596345,-0.00236680451780558,0.00440505612641573
98,-0.00685051316395402,-0.00188663275912404,0.00701569160446525,-0.000451398082077503,-0.00441436842083931,0.0120715815573931
99,-0.00880923960357904,-0.00221063429489732,0.00538132898509502,-0.000448213395429775,-0.00578036764636636,0.0203984472900629
100,-0.00998388603329659,-0.00289738178253174,0.00433314684778452,-0.000444379460532218,-0.00562695413827896,0.0269403588026762
101,-0.00969826150685549,-0.00311622745357454,0.00489725172519684,-0.000440192059613764,-0.00421880139037967,0.0297638364136219
102,-0.00785123743116856,-0.00172117236070335,0.00609285291284323,-0.000436120782978833,-0.00270067411474884,0.0291893072426319
103,-0.00517829786986113,0.000198207548237406,0.0060498733073473,-0.000432592554716393,-0.00213496037758887,0.0279346480965614
104,-0.00289222621358931,0.000600453873630613,0.0044217579998076,-0.000429781735874712,-0.00206039077602327,0.027997137978673
105,-0.00213506072759628,-0.00135257130023092,0.00182412040885538,-0.00042750989086926,-0.00100310519337654,0.0268943440169096
106,-0.00300163822248578,-0.00443292874842882,-0.000411919550970197,-0.000425314152380452,0.00146087410394102,0.0219862423837185
107,-0.00365827698260546,-0.00598577922210097,3.82604121114127E-05,-0.000422662851633504,0.00426569115370512,0.0163090657442808
108,-0.00316015514545143,-0.00569004379212856,0.00329031143337488,-0.000419220916228369,0.00538420910015702,0.0135629018768668
109,-0.0036991978995502,-0.00637044012546539,0.00590386614203453,-0.000415032816817984,0.00327382865361869,0.0118471253663301
110,-0.00644325884059072,-0.00885971169918776,0.0062767630442977,-0.000410522421589121,2.78766055998858E-05,0.00772261107340455
111,-0.00931905768811703,-0.0110656451433897,0.00688237324357033,-0.000406296661822125,-0.000392395129892975,0.00181025872007012
112,-0.0108852162957191,-0.0115205235779285,0.00869410764425993,-0.000402841513277963,0.00192796159535646,-0.00188113620970398
113,-0.0114961871877313,-0.00923565961420536,0.00963267032057047,-0.000400262419134378,0.00360043905675411,-0.000288688868749887
114,-0.0110041331499815,-0.00421004928648472,0.00894342362880707,-0.000398208998376504,0.00369966891594231,0.00525999953970313
115,-0.00954801589250565,0.000972134119365364,0.0073735723271966,-0.000396035466110334,0.00413182517513633,0.0113019105046988
116,-0.00867287255823612,0.00379286194220185,0.00552532728761435,-0.000393125897971913,0.00524926325306296,0.0169782117009163
117,-0.00875743757933378,0.00422216765582561,0.00430115638300776,-0.000389221357181668,0.00549721764400601,0.0225848648697138
118,-0.00888839829713106,0.00314436038024724,0.00355507689528167,-0.000384574173949659,0.00335101713426411,0.0255933217704296
119,-0.00856212340295315,0.00167061795946211,0.00254158489406109,-0.000379838049411774,-0.00134632363915443,0.0241757556796074
120,-0.00824696570634842,0.00199852278456092,0.00182019360363483,-0.000375738716684282,-0.00699327234178782,0.0207922477275133
121,-0.00833549536764622,0.00521662831306458,0.0019695854280144,-0.000372691138181835,-0.011167542077601,0.0181604344397783
122,-0.0075918841175735,0.00899375509470701,0.00223019206896424,-0.000370565743651241,-0.0117236794903874,0.0161498468369246
123,-0.00559077225625515,0.00983506161719561,0.00137369788717479,-0.000368736044038087,-0.00917290896177292,0.0134156541898847
124,-0.00360623747110367,0.00668460736051202,-0.000757179514039308,-0.000366394815500826,-0.00614295294508338,0.00912088248878717
125,-0.00280028535053134,0.00134547357447445,-0.00352149945683777,-0.000362979510100558,-0.0044883512891829,0.00358129455707967
126,-0.00357293547131121,-0.00350114633329213,-0.00668856222182512,-0.000358482677256688,-0.0049322540871799,-0.00141343893483281
127,-0.004769092425704,-0.00531840976327658,-0.00976354908198118,-0.000353475334122777,-0.00685426173731685,-0.00328693585470319
128,-0.00471711251884699,-0.0028674288187176,-0.0115976948291063,-0.000348820147337392,-0.00840171985328197,-0.00160295446403325
129,-0.0037027201615274,0.00168652751017362,-0.0119613585993648,-0.000345217908034101,-0.00873391795903444,3.71926726074889E-05
130,-0.00361922709271312,0.00486839516088367,-0.0117499101907015,-0.00034282638807781,-0.0086003290489316,-0.00103537633549422
131,-0.00589635176584125,0.00584687711670995,-0.0127029297873378,-0.000341159728122875,-0.00886299647390842,-0.00232519092969596
132,-0.0100395614281297,0.00594503432512283,-0.0157904084771872,-0.000339331629220396,-0.00964551419019699,5.2559349569492E-05
133,-0.0129580339416862,0.0056724357418716,-0.0180173479020596,-0.000336521392455325,-0.00974554847925901,0.00628887955099344
134,-0.0118638416752219,0.00407150853425264,-0.0157045312225819,-0.000332417577737942,-0.00782779697328806,0.0115532409399748
135,-0.00733383977785707,0.000949431851040572,-0.0100202532485127,-0.000327398942317814,-0.00488210888579488,0.0102603640407324
136,-0.00195912038907409,-0.00237421528436244,-0.00469523435458541,-0.00032234750688076,-0.00303430552594364,0.00229040067642927
137,0.00193870766088367,-0.00486321281641722,-0.0015619705663994,-0.000318185600917786,-0.00200285529717803,-0.00729484343901277
138,0.00300677446648479,-0.00744137773290277,-0.00150983943603933,-0.000315379904350266,-0.000599629187490791,-0.0149356992915273
139,0.00165751879103482,-0.0108605548739433,-0.00402898574247956,-0.000313680386170745,0.00128726498223841,-0.0214190892875195
140,-9.22438048291951E-05,-0.0127706937491894,-0.00617803959175944,-0.000312240299535915,0.00380287598818541,-0.02788470312953
141,-0.000971493602264673,-0.0109306229278445,-0.0067915003746748,-0.000310060975607485,0.00595233077183366,-0.0342637486755848
142,-0.00128391152247787,-0.00685785617679358,-0.00691379932686687,-0.000306527566863224,0.00592187093570828,-0.040204394608736
143,-0.00173002644442022,-0.00331792770884931,-0.00694667594507337,-0.000301748048514128,0.00336912134662271,-0.0441497713327408
144,-0.00176747574005276,-0.000661211204715073,-0.0063357031904161,-0.000296507903840393,0.000251608726102859,-0.0433780327439308
145,-0.000615110795479268,0.000926928245462477,-0.00472256820648909,-0.000291858275886625,-0.00166236259974539,-0.0371827557682991
146,0.00121385406237096,-7.45291617931798E-05,-0.00220490037463605,-0.00028855333221145,-0.00287094642408192,-0.0281113609671593
147,0.00325714214704931,-0.00323895085602999,0.00111117062624544,-0.000286639056866989,-0.00351813551969826,-0.0191641096025705
148,0.00462728505954146,-0.00694759702309966,0.00373885571025312,-0.000285417947452515,-0.0034900032915175,-0.0132962288334966
149,0.00457341875880957,-0.0102998306974769,0.00419688643887639,-0.00028381499578245,-0.00340724247507751,-0.0125540541484952
150,0.00451004412025213,-0.0122069958597422,0.00367328035645187,-0.000280952692264691,-0.00265293335542083,-0.0154229933395982
151,0.00503651285544038,-0.0122184790670872,0.00342458370141685,-0.000276627339189872,-0.00118671904783696,-0.0194440837949514
152,0.00439482089132071,-0.0106672523543239,0.00297863921150565,-0.000271427561528981,-0.00107768503949046,-0.0239017363637686
153,0.00195566331967711,-0.00775978248566389,0.00223573832772672,-0.000266426242887974,-0.00346509041264653,-0.0279916487634182
154,-0.000785366748459637,-0.00486735021695495,0.00167513370979577,-0.000262607296463102,-0.00710958568379283,-0.0310205388814211
155,-0.00150783127173781,-0.00330002699047327,0.00189158238936216,-0.000260333792539313,-0.00892965123057365,-0.0326405167579651
156,0.000341399136232212,-0.00305271148681641,0.00258531491272151,-0.000259145977906883,-0.00716530764475465,-0.0327375344932079
157,0.00226725079119205,-0.00460238195955753,0.00243067182600498,-0.00025800138246268,-0.00422201678156853,-0.0323439389467239
158,0.00267960852943361,-0.00763018755242229,0.00160069018602371,-0.00025583224487491,-0.0030038389377296,-0.0315686129033566
159,0.0021810766775161,-0.0100877210497856,0.000807198113761842,-0.000252121477387846,-0.00377112510614097,-0.029725968837738
160,0.000664743944071233,-0.0104023106396198,-0.000586920592468232,-0.000247186573687941,-0.00573398591950536,-0.0276596676558256
161,-0.00169721629936248,-0.00848264992237091,-0.00255671143531799,-0.000242014750256203,-0.00762171298265457,-0.0253530703485012
162,-0.00350152282044292,-0.00608187075704336,-0.00360368913970888,-0.000237735395785421,-0.00826169177889824,-0.0217004660516977
163,-0.0043250173330307,-0.00548862433061004,-0.00278339348733425,-0.00023501183022745,-0.00806605629622936,-0.0183860305696726
164,-0.00478859525173903,-0.00715510873124003,-0.000552203971892595,-0.000233680533710867,-0.00780970929190516,-0.0189011991024017
165,-0.00461235083639622,-0.00930801779031754,0.00242983154021204,-0.00023283448535949,-0.00727912783622742,-0.0228103864938021
166,-0.00267962878569961,-0.00978880655020475,0.00571240670979023,-0.000231308556976728,-0.00587375229224563,-0.0250298734754324
167,-3.59685582225211E-05,-0.00881635118275881,0.00774740288034081,-0.000228306787903421,-0.00426843389868736,-0.0234300456941128
168,0.000648640270810574,-0.00772476848214865,0.00713532418012619,-0.000223833674681373,-0.00392710696905851,-0.0209217071533203
169,-0.00118084496352822,-0.00676456280052662,0.00467162532731891,-0.000218695335206576,-0.00465358048677444,-0.0197316557168961
170,-0.00340218702331185,-0.00568638695403934,0.00242579123005271,-0.000214068029890768,-0.00493428157642484,-0.0187944993376732
171,-0.00323378504253924,-0.00339675275608897,0.00229106168262661,-0.000210865138797089,-0.00340624200180173,-0.0160735957324505
172,0.000534138991497457,0.00108698918484151,0.00459049502387643,-0.000209243808058091,0.000261467706877738,-0.0118076037615538
173,0.00567180896177888,0.00582180777564645,0.00731910346075892,-0.000208518104045652,0.00436947867274284,-0.00897340103983879
174,0.00842712447047234,0.00832126941531897,0.00892408937215805,-0.000207526914891787,0.00737310666590929,-0.00915474165230989
175,0.00737796723842621,0.00847089942544699,0.00991664547473192,-0.000205259144422598,0.00912839733064175,-0.0108142327517271
176,0.00408930797129869,0.00743342749774456,0.0111645814031363,-0.00020139929256402,0.00944027956575155,-0.013379137031734
177,0.0020824212115258,0.00807476975023746,0.0137980747967958,-0.000196498658624478,0.00929025467485189,-0.0167094543576241
178,0.00209335470572114,0.0111783556640148,0.0168398041278124,-0.000191679253475741,0.00959537550806999,-0.020145807415247
179,0.0012972546974197,0.0135004036128521,0.017342833802104,-0.000188029414857738,0.00976517703384161,-0.0230443421751261
180,-0.000668737979140133,0.0134229892864823,0.015401410870254,-0.000186017146916129,0.00942013785243034,-0.0233348589390516
181,-0.00178441382013261,0.0112636275589466,0.0130550330504775,-0.000185237789992243,0.0083549227565527,-0.0206774398684502
182,-0.00175634317565709,0.00738550862297416,0.0105693200603127,-0.000184632299351506,0.00611753668636084,-0.0176595058292151
183,-0.00146687170490623,0.00363061134703457,0.00762688834220171,-0.000183058422408067,0.00323118409141898,-0.0154422149062157
184,-0.000703185971360654,0.0021200489718467,0.00525635154917836,-0.000179906433913857,0.00158276606816798,-0.0126017229631543
185,0.000995885347947478,0.00282275513745844,0.00444490415975451,-0.00017542731075082,0.0023642280139029,-0.00890317372977734
186,0.00266148382797837,0.00340452697128057,0.00468978472054005,-0.000170596351381391,0.00440322421491146,-0.0084068002179265
187,0.00327250617556274,0.00173902115784585,0.00517095113173127,-0.000166586687555537,0.00569668365642428,-0.0148550709709525
188,0.00354773667640984,-0.00125311210285872,0.00560457352548838,-0.000164136712555774,0.00559116806834936,-0.0254368167370558
189,0.0040093488059938,-0.00381032703444362,0.00540188932791352,-0.000163153323228471,0.0040867323987186,-0.0341366417706013
190,0.00422829296439886,-0.00563241541385651,0.00402607349678874,-0.000162764074048027,0.00217150757089257,-0.0376923345029354
191,0.00447146315127611,-0.00647225603461266,0.00223001418635249,-0.000161789314006455,0.00239327223971486,-0.0357150062918663
192,0.00533687043935061,-0.00600362429395318,0.00148655369412154,-0.000159378556418233,0.0057278536260128,-0.0283594354987144
193,0.00658594444394112,-0.00467640487477183,0.00222387677058578,-0.000155467656441033,0.00937740318477154,-0.016488142311573
194,0.00707964273169637,-0.00334463641047478,0.00396556640043855,-0.000150810650666244,0.00969620421528816,-0.00353184435516596
195,0.00660227937623858,-0.00181298132520169,0.00653547700494528,-0.000146570702781901,0.00649471022188663,0.00576314423233271
196,0.00593407731503248,0.000293636519927531,0.00914273411035538,-0.00014369205746334,0.00180151977110654,0.00771941477432847
197,0.00475026667118073,0.00161360844504088,0.00996034312993288,-0.000142392600537278,-0.00299952644854784,0.00147559505421668
198,0.00282858335413039,0.0014387764967978,0.00839966908097267,-0.000142049699206837,-0.00662226649001241,-0.00875710695981979
199,0.000987914740107954,0.000784852483775467,0.00544518046081066,-0.000141539407195523,-0.00839543808251619,-0.0173916015774012
200,-0.000330755661707371,-0.000674751587212086,0.00160927418619394,-0.000139844123623334,-0.00918808579444885,-0.0233272351324558
201,-0.000390564586268738,-0.00400332920253277,-0.00217164820060134,-0.000136599861434661,-0.00974737480282784,-0.0273078233003616
202,0.00159928179346025,-0.00797400251030922,-0.00427467189729214,-0.000132288740132935,-0.0100716166198254,-0.0280226189643145
203,0.00494325626641512,-0.0100314989686012,-0.00449712015688419,-0.000127974737551995,-0.0101376725360751,-0.0249518137425184
204,0.00849820300936699,-0.00887975934892893,-0.00330051872879267,-0.000124727666843683,-0.00935373641550541,-0.0203270148485899
205,0.0107445726171136,-0.00611215876415372,-0.00146807415876538,-0.000123047342640348,-0.00740453507751226,-0.017572320997715
206,0.0104503780603409,-0.00441737752407789,0.0001787704823073,-0.000122598168672994,-0.00513172196224332,-0.0185906924307346
207,0.00844997260719538,-0.00379027146846056,0.0018394828075543,-0.000122395184007473,-0.00364702777005732,-0.0212514754384756
208,0.00661678705364466,-0.00267400429584086,0.00371403153985739,-0.000121338358439971,-0.00325680989772081,-0.0221417266875505
209,0.00552382506430149,-0.00159722147509456,0.00501413177698851,-0.000118805372039787,-0.00373451947234571,-0.0211580693721771
210,0.00357317645102739,-0.00262409634888172,0.00420146202668548,-0.000114983013190795,-0.00526319025084376,-0.0204091276973486
211,0.000530892342794687,-0.00502169318497181,0.00144091667607427,-0.000110760767711326,-0.00677307462319732,-0.0194155033677816
212,-0.00174464867450297,-0.00568663747981191,-0.00158201914746314,-0.000107247062260285,-0.00716737797483802,-0.0154143841937184
213,-0.00303317047655582,-0.0035404022783041,-0.00397691735997796,-0.000105171304312535,-0.00733543699607253,-0.00802745576947927
214,-0.0045107351616025,-0.000150369858602062,-0.00527610629796982,-0.000104494538391009,-0.00791116990149021,-0.000537378829903901
215,-0.00647269934415817,0.00269379466772079,-0.00520147290080786,-0.000104436658148188,-0.00868995580822229,0.00401936424896121
216,-0.00836451631039381,0.00420417822897434,-0.00418464979156852,-0.000103902100818232,-0.00985334068536758,0.00592934805899858
217,-0.00982948485761881,0.00391631945967674,-0.00304702809080482,-0.000102071717265062,-0.0118545796722174,0.00673774303868413
218,-0.0103260027244687,0.00204761675558984,-0.00188477826304734,-9.88408210105263E-05,-0.0139440344646573,0.00667691510170698
219,-0.00943500548601151,-0.000997926690615714,-0.000795042375102639,-9.48691522353329E-05,-0.0146916685625911,0.00507489265874028
220,-0.00778583437204361,-0.00475287716835737,-0.000492599327117205,-9.12191389943473E-05,-0.0140083860605955,0.00226295832544565
221,-0.00600295141339302,-0.00757216149941087,-0.000636507291346788,-8.87810019776225E-05,-0.012189969420433,-0.000898467085789889
222,-0.00441601080819964,-0.00875655189156532,-0.000514035287778825,-8.77957718330435E-05,-0.0094596603885293,-0.00454673264175653
223,-0.0031994367018342,-0.0093902200460434,-0.000461301038740203,-8.77319762366824E-05,-0.00686096400022507,-0.00834274850785732
224,-0.00278401700779796,-0.0102804889902473,-0.00124249479267746,-8.75789119163528E-05,-0.00596619164571166,-0.0112100513651967
225,-0.00377843249589205,-0.0110389236360788,-0.00315616745501757,-8.63946552271955E-05,-0.00770059181377292,-0.0127230118960142
226,-0.00522443000227213,-0.0105137722566724,-0.00507558276876807,-8.38115665828809E-05,-0.0103462217375636,-0.012559050694108
227,-0.00605859374627471,-0.00885650981217623,-0.00617231149226427,-8.02279100753367E-05,-0.0117523316293955,-0.011074616573751
228,-0.00599755207076669,-0.0068770912475884,-0.0068746074102819,-7.65856893849559E-05,-0.011955676600337,-0.00964324176311493
229,-0.00515999319031835,-0.00394018972292542,-0.00715576065704226,-7.38586386432871E-05,-0.0117817120626569,-0.00964071508497
230,-0.00525126978754997,0.000487294106278569,-0.00693525187671185,-7.25286372471601E-05,-0.0122023886069655,-0.0118707083165646
231,-0.00699876947328448,0.00463495030999184,-0.00606417562812567,-7.23322882549837E-05,-0.0131602669134736,-0.0151110710576177
232,-0.00821032468229532,0.00602146377786994,-0.00410859519615769,-7.24107521818951E-05,-0.0135777425020933,-0.0165057107806206
233,-0.00815547630190849,0.00399287603795528,-0.00215368717908859,-7.1777896664571E-05,-0.0139365689828992,-0.0160953961312771
234,-0.00844741147011518,-0.000132527231471613,-0.00142268335912377,-6.98514704708941E-05,-0.0150512550026178,-0.0168570671230555
235,-0.0087883910164237,-0.00338787375949323,-0.000980142969638109,-6.67610074742697E-05,-0.0154389049857855,-0.0193530898541212
236,-0.00820275861769915,-0.00397243071347475,-0.000565184047445655,-6.32697556284256E-05,-0.0140165900811553,-0.021959513425827
237,-0.00786282867193222,-0.00334261008538306,-0.00192647508811206,-6.03570297244005E-05,-0.0128623470664024,-0.0237659178674221
238,-0.00805607344955206,-0.00292506371624768,-0.00482665933668613,-5.86896676395554E-05,-0.0131860263645649,-0.0233157370239496
239,-0.00741251232102513,-0.00272414856590331,-0.00709258951246738,-5.82678076170851E-05,-0.0136092882603407,-0.019114388152957
240,-0.0064542512409389,-0.00296297436580062,-0.00868186913430691,-5.84331901336554E-05,-0.0138677814975381,-0.0121409595012665
241,-0.00589835830032825,-0.00341454381123185,-0.0101637924090028,-5.8230958529748E-05,-0.0137944417074323,-0.00464456109330058
242,-0.00448449654504657,-0.00369960581883788,-0.0102921137586236,-5.69260664633475E-05,-0.0119227068498731,0.00128578278236091
243,-0.00161210168153048,-0.00414716452360153,-0.00850515346974134,-5.43949499842711E-05,-0.00809421483427286,0.00410479633137584
244,0.00127063901163638,-0.00531595898792148,-0.00682457303628325,-5.1183673349442E-05,-0.00456909323111176,0.00412040017545223
245,0.00331137957982719,-0.00700220046564937,-0.00673742452636361,-4.82058130728547E-05,-0.00259640067815781,0.00350275565870106
246,0.00517281284555793,-0.00826778542250395,-0.00724443979561329,-4.62470889033284E-05,-0.000556037062779069,0.00293327495455742
247,0.00632111914455891,-0.00888198614120483,-0.00739889498800039,-4.55454355687834E-05,0.0020694297272712,0.000851381395477802
248,0.00620501674711704,-0.0086162593215704,-0.00675298226997256,-4.5670891267946E-05,0.00402245577424765,-0.00240297708660364
249,0.00611903471872211,-0.00717450771480799,-0.00430091330781579,-4.57656860817224E-05,0.0051795095205307,-0.00478911027312279
250,0.00647241016849875,-0.00549037707969546,-5.51596094737761E-05,-4.50105035270099E-05,0.00615224195644259,-0.0064232163131237
251,0.00604411773383617,-0.00511607900261879,0.00332643324509263,-4.30634572694544E-05,0.0075166909955442,-0.00824930611997843
252,0.00533509906381369,-0.00566954910755157,0.00364589947275817,-4.02364967158064E-05,0.0108822882175446,-0.00851981993764639
253,0.00617311056703329,-0.00493749231100082,0.00162372249178588,-3.7318401155062E-05,0.0166108962148428,-0.00617588544264436
254,0.00786490645259619,-0.0033633557613939,-0.00136024865787476,-3.51445451087784E-05,0.0210616644471884,-0.0045039732940495
255,0.00866314955055714,-0.00383476796559989,-0.00417274981737137,-3.41481063514948E-05,0.0208231620490551,-0.00660268682986498
256,0.00798895955085754,-0.00741181010380387,-0.00635213311761618,-3.41337981808465E-05,0.0164207015186548,-0.0116210216656327
257,0.00584345683455467,-0.0121249863877892,-0.00832878518849611,-3.43922038155142E-05,0.0102196121588349,-0.0155661199241877
258,0.00378474686294794,-0.0147787546738982,-0.00966355297714472,-3.40880869771354E-05,0.00492443749681115,-0.0137434406206012
259,0.00337921921163797,-0.0146061982959509,-0.00945405289530754,-3.27101624861825E-05,0.00276683061383665,-0.00566212646663189
260,0.00353618361987174,-0.0136543493717909,-0.00868229381740093,-3.03400411212351E-05,0.00319358031265438,0.00340064894407988
261,0.00255023804493248,-0.0133019182831049,-0.00930664036422968,-2.75989732472226E-05,0.00387852359563112,0.00807603914290667
262,0.000954615650698543,-0.013331338763237,-0.0108052063733339,-2.53060479735723E-05,0.0042277337051928,0.00869225990027189
263,0.000298072787700221,-0.0133417882025242,-0.0109267821535468,-2.40358785958961E-05,0.00466727325692773,0.00945346709340811
264,0.000235648825764656,-0.0141836553812027,-0.00980293564498425,-2.38145767070819E-05,0.00420997105538845,0.0108383148908615
265,-6.87454521539621E-05,-0.017156271263957,-0.00900864321738482,-2.41147954511689E-05,0.00249023060314357,0.00922629609704018
266,0.000420198397478089,-0.0211843270808458,-0.00803895015269518,-2.41475390794221E-05,0.0021385767031461,0.00425197137519717
267,0.00213045510463417,-0.0236579906195402,-0.00604913756251335,-2.3289325326914E-05,0.00491022551432252,3.24599204759579E-05
268,0.00356985116377473,-0.023357292637229,-0.00447706878185272,-2.14133779081749E-05,0.00862348917871714,0.000636266835499555
269,0.00413425825536251,-0.0215056948363781,-0.00465805921703577,-1.89489637705265E-05,0.0112306037917733,0.00650884816423059
270,0.00451009999960661,-0.0204540695995092,-0.0059368908405304,-1.6641708498355E-05,0.0131260603666306,0.0135461250320077
271,0.00456562545150518,-0.0211157388985157,-0.00749498931691051,-1.51485819515074E-05,0.0148098636418581,0.0175466910004616
272,0.00387495802715421,-0.0221517812460661,-0.00865538418292999,-1.46874926940654E-05,0.0164804719388485,0.0185496211051941
273,0.00217526382766664,-0.0211808774620295,-0.00907799694687128,-1.49283323480631E-05,0.0172072760760784,0.0178411435335875
274,0.000512442318722606,-0.0163537580519915,-0.00860698241740465,-1.51795502461027E-05,0.0164685677736998,0.0161175802350044
275,0.00132994796149433,-0.00827478524297476,-0.00666283629834652,-1.47649816426565E-05,0.0165475532412529,0.0137226535007358
276,0.00460758106783032,-0.000534058082848787,-0.00354181905277073,-1.33855874082656E-05,0.0185901802033186,0.00932561326771975
277,0.00792768876999617,0.00360680231824517,0.000176040804944932,-1.12725647340994E-05,0.0213264748454094,0.00306248990818858
278,0.0101033980026841,0.00398081867024302,0.00429045408964157,-9.0536623247317E-06,0.0241522863507271,-0.00177400931715965
279,0.0116780484095216,0.00151469232514501,0.00778573006391525,-7.40963378120796E-06,0.0269780028611422,-0.00349248386919498
280,0.0124362260103226,-0.00310779083520174,0.00910507794469595,-6.70876261210651E-06,0.0287732444703579,-0.0038219103589654
281,0.0118276076391339,-0.00745219783857465,0.00831623934209347,-6.81561505189165E-06,0.0285279378294945,-0.00407556910067797
282,0.00998896267265081,-0.00908972695469856,0.0063645695336163,-7.17312786946422E-06,0.0256736129522324,-0.00489182537421584
283,0.0074861804023385,-0.00821482390165329,0.00397340254858136,-7.10881977283861E-06,0.0212808568030596,-0.00665209256112576
284,0.00604503182694316,-0.0055589247494936,0.00297911674715579,-6.19684715275071E-06,0.0189370196312666,-0.00709819979965687
285,0.00720673752948642,-0.00136655662208796,0.00470236781984568,-4.48095715910313E-06,0.0209488663822412,-0.00363538274541497
286,0.00977750774472952,0.00248344149440527,0.0071841306053102,-2.44172883867577E-06,0.02455541677773,0.0023047395516187
287,0.0114766592159867,0.00377694074995816,0.00772103853523731,-7.30692192973947E-07,0.0255108065903187,0.00730485515668988
288,0.0122114093974233,0.00323763466440141,0.00699149770662189,1.81702915824644E-07,0.0244867969304323,0.010950580239296
289,0.0121126659214497,0.0012957100989297,0.00640685902908444,2.54122369369725E-07,0.0238160844892263,0.0129392556846142
290,0.0116370860487223,-0.00287602958269417,0.00634713796898723,-1.12241380634259E-07,0.0241639409214258,0.0116168214008212
291,0.0115981753915548,-0.00762698985636234,0.00732660200446844,-2.97267177984395E-07,0.0255080349743366,0.00777035066857934
292,0.0103377299383283,-0.0105714239180088,0.00931000150740147,2.02008109795315E-07,0.0265533588826656,0.00314956717193127
293,0.00630381004884839,-0.0117019601166248,0.0118967099115252,1.50496146034129E-06,0.0264410842210054,-0.0019227348966524
294,0.000755640678107738,-0.0126849198713899,0.0137110073119402,3.29169051838107E-06,0.0248607248067856,-0.00746652157977223
295,-0.00314432336017489,-0.0139784421771765,0.0135559616610408,4.98340978083434E-06,0.0223230663686991,-0.0116421598941088
296,-0.00330936466343701,-0.0139412572607398,0.0125895673409104,6.05743434789474E-06,0.0209400039166212,-0.0119628272950649
297,-0.000466010154923424,-0.0111955981701612,0.012651321478188,6.32541514278273E-06,0.0217210128903389,-0.00840595737099648
298,0.00287638488225639,-0.00747914798557758,0.013624687679112,6.02681984673836E-06,0.0229551624506712,-0.00382058531977236
299,0.00457401480525732,-0.00597864575684071,0.0142694106325507,5.69168196307146E-06,0.0226497706025839,-0.0011021449463442
300,0.00457828305661678,-0.00678408332169056,0.0144683662801981,5.85104817218962E-06,0.0213272031396627,-0.000522629183251411
301,0.00359305320307612,-0.00776041857898235,0.014254242181778,6.75327919452684E-06,0.0199832059442997,-0.00196166383102536
302,0.00197212886996567,-0.00726198265329003,0.0131797110661864,8.23773643787717E-06,0.0182734914124012,-0.00538618536666036
303,0.00037098175380379,-0.00500865885987878,0.0116916578263044,9.82985056907637E-06,0.0161521788686514,-0.00797778461128473
304,-0.000348524306900799,-0.00237080454826355,0.0108330957591534,1.10017790575512E-05,0.0142552461475134,-0.00667291879653931
305,-0.000368761568097398,-0.000891874951776117,0.0105365589261055,1.14556005428312E-05,0.0129237379878759,-0.00297426828183234
306,-0.000997556722722948,-0.000381008139811456,0.00938996020704508,1.12771913336474E-05,0.0124804098159075,-0.000261159526417032
307,-0.00207343115471303,0.000693440320901573,0.0072961007244885,1.08815547719132E-05,0.0147246420383453,0.00295208021998405
308,-0.00252166460268199,0.00235112430527806,0.00521151442080736,1.07836312963627E-05,0.0192323531955481,0.0101518630981445
309,-0.0023147442843765,0.00364897400140762,0.00315464287996292,1.13211099233013E-05,0.0211924705654383,0.0191252417862415
310,-0.00150117557495832,0.00416990555822849,0.00145978119689971,1.2478415555961E-05,0.0180130563676357,0.0241163093596697
311,1.12995530798798E-06,0.003309216350317,0.0011753753060475,1.39035018946743E-05,0.0122801968827844,0.0228094011545181
312,0.00127160688862205,0.000667426560539752,0.00214249896816909,1.51038611875265E-05,0.00700230663642287,0.0165977161377668
313,0.00177535344846547,-0.00277327792719007,0.00388552783988416,1.5712799722678E-05,0.0036498885601759,0.00817190203815699
314,0.00265024392865598,-0.00492800120264292,0.00700317975133657,1.5682098819525E-05,0.00364771042950451,0.00117392360698432
315,0.00363530917093158,-0.00516130076721311,0.0100386617705226,1.52999928104691E-05,0.00608200905844569,-0.00238349521532655
316,0.00335959787480533,-0.00421181693673134,0.0100570134818554,1.50291753016063E-05,0.00788665562868118,-0.00389869930222631
317,0.00259285909123719,-0.00303680426441133,0.00720126926898956,1.52557277033338E-05,0.00828736275434494,-0.00558324111625552
318,0.00333295669406652,-0.00251401332207024,0.00448451563715935,1.6085192328319E-05,0.00922263320535421,-0.0071425698697567
319,0.00578361144289374,-0.002762486692518,0.00383029459044337,1.72934214788256E-05,0.0112638920545578,-0.00643075536936522
320,0.00828664004802704,-0.00348534993827343,0.00507340813055635,1.84545242518652E-05,0.0126184346154332,-0.00304000684991479
321,0.00950327608734369,-0.00455403374508023,0.00747061194851995,1.91731433005771E-05,0.0123333288356662,0.000229934768867679
322,0.00981735531240702,-0.00560785178095102,0.0101435165852308,1.92944771697512E-05,0.0114127174019814,0.000843903748318553
323,0.0109144616872072,-0.00522249657660723,0.012316077016294,1.89806123671588E-05,0.011441670358181,-0.000154378984007053
324,0.0125482715666294,-0.00305861001834273,0.0129646314308047,1.86159268196207E-05,0.0121568534523249,-0.00118647981435061
325,0.0128026725724339,-0.000522928952705115,0.0113630006089807,1.85964818228967E-05,0.0122099677100778,-0.00196253601461649
326,0.0110244238749146,0.00160906661767513,0.00756312813609838,1.91187500604428E-05,0.0112713826820254,-0.00189313013106585
327,0.00767372734844685,0.00363171636126935,0.00212341360747814,2.00803424377227E-05,0.00924722291529179,0.000172826490597799
328,0.00450225546956062,0.00605193059891462,-0.00301389675587416,2.11426322493935E-05,0.0068750474601984,0.00488834641873837
329,0.00285451416857541,0.00796579290181398,-0.00607201363891363,2.19175562961027E-05,0.0052288337610662,0.0100552542135119
330,0.00253805937245488,0.0084622073918581,-0.00644562020897865,2.21756654354976E-05,0.00483857933431864,0.0130206719040871
331,0.00387788075022399,0.00862565916031599,-0.00359673192724586,2.19639914575964E-05,0.0061864061281085,0.0140765178948641
332,0.00651733623817563,0.0090680317953229,0.00115157652180642,2.15734253288247E-05,0.00848254188895226,0.0131853064522147
333,0.00842901784926653,0.00846239272505045,0.00450211111456156,2.13771400012774E-05,0.00992627162486315,0.00870022363960743
334,0.0086004976183176,0.00634956359863281,0.00515182735398412,2.16297448787373E-05,0.00998690258711576,0.00104886677581817
335,0.00824639853090048,0.00479975575581193,0.00520642707124352,2.23352108150721E-05,0.0101510593667626,-0.00573301361873746
336,0.00806122366338968,0.00519325817003846,0.00624663615599275,2.32519487326499E-05,0.0113215167075396,-0.00822239555418491
337,0.00728289736434817,0.00646817497909069,0.00720918830484152,2.40284334722674E-05,0.0123830800876021,-0.00754285138100386
338,0.00613276660442352,0.00716378772631288,0.00719907972961664,2.43933900492266E-05,0.0121415136381984,-0.00693580182269216
339,0.00587126612663269,0.00678742304444313,0.00705143017694354,2.42977821471868E-05,0.0109530985355377,-0.00750345597043633
340,0.00682331109419465,0.00551699800416827,0.00760989030823112,2.39344190049451E-05,0.0101232575252652,-0.00782448425889015
341,0.00808361545205116,0.00374600640498102,0.00823929719626904,2.36283703998197E-05,0.0097114872187376,-0.00620968919247389
342,0.00881094858050346,0.00227084499783814,0.00840898882597685,2.36603082157671E-05,0.0088659105822444,-0.00215247203595936
343,0.00797554664313793,0.00107203354127705,0.00798466894775629,2.41187335632276E-05,0.00670569110661745,0.00255535379983485
344,0.0051617631688714,-0.000612079573329538,0.00635144952684641,2.48588148679119E-05,0.00305682490579784,0.00556552642956376
345,0.0023660627193749,-0.00182363577187061,0.00397505052387714,2.55864852078957E-05,0.000117648633022327,0.00657011941075325
346,0.00125591387040913,-0.000752944964915514,0.00175404967740178,2.60192628047662E-05,-0.000223100782022811,0.00674844114109874
347,0.00101834814995527,0.00284676626324654,-0.000293338700430468,2.60359611274907E-05,0.00111747160553932,0.00814094766974449
348,0.000329256028635427,0.00824072770774364,-0.00216883327811956,2.57360552495811E-05,0.00224409368820488,0.012070294469595
349,-0.00155512639321387,0.0133433984592557,-0.00425575813278556,2.53800135396887E-05,0.00150715210475028,0.016426732763648
350,-0.00449297344312072,0.014844099059701,-0.00718561373651028,2.52460195042659E-05,-0.00133658770937473,0.0175207983702421
351,-0.0068729342892766,0.0128759313374758,-0.00989702995866537,2.5481844204478E-05,-0.00385429314337671,0.0152853606268764
352,-0.00765522010624409,0.0102783339098096,-0.0109955556690693,2.60306987911463E-05,-0.00362306647002697,0.0120306117460132
353,-0.00712678162381053,0.00775724742561579,-0.01063496991992,2.6668019927456E-05,-0.000729964580386877,0.00798279978334904
354,-0.0055411821231246,0.00512290559709072,-0.00948124006390572,2.71260905719828E-05,0.00286273844540119,0.00220367452129722
355,-0.00353025528602302,0.00317676435224712,-0.00848070345818996,2.7237436370342E-05,0.00471954233944416,-0.00433830125257373
356,-0.00154015456791967,0.00274376198649406,-0.00806108675897121,2.70203381660394E-05,0.00466419290751219,-0.00855872686952353
357,0.000868968723807484,0.0042295977473259,-0.00752567639574409,2.666297586984E-05,0.00471100676804781,-0.00836783181875944
358,0.00343795283697546,0.0075007057748735,-0.00668491888791323,2.64180671365466E-05,0.00538828270509839,-0.00438312580808997
359,0.00434403028339148,0.0106370812281966,-0.00660710316151381,2.64668578893179E-05,0.00503056589514017,0.000438625429524109
360,0.00263618677854538,0.0110589349642396,-0.00786712113767862,2.68256371782627E-05,0.00282315956428647,0.00337926903739572
361,-0.000326773792039603,0.0087062232196331,-0.00933906715363264,2.73428631771822E-05,0.000308559305267408,0.00440760934725404
362,-0.00341187324374914,0.00446629477664828,-0.0101450681686401,2.77852559520397E-05,-0.00148537056520581,0.00322000309824944
363,-0.00609604036435485,-0.000828954216558486,-0.0103193800896406,2.79641681117937E-05,-0.00292444927617908,-0.000463364965980873
364,-0.00687544792890549,-0.00496244244277477,-0.00909569021314383,2.78338357020402E-05,-0.00302235595881939,-0.00383116398006678
365,-0.00573754403740168,-0.00671239010989666,-0.0066269738599658,2.75105412583798E-05,-0.00137984694447368,-0.00509989773854613
366,-0.00519385002553463,-0.00642501376569271,-0.00499772978946567,2.72053348453483E-05,-0.000129365624161437,-0.00575345335528255
367,-0.00642034271731973,-0.0043657012283802,-0.00479620834812522,2.71090975729749E-05,-0.000200573253096081,-0.00596014084294438
368,-0.00711465859785676,-0.0001180394392577,-0.00384196126833558,2.72924517048523E-05,0.000506923766806722,-0.00286446325480938
369,-0.00618551671504974,0.0058896136470139,-0.00174072117079049,2.76729588222224E-05,0.00259197037667036,0.00389226200059056
370,-0.00654447637498379,0.0107713202014565,-0.00185535463970155,2.80643998848973E-05,0.00306925899349153,0.0100369462743402
371,-0.00884052366018295,0.0125684645026922,-0.00527167459949851,2.82790333585581E-05,0.00114385434426367,0.0130890095606446
372,-0.0105145927518606,0.01109429448843,-0.0094606950879097,2.82267810689518E-05,-0.000981832854449749,0.0138558419421315
373,-0.0106271933764219,0.00668266741558909,-0.0122568150982261,2.79590440186439E-05,-0.00247948872856796,0.0130513496696949
374,-0.00884999707341194,0.00133108533918858,-0.0118467640131712,2.76361806754721E-05,-0.00220197066664696,0.0108056422322989
375,-0.00458713434636593,-0.00227889604866505,-0.00738287763670087,2.74387512035901E-05,0.00177012314088643,0.00738287949934602
376,0.000538002408575267,-0.0028415119741112,-0.00108855299185961,2.74716185231227E-05,0.00773697951808572,0.00421424116939306
377,0.00324379932135344,-0.00145483249798417,0.00326678832061589,2.77117615041789E-05,0.0109294736757874,0.00315743079409003
378,0.00204195221886039,-0.000480503134895116,0.0039509879425168,2.80255717370892E-05,0.00932962074875832,0.00380537030287087
379,-0.00143390090670437,-0.000719778181519359,0.00241740955971181,2.824371222232E-05,0.00537094241008163,0.00381751335225999
380,-0.00442237686365843,-0.000684788799844682,0.00113341130781919,2.8251708499738E-05,0.00206348113715649,0.0028109266422689
381,-0.00567066576331854,0.000424873403972015,0.000841336615849286,2.80479362118058E-05,0.000248625496169552,0.00292016798630357
382,-0.00582757964730263,0.00106375222094357,0.000682589889038354,2.77397975878557E-05,-0.000815817678812891,0.00454972824081779
383,-0.00621065683662891,-0.000474095228128135,0.000174137428984977,2.74827361863572E-05,-0.00185467058327049,0.00501512316986918
384,-0.0071801096200943,-0.00335761671885848,0.000295434147119522,2.73965888482053E-05,-0.00249444250948727,0.00320326257497072
385,-0.00786445196717978,-0.00521263759583235,0.00162842648569494,2.75042602879694E-05,-0.00187812105286866,0.00118858728092164
386,-0.00725861778482795,-0.00478724436834455,0.00274440599605441,2.77239541901508E-05,1.03872089312063E-05,0.00127256312407553
387,-0.00505401799455285,-0.00206552352756262,0.00241437670774758,2.79167161352234E-05,0.0027640291955322,0.0042219515889883
388,-0.00240706047043204,0.00152319727931172,0.000896884477697313,2.79618288914207E-05,0.00579504016786814,0.00811341125518084
389,-0.000816356332506984,0.00403318786993623,-0.000752473075408489,2.78192746918648E-05,0.0079324608668685,0.00989528559148312
390,-0.000290951138595119,0.00478393444791436,-0.00161113939248025,2.75470501946984E-05,0.00844158697873354,0.0088896406814456
391,-0.000598578713834286,0.00362487300299108,-0.0021441001445055,2.72663673968054E-05,0.00740382401272655,0.00686751212924719
392,-0.00195596716366708,0.000971481786109507,-0.00304367044009268,2.70953805738827E-05,0.00563075952231884,0.00594854960218072
393,-0.0032368516549468,-0.00100157945416868,-0.0033903915900737,2.70876316790236E-05,0.00490726483985782,0.00687707588076591
394,-0.00243325531482697,0.000430334621341899,-0.00239152321591973,2.72072029474657E-05,0.00595604069530964,0.00798659864813089
395,0.000556609651539475,0.00515180034562945,-0.000601791893132031,2.73517871391959E-05,0.00701630860567093,0.00709987385198474
396,0.0027426250744611,0.00966617278754711,0.000861927634105086,2.74092981271679E-05,0.00573863554745913,0.00393138220533729
397,0.00204803608357906,0.0117319514974952,0.00151614262722433,2.73167752311565E-05,0.00218623038381338,0.00128473108634353
398,3.29614267684519E-05,0.0117281507700682,0.00176846049726009,2.70907530648401E-05,-0.00147381634451449,0.00218824087642133
399,-0.000853580713737756,0.0110693648457527,0.00216488260775805,2.68146868620534E-05,-0.00331244780682027,0.00599810993298888
400,-0.0007098299684003,0.010484978556633,0.00230723200365901,2.65922044491163E-05,-0.00330071267671883,0.0094935204833746
401,-0.0013450023252517,0.00840598810464144,0.00161873106844723,2.64923000941053E-05,-0.00293472851626575,0.00935064908117056
402,-0.00216051400639117,0.0044055413454771,0.0020126854069531,2.65153921645833E-05,-0.00194397522136569,0.00588717591017485
403,-0.000706351944245398,0.00125155260320753,0.00573488743975759,2.65967719315086E-05,0.0011832257732749,0.00362522155046463
404,0.00306941708549857,0.00128246820531785,0.0116293570026755,2.66436272795545E-05,0.00546526722609997,0.00654447544366121
405,0.00503837177529931,0.00309843244031072,0.0159982237964869,2.65845974354306E-05,0.00744082173332572,0.0140978116542101
406,0.00194804940838367,0.00405456265434623,0.0162439495325089,2.64054688159376E-05,0.00562791898846626,0.021199019625783
407,-0.00368078937754035,0.00430879974737763,0.0125020844861865,2.61533550656168E-05,0.00264253397472203,0.0226483102887869
408,-0.00763289490714669,0.0051231668330729,0.00647879205644131,2.5908981115208E-05,0.0012392740463838,0.0173963252454996
409,-0.00844262074679136,0.00667572394013405,0.000320856313919649,2.57432602666086E-05,0.00159369653556496,0.00925089325755835
410,-0.00641376851126552,0.0102183585986495,-0.00394730363041162,2.56814564636443E-05,0.00289426371455193,0.00396670866757631
411,-0.00282170972786844,0.0162372924387455,-0.00524899596348405,2.56929542956641E-05,0.00459085870534182,0.00375075056217611
412,-0.000109931715996936,0.0201023705303669,-0.004259979352355,2.57103074545739E-05,0.00634049484506249,0.00627438630908728
413,0.000517062086146325,0.0181041844189167,-0.00173009897116572,2.56659932347247E-05,0.00870263110846281,0.00953224953263998
414,0.000438260496594012,0.0127980206161737,0.00272975116968155,2.55269096669508E-05,0.0128153096884489,0.0128843085840344
415,0.00085183372721076,0.0073983296751976,0.00893842428922653,2.53091257036431E-05,0.0182899851351976,0.01443902682513
416,0.00191473006270826,0.00274197268299758,0.0155744953081012,2.50666234933306E-05,0.0235789995640516,0.0121020590886474
417,0.00327204610221088,-0.00146041007246822,0.0204925984144211,2.48615033342503E-05,0.0271052084863186,0.00647281063720584
418,0.00392043357715011,-0.00555483438074589,0.0218279827386141,2.47320367634529E-05,0.0270506050437689,0.00104792206548154
419,0.00393093749880791,-0.00860341731458902,0.0200006775557995,2.4674931410118E-05,0.0235711485147476,-0.00189105654135346
420,0.00399053236469626,-0.0103914011269808,0.0169146433472633,2.46498002525186E-05,0.0192396137863398,-0.00435990234836936
421,0.003306585829705,-0.0123073756694794,0.0133530469611287,2.46020026679616E-05,0.0149750206619501,-0.00833423063158989
422,0.00133743940386921,-0.0134834842756391,0.00941742677241564,2.44910424953559E-05,0.0106519889086485,-0.01078693382442
423,-0.00064341101096943,-0.011568027548492,0.00666865194216371,2.43098420469323E-05,0.00868737976998091,-0.00785250961780548
424,-0.00132318714167923,-0.00728197628632188,0.00684685399755836,2.40859426412499E-05,0.0112355640158057,-0.00138346990570426
425,-0.000805617775768042,-0.00350742810405791,0.00903108716011047,2.38653774431441E-05,0.0169173832982779,0.0032038395293057
426,6.10886345384642E-05,-0.00182998517993838,0.0102478601038456,2.36885862250347E-05,0.0225044712424278,0.0039699487388134
427,0.00115041609387845,-0.00106629822403193,0.00930443964898586,2.35709103435511E-05,0.0258795749396086,0.00588274002075195
428,0.00283187022432685,0.00163148692809045,0.00840778090059757,2.34969284065301E-05,0.0271404627710581,0.0143652549013495
429,0.00486788712441921,0.00606544548645616,0.00960417278110981,2.34303006436676E-05,0.0267310868948698,0.025395542383194
430,0.0050972499884665,0.00715138996019959,0.010915033519268,2.3333048375207E-05,0.0230079963803291,0.0285366922616959
431,0.00138538086321205,0.00250178668648005,0.00915716029703617,2.31841022468871E-05,0.0144157437607646,0.0200469307601452
432,-0.00305545283481479,-0.00277550937607884,0.00566201331093907,2.29882134590298E-05,0.00459063658490777,0.00695268902927637
433,-0.00299747637473047,-0.00372817367315292,0.00402001244947314,2.27717664529337E-05,-0.000746667094063014,-0.0031380329746753
434,0.0013583330437541,-0.0015029861824587,0.00426123989745975,2.25685907935258E-05,-0.00074562820373103,-0.00956158060580492
435,0.00576362758874893,0.000627807225100696,0.00430116383358836,2.24033719860017E-05,0.00154188752640039,-0.0145087726414204
436,0.00699830194935203,0.00175867625512183,0.00381101504899561,2.22806884266902E-05,0.00340650696307421,-0.0183545891195536
437,0.00441413791850209,0.00274176616221666,0.0030835100915283,2.21843183680903E-05,0.00379107450135052,-0.0208795145153999
438,-0.000143262310302816,0.00428485218435526,0.00222642626613379,2.2086278477218E-05,0.00369057711213827,-0.0210093203932047
439,-0.00370433158241212,0.00658285524696112,0.00168492447119206,2.19606299651787E-05,0.00473724724724889,-0.0163005702197552
440,-0.00589113589376211,0.0087979668751359,0.000637902121525258,2.17953420360573E-05,0.00586238130927086,-0.00751487724483013
441,-0.0081462049856782,0.00991318840533495,-0.00146128120832145,2.15970048884628E-05,0.00518077844753861,0.00107786851003766
442,-0.010505030862987,0.00968402344733477,-0.00360726774670184,2.13867733691586E-05,0.00307763973250985,0.0056006358936429
443,-0.0125770401209593,0.00813512317836285,-0.00546552008017898,2.11899841815466E-05,0.000710107560735196,0.00479656690731645
444,-0.0142087545245886,0.00620914297178388,-0.00664441240951419,2.10244525078451E-05,-0.000888564507476985,0.00167049956507981
445,-0.0149238454177976,0.00483051687479019,-0.00606917170807719,2.08926885534311E-05,-0.00121945585124195,0.000353063689544797
446,-0.0137075409293175,0.00402057077735662,-0.00325680221430957,2.07812936423579E-05,3.2525094866287E-05,0.00122510839719325
447,-0.00986081454902887,0.00373399071395397,0.000948115717619658,2.06674903893145E-05,0.00352631718851626,0.00170449411962181
448,-0.00557748740538955,0.00310018472373486,0.00350925093516707,2.05297128559323E-05,0.00740859005600214,-0.000594878743868321
449,-0.00393843371421099,0.00151299731805921,0.00248826434835792,2.03574818442576E-05,0.00852000527083874,-0.00545955542474985
450,-0.00485539948567748,-2.62970643234439E-05,-2.27533055294771E-05,2.01561942958506E-05,0.0067211976274848,-0.00963226146996021
451,-0.00671078730374575,-0.000611199880950153,-0.00192036514636129,1.99446621991228E-05,0.00367190106771886,-0.00999430473893881
452,-0.00827678479254246,-5.00896821904462E-05,-0.00307695474475622,1.97464833036065E-05,0.00101091840770096,-0.0069652353413403
453,-0.00815099850296974,0.0019556456245482,-0.00252333236858249,1.95790289581055E-05,0.000633086368907243,-0.00249053258448839
454,-0.00620065163820982,0.00537501275539398,0.000409259664593264,1.94450985873118E-05,0.00273695960640907,0.00296752154827118
455,-0.00439608236774802,0.00882575754076242,0.00338452821597457,1.9331235307618E-05,0.00486455019563437,0.00753579055890441
456,-0.00398063287138939,0.0107822204008698,0.0041337376460433,1.9213746782043E-05,0.00529046403244138,0.0081667099148035
457,-0.00377505016513169,0.0110942255705595,0.00418820139020681,1.90698974620318E-05,0.00520676467567682,0.00580921955406666
458,-0.00292129023000598,0.0100700538605452,0.00555724930018187,1.8889097191277E-05,0.00610433798283339,0.00356265669688582
459,-0.00215837731957436,0.00819558091461658,0.0068286806344986,1.86786164704245E-05,0.00765532674267888,0.00235212943516672
460,-0.0018778737867251,0.00652166642248631,0.0068463496863842,1.84607033588691E-05,0.00911885779350996,0.00182653404772282
461,-0.00176420412026346,0.00521593680605292,0.00666782353073359,1.82620751729701E-05,0.00983273424208164,0.00124910252634436
462,-0.00090887158876285,0.0032504484988749,0.00661384500563145,1.81006616912782E-05,0.00925542134791613,6.86020066495985E-05
463,0.00130721332971007,0.000352675589965656,0.00603535259142518,1.79761445906479E-05,0.00794761069118977,-0.00143660535104573
464,0.00405585905537009,-0.00233691069297493,0.00463444739580154,1.78693480847869E-05,0.00654599955305457,-0.00305592268705368
465,0.00550053780898452,-0.0040461546741426,0.00269314274191856,1.77512538357405E-05,0.00494929682463408,-0.00440948083996773
466,0.00473054498434067,-0.00501660583540797,0.000926058157347143,1.75975346792256E-05,0.00359457870945334,-0.0047870515845716
467,0.00382313062436879,-0.00534665444865823,0.000236249485169537,1.74013293872122E-05,0.00374383921734989,-0.00495634693652391
468,0.00475495588034391,-0.00487841665744781,0.000505771429743618,1.71775591297774E-05,0.0053802290931344,-0.00683907978236675
469,0.00565933156758547,-0.00471227150410414,3.55122610926628E-05,1.6956071704044E-05,0.00652839476242661,-0.0108328713104129
470,0.00376064726151526,-0.00732392026111484,-0.00208961754105985,1.67666785273468E-05,0.0057807695120573,-0.0159493759274483
471,0.000306582864141092,-0.0121634164825082,-0.00322643504478037,1.66235549841076E-05,0.0049163531512022,-0.020028255879879
472,-0.00139549653977156,-0.0156393069773912,-0.000519950699526817,1.65172077686293E-05,0.00632971152663231,-0.0210762191563845
473,-0.00191148079466075,-0.0165410302579403,0.00338793126866221,1.64185894391267E-05,0.00745965214446187,-0.0209141615778208
474,-0.00358749693259597,-0.0152459712699056,0.00386179587803781,1.62936976266792E-05,0.00413134507834911,-0.0223534181714058
475,-0.00580766517668962,-0.0118627455085516,0.00127455976326019,1.61213774845237E-05,-0.00233591161668301,-0.0234868824481964
476,-0.00640468997880816,-0.00772500690072775,-7.25269346730784E-05,1.59049741341732E-05,-0.00689679058268666,-0.0200893934816122
477,-0.0050413915887475,-0.00497407047078013,0.00151786347851157,1.56714049808215E-05,-0.00735640898346901,-0.0128132654353976
478,-0.00394216645509005,-0.00569598376750946,0.00324038718827069,1.54576464410638E-05,-0.00648167729377747,-0.00736751966178417
479,-0.00427635759115219,-0.010113756172359,0.00292232818901539,1.52914271893678E-05,-0.00712355552241206,-0.00772722950205207
480,-0.0048102755099535,-0.0157513469457626,0.00164377794135362,1.5176188753685E-05,-0.00874088238924742,-0.0131419943645597
481,-0.00522510381415486,-0.0202723275870085,0.000351718597812578,1.50885416587698E-05,-0.0108545860275626,-0.0206744838505983
482,-0.00577358482405543,-0.0221465732902288,-0.0012482994934544,1.49899797179387E-05,-0.0139841362833977,-0.026808213442564
483,-0.00550022535026073,-0.0204316880553961,-0.00270574120804667,1.48470098793041E-05,-0.017077561467886,-0.0290658678859472
484,-0.00349760591052473,-0.0160603299736977,-0.00301140896044672,1.46491947816685E-05,-0.0183997675776482,-0.0275159031152725
485,-2.23208171519218E-05,-0.0112008666619658,-0.00190182612277567,1.4415338227991E-05,-0.0171064399182796,-0.0236511994153261
486,0.00282477284781635,-0.00816480442881584,-0.000659056939184666,1.41841774166096E-05,-0.0144105181097984,-0.0200370363891125
487,0.0031642047688365,-0.00794802885502577,-0.000889756309334189,1.39941366796847E-05,-0.0123942578211427,-0.0191893167793751
488,0.00185706652700901,-0.00905944965779781,-0.00238152383826673,1.38627592605189E-05,-0.011049565859139,-0.0211837012320757
489,0.000984358368441463,-0.00916533451527357,-0.00318556395359337,1.37768383865478E-05,-0.00857326202094555,-0.0239084325730801
490,0.00162885221652687,-0.00719039421528578,-0.00180171499960124,1.36988401209237E-05,-0.00423538126051426,-0.0252538975328207
491,0.00281792972236872,-0.0037370293866843,0.000522909685969353,1.35865293486859E-05,-0.000432344881119207,-0.0249666068702936
492,0.00254987692460418,-0.00113258592318743,0.00148400536272675,1.34155434352579E-05,5.48578063899186E-05,-0.0238627791404724
493,0.000779527763370425,-0.00185682531446218,0.00138065044302493,1.31928245536983E-05,-0.00205396790988743,-0.0215599071234465
494,-0.00017355328600388,-0.00491945911198854,0.00213986495509744,1.29534882944427E-05,-0.00391997816041112,-0.0177035070955753
495,0.000785562733653933,-0.0072501702234149,0.00378194218501449,1.27424809761578E-05,-0.00442250352352858,-0.0144123174250126
496,0.00187339505646378,-0.00833540596067905,0.0044174580834806,1.25906117318664E-05,-0.00451021734625101,-0.014702376909554
497,0.00148623890709132,-0.00910589098930359,0.00314016966149211,1.24977696032147E-05,-0.00470252428203821,-0.0185566004365683
498,0.000593715114519,-0.00875922106206417,0.00120697892270982,1.24324969874579E-05,-0.00470563303679228,-0.0216647349298
499,0.000555839855223894,-0.00639030011370778,-0.000152346910908818,1.23484269352048E-05,-0.00520448014140129,-0.0202680360525846
500,0.000353725772583857,-0.00319208507426083,-0.00170775898732245,1.22089977594442E-05,-0.008113251067698,-0.0159860644489527
501,-0.00124805304221809,-0.00109738344326615,-0.00406678626313806,1.20072645586333E-05,-0.0136659797281027,-0.0120577495545149
502,-0.00303779379464686,-0.00120782037265599,-0.00603629415854812,1.17700392365805E-05,-0.0195351708680391,-0.00913935992866755
503,-0.00373870832845569,-0.00375588680617511,-0.00702163344249129,1.15439115688787E-05,-0.0239410810172558,-0.00858132168650627
504,-0.00289853359572589,-0.00729065854102373,-0.00671483622863889,1.13704363684519E-05,-0.0252297688275576,-0.0107402522116899
505,-0.000600977975409478,-0.0096117127686739,-0.00400433083996177,1.12637198981247E-05,-0.0219339411705732,-0.010821140371263
506,0.00180632260162383,-0.0102542294189334,0.000963142665568739,1.12025245471159E-05,-0.0156181855127215,-0.00550633110105991
507,0.0038017425686121,-0.00922191888093948,0.00671088835224509,1.11413255581283E-05,-0.00886592641472816,0.00140329811256379
508,0.00519240973517299,-0.00744625180959702,0.0111053418368101,1.10345699795289E-05,-0.00312893302179873,0.00337229133583605
509,0.00550671620294452,-0.00725182564929128,0.0131653640419245,1.08611993709928E-05,0.00120078434702009,-0.00123658101074398
510,0.00535180326551199,-0.0094272131100297,0.0143392821773887,1.06362194856047E-05,0.00448268465697765,-0.0089828884229064
511,0.00511084729805589,-0.0126571860164404,0.0155338700860739,1.04029422800522E-05,0.00671078450977802,-0.0172949265688658
512,0.00476602464914322,-0.0140892695635557,0.0163169354200363,1.02099093055585E-05,0.00776356970891356,-0.0246751122176647
513,0.00445318082347512,-0.0122076710686088,0.0160409640520811,1.00848055808456E-05,0.00750264851376414,-0.028721746057272
514,0.00435243267565966,-0.00866705179214478,0.0140645280480385,1.00194047263358E-05,0.00589037826284766,-0.0274826176464558
515,0.00546537432819605,-0.0048892111517489,0.0114973923191428,9.97375082079088E-06,0.00436664372682571,-0.021091727539897
516,0.00795281492173672,-0.00111843436025083,0.0102560631930828,9.89747331914259E-06,0.00445989612489939,-0.011960793286562
517,0.0090540973469615,0.000901408726349473,0.00937132351100445,9.75684270088095E-06,0.00457668583840132,-0.00467449892312288
518,0.00693372450768948,0.000122065248433501,0.0075982678681612,9.55303585215006E-06,0.00263391924090683,-0.0021939454600215
519,0.0034704792778939,-0.000824356568045914,0.00650839367881417,9.32168677536538E-06,-0.000346761284163222,-0.00246560201048851
520,2.71564167633187E-05,-0.000235379338846542,0.00611891131848097,9.11387451196788E-06,-0.00322124292142689,-0.00395566876977682
521,-0.00338493334129453,0.00120860477909446,0.00495413830503821,8.96869278221857E-06,-0.00532351853325963,-0.0067240591160953
522,-0.00551206571981311,0.00363597413524985,0.00389357120729983,8.89215516508557E-06,-0.00534559227526188,-0.00797523371875286
523,-0.004927565343678,0.00667410343885422,0.00429963413625956,8.85383542481577E-06,-0.00353999622166157,-0.00451499689370394
524,-0.00147434358950704,0.00835546851158142,0.00585646880790591,8.80313200468663E-06,-0.00144172820728272,0.00283718109130859
525,0.00346312718465924,0.00698263896629214,0.00707309180870652,8.69645100465277E-06,-0.000346402899594978,0.00881520099937916
526,0.00752978539094329,0.00288814841769636,0.00671282503753901,8.52070388646098E-06,-0.000792498991359025,0.00855072308331728
527,0.00920906290411949,-0.00211841776035726,0.00550072314217687,8.30042699817568E-06,-0.00140368810389191,0.0023403421510011
528,0.00913980696350336,-0.00662901997566223,0.00513875018805265,8.08464756119065E-06,0.000410324515542015,-0.00647270772606134
529,0.00838212482631207,-0.0106056034564972,0.00488499738276005,7.92053288023453E-06,0.00411525135859847,-0.0154871875420213
530,0.00715898768976331,-0.0142564037814736,0.0029028644785285,7.82799725129735E-06,0.00586469192057848,-0.0230431780219078
531,0.00622315285727382,-0.0163866896182299,0.000187015524716116,7.78895719122374E-06,0.00452434085309505,-0.0269096661359072
532,0.00645848363637924,-0.016402430832386,-0.000946648593526334,7.75703756517032E-06,0.00267314515076578,-0.025459960103035
533,0.00741717824712396,-0.0160131864249706,-5.05407515447587E-05,7.68253448768519E-06,0.00203864509239793,-0.0202790461480618
534,0.00783514697104692,-0.0162910576909781,0.00161775923334062,7.53916583562386E-06,0.00209843087941408,-0.0152155477553606
535,0.00673219608142972,-0.0165277477353811,0.00264287763275206,7.3382188929827E-06,0.00150311389006674,-0.0124760195612907
536,0.00400023022666574,-0.0164137855172157,0.0031844365876168,7.12245810063905E-06,-0.000489601166918874,-0.012400041334331
537,0.000622915627900511,-0.0168996304273605,0.00447471207007766,6.94308073434513E-06,-0.00328977266326547,-0.0150154177099466
538,-0.00137908617034554,-0.0182553194463253,0.00658795423805714,6.8321560320328E-06,-0.00524193281307817,-0.0179042778909206
539,-0.000632371404208243,-0.0184426810592413,0.00838582590222359,6.78539208820439E-06,-0.00552373705431819,-0.0166627485305071
540,0.00153438455890864,-0.0158097613602877,0.00866326130926609,6.76450736136758E-06,-0.00539075024425983,-0.0111748725175858
541,0.00309621333144605,-0.0103547004982829,0.00745738856494427,6.71789985062787E-06,-0.00613858876749873,-0.00568511243909597
542,0.00356669607572258,-0.00343393650837243,0.00573516963049769,6.60844352751155E-06,-0.00782744772732258,-0.00284027773886919
543,0.00319837057031691,0.00136071478482336,0.00426467694342136,6.43343446427025E-06,-0.00960031617432833,-0.00128267332911491
544,0.00206962437368929,0.00090597994858399,0.00329260970465839,6.22595189270214E-06,-0.0105818826705217,0.000918979407288134
545,0.000631341594271362,-0.00395387364551425,0.00275864591822028,6.03695298195817E-06,-0.0101597439497709,0.00298599642701447
546,0.000126851111417636,-0.00911068171262741,0.00308291101828218,5.90779973208555E-06,-0.00769725115969777,0.0037001755554229
547,0.00145220523700118,-0.0114221926778555,0.00457074539735913,5.84804092795821E-06,-0.00384515011683106,0.00238563795574009
548,0.00350817176513374,-0.0112991603091359,0.00594100030139089,5.83039263801766E-06,-0.00133347988594323,-0.00236723874695599
549,0.00478716054931283,-0.0101409573107958,0.00621031085029244,5.80556388740661E-06,-0.0018864965531975,-0.00999429263174534
550,0.00523384613916278,-0.009051195345819,0.00603499077260494,5.72886438021669E-06,-0.00456909276545048,-0.0164145734161139
551,0.00434737140312791,-0.0100912749767303,0.00510576646775007,5.58422379981494E-06,-0.00879428349435329,-0.01812500692904
552,0.00179962534457445,-0.0140721453353763,0.00276283966377378,5.39270013177884E-06,-0.0138079207390547,-0.0161516144871712
553,-0.00125770922750235,-0.0192011576145887,1.77113033714704E-05,5.20097182743484E-06,-0.0174075961112976,-0.0145016741007566
554,-0.00345360906794667,-0.0230634398758411,-0.00152260018512607,5.05610159962089E-06,-0.0184746999293566,-0.014571106992662
555,-0.00375619484111667,-0.0238435659557581,-0.00111484981607646,4.98022382089403E-06,-0.017365749925375,-0.0134047279134393
556,-0.00257266964763403,-0.0219761617481709,0.000412686524214223,4.95878157380503E-06,-0.0152697153389454,-0.00865210685878992
557,-0.00236922479234636,-0.0204532612115145,0.00102757080458105,4.94856840305147E-06,-0.0143611636012793,-0.00332770659588277
558,-0.00410709204152226,-0.0204269327223301,-0.00010963805107167,4.9011318878911E-06,-0.0148724308237433,-0.00240686209872365
559,-0.00592000270262361,-0.0200120080262423,-0.00158751453272998,4.78885976917809E-06,-0.0152171067893505,-0.00727261323481798
560,-0.00655671115964651,-0.0177208315581083,-0.00194793601986021,4.61968647869071E-06,-0.0156697183847427,-0.015759514644742
561,-0.00560194626450539,-0.0121823810040951,-0.000464331096736714,4.43259204985225E-06,-0.016536908224225,-0.0230950135737658
562,-0.00376102770678699,-0.00318684615194798,0.00180114700924605,4.27643135481048E-06,-0.0174541715532541,-0.0257744919508696
563,-0.00269584124907851,0.00577001925557852,0.00300888530910015,4.18360150433728E-06,-0.0181927550584078,-0.0247990414500237
564,-0.00178440741728991,0.0108610074967146,0.00434333039447665,4.15274689657963E-06,-0.0168776698410511,-0.0221901405602694
565,-1.84925211215159E-05,0.0105659430846572,0.00676970044150949,4.14974238083232E-06,-0.0130776716396213,-0.0197824276983738
566,0.000571099924854934,0.00480322819203138,0.00721554039046168,4.12628378398949E-06,-0.0104244090616703,-0.0196700468659401
567,-0.00178684119600803,-0.00436992198228836,0.00364345824345946,4.04596039516036E-06,-0.0112407924607396,-0.0219687502831221
568,-0.00505137350410223,-0.0127255078405142,-0.000479892594739795,3.90372269976069E-06,-0.0128873214125633,-0.0240365006029606
569,-0.0068226782605052,-0.0172016434371471,-0.00117010134272277,3.72833596884448E-06,-0.0127544356510043,-0.0233579594641924
570,-0.007021923083812,-0.0174597930163145,0.000300628831610084,3.56663304046378E-06,-0.0116503508761525,-0.0210026931017637
571,-0.0062503763474524,-0.0146383531391621,0.000129518011817709,3.4581948966661E-06,-0.0110830208286643,-0.0195758063346148
572,-0.00538596045225859,-0.0110166482627392,-0.00275790248997509,3.41414738613821E-06,-0.0116345584392548,-0.0188524294644594
573,-0.0044883731752634,-0.00818766560405493,-0.00598768517374992,3.41144141202676E-06,-0.0125873852521181,-0.0158044490963221
574,-0.0023003660608083,-0.00613229395821691,-0.0069388416595757,3.40554925060133E-06,-0.0122338077053428,-0.00988991837948561
575,0.00178303336724639,-0.00449594389647245,-0.00515993172302842,3.35458571498748E-06,-0.00930433068424463,-0.00480199092999101
576,0.00606079632416368,-0.00350362318567932,-0.00186253793071955,3.24177790389513E-06,-0.00434586685150862,-0.0033073469530791
577,0.00752137694507837,-0.00425287568941712,0.00140874460339546,3.08422636408068E-06,-3.27354864566587E-05,-0.00500219967216253
578,0.00576049787923694,-0.00651535904034972,0.00385518302209675,2.92338108920376E-06,0.00158564408775419,-0.00825267750769854
579,0.00278251362033188,-0.00916681438684464,0.00467796344310045,2.80253107121098E-06,0.000753860629629344,-0.0129927638918161
580,0.000673470669426024,-0.011723555624485,0.00377137120813131,2.74353828899621E-06,-0.000462294818134978,-0.019216850399971
581,0.000725678459275514,-0.0124793453142047,0.00245648645795882,2.73532168648671E-06,0.000171868450706825,-0.023898646235466
582,0.00129142962396145,-0.010469451546669,0.000785358482971787,2.74015883405809E-06,0.00192156725097448,-0.0246257800608873
583,-9.08271031221375E-05,-0.00802032742649317,-0.00158090982586145,2.71422595687909E-06,0.00227217585779727,-0.0220151897519827
584,-0.0023804591037333,-0.00715278647840023,-0.00326825981028378,2.63119136434398E-06,0.000774320040363818,-0.0172319244593382
585,-0.00395441055297852,-0.00819260720163584,-0.00435374164953828,2.49615322900354E-06,-0.00226716953329742,-0.0121484817937016
586,-0.00550891878083348,-0.0113319773226976,-0.00656784465536475,2.3425413928635E-06,-0.00691507011651993,-0.00889610592275858
587,-0.0068981871008873,-0.0143675273284316,-0.00854011997580528,2.21384493670485E-06,-0.010905715636909,-0.00719051109626889
588,-0.0068826419301331,-0.01401003357023,-0.00763485068455338,2.14014880839386E-06,-0.0110335620120168,-0.00503037730231881
589,-0.00601984839886427,-0.0110394563525915,-0.00467454688623548,2.12214604289329E-06,-0.00723548978567123,-0.00165718165226281
590,-0.00620433082804084,-0.00872706715017557,-0.00227281637489796,2.13111820812628E-06,-0.00270886672660708,0.000930052250623703
591,-0.00744534283876419,-0.0080328406766057,-0.00102147809229791,2.1247042241157E-06,0.00036682264180854,0.000818068045191467
592,-0.00728985015302897,-0.00721760839223862,0.00090265809558332,2.06979757422232E-06,0.00290954834781587,-0.00110105937346816
593,-0.0041143661364913,-0.00489000556990504,0.00467008212581277,1.96019095710653E-06,0.00628357101231813,-0.00263338955119252
594,-0.000241449946770445,-0.00253963517025113,0.00821174960583448,1.81956158940011E-06,0.00972503330558538,-0.00286837667226791
595,0.000456772977486253,-0.00244273105636239,0.0086224228143692,1.68838118952408E-06,0.011220439337194,-0.00251264055259526
596,-0.00266732601448894,-0.0041540153324604,0.00575505150482059,1.60198339926865E-06,0.00992137566208839,-0.0026314347051084
597,-0.0072534903883934,-0.00587076554074883,0.00194063282106072,1.57167596626095E-06,0.0066379583440721,-0.00392387760803103
598,-0.00939361937344074,-0.00602123280987144,0.00120568193960935,1.57899455643928E-06,0.00465051410719752,-0.00466516613960266
599,-0.00698993634432554,-0.00395086314529181,0.00566337257623672,1.58600676058995E-06,0.00703762518242002,-0.00231591612100601
600,-0.00290708430111408,-0.000806370691861957,0.0119124390184879,1.55591953898693E-06,0.0120043465867639,0.00285465875640512
601,-0.00130633113440126,0.00172320986166596,0.0146878799423575,1.47279115481069E-06,0.0148597192019224,0.00857393350452185
602,-0.00309249246492982,0.0026679472066462,0.0118785547092557,1.34978495225369E-06,0.0128289181739092,0.0126238754019141
603,-0.00581325497478247,0.0019281052518636,0.00545398471876979,1.22169592486898E-06,0.0075819194316864,0.0137002244591713
604,-0.00742793129757047,-0.000687875144649297,-0.00128238182514906,1.12598240775696E-06,0.00255942554213107,0.0110587850213051
605,-0.00760780274868011,-0.00377099053002894,-0.00608909502625465,1.08264316622808E-06,-0.000602034211624414,0.00614997092634439
606,-0.00666370196267962,-0.00465684244409204,-0.0083644725382328,1.08374911178544E-06,-0.00203687162138522,0.00268280366435647
607,-0.00603776983916759,-0.00417965184897184,-0.00885005015879869,1.09810491721873E-06,-0.00308544142171741,0.00253627728670835
608,-0.00628218660131097,-0.00451223691925406,-0.00781988818198442,1.08831477518834E-06,-0.00388230313546956,0.00478655798360705
609,-0.00597743550315499,-0.00488536199554801,-0.0055069294758141,1.03091633718577E-06,-0.00316729443147779,0.00824381224811077
610,-0.00398290297016501,-0.00366218108683825,-0.00337920826859772,9.28738700167742E-07,-0.00128108251374215,0.0126401400193572
611,-0.000422069919295609,-0.000533812853973359,-0.0020449124276638,8.08978313671105E-07,0.000729990366380662,0.017438780516386
612,0.00326984492130578,0.00336097995750606,-0.000847434042952955,7.08243419467181E-07,0.00278016272932291,0.0204075872898102
613,0.00548963528126478,0.00609540939331055,0.000753592466935515,6.52788060051535E-07,0.00500348815694451,0.0200670808553696
614,0.00567933637648821,0.00691012246534228,0.00290203397162259,6.44607951016951E-07,0.00693551078438759,0.0185399912297726
615,0.00431110523641109,0.006603445392102,0.00481766136363149,6.60757223158726E-07,0.00777438655495644,0.0185235515236855
616,0.00283577549271286,0.00605696951970458,0.00563786691054702,6.66041330532607E-07,0.00751061132177711,0.0195425767451525
617,0.00208805524744093,0.00548564223572612,0.00523523334413767,6.32066019079502E-07,0.00700723519548774,0.0191525015980005
618,0.00126608333084732,0.00481959339231253,0.00391116319224238,5.52330732261908E-07,0.00709862913936377,0.0163070522248745
619,-0.000236630366998725,0.00446654297411442,0.00259483116678894,4.45342635657653E-07,0.00788206420838833,0.0121555021032691
620,-0.00171689188573509,0.00536220846697688,0.00199202657677233,3.4428231288075E-07,0.00902435090392828,0.0084056556224823
621,-0.00221644318662584,0.00763378199189901,0.00183527579065412,2.78984458645937E-07,0.0101605551317334,0.00625380640849471
622,-0.00192398601211607,0.00943806767463684,0.00161976844538003,2.600170603273E-07,0.0104975970461965,0.00511146523058414
623,-0.00176790484692901,0.00886901561170816,0.00109623942989856,2.73352611657174E-07,0.00941437389701605,0.00348337576724589
624,-0.00191555742640048,0.00624614302068949,9.93351204670034E-05,2.88302999251755E-07,0.00698302499949932,0.00216487981379032
625,-0.00201068166643381,0.00364706059917808,-0.00140201475005597,2.74237095254648E-07,0.00385861261747777,0.00271137990057468
626,-0.00228806864470243,0.00319708557799459,-0.00311183743178844,2.16973219835381E-07,0.00125818431843072,0.00422837864607573
627,-0.00298151816241443,0.00586632126942277,-0.00428492156788707,1.26072919215403E-07,0.00029764516511932,0.00502138957381248
628,-0.00303986435756087,0.0108052305877209,-0.0038383009377867,2.92930781853329E-08,0.00131832109764218,0.00505132740363479
629,-0.00152937939856201,0.0157901998609304,-0.00204770639538765,-4.26018509358528E-08,0.00322054116986692,0.00600277539342642
630,0.0011996675748378,0.0194468777626753,-0.000261061242781579,-7.23604003383116E-08,0.00466477172449231,0.00944337341934443
631,0.00382519909180701,0.0210780799388886,0.000958225049544126,-6.52284128932479E-08,0.00537001900374889,0.0136311165988445
632,0.00481941597536206,0.0203183256089687,0.00187594932503998,-4.57267113063153E-08,0.00571978371590376,0.0148265734314919
633,0.0039152349345386,0.0177263263612986,0.00270620197989047,-4.41742535883805E-08,0.00634769909083843,0.0116348713636398
634,0.00205873814411461,0.014188096858561,0.00289549166336656,-8.03627173695531E-08,0.00688481796532869,0.00627738237380981
635,0.000279093539575115,0.0109069123864174,0.00208393018692732,-1.53173886019431E-07,0.00574286468327045,0.00190654885955155
636,-0.000947976252064109,0.00862959306687117,0.000494575710035861,-2.41582711169031E-07,0.00250080716796219,-0.00107241375371814
637,-0.00143327179830521,0.00722585851326585,-0.00147764151915908,-3.16290254431806E-07,-0.00111825368367136,-0.00337272207252681
638,-0.00178276852238923,0.00537480413913727,-0.00350032700225711,-3.55556181830252E-07,-0.00388437206856906,-0.00504976091906428
639,-0.0031533120200038,0.00264956476166844,-0.00579940993338823,-3.56677901436342E-07,-0.00669688312336802,-0.006638053804636
640,-0.00572943268343806,0.00103613373357803,-0.00876308511942625,-3.37060896526964E-07,-0.010868526995182,-0.00873303599655628
641,-0.00808634608983994,0.00131975195836276,-0.0114532914012671,-3.24514928706776E-07,-0.0152565883472562,-0.0108320005238056
642,-0.00900281127542257,0.00188504811376333,-0.0128093073144555,-3.4218112432427E-07,-0.0180834420025349,-0.0109739005565643
643,-0.00930635072290897,0.00135792896617204,-0.0139738535508513,-3.96260418256134E-07,-0.0198991317301989,-0.00764056434854865
644,-0.00873173773288727,0.00149733200669289,-0.0152038298547268,-4.73048743288018E-07,-0.0202330593019724,-0.000659909856040031
645,-0.0056323348544538,0.00446000089868903,-0.0149372350424528,-5.46674016277393E-07,-0.0174930077046156,0.00881112366914749
646,-0.00116632285062224,0.00806404184550047,-0.0134958298876882,-5.9317710565665E-07,-0.012973515316844,0.0175796058028936
647,0.00227273954078555,0.00915771257132292,-0.0121077001094818,-6.03277044319839E-07,-0.00911340955644846,0.0218858271837235
648,0.00401260331273079,0.00751479715108871,-0.0107572916895151,-5.87023237130779E-07,-0.00680649746209383,0.0203528720885515
649,0.00415390683338046,0.00417088624089956,-0.00936596095561981,-5.68019629554328E-07,-0.00609583826735616,0.0148547906428576
650,0.00327819446101785,0.000441462820162997,-0.00792726408690214,-5.7052892543652E-07,-0.00634902063757181,0.00760865863412619
651,0.00242001353763044,-0.00199760007672012,-0.00621219351887703,-6.06502624123095E-07,-0.00635248888283968,-0.000144765130244195
652,0.00259504118002951,-0.00224070553667843,-0.00462268898263574,-6.69468079195212E-07,-0.00480870716273785,-0.00675187725573778
653,0.00434084050357342,-0.00054723909124732,-0.00383346527814865,-7.38390951937618E-07,-0.00117944553494453,-0.0102801378816366
654,0.00722913583740592,0.00221384153701365,-0.00356570235453546,-7.89230512054928E-07,0.00421998044475913,-0.00952891726046801
655,0.0102907381951809,0.00472561037167907,-0.0030211319681257,-8.0784485589902E-07,0.0111141242086887,-0.00588781293481588
656,0.0118380766361952,0.00547637883573771,-0.00259596644900739,-7.97322456946858E-07,0.0179544165730476,-0.00309144682250917
657,0.00990024581551552,0.00416772998869419,-0.00315693859010935,-7.759490472381E-07,0.021658955141902,-0.00333279115147889
658,0.00473467446863651,0.00229816534556448,-0.00395727809518576,-7.67106200783019E-07,0.0207674950361252,-0.00567676639184356
659,-0.000232951337238774,0.0022070815321058,-0.00347355916164815,-7.86679379416455E-07,0.0168011952191591,-0.00799823366105556
660,-0.00175913132261485,0.00518444553017616,-0.00148643413558602,-8.34756463063968E-07,0.0127412602305412,-0.00920552108436823
661,-0.000850936921779066,0.00966838095337152,0.000263474154053256,-8.95949256118911E-07,0.0101692825555801,-0.00983479712158442
662,-0.000616948294918984,0.0124656865373254,-0.000308567949105054,-9.47967180309206E-07,0.00775343086570501,-0.0105284871533513
663,-0.0011479533277452,0.0120793608948588,-0.00262248935177922,-9.7367342277721E-07,0.00465639447793365,-0.0098642073571682
664,-0.000496014021337032,0.00949653144925833,-0.00411800295114517,-9.70106839304208E-07,0.00236033764667809,-0.00558049371466041
665,0.00199113530106843,0.0065187057480216,-0.00331110530532897,-9.49726711496623E-07,0.00222677062265575,0.00110641878563911
666,0.00468892743811011,0.00399029860273004,-0.000990537460893393,-9.33401793190569E-07,0.00370338372886181,0.00569003541022539
667,0.00607857061550021,0.00243672169744968,0.00147708819713444,-9.39082326567586E-07,0.00561110489070416,0.00609337957575917
668,0.00636247359216213,0.00268249423243105,0.00327378720976412,-9.7230372375634E-07,0.00717323366552591,0.00375511916354299
669,0.00545197632163763,0.00369796459563077,0.00336038949899375,-1.02354226783064E-06,0.00716967601329088,0.000463143107481301
670,0.00325282174162567,0.00371001078747213,0.00169594842009246,-1.07366622614791E-06,0.00504214037209749,-0.000982178607955575
671,0.000350073300069198,0.0025552180595696,-0.000660166144371033,-1.1043736094507E-06,0.00113464694004506,0.0021164370700717
672,-0.00231057568453252,0.00087746576173231,-0.00269596534781158,-1.10792768737156E-06,-0.00353853544220328,0.00822211895138025
673,-0.00297793815843761,-0.000514704966917634,-0.00320613058283925,-1.0910159744526E-06,-0.00628190208226442,0.0132651766762137
674,-0.000636094424407929,-0.000489165657199919,-0.0013471181737259,-1.07082462363906E-06,-0.00457317335531116,0.0157042220234871
675,0.00279922899790108,0.00132786436006427,0.00166349729988724,-1.06561776647141E-06,0.000425300881033763,0.0161177255213261
676,0.00548704527318478,0.00461934227496386,0.00405479595065117,-1.08498454665096E-06,0.00569268828257918,0.0144930314272642
677,0.00780864991247654,0.00896883197128773,0.00558989867568016,-1.12495979465166E-06,0.00963111501187086,0.0102765401825309
678,0.00961579382419586,0.0122793326154351,0.00624783337116241,-1.17049194159335E-06,0.0115306181833148,0.00458733225241303
679,0.0109398616477847,0.0131161632016301,0.00650832988321781,-1.20375034384779E-06,0.0121114375069737,0.00242671836167574
680,0.0123780416324735,0.0130139635875821,0.00722488854080439,-1.21369430416962E-06,0.0121582625433803,0.00766383018344641
681,0.0128258028998971,0.0121236583217978,0.00761979259550571,-1.20177116968989E-06,0.0104315988719463,0.0154098300263286
682,0.0111505622044206,0.00886504445225,0.00627582333981991,-1.18081391065061E-06,0.00637478474527597,0.0182212740182877
683,0.00903387367725372,0.00407060934230685,0.00405212724581361,-1.16790749871143E-06,0.0025414633564651,0.0166518818587065
684,0.00838905666023493,-0.000204744123038836,0.00259732571430504,-1.17518595743604E-06,0.00142709026113153,0.0139202922582626
685,0.00803391356021166,-0.00318333087489009,0.00135117885656655,-1.20351558052789E-06,0.00167966564185917,0.00970390252768993
686,0.00686404388397932,-0.00423210812732577,0.000457415619166568,-1.24234782106214E-06,0.00139674916863441,0.00515667116269469
687,0.00618865340948105,-0.00241351197473705,0.00166825286578387,-1.27564931062807E-06,0.00111331802327186,0.00380590744316578
688,0.00727066397666931,0.00219748006202281,0.00440484005957842,-1.29058275888383E-06,0.00141991907730699,0.00599626451730728
689,0.00959351565688849,0.00746695185080171,0.00554531905800104,-1.28424505874136E-06,0.0015275152400136,0.00729894824326038
690,0.0116586601361632,0.0104909958317876,0.00348161091096699,-1.26493057450716E-06,0.000692371453624219,0.00410066358745098
691,0.0130340484902263,0.0111919725313783,0.000627079862169921,-1.24740540741186E-06,6.17150944890454E-05,-0.00140479695983231
692,0.0136037077754736,0.0111197242513299,-0.000517008360475302,-1.24487701214093E-06,0.000554186350200325,-0.00506011210381985
693,0.0125818802043796,0.0102340709418058,-0.00079661124618724,-1.26202530736919E-06,0.00109430693555623,-0.00593331782147288
694,0.0105547700077295,0.00865979492664337,-0.00127283215988427,-1.29276804727851E-06,0.00140151416417211,-0.00397966662421823
695,0.00949740223586559,0.00750129064545035,-0.000879036728292704,-1.32381069306575E-06,0.00275861099362373,0.00172144861426204
696,0.00958166550844908,0.00607913732528687,0.000634989643003792,-1.34192225687002E-06,0.00523852789774537,0.00802243035286665
697,0.00822387356311083,0.00254779448732734,0.000611774623394012,-1.34096057990973E-06,0.00646131718531251,0.00804955512285233
698,0.00478474330157042,-0.00208069547079504,-0.00187385722529143,-1.32492175453081E-06,0.00530045852065086,0.00097785028629005
699,0.00229563284665346,-0.00473603699356318,-0.00384045881219208,-1.30551438815019E-06,0.00393814081326127,-0.00593119394034147
700,0.00252433423884213,-0.00404974864795804,-0.00332173798233271,-1.29571401430439E-06,0.00406964914873242,-0.00689805205911398
701,0.00493919383734465,-4.66152487206273E-05,-0.000920637045055628,-1.30284263377689E-06,0.00557180400937796,-0.00248972931876779
702,0.00882718712091446,0.00652735028415918,0.00224563828669488,-1.32486275106203E-06,0.00790272187441587,0.00450091157108545
703,0.0121389590203762,0.0120106376707554,0.00428505660966039,-1.35175253035413E-06,0.00921692885458469,0.0105351563543081
704,0.0128543293103576,0.0128574017435312,0.0039640087634325,-1.37107303999073E-06,0.0081196641549468,0.0117324218153954
705,0.0117770712822676,0.0106297554448247,0.00281880144029856,-1.37464064664528E-06,0.00656695524230599,0.00802490208297968
706,0.0100344810634851,0.00857240054756403,0.00206212815828621,-1.36273069983872E-06,0.00654734252020717,0.00189984240569174
707,0.00782815366983414,0.00757243158295751,0.000949478649999946,-1.34366121073981E-06,0.00755683286115527,-0.00469499593600631
708,0.0063791093416512,0.00724922679364681,-0.000578096427489072,-1.32912816752651E-06,0.00881775189191103,-0.00924956984817982
709,0.00676037883386016,0.0074670766480267,-0.0015660235658288,-1.32790319185006E-06,0.00973164942115545,-0.00883125513792038
710,0.00767253013327718,0.00761098740622401,-0.00238111661747098,-1.34128754325502E-06,0.0086006997153163,-0.00353344343602657
711,0.00773903308436275,0.00662265298888087,-0.00369522674009204,-1.36267419748037E-06,0.00495478650555015,0.00313140987418592
712,0.00740599445998669,0.00469966605305672,-0.00440612295642495,-1.38131144922227E-06,0.0012661007931456,0.0081411749124527
713,0.00701857265084982,0.00351537019014359,-0.00391730153933167,-1.38813300054608E-06,-0.00127556081861258,0.0110199954360724
714,0.00712774554267526,0.00525618670508266,-0.00278344750404358,-1.38049881570623E-06,-0.00345328124240041,0.0132207358255982
715,0.00824967958033085,0.00931864231824875,-0.00165244622621685,-1.3633725757245E-06,-0.00491970125585794,0.0138515224680305
716,0.00961883645504713,0.01176752243191,-0.00100720988120884,-1.34643687488278E-06,-0.00460402807220817,0.00942242331802845
717,0.0100955627858639,0.00984457228332758,-0.000873029988724738,-1.33881337660569E-06,-0.00264888210222125,0.00023149189655669
718,0.00944658182561398,0.00478838384151459,-0.00117008981760591,-1.34426534259546E-06,-0.000424985104473308,-0.00855568237602711
719,0.00878226663917303,0.000572111865039915,-0.00101803580764681,-1.35940183554339E-06,0.00175599160138518,-0.0121375406160951
720,0.00827606767416,-0.000231793208513409,0.000123424193589017,-1.37572646963235E-06,0.00430327374488115,-0.010321126319468
721,0.00730045605450869,0.00214152527041733,0.0017931821057573,-1.38430823426461E-06,0.00702677899971604,-0.00527627859264612
722,0.00654087774455547,0.00644153449684381,0.00390806933864951,-1.38051279918727E-06,0.00976550858467817,0.00203296821564436
723,0.00617292290553451,0.011000725440681,0.00507295643910766,-1.36629125790932E-06,0.0113682122901082,0.00981306470930576
724,0.00567300524562597,0.0141865871846676,0.00309727736748755,-1.34890967729007E-06,0.0101568149402738,0.0151387145742774
725,0.00527648022398353,0.0151396617293358,-0.00165733648464084,-1.33692242343386E-06,0.00636003818362951,0.0169670432806015
726,0.00506861787289381,0.0141836181282997,-0.00655970117077231,-1.33561741222366E-06,0.00183591269887984,0.0168771240860224
727,0.00473438017070293,0.0128207849338651,-0.00923250801861286,-1.34435663312615E-06,-0.00151395215652883,0.0177444219589233
728,0.00435124477371573,0.0123075861483812,-0.00905682891607285,-1.35714083171479E-06,-0.00233207526616752,0.0197416674345732
729,0.00433827936649323,0.011932578869164,-0.0069789020344615,-1.36597702748986E-06,-0.000713639485184103,0.0192214958369732
730,0.00500032585114241,0.0105322897434235,-0.00432908348739147,-1.36516337079229E-06,0.00142877595499158,0.0144953858107328
731,0.00609684968367219,0.00918476842343807,-0.00203406647779047,-1.35420032165712E-06,0.00213416363112628,0.00852006394416094
732,0.00747441221028566,0.00996366329491138,-0.000261828739894554,-1.33784874378762E-06,0.00124251376837492,0.00561867328360677
733,0.00883560907095671,0.0122537417337298,0.000972191570326686,-1.32341870084929E-06,-0.000529592274688184,0.00706676533445716
734,0.00828269217163324,0.0123562617227435,0.000473386840894818,-1.31682827486657E-06,-0.00361121073365211,0.00934885442256927
735,0.00460881413891912,0.00789939425885677,-0.00293573015369475,-1.31955482629564E-06,-0.00849687121808529,0.00861905235797167
736,4.84642732772045E-05,0.00108149263542145,-0.00753836520016193,-1.32804439090251E-06,-0.0131316343322396,0.00589937157928944
737,-0.00162378360982984,-0.00347466161474586,-0.00945185590535402,-1.33578703298554E-06,-0.0138177080079913,0.00512482225894928
738,1.72357192695927E-06,-0.00387863046489656,-0.00760561786592007,-1.33685648506798E-06,-0.0102547807618976,0.00640490232035518
739,0.00171393493656069,-0.00183788058348,-0.00497234240174294,-1.3289916296344E-06,-0.00615854142233729,0.00607978878542781
740,0.00133025227114558,0.000804105715360492,-0.00471020536497235,-1.31462593344622E-06,-0.00462884595617652,0.00346619845367968
741,-0.00042834656778723,0.00319704227149487,-0.00705170957371593,-1.29941224713548E-06,-0.00565536227077246,0.00160153675824404
742,-0.00113952835090458,0.00504176784306765,-0.00951753929257393,-1.28912631680578E-06,-0.00679894303902984,0.00282767205499113
743,5.73981415072922E-05,0.00571142788976431,-0.010703363455832,-1.28664362364361E-06,-0.00655518751591444,0.00595945538952947
744,0.00155434629414231,0.00483533227816224,-0.0114825181663036,-1.29056797959493E-06,-0.00580222858116031,0.00700686778873205
745,0.00267844228073955,0.00467537483200431,-0.0116577539592981,-1.29615477817424E-06,-0.00483607081696391,0.00466341339051723
746,0.00356558058410883,0.00723682250827551,-0.0101850694045424,-1.2979403436475E-06,-0.00330668012611568,0.0015715267509222
747,0.00293542118743062,0.0101665575057268,-0.00814031437039375,-1.29262616610504E-06,-0.00224575004540384,-0.000767874997109175
748,7.36892689019442E-05,0.00983144622296095,-0.0072759254835546,-1.28069791571761E-06,-0.00245469901710749,-0.00189879874233156
749,-0.00352478167042136,0.00581315066665411,-0.00741060776636004,-1.26599672967131E-06,-0.00362305343151093,-0.000461035087937489
750,-0.00577497947961092,0.000872517935931683,-0.00695156026631594,-1.25356245916919E-06,-0.00453890254721045,0.00307964463718235
751,-0.00560130598023534,-0.00171480199787766,-0.00470416527241468,-1.24695816339226E-06,-0.00321292923763394,0.00657784938812256
752,-0.00380935263819993,-0.0012582492781803,-0.00128267623949796,-1.24649181998393E-06,0.000224403396714479,0.00812418386340141
753,-0.0022403399925679,8.01334826974198E-05,0.00146243150811642,-1.24921859878668E-06,0.00326942512765527,0.00603272719308734
754,-0.00221000472083688,-0.000169629667652771,0.00221549649722874,-1.25063058931119E-06,0.00405772682279348,5.65719055884983E-05
755,-0.00453053414821625,-0.00277676805853844,0.000949345296248794,-1.24707150916947E-06,0.00162533274851739,-0.00741263432428241
756,-0.00910702534019947,-0.00605220813304186,-0.00100255780853331,-1.23758741210622E-06,-0.00370900332927704,-0.0130711989477277
757,-0.0142886033281684,-0.0082872724160552,-0.00198622839525342,-1.22428207305347E-06,-0.00972653925418854,-0.0162976440042257
758,-0.0172203686088324,-0.00952230114489794,-0.00113995210267603,-1.21107257200492E-06,-0.0137398084625602,-0.0178215652704239
759,-0.016490550711751,-0.0102799013257027,0.00112180213909596,-1.20157551464217E-06,-0.0149629050865769,-0.0164746847003698
760,-0.0139599619433284,-0.0110211791470647,0.0028562059160322,-1.19726075809012E-06,-0.0153813250362873,-0.0112759945914149
761,-0.0113541688770056,-0.0111191254109144,0.00259696459397674,-1.19681226351531E-06,-0.0160989109426737,-0.00449348241090775
762,-0.00875499751418829,-0.00929562468081713,0.000567914627026767,-1.19695755529392E-06,-0.0163879785686731,0.000497789704240859
763,-0.00622599199414253,-0.00593090709298849,-0.00221016048453748,-1.19425612865598E-06,-0.016066363081336,0.00348832388408482
764,-0.00379215483553708,-0.00282806064933538,-0.00425609806552529,-1.1868731917275E-06,-0.0148668549954891,0.0062938928604126
765,-0.00145579187665135,-0.000570848351344466,-0.00458678929135203,-1.17542879252142E-06,-0.0125145763158798,0.00953702442348003
766,0.00083172315498814,0.00248593976721168,-0.003512819763273,-1.16254227577883E-06,-0.00969785358756781,0.0129110924899578
767,0.00246766395866871,0.00640699081122875,-0.00263369386084378,-1.1513825484144E-06,-0.00776008609682322,0.015287721529603
768,0.00354517460800707,0.00943983625620604,-0.00228678830899298,-1.14402303097449E-06,-0.0060666804201901,0.0160563830286264
769,0.0053429426625371,0.0109349582344294,-0.00148464343510568,-1.14045474219893E-06,-0.00339469034224749,0.015389964915812
770,0.00673374207690358,0.00994149874895811,-0.00204439903609455,-1.13871556095546E-06,-0.00244165700860322,0.0114039536565542
771,0.00599681166931987,0.00646525248885155,-0.00558650773018599,-1.13600299300742E-06,-0.00513170007616282,0.00360792502760887
772,0.00414493726566434,0.0031163792591542,-0.00936190225183964,-1.13014209546236E-06,-0.00853849016129971,-0.00422956794500351
773,0.0027804346755147,0.00220469781197608,-0.0100535321980715,-1.12064412860491E-06,-0.00955482851713896,-0.00904100947082043
774,0.00154557870700955,0.00321123469620943,-0.0082326540723443,-1.10884877813078E-06,-0.00879035703837872,-0.0115931201726198
775,-0.000465935561805964,0.00482909707352519,-0.00670473463833332,-1.09713835172442E-06,-0.00859612040221691,-0.0127231404185295
776,-0.0025262339040637,0.00668448721989989,-0.00674144085496664,-1.0876808573812E-06,-0.00943005550652742,-0.0102669904008508
777,-0.0040278029628098,0.00780571717768908,-0.00869025569409132,-1.08136259768798E-06,-0.0110691515728831,-0.0039169555529952
778,-0.00550972996279597,0.00906577426940203,-0.0125093506649137,-1.07743085209222E-06,-0.0139081468805671,0.00259027467109263
779,-0.00645685754716396,0.0122476769611239,-0.0156532526016235,-1.07397397641762E-06,-0.016350669786334,0.00705459620803595
780,-0.00595531007274985,0.014542281627655,-0.0156393814831972,-1.06894344753528E-06,-0.0161377526819706,0.00956321507692337
781,-0.00522478949278593,0.0121069643646479,-0.0134239820763469,-1.0611738616717E-06,-0.0138905039057136,0.00922439061105251
782,-0.00531538482755423,0.00654654018580914,-0.0101373828947544,-1.05089839053107E-06,-0.0111934719607234,0.00594463525339961
783,-0.00497344136238098,0.00241649546660483,-0.0057705738581717,-1.03954471342149E-06,-0.00878085289150476,0.00169138587079942
784,-0.00322448532097042,0.00121929415035993,-0.00141563452780247,-1.02896115095064E-06,-0.00722458492964506,-0.00177192804403603
785,-0.000829839147627354,0.00125396274961531,0.0017637083074078,-1.02049193628773E-06,-0.00638917135074735,-0.00384742487221956
786,0.00111230241600424,0.00103199516888708,0.0037549021653831,-1.01435932720051E-06,-0.00553392898291349,-0.00549583742395043
787,0.00236465106718242,0.000888752518221736,0.00478801690042019,-1.0096293863171E-06,-0.00424794852733612,-0.00780604127794504
788,0.00269804918207228,0.00118757726158947,0.00433290796354413,-1.00473346265062E-06,-0.00362082757055759,-0.0102723492309451
789,0.00207809917628765,0.00101665151305497,0.00237404904328287,-9.982596793634E-07,-0.00452532805502415,-0.0124531146138906
790,0.00228392612189054,0.000551555305719376,0.00108916300814599,-9.89617205959803E-07,-0.00454075308516622,-0.0141962012276053
791,0.00430752942338586,0.000604917469900101,0.00186259776819497,-9.79270225798246E-07,-0.0017847929848358,-0.0154242441058159
792,0.00592064019292593,1.63424811034929E-05,0.00250793294981122,-9.68459630712459E-07,0.00130287115462124,-0.016624053940177
793,0.00557611975818872,-0.00206080661155283,0.00144605978857726,-9.58576492848806E-07,0.00264473166316748,-0.0163520760834217
794,0.00358725851401687,-0.00520313950255513,-0.000490942504256964,-9.50500975704927E-07,0.00243958225473762,-0.0135006494820118
795,0.00028060341719538,-0.00877692177891731,-0.0028218396473676,-9.44213411457895E-07,0.000451984960818663,-0.010612677782774
796,-0.0023606731556356,-0.0105946641415358,-0.00444726692512631,-9.38844380016235E-07,-0.0022810238879174,-0.00961599033325911
797,-0.00240620994009078,-0.00848669558763504,-0.00438521942123771,-9.33115700263443E-07,-0.00372430332936347,-0.00934812892228365
798,-0.000315199722535908,-0.00221241684630513,-0.00326046044938266,-9.25953315800143E-07,-0.00347516569308937,-0.00803185719996691
799,0.0025941482745111,0.00613888399675488,-0.001501310383901,-9.16983935894677E-07,-0.00211009662598372,-0.00544706918299198
800,0.00500457268208265,0.0125553105026484,0.000237716012634337,-9.06691923319158E-07,-0.00088097172556445,-0.00241315085440874
801,0.00595856225118041,0.0144410077482462,0.000276884034974501,-8.96174981335207E-07,-0.00154653703793883,-0.000191892861039378
802,0.00562609825283289,0.0128510985523462,-0.00173493986949325,-8.86619432094449E-07,-0.0042811706662178,-0.000630854570772499
803,0.00529792439192533,0.0103869419544935,-0.00399277871474624,-8.7874099108376E-07,-0.00717931659892201,-0.00500289257615805
804,0.00607073726132512,0.00819718930870295,-0.00450184289366007,-8.72449618327664E-07,-0.00838409829884768,-0.0122142573818564
805,0.00728019280359149,0.00641054380685091,-0.0034118932671845,-8.66893742568209E-07,-0.00832280050963163,-0.018502501770854
806,0.00750254699960351,0.00578857166692615,-0.0028749885968864,-8.60865156937507E-07,-0.0087873637676239,-0.0200827810913324
807,0.0065436870791018,0.00631836010143161,-0.00412282813340425,-8.53376263876271E-07,-0.0101035386323929,-0.017315125092864
808,0.00539549486711621,0.00688587734475732,-0.00622435892000794,-8.44140117806091E-07,-0.0107607878744602,-0.0144537575542927
809,0.00503731984645128,0.0071614095941186,-0.00746094202622771,-8.33721060189418E-07,-0.00965114962309599,-0.0145031474530697
810,0.00495395204052329,0.00671821646392345,-0.00768736843019724,-8.23275684069813E-07,-0.00812497641891241,-0.0168152023106813
811,0.00453736959025264,0.00495882844552398,-0.00783292576670647,-8.13998155990703E-07,-0.00761860143393278,-0.0182319115847349
812,0.00455065350979567,0.00241386075504124,-0.00806386675685644,-8.06532000297011E-07,-0.00732229650020599,-0.0162669532001019
813,0.00520925875753164,-0.000217776498175226,-0.00880849175155163,-8.00636826170376E-07,-0.00681985821574926,-0.0121342856436968
814,0.00580756831914186,-0.00261047459207475,-0.0106459055095911,-7.95284165633348E-07,-0.00672966754063964,-0.00870843790471554
815,0.00600313162431121,-0.00422482052817941,-0.012656101025641,-7.89151442859293E-07,-0.00618584314361215,-0.00666942540556192
816,0.00584821775555611,-0.00412958394736052,-0.0132344579324126,-7.81280334649637E-07,-0.00423553865402937,-0.00507954740896821
817,0.0049398154951632,-0.00224052602425218,-0.0126723814755678,-7.71574264035735E-07,-0.00277897366322577,-0.00397607823833823
818,0.00295297591947019,-2.01164966711076E-05,-0.0126633998006582,-7.60875650485104E-07,-0.00394472992047668,-0.00372878392226994
819,0.000331934046698734,0.00140922167338431,-0.0138365840539336,-7.50566528040508E-07,-0.00682029593735933,-0.00325268832966685
820,-0.00168013479560614,0.00254278024658561,-0.0153447976335883,-7.41877840937377E-07,-0.00898337084800005,-0.000479065580293536
821,-0.0018894950626418,0.00371058005839586,-0.0159095209091902,-7.35251205696841E-07,-0.00978883635252714,0.00436877505853772
822,-0.00131206947844476,0.00364096905104816,-0.0155248874798417,-7.30085560007865E-07,-0.0111266663298011,0.00776771269738674
823,-0.000685942592099309,0.00240357872098684,-0.0140486592426896,-7.25015297575737E-07,-0.0129448175430298,0.00794993247836828
824,0.000767894263844937,0.00108553760219365,-0.0108549995347857,-7.18595742910111E-07,-0.0130481235682964,0.00608199974521995
825,0.0014701986219734,-0.00141325080767274,-0.00822886452078819,-7.10053484453965E-07,-0.0128328818827868,0.00275445031002164
826,-0.000326530309394002,-0.00553257809951901,-0.0084349550306797,-6.99712188634294E-07,-0.0149284861981869,-0.00212671607732773
827,-0.0018783372361213,-0.00817179493606091,-0.00831949803978205,-6.88857198838377E-07,-0.0167622286826372,-0.00680584972724319
828,-0.00113550259266049,-0.0074620246887207,-0.00511064473539591,-6.79090874200483E-07,-0.0156588535755873,-0.009111562743783
829,-0.000367701839422807,-0.00568558648228645,-0.00124977005179971,-6.71500174576067E-07,-0.0139483287930489,-0.00778481736779213
830,0.000121507946460042,-0.00354639510624111,0.00180552457459271,-6.66070036459132E-07,-0.0128115955740213,-0.000263877649558708
831,0.00198485236614943,0.000330392067553476,0.0044245976023376,-6.61660692458099E-07,-0.0109213823452592,0.0121764978393912
832,0.0039312350563705,0.00431302888318896,0.00533495889976621,-6.56578890811943E-07,-0.00898504536598921,0.0218460615724325
833,0.00402421969920397,0.00549457781016827,0.00381211494095623,-6.49459195756208E-07,-0.0085743460804224,0.023275587707758
834,0.00325423688627779,0.0038818079046905,0.00160694366786629,-6.39995846540842E-07,-0.00857534911483526,0.0177416056394577
835,0.00314419134519994,0.00108107319101691,0.000560249376576394,-6.2913215970184E-07,-0.00714209070429206,0.00914245285093784
836,0.00344346556812525,-0.0014709469396621,0.000854380312375724,-6.1859117295171E-07,-0.00407999102026224,0.000506782147567719
837,0.00396744068711996,-0.00284809479489923,0.0024898296687752,-6.09979224464041E-07,0.00117297971155494,-0.00600016210228205
838,0.00558825489133596,-0.0036807581782341,0.00568621745333076,-6.03929379394685E-07,0.00902696512639523,-0.00873153004795313
839,0.00804896652698517,-0.00538816163316369,0.00885076262056828,-5.99742918439006E-07,0.0162645671516657,-0.00735798804089427
840,0.00879111234098673,-0.00918903667479753,0.0089420722797513,-5.95732728925213E-07,0.0176201201975346,-0.00417452119290829
841,0.00705473590642214,-0.0137794865295291,0.00597067922353745,-5.90102331443632E-07,0.0126224095001817,-0.00134354480542243
842,0.00480607617646456,-0.01607621088624,0.00271244463510811,-5.81902042995353E-07,0.00579689349979162,0.00119574600830674
843,0.00374334445223212,-0.0151010239496827,0.00131818244699389,-5.71552959627297E-07,0.00147906586062163,0.00389228644780815
844,0.00429248530417681,-0.0122310565784574,0.00242208177223802,-5.60648345526715E-07,0.0012007721234113,0.00614515086635947
845,0.00513921957463026,-0.0100514991208911,0.00405938969925046,-5.51124287540006E-07,0.00322567857801914,0.00649613328278065
846,0.00586108537390828,-0.00914651993662119,0.00479207746684551,-5.44231113508431E-07,0.00584643241018057,0.00616067182272673
847,0.00675590615719557,-0.00823597796261311,0.00517082959413528,-5.39853431291704E-07,0.00831618811935186,0.0074549880810082
848,0.00671846745535731,-0.00712634809315205,0.00504579627886415,-5.36549634944095E-07,0.00950893200933933,0.00934617221355438
849,0.00584758957847953,-0.00509506138041615,0.00458004791289568,-5.32302635747328E-07,0.00950619392096996,0.0104268994182348
850,0.0050941864028573,-0.00116545299533755,0.00431663915514946,-5.2559124696927E-07,0.00909842643886805,0.0119234779849648
851,0.00410148641094565,0.00292862160131335,0.00389423314481974,-5.16212367074331E-07,0.00860437843948603,0.014620422385633
852,0.0033409025054425,0.00471096578985453,0.00379209103994071,-5.05408650042227E-07,0.00892506446689367,0.0169133692979813
853,0.00413911882787943,0.00417711539193988,0.00538004469126463,-4.9522230938237E-07,0.0104320989921689,0.016923364251852
854,0.0059836502186954,0.00235117599368095,0.0080658420920372,-4.87411227823031E-07,0.0117794601246715,0.013494529761374
855,0.00700098881497979,-0.000141447380883619,0.00910102110356092,-4.8250331019517E-07,0.0113966008648276,0.007275958545506
856,0.00620265351608396,-0.00188788748346269,0.00714939553290606,-4.79498623917607E-07,0.00895557925105095,0.00145559990778565
857,0.00489068869501352,-0.00151835044380277,0.00450382428243756,-4.76388891001989E-07,0.00638947123661637,-0.000761199276894331
858,0.00485397782176733,-0.000206637967494316,0.00361509062349796,-4.71223671638654E-07,0.0056491051800549,0.00111408333759755
859,0.00619515916332603,-3.09117203869391E-05,0.0040903314948082,-4.63157959984528E-07,0.00608274200931191,0.00594121590256691
860,0.00820258818566799,-0.000898309517651796,0.00501616345718503,-4.5291682226889E-07,0.00657156575471163,0.0130118345841765
861,0.00950857531279325,-0.00179907772690058,0.00643718149513006,-4.42421224988721E-07,0.00703670829534531,0.0202095042914152
862,0.00889786053448915,-0.00286297057755291,0.00863856170326471,-4.33767866070411E-07,0.00769082549959421,0.0239194352179766
863,0.00775579269975424,-0.00366095593199134,0.0119926407933235,-4.28105153105207E-07,0.00911453831940889,0.0232639163732529
864,0.00809490587562323,-0.00297187920659781,0.0158974099904299,-4.25008948923278E-07,0.0110934339463711,0.0201473142951727
865,0.00915517285466194,-0.0013708412880078,0.0183823350816965,-4.22698377633424E-07,0.0121081946417689,0.0167477652430534
866,0.0103011159226298,0.000289774732664227,0.0190034359693527,-4.18982551764202E-07,0.0127453114837408,0.0162126068025827
867,0.0122884623706341,0.0020066446159035,0.0189196709543467,-4.12434673080497E-07,0.0149437114596367,0.0198378525674343
868,0.0141117237508297,0.00298598851077259,0.0180704332888126,-4.031635114643E-07,0.0173577889800072,0.0237305201590061
869,0.015041065402329,0.00317794573493302,0.0165968127548695,-3.92764547996194E-07,0.0180211309343576,0.0240385439246893
870,0.0160280168056488,0.00388391129672527,0.0157317500561476,-3.83471075338093E-07,0.0178362764418125,0.0219812486320734
871,0.0166575890034437,0.0053331358358264,0.0151402549818158,-3.76957927983312E-07,0.017608655616641,0.0203011818230152
872,0.0162244867533445,0.00696233799681067,0.0138581292703748,-3.73438865608478E-07,0.0173817630857229,0.0192346498370171
873,0.0154581479728222,0.00893135089427233,0.0126612586900592,-3.71545468169643E-07,0.0178752280771732,0.0181659366935492
874,0.0153379756957293,0.0112528381869197,0.0127611886709929,-3.69055896953796E-07,0.0198204033076763,0.0177277307957411
875,0.0163433644920588,0.0131749669089913,0.014201900921762,-3.6408584946912E-07,0.0232620872557163,0.0179738607257605
876,0.0180496796965599,0.0142924906685948,0.0162076596170664,-3.5610219129012E-07,0.027118431404233,0.0167779009789228
877,0.0191648583859205,0.0146119454875588,0.0179426074028015,-3.46213710145094E-07,0.029705923050642,0.0130572151392698
878,0.01839311234653,0.0133145842701197,0.0187564939260483,-3.36579830673145E-07,0.0299868285655975,0.00913478713482618
879,0.0158461853861809,0.00936038699001074,0.0184980966150761,-3.2925257187344E-07,0.0277856551110744,0.00739442324265838
880,0.0130971176549792,0.0034819848369807,0.017729951068759,-3.2507361424905E-07,0.0240063108503819,0.00752201117575169
881,0.0114251682534814,-0.00212833611294627,0.017319668084383,-3.23220120890255E-07,0.0209868270903826,0.00850415788590908
882,0.0106305489316583,-0.00595181947574019,0.0175728797912598,-3.21644563427981E-07,0.0204662960022688,0.00975135434418917
883,0.0105982106178999,-0.00706755602732301,0.0184933487325907,-3.18174102176272E-07,0.0226745363324881,0.010645498521626
884,0.0111683327704668,-0.00555049162358046,0.0191566906869411,-3.11678007847149E-07,0.0259022433310747,0.0100863678380847
885,0.0109991552308202,-0.00298813451081514,0.017675282433629,-3.02675999819257E-07,0.0267553515732288,0.00741523085162044
886,0.00946955569088459,-0.000801036192569882,0.0137911178171635,-2.9305900284271E-07,0.0237088724970818,0.00497716711834073
887,0.00710910046473145,-2.50290431722533E-05,0.00896162539720535,-2.8507284355328E-07,0.0179071947932243,0.00530484737828374
888,0.00537787191569805,-0.000464219658169895,0.00496574584394693,-2.80111180472886E-07,0.0119061842560768,0.0077029992826283
889,0.00517937773838639,-0.00100231030955911,0.00257731322199106,-2.7796735935226E-07,0.00730143534019589,0.0100656626746058
890,0.00554163847118616,-0.00115343427751213,0.00144815840758383,-2.76946991561999E-07,0.00345587846823037,0.0111553259193897
891,0.006772440392524,7.1038339228835E-05,0.00256426795385778,-2.74780347808701E-07,0.00147349864710122,0.0115670831874013
892,0.00935422535985708,0.00217088125646114,0.00646889209747314,-2.69843098976708E-07,0.00301194540224969,0.0107810320332646
893,0.0113762822002172,0.00277450098656118,0.0107472604140639,-2.62027924691211E-07,0.00618881732225418,0.00685254391282797
894,0.0125179942697287,0.00263115647248924,0.0138846598565578,-2.52799083000355E-07,0.00927990674972534,0.00165358674712479
895,0.0138687733560801,0.00409753434360027,0.0160825420171022,-2.44402059479398E-07,0.012059916742146,-0.000905408232938498
896,0.0150443743914366,0.00728135416284204,0.0170791801065207,-2.38654763506929E-07,0.0136856222525239,0.00105747336056083
897,0.0155208865180612,0.0116729112342,0.0169711261987686,-2.35971896245246E-07,0.0135580524802208,0.00759857008233666
898,0.0145511198788881,0.0159538835287094,0.0158568415790796,-2.35146288218857E-07,0.011540200561285,0.0162135157734156
899,0.011831515468657,0.0176651179790497,0.0140080079436302,-2.34002868637617E-07,0.00853618141263723,0.022774139419198
900,0.0089830094948411,0.0158536285161972,0.0128343189135194,-2.30570904591332E-07,0.0066367369145155,0.0246435813605785
901,0.00799693167209625,0.0121491681784391,0.0140248034149408,-2.2414214129185E-07,0.00734629668295383,0.0229432228952646
902,0.00919635035097599,0.0092324847355485,0.0177322570234537,-2.15646380752332E-07,0.0102131497114897,0.0205013863742352
903,0.0109325805678964,0.00774809438735247,0.0216514766216278,-2.071448506058E-07,0.0131338555365801,0.0177613757550716
904,0.0116857057437301,0.00624220026656985,0.0232386942952871,-2.00717551024354E-07,0.0144347734749317,0.013868329115212
905,0.0114377988502383,0.0041165673173964,0.0219900254160166,-1.97345499941548E-07,0.0138316676020622,0.00933445058763027
906,0.0101891383528709,0.00179928028956056,0.0186961274594069,-1.96389066786651E-07,0.0117352968081832,0.00567242689430714
907,0.00753958849236369,-0.000821896712295711,0.0147858178243041,-1.95939932723377E-07,0.0089991232380271,0.00367532321251929
908,0.00470641022548079,-0.00290312245488167,0.0124488528817892,-1.93853111341014E-07,0.00759690394625068,0.00361294602043927
909,0.0033905366435647,-0.00311126606538892,0.0117903286591172,-1.8890067110533E-07,0.0087253050878644,0.004878262989223
910,0.00314611778594553,-0.00192631362006068,0.0105236051604152,-1.81425917844535E-07,0.010403323918581,0.00539128389209509
911,0.0029158175457269,0.000247622519964352,0.00807788502424955,-1.73149572901821E-07,0.0100974468514323,0.00366077921353281
912,0.00252913311123848,0.00327489548362792,0.00581890204921365,-1.66236631571337E-07,0.00739108072593808,-0.0011294512078166
913,0.00187424791511148,0.00594121776521206,0.00444766413420439,-1.62130433523089E-07,0.00339587242342532,-0.00880558416247368
914,0.0010166143765673,0.00679505942389369,0.00383666111156344,-1.60782036573437E-07,-0.000274231744697317,-0.0163229759782553
915,0.00130554428324103,0.00594839127734303,0.00442175474017859,-1.60686695949153E-07,-0.00196260656230152,-0.0187592469155788
916,0.00302828755229712,0.00495128240436316,0.00551559636369348,-1.59702437940723E-07,-0.00222244812175632,-0.0139442728832364
917,0.00399386091157794,0.00475231977179646,0.00524870119988918,-1.56205146595312E-07,-0.00330017460510135,-0.00500674173235893
918,0.00368581688962877,0.00592937227338552,0.00418004905804992,-1.49956917994132E-07,-0.00451158126816154,0.00249431165866554
919,0.00285098631866276,0.00845143292099237,0.00342652597464621,-1.42222944532477E-07,-0.00457290653139353,0.00430360203608871
920,0.00082909147022292,0.0109401261433959,0.00265276967547834,-1.35080099994411E-07,-0.0041915662586689,0.000631886709015816
921,-0.00165723764803261,0.0122312027961016,0.0023735233116895,-1.30294878886161E-07,-0.00254594651050866,-0.0033472424838692
922,-0.00225174590013921,0.0124697834253311,0.00346093322150409,-1.28377337205166E-07,0.001129464013502,-0.00208284216932952
923,-0.000759807997383177,0.0120022622868419,0.00489677302539349,-1.28317793723909E-07,0.00437937257811427,0.00384381995536387
924,0.000668996886815876,0.0105589600279927,0.00501264445483685,-1.28142247035612E-07,0.00512760924175382,0.00870914291590452
925,0.000292939395876601,0.0081202806904912,0.00422283634543419,-1.25980690768301E-07,0.00436755176633596,0.00953248888254166
926,-0.00242563220672309,0.00509023340418935,0.00340516399592161,-1.21070002023771E-07,0.00244196923449636,0.00743591226637363
927,-0.00622162455692887,0.00300847040489316,0.00264618522487581,-1.14153280605933E-07,-0.00109481555409729,0.00501118833199143
928,-0.00850391760468483,0.00367327127605677,0.00237820576876402,-1.07066519206001E-07,-0.00450858986005187,0.00419804966077209
929,-0.00773357413709164,0.00624442519620061,0.00274293241091073,-1.01742372748959E-07,-0.00630808062851429,0.00397725077345967
930,-0.00497232377529144,0.00801829528063536,0.00285715190693736,-9.91716362364059E-08,-0.00774448132142425,0.00258027203381062
931,-0.00259066070429981,0.00759139936417341,0.00174558768048882,-9.88807471458131E-08,-0.0100250886753201,-0.000350186368450522
932,-0.00120483106002212,0.00618448108434677,3.49400470440742E-05,-9.92008182265636E-08,-0.0115452166646719,-0.00518901785835624
933,-0.000687634397763759,0.00565695948898792,-0.00128435424994677,-9.81756542728363E-08,-0.0112696262076497,-0.0119943143799901
934,-0.00112453498877585,0.00653089536353946,-0.00184947194065899,-9.46145490843264E-08,-0.0103723201900721,-0.0180409289896488
935,-0.0017977359239012,0.00772051187232137,-0.00122302258387208,-8.87229703039338E-08,-0.00980019941926003,-0.0200640615075827
936,-0.00231293705292046,0.00768037140369415,0.000308142451103777,-8.19769567783624E-08,-0.00989292841404676,-0.0190387181937695
937,-0.00310932542197406,0.00580912176519632,0.00139610504265875,-7.63168372941436E-08,-0.0107634570449591,-0.0188451856374741
938,-0.00425089383497834,0.00279111973941326,0.00120891828555614,-7.31007858689736E-08,-0.0120535977184772,-0.0204282123595476
939,-0.00522299576550722,3.73184884665534E-05,0.000429609644925222,-7.23826545367956E-08,-0.0128448577597737,-0.0207696855068207
940,-0.00546277826651931,-0.00174323655664921,0.000346781365806237,-7.28980680264613E-08,-0.0121346637606621,-0.0179320946335793
941,-0.00491319643333554,-0.00300762592814863,0.00130559375975281,-7.27581266346533E-08,-0.01008774433285,-0.0135250650346279
942,-0.0043141869828105,-0.00399107858538628,0.00219828449189663,-7.04699729681124E-08,-0.0081776874139905,-0.00976310297846794
943,-0.00346041028387845,-0.00330708106048405,0.00304195052012801,-6.57326424402527E-08,-0.0066614686511457,-0.00592299923300743
944,-0.00225995690561831,-0.000583416491281241,0.00458087725564837,-5.9583669553831E-08,-0.00519323768094182,-0.000564795453101397
945,-0.00173738447483629,0.00252611190080643,0.00610191468149424,-5.38258397853042E-08,-0.00434829853475094,0.00609449623152614
946,-0.00196028617210686,0.00484289461746812,0.00671290094032884,-5.00506054379457E-08,-0.0042717712931335,0.0132417548447847
947,-0.00312611227855086,0.00531023927032948,0.00596560165286064,-4.87872924281874E-08,-0.0051297377794981,0.017692357301712
948,-0.00485345302149653,0.00420226342976093,0.00495116505771875,-4.92329519374834E-08,-0.00626490917056799,0.0168504044413567
949,-0.00510748568922281,0.00361858797259629,0.0058118412271142,-4.97002439203698E-08,-0.00589011097326875,0.0130612477660179
