,AF3,AF4,Fp1,Fp2,AF7,AF8
0,0.00776886753737926,-0.0221283975988626,-0.0677231997251511,-0.5,-0.0395139567553997,-0.0802435949444771
1,0.00791474711149931,-0.011722001247108,-0.0864602699875832,-0.38278916478157,-0.0486835762858391,-0.06608035415411
2,0.00494427420198917,-0.00592943327501416,-0.0885755866765976,-0.182564094662666,-0.0591319873929024,-0.0505527853965759
3,-0.00439031142741442,-0.00867512822151184,-0.0802368000149727,-0.0230529326945543,-0.0655574277043343,-0.0380122885107994
4,-0.0170557107776403,-0.0144517486914992,-0.0687749311327934,0.0579030252993107,-0.0605909302830696,-0.028549212962389
5,-0.0222082398831844,-0.0163741018623114,-0.0568078495562077,0.065521813929081,-0.0474017150700092,-0.0200806558132172
6,-0.0151688996702433,-0.0131545271724463,-0.0436267741024494,0.0441969856619835,-0.0346650965511799,-0.0122554898262024
7,-0.00765503011643887,-0.00974604114890099,-0.0308236498385668,0.0787791684269905,-0.0270501673221588,-0.00897139497101307
8,-0.0109329409897327,-0.0102178566157818,-0.0229669846594334,0.213754773139954,-0.0250830836594105,-0.0145039232447743
9,-0.0200269259512424,-0.0129496911540627,-0.0230072867125273,0.385363042354584,-0.0296408571302891,-0.0292365420609713
10,-0.0247718598693609,-0.0150348246097565,-0.0302274879068136,0.498902291059494,-0.0403785444796085,-0.0499120242893696
11,-0.0232915058732033,-0.015563408844173,-0.0402090661227703,0.5,-0.051486574113369,-0.0706679672002792
12,-0.0190637018531561,-0.014168287627399,-0.046230610460043,0.495041131973267,-0.0536440350115299,-0.0839669853448868
13,-0.0148452557623386,-0.0114144906401634,-0.0443468131124973,0.42913419008255,-0.0421313308179379,-0.0850106328725815
14,-0.013045989908278,-0.00929080229252577,-0.0352610535919666,0.339266389608383,-0.0239008888602257,-0.075777567923069
15,-0.0158732905983925,-0.00936045590788126,-0.0235632807016373,0.227277278900146,-0.0124054551124573,-0.0628003105521202
16,-0.0210756231099367,-0.0100057777017355,-0.0147726992145181,0.104559309780598,-0.0129668405279517,-0.0500188432633877
17,-0.0214855801314116,-0.00848358683288097,-0.0109772402793169,-0.0439692363142967,-0.0203145667910576,-0.0380241721868515
18,-0.014135311357677,-0.00551113206893206,-0.0124293239787221,-0.252777218818665,-0.030137725174427,-0.0288374889642
19,-0.00643523223698139,-0.00325868115760386,-0.0178824551403522,-0.492343664169312,-0.0408037900924683,-0.0238489806652069
20,-0.00596095155924559,-0.00168587453663349,-0.0225846935063601,-0.5,-0.0471613928675652,-0.0216184314340353
21,-0.0115459095686674,-0.000766011944506317,-0.0227788779884577,-0.5,-0.0460936054587364,-0.0213369708508253
22,-0.0195196885615587,-0.00159764906857163,-0.0178969036787748,-0.5,-0.0417410731315613,-0.0243144575506449
23,-0.0277449656277895,-0.00365646928548813,-0.00656852824613452,-0.5,-0.0359163321554661,-0.0305609125643969
24,-0.0335158482193947,-0.00609982991591096,0.00979618448764086,-0.5,-0.0248781852424145,-0.0358060337603092
25,-0.034833550453186,-0.00932118017226458,0.0230937507003546,-0.5,-0.00986906047910452,-0.0355035103857517
26,-0.0322877950966358,-0.0123617062345147,0.0273758675903082,-0.5,0.00257327454164624,-0.0299270339310169
27,-0.0277286563068628,-0.0122815491631627,0.0244432929903269,-0.430656433105469,0.00957938563078642,-0.0222729630768299
28,-0.022038783878088,-0.00852815061807632,0.0164246372878551,-0.381894499063492,0.00990878045558929,-0.0157129913568497
29,-0.0154529614374042,-0.00455139391124249,0.00378901837393641,-0.352062672376633,0.000741034280508757,-0.0122032910585403
30,-0.00823080819100142,-0.00286520156078041,-0.00997984129935503,-0.303953498601913,-0.0141145065426826,-0.0112969130277634
31,-0.000233374754316173,-0.0032370004337281,-0.0218625441193581,-0.227687954902649,-0.0235875248908997,-0.0117053342983127
32,0.00940147507935762,-0.00404897751286626,-0.030759833753109,-0.139386475086212,-0.0219493396580219,-0.0124059850350022
33,0.0190977193415165,-0.00482104811817408,-0.0364704020321369,-0.00639853673055768,-0.0157919768244028,-0.0137824006378651
34,0.0203835051506758,-0.00798928458243608,-0.0403667874634266,0.2368203997612,-0.0171049050986767,-0.0179632417857647
35,0.007501021027565,-0.0138728767633438,-0.0423659831285477,0.5,-0.0300395525991917,-0.0238678753376007
36,-0.0132964542135596,-0.0184448771178722,-0.0422635674476624,0.5,-0.0469856634736061,-0.0268396399915218
37,-0.0318929962813854,-0.0184572245925665,-0.0409697294235229,0.5,-0.0577753782272339,-0.0246772188693285
38,-0.0420927628874779,-0.0140038952231407,-0.037918858230114,0.5,-0.0584844835102558,-0.0187390837818384
39,-0.0422433763742447,-0.0074083860963583,-0.0319403074681759,0.5,-0.050465252250433,-0.0112205725163221
40,-0.0351065322756767,-0.00216715387068689,-0.023134708404541,0.5,-0.0362875834107399,-0.0050990292802453
41,-0.0270178392529488,-0.000575461250264198,-0.0122188189998269,0.5,-0.0213471297174692,-0.00249074236489832
42,-0.0239918362349272,-0.000505012925714254,-0.00124215590767562,0.5,-0.0124586764723063,-0.00188160839024931
43,-0.0271823722869158,0.00155272183474153,0.00383432046510279,0.5,-0.0103698810562491,-0.00229344749823213
44,-0.0320111960172653,0.00404195813462138,-0.000597049423959106,0.5,-0.0109777096658945,-0.00615056790411472
45,-0.0329940915107727,0.00299135805107653,-0.00891620200127363,0.5,-0.013848414644599,-0.0146011291071773
46,-0.0294633284211159,-0.00136429956182837,-0.0129987671971321,0.5,-0.0220141299068928,-0.0244460236281157
47,-0.0237854588776827,-0.00455001555383205,-0.00879643857479095,0.5,-0.0331539735198021,-0.0298262182623148
48,-0.0185652486979961,-0.00423496263101697,0.00110884488094598,0.5,-0.0404482632875443,-0.0286439899355173
49,-0.0163280144333839,-0.00385662191547453,0.00868162233382463,0.5,-0.0419039092957973,-0.0253686513751745
50,-0.0180282257497311,-0.00593642285093665,0.00944296270608902,0.270987510681152,-0.0406212396919727,-0.0236383285373449
51,-0.023284837603569,-0.00748739391565323,0.00514832092449069,-0.0148582002148032,-0.0398191548883915,-0.0223830658942461
52,-0.0301017928868532,-0.00613908655941486,-0.000456244655651972,-0.197593599557877,-0.0400954596698284,-0.020116038620472
53,-0.0348779335618019,-0.00335821718908846,-0.00472186878323555,-0.289195239543915,-0.0392700135707855,-0.0180900432169437
54,-0.0355994775891304,-0.000392203597584739,-0.00870524253696203,-0.299457520246506,-0.0355204828083515,-0.0189340896904469
55,-0.0336443558335304,0.00137307902332395,-0.0153749538585544,-0.217573344707489,-0.0320136249065399,-0.0230760052800179
56,-0.0311685930937529,0.000534391729161143,-0.0233886428177357,-0.0586831197142601,-0.0348559282720089,-0.0265879742801189
57,-0.028728324919939,-0.00105183327104896,-0.0276425201445818,0.113939680159092,-0.0430548153817654,-0.0251744166016579
58,-0.0245551820844412,-0.00122203875798732,-0.0259572677314281,0.243177264928818,-0.0476526580750942,-0.0203014276921749
59,-0.0160802323371172,-0.0010792970424518,-0.0201657321304083,0.314284354448318,-0.0437873527407646,-0.017368683591485
60,-0.00381508306600153,-0.00296559766866267,-0.0139824487268925,0.33701878786087,-0.0343438312411308,-0.018392788246274
61,0.00718286959454417,-0.00648794835433364,-0.0106362123042345,0.318603813648224,-0.0232437551021576,-0.020207429304719
62,0.00865460745990276,-0.00957676395773888,-0.00936070736497641,0.255863040685654,-0.0153771787881851,-0.0207573715597391
63,-0.00139227951876819,-0.0107091851532459,-0.00665511982515454,0.134591713547707,-0.0152399139478803,-0.020215068012476
64,-0.0145707847550511,-0.00875509064644575,-0.00238429382443428,-0.0425460375845432,-0.0223726592957973,-0.0175217520445585
65,-0.0233257357031107,-0.00395554583519697,-2.03765830519842E-05,-0.215639889240265,-0.0332016795873642,-0.0118838967755437
66,-0.0265261121094227,0.00332300760783255,-0.00078130402835086,-0.320271879434586,-0.0432852394878864,-0.00322719058021903
67,-0.0269523840397596,0.0125436531379819,-0.00103870127350092,-0.35224723815918,-0.0486637726426125,0.00775025272741914
68,-0.0284541137516499,0.020580081269145,0.00244032707996666,-0.335194736719131,-0.0476279072463512,0.0179032478481531
69,-0.0316460616886616,0.0236396081745625,0.00591219309717417,-0.289447605609894,-0.0404137969017029,0.0227936934679747
70,-0.032991498708725,0.0215401221066713,0.00430831359699368,-0.252996236085892,-0.0283882506191731,0.0205384027212858
71,-0.0295533742755651,0.0178627260029316,-0.000414608133723959,-0.2833172082901,-0.0151636227965355,0.0136107625439763
72,-0.0219731982797384,0.0156306866556406,-0.00446968805044889,-0.419710129499435,-0.00690821977332234,0.00543198920786381
73,-0.0139172617346048,0.0147168068215251,-0.00844715628772974,-0.5,-0.00776826310902834,-0.00143176503479481
74,-0.0103193409740925,0.0135645493865013,-0.0139167150482535,-0.5,-0.0154588306322694,-0.00473092729225755
75,-0.0129852779209614,0.0119051402434707,-0.0188140943646431,-0.5,-0.0244705807417631,-0.00453685875982046
76,-0.0186281614005566,0.0108747882768512,-0.0195657536387444,-0.5,-0.031279593706131,-0.00259838136844337
77,-0.022877024486661,0.0114227896556258,-0.0159452855587006,-0.5,-0.0342576168477535,0.000469695136416703
78,-0.0231997594237328,0.0138204982504249,-0.00994770880788565,-0.5,-0.0319528989493847,0.00495143420994282
79,-0.0200772304087877,0.0162812899798155,-0.00384601089172065,-0.5,-0.0265229735523462,0.00959733966737986
80,-0.0172780137509108,0.0160343647003174,-7.34070636099204E-05,-0.5,-0.0252257008105516,0.0121509172022343
81,-0.0181804187595844,0.013470783829689,0.000550211756490171,-0.5,-0.0317234918475151,0.0121013848111033
82,-0.0228243935853243,0.0112594980746508,-0.000266932940576226,-0.330324232578278,-0.0405689515173435,0.0101918699219823
83,-0.028368080034852,0.0111997583881021,0.000711421598680317,-0.196215525269508,-0.0426668040454388,0.00667829532176256
84,-0.0313426963984966,0.0137039478868246,0.00542757101356983,-0.127731025218964,-0.0333743095397949,0.00167906528804451
85,-0.0308124050498009,0.0164003167301416,0.0122482916340232,-0.134245619177818,-0.0166391599923372,-0.00396577687934041
86,-0.0285658314824104,0.0158492047339678,0.0172993242740631,-0.192605048418045,-0.00164975342340767,-0.00849283207207918
87,-0.0262198373675346,0.0120800249278545,0.0174033399671316,-0.248408511281013,0.00466438243165612,-0.010086708702147
88,-0.0238641165196896,0.00739248795434833,0.0124522792175412,-0.255018532276154,0.00130611821077764,-0.00889349170029163
89,-0.0206477288156748,0.00403898349031806,0.00580299645662308,-0.201680049300194,-0.00865748710930347,-0.00573773309588432
90,-0.0167355574667454,0.00258695404045284,0.00110904686152935,-0.112680792808533,-0.0198256764560938,-0.000721521733794361
91,-0.0125961909070611,0.00125884998124093,-0.00166163733229041,-0.0215968638658524,-0.0266511719673872,0.00516961654648185
92,-0.00795708037912846,-0.000761862786021084,-0.00549664860591292,0.0519438944756985,-0.0280765648931265,0.010367133654654
93,-0.00632590055465698,-0.00306102656759322,-0.0115804262459278,0.0852831453084946,-0.0282657444477081,0.0127266710624099
94,-0.0122328624129295,-0.00525191752240062,-0.0166594889014959,0.062555618584156,-0.0307459309697151,0.0105200419202447
95,-0.0227865073829889,-0.00599761353805661,-0.0160357039421797,0.0130332168191671,-0.0327668115496635,0.0058202245272696
96,-0.0306858327239752,-0.00456951232627034,-0.00797573570162058,-0.0105741778388619,-0.0290856324136257,0.00323340902104974
97,-0.0323783680796623,-0.00364560703746974,0.00632551359012723,0.0129856346175075,-0.0212361477315426,0.00449338927865028
98,-0.0292000807821751,-0.0068233790807426,0.0206741988658905,0.0647211223840714,-0.0170693881809711,0.00663794996216893
99,-0.0241360273212194,-0.0123750017955899,0.0248757041990757,0.11602258682251,-0.0199243221431971,0.00655180122703314
100,-0.0198652632534504,-0.0145979076623917,0.0157446190714836,0.160680294036865,-0.0249147787690163,0.00498849805444479
101,-0.0172760393470526,-0.0114322071895003,-2.14006213354878E-05,0.210225716233253,-0.0255983900278807,0.00443439045920968
102,-0.0156689286231995,-0.00599767500534654,-0.0147511502727866,0.250181049108505,-0.0217869151383638,0.00560782989487052
103,-0.0139743098989129,-0.000738508417271078,-0.023643895983696,0.242552697658539,-0.018597399815917,0.00809758808463812
104,-0.0105986371636391,0.00421089585870504,-0.0248194318264723,0.170940950512886,-0.0173719730228186,0.00996059831231833
105,-0.00472671538591385,0.00775523623451591,-0.0214086063206196,0.0290111508220434,-0.0145133445039392,0.00787169020622969
106,0.00190433533862233,0.00841956585645676,-0.0186893828213215,-0.201950341463089,-0.0084815938025713,0.001536670839414
107,0.00754976877942681,0.00579200964421034,-0.0174621194601059,-0.5,-0.00139002350624651,-0.0061195706948638
108,0.0132842306047678,0.00204165698960423,-0.0142654180526733,-0.5,0.0057433508336544,-0.011688869446516
109,0.0187955815345049,0.00149054650682956,-0.00854958407580853,-0.5,0.0119483219459653,-0.0133897541090846
110,0.0221501365303993,0.00554521894082427,-0.00102684716694057,-0.5,0.0145954182371497,-0.0116858473047614
111,0.0239147748798132,0.0102395070716739,0.00894140265882015,-0.5,0.011702774092555,-0.00850245542824268
112,0.0236520357429981,0.0105296475812793,0.0168610252439976,-0.5,0.000689592503476888,-0.00703845173120499
113,0.0185305513441563,0.00600485829636455,0.0171474162489176,-0.5,-0.0170990470796824,-0.0084112836048007
114,0.00860620103776455,0.000949618988670409,0.0108380308374763,-0.5,-0.032658975571394,-0.0097304442897439
115,-0.00246326997876167,-0.00110151804983616,0.00135595793835819,-0.5,-0.0402793772518635,-0.00826133415102959
116,-0.0112974895164371,-0.000820187153294683,-0.00938039645552635,-0.5,-0.0431193150579929,-0.00447977241128683
117,-0.016612745821476,0.000300425774184987,-0.019081924110651,-0.5,-0.0445776879787445,6.93680995027535E-05
118,-0.0201617367565632,0.00180158682633191,-0.0255279988050461,-0.5,-0.0453358143568039,0.00400059577077627
119,-0.0235155262053013,0.00353579362854362,-0.0276467297226191,-0.5,-0.0446659326553345,0.00631252955645323
120,-0.0242685899138451,0.00664456840604544,-0.0248158741742373,-0.5,-0.0403432212769985,0.00782586820423603
121,-0.0204333160072565,0.0116199553012848,-0.0185067411512136,-0.5,-0.0334127023816109,0.0092919422313571
122,-0.0144492899999022,0.0166353620588779,-0.0127130402252078,-0.5,-0.0285977590829134,0.009623933583498
123,-0.0114717958495021,0.0187295153737068,-0.0111930398270488,-0.5,-0.0287705156952143,0.00723729189485312
124,-0.0140676908195019,0.0171306692063808,-0.0130781270563602,-0.5,-0.0316436104476452,0.0032108360901475
125,-0.0190857779234648,0.0144270658493042,-0.0128084002062678,-0.5,-0.0324934385716915,0.000872126081958413
126,-0.0225549023598433,0.0118121122941375,-0.00871801935136318,-0.5,-0.0309280585497618,0.000456346664577723
127,-0.0240301769226789,0.00827891286462545,-0.00554848974570632,-0.5,-0.0295253526419401,-0.000741570605896413
128,-0.024843230843544,0.00478346366435289,-0.00540424278005958,-0.5,-0.0282173231244087,-0.00379468267783523
129,-0.0248693395406008,0.00362187065184116,-0.00488619087263942,-0.5,-0.0252234805375338,-0.00738888047635555
130,-0.0231090802699327,0.004459532443434,-0.00311307236552238,-0.5,-0.0202402975410223,-0.0102657163515687
131,-0.0204496458172798,0.00486709922552109,-0.00323677295818925,-0.5,-0.0150558222085238,-0.0124929845333099
132,-0.0180822443217039,0.00459429016336799,-0.00577551405876875,-0.5,-0.00896543636918068,-0.0136930756270885
133,-0.0160201992839575,0.00608432851731777,-0.00867502298206091,-0.5,0.00279094697907567,-0.0123033300042152
134,-0.0145224491134286,0.00967930443584919,-0.0100565841421485,-0.5,0.0197034981101751,-0.00777493603527546
135,-0.0132418274879456,0.0111360345035791,-0.00878314487636089,-0.5,0.0314238034188747,-0.00260851602070034
136,-0.0112318554893136,0.00732106436043978,-0.00758851412683725,-0.5,0.0266683492809534,-0.00144842255394906
137,-0.00879513937979937,0.000559480744414032,-0.0102210193872452,-0.5,0.00551610486581922,-0.0064737037755549
138,-0.00665251770988107,-0.00502357911318541,-0.015568470582366,-0.5,-0.0184035375714302,-0.0142551520839334
139,-0.00472346181049943,-0.00693047419190407,-0.0198816172778606,-0.5,-0.0321299731731415,-0.0188882369548082
140,-0.002967658219859,-0.00507366331294179,-0.0206477791070938,-0.5,-0.0350361689925194,-0.0174307562410831
141,-0.00244596390984952,-0.00148778734728694,-0.0184311103075743,-0.5,-0.0339060984551907,-0.0113202929496765
142,-0.0034566423855722,0.00172293675132096,-0.0154469348490238,-0.5,-0.0332780033349991,-0.00373610202223063
143,-0.00375532964244485,0.00368447136133909,-0.0124821187928319,-0.5,-0.0315580889582634,0.00282292440533638
144,-0.00128090986981988,0.00467032380402088,-0.00983134377747774,-0.5,-0.0251878891140223,0.00718948105350137
145,0.00241779698990285,0.0051228366792202,-0.00967063568532467,-0.5,-0.0161589812487364,0.00906240940093994
146,0.00323214894160628,0.00480013340711594,-0.0140497768297791,-0.5,-0.0112166618928313,0.00876959413290024
147,-0.000390125176636502,0.00387679948471487,-0.0200204625725746,-0.5,-0.0134313590824604,0.00794402789324522
148,-0.00607415055856109,0.00307903112843633,-0.0225134361535311,-0.5,-0.0197085682302713,0.0075402338989079
149,-0.0111996438354254,0.00253636296838522,-0.0210153218358755,-0.5,-0.0235016327351332,0.00598164880648255
150,-0.0143480859696865,0.00247715972363949,-0.0177584979683161,-0.5,-0.0203878879547119,0.00310207041911781
151,-0.0145642533898354,0.003403106238693,-0.0132806217297912,-0.5,-0.0147146424278617,0.00194625521544367
152,-0.011808936484158,0.00448168581351638,-0.00772604532539845,-0.5,-0.012460402213037,0.00342604028992355
153,-0.00754938181489706,0.00498188985511661,-0.00276196841150522,-0.5,-0.0111452508717775,0.00512471795082092
154,-0.00496426038444042,0.00534142460674047,-0.000372501410311088,-0.5,-0.00786104425787926,0.00520305009558797
155,-0.00564563274383545,0.00590958166867495,-0.000724400510080159,-0.5,-0.00552045647054911,0.00381598528474569
156,-0.00622493308037519,0.00695828208699822,-0.00177127274218947,-0.5,-0.00465750554576516,0.00207007885910571
157,-0.00327308336272836,0.00791142135858536,-0.00197508372366428,-0.5,-0.00137471128255129,0.000599706952925771
158,0.0019927634857595,0.00722892070189118,-0.000637718418147415,-0.5,0.00564532959833741,-0.000406376435421407
159,0.0059686335735023,0.00424077128991485,0.00251812231726944,-0.5,0.0119508346542716,-0.000915945565793663
160,0.00500326463952661,0.000426397484261543,0.00522249331697822,-0.5,0.0109411999583244,-0.000848350115120411
161,-0.0030193543061614,-0.00229143351316452,0.00415646843612194,-0.5,0.000488329213112593,-0.00150702975224704
162,-0.0152441989630461,-0.00264280359260738,-0.001328379730694,-0.5,-0.014306397177279,-0.005033397115767
163,-0.0247489120811224,0.000430073851021007,-0.00910697039216757,-0.5,-0.0266922675073147,-0.0109664238989353
164,-0.0269505437463522,0.00611810106784105,-0.0166536923497915,-0.5,-0.0337892360985279,-0.0165928788483143
165,-0.0231883954256773,0.0113996909931302,-0.022206325083971,-0.5,-0.0362250320613384,-0.0201388020068407
166,-0.0186004023998976,0.0131610138341784,-0.025248859077692,-0.5,-0.0368180088698864,-0.0219706296920776
167,-0.0165150128304958,0.0112486137077212,-0.0261682365089655,-0.5,-0.0374480895698071,-0.0210780184715986
168,-0.0145613895729184,0.00837509799748659,-0.0258804727345705,-0.5,-0.0355128608644009,-0.0156581904739141
169,-0.0088942926377058,0.00564439967274666,-0.0262340009212494,-0.5,-0.0271646082401276,-0.0084941228851676
170,-0.000687308434862643,0.00274428445845842,-0.0279684346169233,-0.5,-0.014321188442409,-0.00399142736569047
171,0.00534107349812984,0.00108785729389638,-0.0305092521011829,-0.5,-0.00385311245918274,-0.00248186383396387
172,0.00791857019066811,0.00237725186161697,-0.0328523069620132,-0.5,0.00144356314558536,-0.00208675605244935
173,0.00963797885924578,0.00580776296555996,-0.0331270173192024,-0.5,0.00410801358520985,-0.00328317820094526
174,0.0100396731868386,0.00872443523257971,-0.030029971152544,-0.5,0.00462642824277282,-0.00856591295450926
175,0.00617421232163906,0.00968344416469336,-0.0241944026201963,-0.5,0.00129082170315087,-0.0184154268354177
176,-0.00168503471650183,0.0097584268078208,-0.020316056907177,-0.5,-0.00585601851344109,-0.0303593408316374
177,-0.0104516092687845,0.00997450016438961,-0.0240384433418512,-0.5,-0.0148438792675734,-0.041080117225647
178,-0.0161559320986271,0.00941877905279398,-0.0339384004473686,-0.5,-0.0230807643383741,-0.0474365130066872
179,-0.0161473844200373,0.00758769037202001,-0.0441134907305241,-0.5,-0.0287981070578098,-0.0483809486031532
180,-0.0116649623960257,0.00514718377962708,-0.0511357448995113,-0.5,-0.0310687310993671,-0.0459656715393066
181,-0.00683295913040638,0.00219330401159823,-0.0542081035673618,-0.5,-0.0312533117830753,-0.0426385961472988
182,-0.00557654816657305,-0.00121241644956172,-0.0540246218442917,-0.5,-0.0317298322916031,-0.0398972742259502
183,-0.008950000628829,-0.00409278646111488,-0.052141398191452,-0.5,-0.032157588750124,-0.0380791760981083
184,-0.0146306119859219,-0.00587997306138277,-0.049841333180666,-0.5,-0.0325470492243767,-0.0363649055361748
185,-0.0178147330880165,-0.00656857434660196,-0.04794667288661,-0.5,-0.0338628403842449,-0.0338992029428482
186,-0.0149137182161212,-0.00578439934179187,-0.0469556413590908,-0.347773969173431,-0.0332022197544575,-0.0301471576094627
187,-0.00799394026398659,-0.0032730067614466,-0.0458032824099064,-0.165732428431511,-0.0257492028176785,-0.0251856036484241
188,-0.0020945358555764,0.000889162940438837,-0.0420309118926525,0.049570020288229,-0.0115438736975193,-0.0194388143718243
189,-0.00030219805194065,0.00563586596399546,-0.0359120108187199,0.255661964416504,0.00203558546490967,-0.0137774059548974
190,-0.00244893855415285,0.00900134071707726,-0.0311425421386957,0.412496268749237,0.00720811448991299,-0.00965571310371161
191,-0.00577569147571921,0.0097961314022541,-0.0287305563688278,0.494998604059219,0.00559100555256009,-0.00798145309090614
192,-0.00815514661371708,0.00787443947046995,-0.0265017990022898,0.5,0.00395660987123847,-0.0092199956998229
193,-0.00977647583931684,0.00431200908496976,-0.0251473933458328,0.5,0.0033476750832051,-0.013102650642395
194,-0.0108451237902045,0.00221968512050807,-0.0263620484620333,0.5,0.00016371687524952,-0.0174646880477667
195,-0.0114762345328927,0.00359564553946257,-0.028888339176774,0.5,-0.0082127396017313,-0.0199117977172136
196,-0.0125001911073923,0.00678338203579187,-0.0312545783817768,0.5,-0.0212859958410263,-0.0194780714809895
197,-0.0137438401579857,0.0100120780989528,-0.0323886945843697,0.5,-0.0342138037085533,-0.0158363711088896
198,-0.0140463719144464,0.0129087893292308,-0.0310623254626989,0.5,-0.040700051933527,-0.00998908467590809
199,-0.0120117943733931,0.0151453679427505,-0.0277890432626009,0.5,-0.0395949184894562,-0.00436118012294173
200,-0.00773615669459105,0.015982411801815,-0.025097219273448,0.5,-0.0365124568343163,-0.00068291969364509
201,-0.00319099752232432,0.0153162302449346,-0.0248583778738976,0.5,-0.0361078567802906,0.00137572828680277
202,0.00142378464806825,0.0150018138810992,-0.0259236395359039,0.5,-0.0366393402218819,0.00347540411166847
203,0.00690756971016526,0.0163024105131626,-0.026012497022748,0.5,-0.0345388688147068,0.0057285581715405
204,0.0117007046937943,0.0179893262684345,-0.0246662199497223,0.438808053731918,-0.0290062893182039,0.00626402208581567
205,0.0136650502681732,0.0190151929855347,-0.022802796214819,-0.5,-0.021704064682126,0.0044975820928812
206,0.0121571058407426,0.0192566309124231,-0.0214208122342825,-0.5,-0.0153191462159157,0.00109685154166073
207,0.00710215698927641,0.0181112345308065,-0.0212176162749529,-0.5,-0.0120398970320821,-0.00429678754881024
208,-0.000181330862687901,0.0154538424685597,-0.0215766876935959,-0.5,-0.0111209843307734,-0.0121051715686917
209,-0.00639198860153556,0.0115850744768977,-0.0206748954951763,-0.5,-0.00958495959639549,-0.0214671734720469
210,-0.00919748935848475,0.00735519919544458,-0.0168691780418158,-0.5,-0.00688848271965981,-0.029035834595561
211,-0.00909633841365576,0.00447438843548298,-0.0111807277426124,-0.5,-0.00473191775381565,-0.0305946543812752
212,-0.00822492688894272,0.00286496942862868,-0.00791715364903212,-0.5,-0.00286470190621912,-0.0265421327203512
213,-0.00822947639971972,0.00148187868762761,-0.00971389561891556,-0.5,0.000163256059749983,-0.0199818108230829
214,-0.00774828949943185,0.00147683406248689,-0.0142131866887212,-0.5,0.00498954392969608,-0.0111442701891065
215,-0.0033197186421603,0.00335861882194877,-0.0180066898465157,-0.5,0.0100034987553954,-0.00153343460988253
216,0.00365946465171874,0.00458225514739752,-0.0214369539171457,-0.5,0.0103513794019818,0.00377858802676201
217,0.00669170403853059,0.00365383457392454,-0.0259951092302799,-0.5,0.004880391061306,0.0035333305131644
218,0.00368386344052851,0.00178830488584936,-0.0311455018818378,-0.5,-0.00101176323369145,0.000748655060306191
219,-0.00137743633240461,0.000590080919209868,-0.0355069078505039,-0.5,-0.00461003556847572,-0.00219032703898847
220,-0.0049124900251627,0.00117640045937151,-0.0362283475697041,-0.5,-0.00761653948575258,-0.00224470300599933
221,-0.00702467281371355,0.00276291277259588,-0.0319113880395889,-0.5,-0.0105886198580265,0.00203376822173595
222,-0.00844669807702303,0.00342050264589489,-0.0253385007381439,-0.5,-0.0126741472631693,0.00708638364449143
223,-0.00758993905037642,0.00326134939678013,-0.0193850323557854,-0.5,-0.0143179232254624,0.00854598451405764
224,-0.00379091082140803,0.00410410389304161,-0.0166051778942347,-0.5,-0.0185395758599043,0.00461780978366733
225,0.00026803175569512,0.00648565031588078,-0.0191289540380239,-0.5,-0.0261220093816519,-0.00318294740281999
226,0.00128361384849995,0.00781016796827316,-0.0247905775904655,-0.263914406299591,-0.0324595272541046,-0.0110358959063888
227,-0.00149495888035744,0.00564595870673656,-0.0289577841758728,0.12230059504509,-0.0336306393146515,-0.0154231153428555
228,-0.00652316818013787,0.000756997440475971,-0.0297855772078037,0.421673595905304,-0.0304845198988914,-0.0157650224864483
229,-0.0100689893588424,-0.00395298562943935,-0.027754919603467,0.5,-0.0245573818683624,-0.0148239731788635
230,-0.00708624254912138,-0.00480625219643116,-0.0234870389103889,0.5,-0.0150782316923141,-0.0142625942826271
231,0.00256332661956549,-0.000758854032028466,-0.0190119091421366,0.499769389629364,-0.00182008242700249,-0.0127941146492958
232,0.0125799411907792,0.00531170843169093,-0.0160081926733255,0.0504371672868729,0.0117201004177332,-0.00909687485545874
233,0.0176968462765217,0.0104130730032921,-0.0136279305443168,-0.5,0.0193122532218695,-0.00371478963643312
234,0.0161371268332005,0.0128479385748506,-0.0117520736530423,-0.5,0.0162255000323057,0.000401188764953986
235,0.0082996841520071,0.0121244098991156,-0.0112799536436796,-0.5,0.00421357294544578,0.000523508235346526
236,-0.00228129141032696,0.00920797139406204,-0.0122323147952557,-0.5,-0.00950238015502691,-0.00317448354326189
237,-0.010791540145874,0.00551932584494352,-0.0145239923149347,-0.5,-0.0189740639179945,-0.00900714471936226
238,-0.0147629175335169,0.00237769400700927,-0.0171868298202753,-0.5,-0.0228735767304897,-0.0154070323333144
239,-0.0150939142331481,0.000312196789309382,-0.0182631108909845,-0.5,-0.0229964759200811,-0.021240072324872
240,-0.0135323870927095,-0.000494532403536141,-0.0171093195676804,-0.5,-0.0208840016275644,-0.0249979794025421
241,-0.0116795320063829,-0.00037721247645095,-0.0157064348459244,-0.5,-0.0179686173796654,-0.0256362929940224
242,-0.00976079702377319,-0.000502184382639825,-0.0161347221583128,-0.5,-0.0156178185716271,-0.0242084134370089
243,-0.0068359193392098,-0.00133531703613698,-0.0185421071946621,-0.5,-0.013698847964406,-0.0226481072604656
244,-0.00345560885034502,-0.00213751569390297,-0.0219146776944399,-0.5,-0.0120534440502524,-0.0217436421662569
245,-0.000996776041574776,-0.00195081799756736,-0.024932874366641,-0.5,-0.0110044572502375,-0.0209602396935225
246,-0.000187940779142082,-0.000158234062837437,-0.0264754761010408,-0.5,-0.0104437926784158,-0.0192536767572165
247,-0.00067827187012881,0.00295787188224494,-0.0245989449322224,-0.5,-0.009886777959764,-0.0156134497374296
248,-0.00186392106115818,0.00550359161570668,-0.0182488411664963,-0.5,-0.00921196956187487,-0.00998977664858103
249,-0.00297161284834147,0.00590684497728944,-0.0107092931866646,-0.5,-0.00905048940330744,-0.00391353387385607
250,-0.00231327675282955,0.00426640314981341,-0.00667915819212794,-0.5,-0.00931652635335922,1.30907128550461E-05
251,0.00198642839677632,0.00178736972156912,-0.00680373376235366,-0.5,-0.00681071262806654,0.000264782400336117
252,0.00859489198774099,-0.000407715182518587,-0.00915082730352879,-0.5,0.00107805174775422,-0.0029011310543865
253,0.0123262461274862,-0.00218278588727117,-0.012815548107028,-0.5,0.0100479358807206,-0.0074549987912178
254,0.0112332431599498,-0.00227510579861701,-0.0157804172486067,-0.441077798604965,0.0152199622243643,-0.00953075662255287
255,0.00793186202645302,4.54582077509258E-05,-0.0158119816333056,-0.337541431188583,0.0193248689174652,-0.00865329429507256
256,0.00522283418104053,0.00285071972757578,-0.0140613950788975,-0.342366695404053,0.0266274679452181,-0.00788507331162691
257,0.00586544815450907,0.00537158781662583,-0.0116777215152979,-0.451884508132935,0.0342127569019794,-0.00758867152035236
258,0.00960788410156965,0.00806737970560789,-0.00825234688818455,-0.5,0.0336424559354782,-0.00668040942400694
259,0.0122278518974781,0.010209365747869,-0.00470532011240721,-0.5,0.0216799397021532,-0.0061170388944447
260,0.0112730292603374,0.0103353289887309,-0.00250922818668187,-0.5,0.00379774393513799,-0.00763147883117199
261,0.00794769637286663,0.00828572455793619,-0.00109932664781809,-0.5,-0.0123686539009213,-0.0103741893544793
262,0.00404888950288296,0.00596724497154355,0.000313641299726442,-0.5,-0.022574070841074,-0.0114702805876732
263,0.000848381139803678,0.00459748413413763,0.000246754352701828,-0.5,-0.02787328325212,-0.0106061678379774
264,-0.000244748429395258,0.00399248208850622,-0.00243559153750539,-0.5,-0.0301680397242308,-0.00910761673003435
265,0.000806282507255673,0.00305268564261496,-0.00771378027275205,-0.5,-0.0298751015216112,-0.00807563588023186
266,0.00211201678030193,0.00061437941621989,-0.0153419319540262,-0.069365918636322,-0.0289643798023462,-0.00910914037376642
267,0.00233230437152088,-0.00261952867731452,-0.0235763024538755,0.418310672044754,-0.0290633104741573,-0.0121366074308753
268,0.00143134442623705,-0.00586068909615278,-0.0303241200745106,0.5,-0.0286729205399752,-0.0160355940461159
269,0.000334329641191289,-0.00857358798384666,-0.034563947468996,0.5,-0.0262354984879494,-0.0197651609778404
270,-0.000331089191604406,-0.00926258694380522,-0.0359998680651188,0.5,-0.0235608499497175,-0.0205855183303356
271,-0.00112014601472765,-0.00726316589862108,-0.0348001718521118,0.5,-0.0228523816913366,-0.0162833165377378
272,-0.00157462898641825,-0.00319114630110562,-0.0303176064044237,0.5,-0.0229544937610626,-0.00846866983920336
273,-0.000450212537543848,0.00168688117992133,-0.0223231129348278,0.5,-0.0219112280756235,-0.00119526870548725
274,0.00209327950142324,0.00512487022206187,-0.0137818278744817,0.5,-0.0202918704599142,0.00225015776231885
275,0.00507528521120548,0.00559490732848644,-0.00810515601187944,0.5,-0.0198033284395933,0.00158804934471846
276,0.00765209086239338,0.00415054988116026,-0.00523118767887354,0.5,-0.0196525249630213,-0.000624962209258229
277,0.00896028988063335,0.00243409862741828,-0.00323969381861389,0.5,-0.0169810950756073,-0.00226980890147388
278,0.00900802295655012,0.000998194562271237,-0.00105750584043562,0.5,-0.0111492704600096,-0.00320632359944284
279,0.00814652629196644,-0.000235256375162862,0.00149451836477965,0.5,-0.00428042886778712,-0.00361894466914237
280,0.00603264570236206,-0.0012544720666483,0.0048328354023397,0.5,0.00275085400789976,-0.00338900671340525
281,0.00349635095335543,-0.00149802444502711,0.00915170926600695,0.5,0.0103270690888166,-0.00258679734542966
282,0.0021772445179522,-0.00104852975346148,0.0123652089387178,0.5,0.0153186377137899,-0.00110858690459281
283,0.00229750876314938,-0.000829000375233591,0.0123370569199324,0.5,0.0139423627406359,0.00119145237840712
284,0.00329183298163116,-0.000948055298067629,0.00966600328683853,0.5,0.00800471752882004,0.00382403726689518
285,0.00511153927072883,-0.000516189029440284,0.00567055400460958,0.5,0.00233837077394128,0.00604343274608254
286,0.00761262699961662,0.000772062863688916,0.00146160554140806,0.5,0.00102708546910435,0.00680010952055454
287,0.00989396497607231,0.00178101228084415,-0.00151125621050596,0.5,0.0059612593613565,0.00501122744753957
288,0.0127141019329429,0.00215408927761018,-0.00190146022941917,0.5,0.0151850283145905,0.00203938432969153
289,0.0174587201327085,0.00302151730284095,1.62165524670854E-05,0.5,0.023326413705945,0.000444430188508704
290,0.02066670358181,0.00356785953044891,0.000837364234030247,0.5,0.0244702082127333,-0.00137854903005064
291,0.0183501914143562,0.00319664343260229,-0.000714930763933808,0.5,0.0181917771697044,-0.00450131855905056
292,0.0126367220655084,0.00455587543547153,-0.000402214762289077,0.5,0.00983996875584126,-0.00449253898113966
293,0.00764527684077621,0.00882099661976099,0.00359022966586053,0.419482827186584,0.00453470926731825,-0.000303679262287915
294,0.00468315370380878,0.0136700542643666,0.00773708708584309,0.468422651290894,0.00570485647767782,0.00232475763186812
295,0.00225943420082331,0.0148757267743349,0.00888144969940186,0.5,0.0116618108004332,-0.001700081047602
296,0.000793988234363496,0.0106929754838347,0.0083448002114892,0.5,0.0159900523722172,-0.00980618689209223
297,0.00423218123614788,0.0046581388451159,0.00890544522553682,0.5,0.0149464150890708,-0.0145737612619996
298,0.0132558485493064,-5.07806762470864E-05,0.00923072639852762,0.5,0.00967628601938486,-0.0132401799783111
299,0.022469412535429,-0.00255523645319045,0.0076229558326304,0.5,0.00488428026437759,-0.00695636728778481
300,0.0259660147130489,-0.00257581588812172,0.0054349098354578,0.5,0.00390843022614717,0.00225195777602494
301,0.0221359133720398,-0.00184296804945916,0.00310852029360831,0.5,0.0048855640925467,0.00944744329899549
302,0.0142470560967922,-0.00146053370554,0.00101396127138287,0.5,0.00559492176398635,0.0114416712895036
303,0.00781553890556097,-7.05028433003463E-05,0.00140292686410248,0.5,0.00732129393145442,0.00961303152143955
304,0.00536655308678746,0.00283864745870233,0.00504880398511887,0.5,0.0111341075971723,0.0054231402464211
305,0.00438260193914175,0.00626640766859055,0.0098814582452178,0.5,0.0145885525271297,-0.000154654364450835
306,0.000708495907019824,0.00825020670890808,0.0117889707908034,0.5,0.0135106602683663,-0.00636821705847979
307,-0.00474312482401729,0.00814198143780231,0.00891674589365721,0.5,0.00763382064178586,-0.0120665533468127
308,-0.00690270820632577,0.00725332694128156,0.00411771237850189,0.5,0.000886149064172059,-0.0156936496496201
309,-0.00418112240731716,0.00602536695078015,6.72327587381005E-06,0.5,-0.00364461843855679,-0.0168563146144152
310,0.00144471658859402,0.00495688570663333,-0.00253648567013443,0.5,-0.0041965963318944,-0.0137225082144141
311,0.0075031048618257,0.00503320386633277,-0.00262217689305544,0.5,-0.00109621277078986,-0.0046420069411397
312,0.0111383525654674,0.00557407131418586,-0.000983904115855694,0.5,0.00169123278465122,0.00602805987000465
313,0.0103471782058477,0.00479025673121214,0.000533784448634833,0.5,0.00142203166615218,0.0111448792740703
314,0.0064166528172791,0.00230155233293772,0.00216890615411103,0.5,0.000687326828483492,0.0090845562517643
315,0.00462530367076397,-0.000462878873804584,0.00469659827649593,0.5,0.00436737341806293,0.004339465405792
316,0.00940840132534504,-0.00254018465057015,0.00674962252378464,0.5,0.015986293554306,0.000311624113237485
317,0.0175619702786207,-0.00423638289794326,0.00684884889051318,0.5,0.0323327034711838,-0.00397758232429624
318,0.0222125537693501,-0.00559447053819895,0.00573467463254929,0.5,0.0418760217726231,-0.00962927471846342
319,0.0206845663487911,-0.00655868789181113,0.00415815506130457,0.5,0.0365631394088268,-0.0159836150705814
320,0.0154202021658421,-0.00666481116786599,0.0018564653582871,0.5,0.0204271487891674,-0.0210049543529749
321,0.00959062483161688,-0.00544770248234272,-0.00055882683955133,0.5,0.00279196281917393,-0.0223350189626217
322,0.00332166370935738,-0.004047148860991,-0.00207391916774213,0.5,-0.0094968918710947,-0.0197019558399916
323,-0.00239606527611613,-0.0030042224097997,-0.00170703895855695,0.5,-0.0121457651257515,-0.0144227966666222
324,-0.00465768482536078,-0.00243136938661337,0.000403608253691345,0.5,-0.00663698324933648,-0.00961895473301411
325,-0.00283017964102328,-0.00296942866407335,0.00296981725841761,0.5,-0.000884262612089515,-0.00823984015733004
326,0.000928180175833404,-0.00364895933307707,0.00536341965198517,0.462846517562866,-0.000170964514836669,-0.0089985029771924
327,0.00432797754183412,-0.00270679569803178,0.00713641522452235,0.218011081218719,-0.00297252275049686,-0.00870888493955135
328,0.00733591103926301,-0.000301693857181817,0.00739979604259133,-0.0527708753943443,-0.00538004096597433,-0.00715152593329549
329,0.0104470402002335,0.00189018354285508,0.00570843135938048,-0.339401215314865,-0.00540539296343923,-0.00630413321778178
330,0.0121704861521721,0.00356399337761104,0.0036565326154232,-0.5,-0.00309884990565479,-0.0061558224260807
331,0.00978367682546377,0.0052391248755157,0.00344999739900231,-0.5,-0.000603835564106703,-0.00541324215009809
332,0.00374421221204102,0.00725968834012747,0.00529475416988134,-0.5,0.000633736432064325,-0.00331398914568126
333,-0.00228984863497317,0.00952873378992081,0.00693320948630571,-0.5,0.00181677495129406,-0.000293821794912219
334,-0.00636751530691981,0.0108051737770438,0.00584829226136208,-0.5,0.00193463219329715,0.00185511296149343
335,-0.00798668432980776,0.0105249220505357,0.00314612546935678,-0.5,-0.000150285894051194,0.00230219191871583
336,-0.00630950694903731,0.00949177332222462,0.00286841532215476,-0.426478892564774,-0.00182235473766923,0.00166412186808884
337,-0.000890981580596417,0.00853305496275425,0.00689576473087072,-0.389503717422485,-0.00159005506429821,0.000553548743482679
338,0.0083022965118289,0.00805381406098604,0.0123745426535606,-0.449050664901733,0.000440438539953902,-0.000715191010385752
339,0.0185071006417274,0.00728972861543298,0.0138348331674933,-0.5,0.00371596775949001,-0.00259107071906328
340,0.0236157681792974,0.00504256505519152,0.00903687532991171,-0.5,0.0055253179743886,-0.00479832151904702
341,0.0215182937681675,0.00234722485765815,0.00223552458919585,-0.5,0.00382928946055472,-0.00482694525271654
342,0.0162212383002043,0.000725435209460557,-0.00181728135794401,-0.5,-0.000719504547305405,-0.00249981856904924
343,0.0124181909486651,0.000642710889223963,-0.0024217099417001,-0.5,-0.00457147182896733,-4.63843243778683E-05
344,0.0118564246222377,0.00229584542103112,-0.000820340821519494,-0.5,-0.00307025806978345,0.00172402244061232
345,0.012962119653821,0.00491487514227629,0.00104391691274941,-0.5,0.00376599468290806,0.00259809801355004
346,0.0133414100855589,0.00705749029293656,0.00156840693671256,-0.5,0.0106618776917458,0.00260460563004017
347,0.0117085389792919,0.00747554795816541,0.00151386228390038,-0.5,0.0135115021839738,0.00162921845912933
348,0.00765754375606775,0.00614983914420009,0.00353769212961197,-0.5,0.0122938835993409,-2.82505425275303E-05
349,0.00190300517715514,0.00421549705788493,0.00796317309141159,-0.5,0.00905052851885557,-0.000568854331504554
350,-0.00253244047053158,0.00264153839088976,0.0120954839512706,-0.5,0.0061334865167737,0.000918642734177411
351,-0.00216487050056458,0.00183032848872244,0.0142654459923506,-0.5,0.00443980190902948,0.00305944192223251
352,0.0029165274463594,0.00145277997944504,0.0145331099629402,-0.5,0.00418941210955381,0.00377443758770823
353,0.00922754593193531,0.000500921334605664,0.0129671283066273,-0.5,0.00710586551576853,0.00181122589856386
354,0.0136825665831566,-0.00191482505761087,0.00925039313733578,-0.5,0.0133454613387585,-0.00275477487593889
355,0.0148539924994111,-0.0055486811324954,0.00352567597292364,-0.5,0.0176385436207056,-0.00865950621664524
356,0.0118026649579406,-0.00878737214952707,-0.0027617437299341,-0.5,0.0137561084702611,-0.0136033678427339
357,0.00554390205070376,-0.00976252276450396,-0.00621730135753751,-0.5,0.00296895974315703,-0.0152504295110703
358,-0.000524325878359377,-0.00816674530506134,-0.00431802496314049,-0.5,-0.00802846532315016,-0.0136235672980547
359,-0.00327559770084918,-0.00483238929882646,0.00120130449067801,-0.5,-0.0148052452132106,-0.0106082540005445
360,-0.00176418875344098,-0.000693968962877989,0.00713100610300899,-0.5,-0.0160277914255857,-0.00754407560452819
361,0.00142257625702769,0.00188174576032907,0.0111468462273479,-0.5,-0.0132642155513167,-0.00595118990167975
362,0.00259770709089935,0.00118302775081247,0.0118855470791459,-0.5,-0.0098600136116147,-0.00631910329684615
363,0.000730499858036637,-0.00141750148031861,0.010346719995141,-0.435215085744858,-0.00735628418624401,-0.00639045611023903
364,-0.00213429611176252,-0.00354254618287086,0.00936141051352024,-0.388932406902313,-0.00521119730547071,-0.00351066351868212
365,-0.00216959929093719,-0.00361675047315657,0.0100130699574947,-0.475030452013016,-0.00129712768830359,0.00284931622445583
366,0.00210010563023388,-0.00214547524228692,0.010234672576189,-0.5,0.0073055773973465,0.00986119545996189
367,0.00868931505829096,-0.000679565069731325,0.00922417733818293,-0.5,0.0208060313016176,0.0139236971735954
368,0.0163852386176586,0.00103110796771944,0.00993174966424704,-0.5,0.0351375862956047,0.0152242230251431
369,0.0232400670647621,0.00326556642539799,0.0125487092882395,-0.5,0.0433208458125591,0.0159208364784718
370,0.0250562280416489,0.00378714106045663,0.0121597005054355,-0.5,0.0394227877259254,0.0147645110264421
371,0.0211641956120729,0.0013074727030471,0.00719970604404807,-0.5,0.0243914145976305,0.00980006251484156
372,0.0150208510458469,-0.00186281790956855,0.00192104314919561,-0.5,0.00674376171082258,0.00356088997796178
373,0.00934140849858522,-0.0033405025023967,-0.00024075667897705,-0.5,-0.00335394265130162,-0.000398094125557691
374,0.00448443880304694,-0.00313797197304666,0.000771156686823815,-0.5,-0.00233810697682202,-0.0012010287027806
375,-0.000244287220994011,-0.00218576029874384,0.00352963339537382,-0.5,0.00404153252020478,0.000408926280215383
376,-0.00450924318283796,-0.0010377214057371,0.00599947990849614,-0.5,0.00836564507335424,0.00288225896656513
377,-0.00689449068158865,-0.00031136887264438,0.00644108606502414,-0.429627776145935,0.00784726347774267,0.00437339022755623
378,-0.00710054906085134,-0.000692971574608237,0.00413444126024842,-0.149576544761658,0.00330268871039152,0.00408096378669143
379,-0.00614013895392418,-0.00176339678000659,-0.000184844204341061,0.0181937422603369,-0.0025390861555934,0.00278490898199379
380,-0.00427880324423313,-0.00208630156703293,-0.00372613710351288,0.0504575744271278,-0.00687898462638259,0.00192269624676555
381,-0.00144433358218521,-0.0012782922713086,-0.00423242803663015,-0.0140233766287565,-0.00909463502466679,0.00189138553105295
382,0.000287574075628072,-0.00072509772144258,-0.00296239927411079,-0.123635105788708,-0.0107797216624022,0.00128198717720807
383,-0.00109483406413347,-0.000636697630397975,-0.00129689008463174,-0.219083607196808,-0.011901824735105,-2.33886166824959E-05
384,-0.00493348622694612,-0.000373958144336939,0.000898443395271897,-0.265158206224442,-0.0108083132654428,-0.000487289275042713
385,-0.00891207158565521,-0.00084320578025654,0.00299435760825872,-0.259364902973175,-0.00779692316427827,0.000127712919493206
386,-0.00924022868275642,-0.00218376237899065,0.00480979168787599,-0.225977823138237,-0.0028304229490459,0.00139269151259214
387,-0.00412469450384378,-0.00335003272630274,0.0069547607563436,-0.219845771789551,0.00424221344292164,0.00282626529224217
388,0.00316334702074528,-0.00365365692414343,0.009836052544415,-0.293109208345413,0.0112762181088328,0.00438211020082235
389,0.00800518039613962,-0.00249695149250329,0.0130029758438468,-0.453642785549164,0.0160471517592669,0.00654313946142793
390,0.00864504836499691,-0.000419209391111508,0.0148218162357807,-0.5,0.0168934501707554,0.0079268692061305
391,0.00562513433396816,0.000350869027897716,0.0133823025971651,-0.5,0.012458230368793,0.00621939264237881
392,0.000612454430665821,-0.00109086360316724,0.00866166036576033,-0.5,0.00423951260745525,0.00223504565656185
393,-0.00331489206291735,-0.00278109847567976,0.00394721049815416,-0.485828250646591,-0.00335116102360189,-0.000325186207192019
394,-0.00466270558536053,-0.00352790672332048,0.00144107593223453,-0.235148295760155,-0.00774535350501537,1.2411136594892E-05
395,-0.00431865779682994,-0.00396442878991365,-0.000179407259565778,0.0494844801723957,-0.00861898995935917,0.00122397649101913
396,-0.00243895081803203,-0.00382070732302964,-0.00128569174557924,0.305080622434616,-0.00427507003769279,0.0025120573118329
397,0.000829444616101682,-0.00260017486289144,-0.000722968718037009,0.437743186950684,0.00546730775386095,0.00504802213981748
398,0.00386145105585456,-0.00098164938390255,0.00118247524369508,0.424131065607071,0.0153508465737104,0.00829314813017845
399,0.00572953326627612,7.91946004028432E-05,0.00315122376196086,0.323113709688187,0.0200282242149115,0.00963794160634279
400,0.00668716244399548,7.70776678109542E-05,0.00543412053957582,0.213464513421059,0.0200410522520542,0.00810861960053444
401,0.00619403086602688,-0.000655693467706442,0.00938279367983341,0.148090422153473,0.0190975852310658,0.00692212162539363
402,0.00425571948289871,-0.00124064646661282,0.0142621956765652,0.153097435832024,0.0203483700752258,0.00975608266890049
403,0.00323590310290456,-0.000914483098313212,0.0173275880515575,0.203296303749084,0.0249526593834162,0.0156868081539869
404,0.00496075488626957,0.000157553789904341,0.0166783146560192,0.220954209566116,0.0298067759722471,0.0199991893023252
405,0.00870992336422205,0.00119849911425263,0.0132018001750112,0.144156157970428,0.0300150401890278,0.0200425330549479
406,0.0127084953710437,0.00209600431844592,0.00914668850600719,-0.0240984968841076,0.0241258889436722,0.0180566515773535
407,0.0154284397140145,0.00239993119612336,0.00470125395804644,-0.22378608584404,0.0144107332453132,0.0162129476666451
408,0.0163885168731213,0.000861012027598917,-0.000852931174449623,-0.380959361791611,0.00412638485431671,0.0133437607437372
409,0.0152753693982959,-0.00207611545920372,-0.00631012208759785,-0.44255867600441,-0.00451656989753246,0.00992172211408615
410,0.0121026206761599,-0.00380165595561266,-0.00952827278524637,-0.405728846788406,-0.00994404498487711,0.00973776169121265
411,0.00811712816357613,-0.00294420542195439,-0.00986552238464355,-0.327604323625565,-0.0116414241492748,0.0132713578641415
412,0.004097830504179,-0.000779629335738719,-0.0081742899492383,-0.260526657104492,-0.0111878830939531,0.0166655499488115
413,-0.000153256303747185,0.000950251589529216,-0.00550524005666375,-0.186219602823257,-0.0103415288031101,0.0170495938509703
414,-0.00481784157454968,0.00127649714704603,-0.00333727453835309,-0.0378593355417252,-0.0102396495640278,0.0141743123531342
415,-0.00987181346863508,-0.000267501804046333,-0.00309417746029794,0.238238856196404,-0.0120437042787671,0.00871927011758089
416,-0.014372942969203,-0.0032646250911057,-0.0046065398491919,0.5,-0.0153997242450714,0.00174666848033667
417,-0.0157904233783484,-0.00548319844529033,-0.00576661806553602,0.5,-0.0164930131286383,-0.00377946672961116
418,-0.0124624501913786,-0.00517758214846253,-0.00452546775341034,0.5,-0.0118811810389161,-0.00496889045462012
419,-0.00598724884912372,-0.00364622147753835,-0.0014039744855836,0.5,-0.00391773879528046,-0.00278587755747139
420,0.000859162071719766,-0.00284167286008596,0.00113079883158207,0.5,0.00235784193500876,-2.5116401957348E-05
421,0.00678672594949603,-0.00288700824603438,0.00209173164330423,0.5,0.00553399976342916,0.00251589436084032
422,0.0109664844349027,-0.0024335312191397,0.00391793716698885,0.5,0.00782973691821098,0.00541240908205509
423,0.0120686953887343,-0.000702309072948992,0.00904862396419048,0.5,0.0103107616305351,0.00802784971892834
424,0.0104842623695731,0.00165468431077898,0.0153948571532965,0.5,0.0116695007309318,0.00913023389875889
425,0.00754337105900049,0.002960872836411,0.0179535262286663,0.5,0.0111105302348733,0.00852534268051386
426,0.00446518883109093,0.00248324358835816,0.0157577376812696,0.5,0.00950813759118319,0.00746968714520335
427,0.0024766125716269,0.0012018010020256,0.0127638904377818,0.455693334341049,0.0081585356965661,0.00715638929978013
428,0.000881022308021784,-0.000890431809239089,0.011083266697824,0.305907607078552,0.0072821001522243,0.00693797646090388
429,-0.000959871045779437,-0.00431036716327071,0.00975143816322088,0.280721485614777,0.00706013105809689,0.0063133779913187
430,-0.00207526609301567,-0.00822646357119083,0.00811509694904089,0.366579055786133,0.00898653827607632,0.00562996882945299
431,-0.00227219588123262,-0.0108287474140525,0.00632756063714623,0.5,0.0128680486232042,0.00519475713372231
432,-0.00287274201400578,-0.0111372694373131,0.00456446269527078,0.5,0.0147638656198978,0.00514570064842701
433,-0.00461649103090167,-0.00967841409146786,0.00355925201438367,0.5,0.0114865610376,0.00517509272322059
434,-0.00623873807489872,-0.00704381288960576,0.00381041993387043,0.5,0.00471715908497572,0.00532295135781169
435,-0.00604908168315887,-0.00392078328877687,0.00397811224684119,0.5,-0.00131685961969197,0.00612799590453506
436,-0.00401116954162717,-0.00133439805358648,0.00278182420879602,0.5,-0.00437681144103408,0.0078732306137681
437,-0.00091520301066339,0.000332113297190517,0.000714508409146219,0.5,-0.0049546891823411,0.0105031589046121
438,0.00279224547557533,0.00118859810754657,-0.000861391774378717,0.5,-0.00396084552630782,0.0137990526854992
439,0.00577008072286844,0.00096779566956684,-0.00152048154268414,0.5,-0.00143629172816873,0.0165638122707605
440,0.00650170492008328,-0.000585999863687903,-0.00224653631448746,0.5,0.00370989996008575,0.0160079840570688
441,0.0050962963141501,-0.00278273760341108,-0.00275451387278736,0.5,0.0122887808829546,0.0106766801327467
442,0.00320912711322308,-0.00412603653967381,-0.000582295411732048,0.5,0.0211231540888548,0.00341298989951611
443,0.0028726770542562,-0.00338193960487843,0.00489352643489838,0.5,0.0242833141237497,-0.0013214573264122
444,0.00440031429752707,-0.00104721693787724,0.0104279816150665,0.5,0.0194520317018032,-0.0024321828968823
445,0.00598959485068917,0.000308933987980708,0.0124307228252292,0.5,0.00941110961139202,-0.00272302073426545
446,0.00612966250628233,-0.00100095383822918,0.00987800676375628,0.5,-0.000517346663400531,-0.00441110646352172
447,0.00550788221880794,-0.00326622324064374,0.00458903191611171,0.5,-0.00618971651419997,-0.00568284699693322
448,0.0054211406968534,-0.00390514219179749,3.95391361962538E-05,0.5,-0.00758859608322382,-0.00306901754811406
449,0.00518789747729898,-0.00270348135381937,-0.00212177494540811,0.5,-0.00642680842429399,0.00383811839856207
450,0.00371382455341518,-0.00127862766385078,-0.00295786559581757,0.5,-0.00342753576114774,0.0114342933520675
451,0.00214060605503619,-0.000697567185852677,-0.00342078553512692,0.5,0.00015088525833562,0.0156583879143
452,0.00192523992154747,-0.000573030498344451,-0.00348034664057195,0.5,0.00204250914976001,0.0159337315708399
453,0.00204329378902912,-0.000975924311205745,-0.00331816985271871,0.5,0.00125082640442997,0.0131831085309386
454,0.00120767729822546,-0.00207705050706863,-0.00300398329272866,0.5,-0.000962489226367325,0.00842690840363503
455,8.87440473889001E-05,-0.00263287359848619,-0.00150329398456961,0.5,-0.00175605725962669,0.0042329435236752
456,-0.00111416669096798,-0.00270212139002979,0.00153230538126081,0.5,0.000847817398607731,0.00135088514070958
457,-0.00230218842625618,-0.00304233795031905,0.00502704735845327,0.5,0.00625143991783261,-0.000705750659108162
458,-0.00188937655184418,-0.00290934601798654,0.00793059729039669,0.5,0.0133558986708522,-0.000936887925490737
459,0.00120465096551925,-0.00168609526008368,0.0101706059649587,0.5,0.0219806395471096,0.00121739541646093
460,0.00575670599937439,0.000289178744424134,0.0121403960511088,0.5,0.030050303786993,0.00477475672960281
461,0.00866175442934036,0.00176208128686994,0.0130935991182923,0.5,0.0337003655731678,0.00764087215065956
462,0.00835499912500381,0.00238560559228063,0.0129478052258492,0.5,0.032335352152586,0.00929862447082996
463,0.00581175461411476,0.00261717429384589,0.0124384788796306,0.5,0.0282800551503897,0.0101476721465588
464,0.00292586255818605,0.0018944974290207,0.0112608615309,0.5,0.0238818060606718,0.00881228037178516
465,0.00216625491157174,0.00056197214871645,0.0101277977228165,0.5,0.0214107651263475,0.00516809429973364
466,0.00443951040506363,-0.000247592077357695,0.0100198136642575,0.5,0.020585510879755,0.0013181921094656
467,0.00850728619843721,-4.7518769861199E-05,0.0103171076625586,0.5,0.0183475501835346,-7.83995710662566E-05
468,0.013313296250999,0.00174222188070416,0.0107942614704371,0.5,0.0135963167995214,0.00347118475474417
469,0.0180259570479393,0.00425108941271901,0.0113791432231665,0.5,0.00793187133967876,0.0107909981161356
470,0.0212421175092459,0.00473794480785728,0.0115770390257239,0.5,0.00258235307410359,0.0167953204363585
471,0.0211974997073412,0.0021844794973731,0.0113238422200084,0.5,-0.00204281904734671,0.017930319532752
472,0.0169810950756073,-0.00134944426827133,0.0100228171795607,0.5,-0.00494281202554703,0.0149637907743454
473,0.0110710151493549,-0.00292222760617733,0.00852689985185862,0.5,-0.00284813065081835,0.0108888735994697
474,0.00789828132838011,-0.00206736382097006,0.00917677953839302,0.5,0.00586768379434943,0.00653046555817127
475,0.00903777778148651,-0.00122355844359845,0.0110491067171097,0.5,0.0161943286657333,0.000363215309334919
476,0.0121887922286987,-0.002127023646608,0.0111603094264865,0.5,0.0215764883905649,-0.0069870613515377
477,0.0143330823630095,-0.00381752592511475,0.00868081953376532,0.5,0.0203667562454939,-0.0123690366744995
478,0.0147129017859697,-0.00483636325225234,0.0042886477895081,0.5,0.0153025668114424,-0.0139329591766
479,0.0146545767784119,-0.00536345597356558,-0.000765129982028157,0.5,0.00975047145038843,-0.0126896351575851
480,0.0140337627381086,-0.00553159043192863,-0.00406530639156699,0.5,0.00498671364039183,-0.0100945122539997
481,0.0104927876964211,-0.00488392263650894,-0.00428693415597081,0.5,-0.000421091594034806,-0.00715184537693858
482,0.00557048106566072,-0.00332976202480495,-0.00246249185875058,0.5,-0.00682714162394404,-0.00545621337369084
483,0.00395655492320657,-0.000453345070127398,-0.000224304312723689,0.5,-0.011044442653656,-0.00553468335419893
484,0.00521665252745152,0.00345068285241723,0.00117287307512015,0.5,-0.0116384774446487,-0.00668538641184568
485,0.00554516399279237,0.00692113349214196,0.001336156623438,0.425352245569229,-0.0115280533209443,-0.00895682908594608
486,0.00392429856583476,0.0089600458741188,2.03186264116084E-05,0.300653278827667,-0.0129283647984266,-0.0126322200521827
487,0.00157804973423481,0.00956970360130072,-0.00325806369073689,0.201878249645233,-0.0144636165350676,-0.0169728808104992
488,-9.9488599516917E-05,0.00963449943810701,-0.00703888526186347,0.132521510124207,-0.0144598307088017,-0.0198398847132921
489,0.000158243943587877,0.0101242121309042,-0.00848366599529982,0.0878387615084648,-0.0136826075613499,-0.018659608438611
490,0.00274329818785191,0.0110243847593665,-0.00820389296859503,0.0688711702823639,-0.0147309759631753,-0.0135400993749499
491,0.00585311371833086,0.0110184894874692,-0.0105961011722684,0.084957517683506,-0.0196983497589827,-0.00825182534754276
492,0.00709085771813989,0.00900979526340961,-0.0175461024045944,0.151827722787857,-0.0269670579582453,-0.00614569615572691
493,0.00641108443960547,0.00588907580822706,-0.0260874442756176,0.285873293876648,-0.0324713103473186,-0.00770264491438866
494,0.00529935350641608,0.00363744678907096,-0.0324262343347073,0.484244644641876,-0.0343722738325596,-0.0123116299510002
495,0.004795600194484,0.00327193294651806,-0.0356802567839623,0.5,-0.0337932556867599,-0.0193079467862844
496,0.00515478476881981,0.004389229696244,-0.0379403196275234,0.5,-0.0327820926904678,-0.0272210314869881
497,0.00529679469764233,0.00533714238554239,-0.0412203334271908,0.5,-0.0332198552787304,-0.0350827351212502
498,0.00439691916108131,0.00481637986376882,-0.0451818890869617,0.5,-0.0356211476027966,-0.0431033298373222
499,0.0037591380532831,0.00376128149218857,-0.0484837256371975,0.5,-0.0382129773497581,-0.050709243863821
500,0.00447651743888855,0.00313089019618928,-0.0509198047220707,0.5,-0.0382718741893768,-0.0579414591193199
501,0.00655209738761187,0.00279219611547887,-0.0517137087881565,0.5,-0.0343646295368671,-0.0656780898571014
502,0.00967966392636299,0.00304120685905218,-0.0494800098240376,0.5,-0.0283402055501938,-0.0723160803318024
503,0.0121894180774689,0.00355929648503661,-0.0464716106653214,0.5,-0.0249151960015297,-0.0757031366229057
504,0.0123682152479887,0.00294081959873438,-0.0471106953918934,0.5,-0.0269954223185778,-0.0760573968291283
505,0.0113547928631306,0.00127849832642823,-0.0521950162947178,0.448727190494537,-0.0330170392990112,-0.0733870416879654
506,0.0115449419245124,0.000323110434692353,-0.0586228035390377,0.281612515449524,-0.0396821573376656,-0.0674768388271332
507,0.0120942480862141,0.000215246502193622,-0.0639719367027283,0.30717134475708,-0.0452022887766361,-0.0608303807675838
508,0.0106666330248117,0.000215656807995401,-0.0682186037302017,0.459793388843536,-0.0497599020600319,-0.0561685301363468
509,0.00798467919230461,0.00107478175777942,-0.0714408382773399,0.5,-0.0540653951466084,-0.0542535558342934
510,0.00515570444986224,0.00216121831908822,-0.0743351653218269,0.5,-0.0595676004886627,-0.0568872205913067
511,0.001215620781295,0.00127684872131795,-0.0779745131731033,0.5,-0.0673422068357468,-0.0653588250279427
512,-0.00373224564827979,-0.00133909506257623,-0.0806893780827522,0.5,-0.0751146227121353,-0.0762806013226509
513,-0.00732539314776659,-0.00311300368048251,-0.0802031233906746,0.5,-0.0797682777047157,-0.0837290808558464
514,-0.00800102017819881,-0.00262204464524984,-0.0783328711986542,0.5,-0.0817856192588806,-0.0852925181388855
515,-0.00670378841459751,-0.00139960099477321,-0.0788638070225716,0.5,-0.0836194679141045,-0.084071509540081
516,-0.00435560755431652,-0.00119668547995389,-0.0812477841973305,0.5,-0.0843794196844101,-0.0833973959088326
517,-0.000764321652241051,-0.00163642200641334,-0.0821919366717339,0.5,-0.0807883366942406,-0.0831302031874657
518,0.00287169753573835,-0.00260370969772339,-0.0817125737667084,0.5,-0.0738808512687683,-0.0827807709574699
519,0.00415430916473269,-0.00474830996245146,-0.0819786414504051,0.5,-0.0687169432640076,-0.0832223296165466
520,0.00237338501028717,-0.00730342091992497,-0.0832191929221153,0.5,-0.0681120753288269,-0.08457962423563
521,-0.0013489096891135,-0.00932729430496693,-0.084147110581398,0.5,-0.0707240104675293,-0.0862930715084076
522,-0.00464919256046414,-0.0100793410092592,-0.0834642648696899,0.5,-0.0729477182030678,-0.0864901542663574
523,-0.00528560671955347,-0.00863573886454105,-0.0809257999062538,0.5,-0.0730047971010208,-0.082864485681057
524,-0.00378226954489946,-0.00613419059664011,-0.0783558040857315,0.474918037652969,-0.0734077766537666,-0.0775399133563042
525,-0.00185833335854113,-0.00452873529866338,-0.0772174224257469,0.439138948917389,-0.0749361962080002,-0.0746114030480385
526,0.000324412307236344,-0.00364578352309763,-0.0761259272694588,0.435091763734818,-0.0731347128748894,-0.073652908205986
527,0.00269562844187021,-0.00259074522182345,-0.072997123003006,0.432498633861542,-0.0654413998126984,-0.0719835385680199
528,0.00419623963534832,-0.00176206731703132,-0.0679425075650215,0.394663691520691,-0.0549658425152302,-0.0699140056967735
529,0.00481674168258905,-0.00134704308584332,-0.062458910048008,0.321547508239746,-0.0458542294800282,-0.0686754435300827
530,0.00517610507085919,-0.00113591726403683,-0.0583545193076134,0.233464196324348,-0.0413773655891418,-0.0684722885489464
531,0.00533131090924144,-0.00145933905150741,-0.0566996447741985,0.156563207507133,-0.0434824414551258,-0.0695126056671143
532,0.00536083709448576,-0.00216052145697176,-0.0564068034291267,0.123076163232327,-0.0488265380263329,-0.0710245370864868
533,0.00505373952910304,-0.00277798483148217,-0.0555445440113544,0.152097657322884,-0.051490556448698,-0.0715266838669777
534,0.0047208471223712,-0.00245325337164104,-0.052373930811882,0.226314708590508,-0.0502587668597698,-0.0682744607329369
535,0.00503060221672058,-0.000714562891516835,-0.0466039665043354,0.294953018426895,-0.0474001914262772,-0.0597005188465118
536,0.00582847511395812,0.00143450440373272,-0.0403212755918503,0.312444001436234,-0.0431288965046406,-0.0493134036660194
537,0.006783960852772,0.00330133805982769,-0.0360126383602619,0.271662145853043,-0.0358486287295818,-0.041233379393816
538,0.00737023446708918,0.00445111095905304,-0.0345700979232788,0.210115998983383,-0.0264363698661327,-0.0368163362145424
539,0.00750988535583019,0.0043181418441236,-0.0347762666642666,0.175013542175293,-0.0186746492981911,-0.0349427461624146
540,0.00811630859971046,0.00326562440022826,-0.0351030565798283,0.181226626038551,-0.016031151637435,-0.0327994488179684
541,0.00963345542550087,0.00205646036192775,-0.0351325869560242,0.215679466724396,-0.0193652417510748,-0.029908774420619
542,0.0119908209890127,0.0014176715631038,-0.0347366183996201,0.260682195425034,-0.0266935862600803,-0.0277423392981291
543,0.0144868548959494,0.0014142191503197,-0.0340815037488937,0.328440189361572,-0.0340561904013157,-0.0264641456305981
544,0.0149392383173108,0.00103209505323321,-0.0338580571115017,0.442752331495285,-0.0364737436175346,-0.0260418206453323
545,0.0129018286243081,0.00016888951358851,-0.0336107686161995,0.5,-0.0296577047556639,-0.026349751278758
546,0.0110169583931565,-0.00010458715405548,-0.0317295752465725,0.5,-0.0158212948590517,-0.0261630341410637
547,0.010444575920701,0.000768543512094766,-0.027469540014863,0.5,-0.00545189250260592,-0.0242064334452152
548,0.0099302101880312,0.00252119195647538,-0.0210674721747637,0.5,-0.00569366617128253,-0.0204737186431885
549,0.00820919033139944,0.00354710454121232,-0.0146886948496103,0.482432544231415,-0.0139312334358692,-0.0174176245927811
550,0.00534073542803526,0.00249632587656379,-0.0113983079791069,0.351095914840698,-0.0231758821755648,-0.0175529532134533
551,0.00318344542756677,0.000743966375011951,-0.0103562520816922,0.264587193727493,-0.0257186330854893,-0.0196198727935553
552,0.00280837318859994,0.000161925432621501,-0.00818088743835688,0.23984394967556,-0.0190240815281868,-0.0202630385756493
553,0.0032418908085674,0.000855573103763163,-0.00380268204025924,0.256124913692474,-0.00842241104692221,-0.0174318347126246
554,0.00377165293321013,0.00240270560607314,0.00130975153297186,0.270718574523926,0.00044568334124051,-0.0113442884758115
555,0.00483350921422243,0.00482001528143883,0.00550999585539103,0.235917389392853,0.00594124896451831,-0.0038542659021914
556,0.00669377250596881,0.00788345094770193,0.00775830820202827,0.150185003876686,0.00825904123485088,0.0025474289432168
557,0.00800321251153946,0.00988895166665316,0.00642220070585608,0.0647721961140633,0.00677864253520966,0.00517297117039561
558,0.00738521665334702,0.00923328008502722,0.00181678857188672,0.00368157704360783,0.00149403151590377,0.00353823485784233
559,0.00602641655132174,0.00732113188132644,-0.00177410792093724,-0.0533489398658276,-0.00430191913619637,0.00112807052209973
560,0.00523601751774549,0.00628619780763984,-0.00148216204252094,-0.107564710080624,-0.0082067446783185,0.00120614725165069
561,0.00411482248455286,0.00589810637757182,0.000800393172539771,-0.118297748267651,-0.0117996223270893,0.0030175365973264
562,0.00239350297488272,0.00538527686148882,0.00234609236940742,-0.0578557439148426,-0.0150895994156599,0.00493066851049662
563,0.00207264861091971,0.00545656448230147,0.00356210907921195,0.0563044585287571,-0.0125114796683192,0.00804430898278952
564,0.00416532112285495,0.00648806430399418,0.00615231413394213,0.20520156621933,-0.000434142217272893,0.0129303252324462
565,0.00647273287177086,0.00696376850828528,0.00943688023835421,0.389838129281998,0.0151625657454133,0.016577860340476
566,0.00655530765652657,0.00561931543052197,0.0115009117871523,0.5,0.0249417312443256,0.0164255071431398
567,0.00447465386241674,0.00330284330993891,0.0119789801537991,0.5,0.0253049433231354,0.0141183910891414
568,0.00208737864159048,0.00192450429312885,0.0120534300804138,0.5,0.0191710814833641,0.0133385956287384
569,0.0015089598018676,0.00294760940596461,0.0130828442052007,0.5,0.0127924615517259,0.0157579425722361
570,0.00246690143831074,0.00543716363608837,0.014420815743506,0.5,0.0103296125307679,0.0193544756621122
571,0.00268650474026799,0.00676989834755659,0.0142090478911996,0.5,0.00975620653480291,0.0216186586767435
572,0.00287026213482022,0.00713249854743481,0.0138271674513817,0.5,0.0077980849891901,0.0239503961056471
573,0.00505369901657104,0.00831531826406717,0.0157056394964457,0.5,0.00414468348026276,0.0295044910162687
574,0.00774413626641035,0.0100426543504,0.0187200829386711,0.5,-0.000209590813028626,0.0386526510119438
575,0.00872758962213993,0.0117953168228269,0.0205691438168287,0.5,-0.00274530076421797,0.0487942285835743
576,0.00861645583063364,0.014045923948288,0.0206591431051493,0.5,-0.000982059864327312,0.057173702865839
577,0.0090338010340929,0.0162218753248453,0.0200408939272165,0.5,0.00411853566765785,0.062076423317194
578,0.00994591880589724,0.0168908629566431,0.0198813546448946,0.5,0.00862531084567308,0.0631842464208603
579,0.00942472368478775,0.0158007889986038,0.0201358981430531,0.5,0.0103278122842312,0.062080655246973
580,0.00534147117286921,0.0135765532031655,0.0202941093593836,0.5,0.0103024058043957,0.0600273311138153
581,-0.00239766901358962,0.0106637738645077,0.020415049046278,0.5,0.00976238306611776,0.0569620355963707
582,-0.0101199047639966,0.00817400496453047,0.0215595122426748,0.5,0.010622913017869,0.0539146289229393
583,-0.0135038606822491,0.00735488906502724,0.02464909106493,0.5,0.0148323504254222,0.0530738458037376
584,-0.0124740330502391,0.00759387016296387,0.0286750458180904,0.5,0.0212110579013824,0.0547433346509933
585,-0.00979165080934763,0.00776742305606604,0.0317814089357853,0.5,0.0263003539294004,0.0572979561984539
586,-0.00825253780931234,0.00743521191179752,0.0335571505129337,0.5,0.0262866094708443,0.0591753646731377
587,-0.00856279395520687,0.00692040706053376,0.0353025421500206,0.5,0.0213001202791929,0.0598225072026253
588,-0.00954733695834875,0.00707827229052782,0.0369073450565338,0.5,0.0155348749831319,0.0591079518198967
589,-0.0104741016402841,0.0076067466288805,0.0362162701785564,0.5,0.0121513409540057,0.0561778880655766
590,-0.0101631060242653,0.00771791208535433,0.0331129468977451,0.5,0.0135249523445964,0.0510552041232586
591,-0.00762159423902631,0.00744157889857888,0.0299162063747644,0.5,0.0207039434462786,0.0461401082575321
592,-0.00450950395315886,0.00692899245768785,0.0284243747591972,0.5,0.0310355331748724,0.044427178800106
593,-0.00380513141863048,0.00565867451950908,0.0282844360917807,0.5,0.0401435010135174,0.0461208745837212
594,-0.00578118534758687,0.00254133227281272,0.0275015700608492,0.5,0.0445341393351555,0.0472724437713623
595,-0.00771645316854119,-0.00201268470846117,0.0255337227135897,0.5,0.0441031418740749,0.045073252171278
596,-0.00771667622029781,-0.00532325403764844,0.0246923603117466,0.5,0.0419194735586643,0.0420978143811226
597,-0.00656031724065542,-0.00571186002343893,0.0271222274750471,0.5,0.0395475998520851,0.0412457883358002
598,-0.00592413730919361,-0.00380632630549371,0.0322041548788548,0.5,0.036316990852356,0.0429745018482208
599,-0.00667974166572094,-0.00119014130905271,0.0367185361683369,0.5,0.0319442600011826,0.047247651964426
600,-0.00860015861690044,0.00105228240136057,0.0381467528641224,0.5,0.028082225471735,0.0533738993108273
601,-0.00904111005365849,0.0030879417899996,0.0379766151309013,0.5,0.0276937782764435,0.0597457140684128
602,-0.00644337572157383,0.00438590673729777,0.0390667468309402,0.5,0.0309618879109621,0.0642766356468201
603,-0.00414300011470914,0.00362159637734294,0.0416014343500137,0.5,0.0337196178734303,0.0656752213835716
604,-0.00451422017067671,0.00128182710614055,0.0436080507934093,0.5,0.0324784889817238,0.0641416162252426
605,-0.00583479879423976,-0.000468888290924951,0.0437531806528568,0.5,0.0288270227611065,0.061283640563488
606,-0.00642666779458523,-0.000772785046137869,0.0421382896602154,0.5,0.0272367410361767,0.0586567372083664
607,-0.00646024663001299,-0.000506874290294945,0.0393154136836529,0.5,0.0298322793096304,0.0564341880381107
608,-0.0065545067191124,7.12322434992529E-05,0.0361062064766884,0.5,0.0345097705721855,0.0550932437181473
609,-0.00657988851889968,0.000864496803842485,0.0336964800953865,0.5,0.0397175848484039,0.0548190623521805
610,-0.00596020510420203,0.000940463040024042,0.0329116992652416,0.5,0.0462358146905899,0.0542648695409298
611,-0.00412326632067561,0.000298689148621634,0.0337042063474655,0.5,0.0528310686349869,0.0531719774007797
612,-0.000804489711299539,3.18541196975275E-06,0.0358577631413937,0.5,0.0567228943109512,0.0527268573641777
613,0.00261242710985243,3.10913674184121E-05,0.038793757557869,0.5,0.0563168004155159,0.0530552752315998
614,0.00345996138639748,-0.00102537649217993,0.040309950709343,0.5,0.0506525002419949,0.0525639429688454
615,0.000303504260955378,-0.00395785039290786,0.0382584296166897,0.5,0.0400740839540958,0.0497696846723557
616,-0.00493956264108419,-0.00721279671415687,0.0343241207301617,0.5,0.0296642910689116,0.0464130192995071
617,-0.00831039063632488,-0.00908106565475464,0.0315122008323669,0.5,0.0252681896090508,0.0451958477497101
618,-0.00759802106767893,-0.00914284866303205,0.0304129775613546,0.5,0.0262306202203035,0.0463373735547066
619,-0.00533753167837858,-0.00750079052522779,0.0302464086562395,0.5,0.0278394967317581,0.0483276471495628
620,-0.00626319320872426,-0.00501548126339912,0.0300059579312801,0.5,0.0267671644687653,0.0498662069439888
621,-0.0108997570350766,-0.00234908075071871,0.0303572863340378,0.5,0.0248530209064484,0.0518836192786694
622,-0.0160556901246309,2.6109128157259E-05,0.0336718112230301,0.5,0.0287327412515879,0.0546503625810146
623,-0.0179090220481157,0.00232089287601411,0.0410412587225437,0.5,0.042115043848753,0.056517843157053
624,-0.0143202552571893,0.00521596474573016,0.0498504936695099,0.5,0.0588234961032867,0.0568711869418621
625,-0.00745067466050386,0.00752741144970059,0.0557831712067127,0.5,0.06739741563797,0.0553190484642982
626,-0.00153789762407541,0.00768325291574001,0.0579606629908085,0.5,0.0642101764678955,0.051091156899929
627,0.00149647216312587,0.00633211806416512,0.0589303784072399,0.5,0.0563565380871296,0.0451154671609402
628,0.00364550249651074,0.00500970333814621,0.0600567981600761,0.5,0.0508244000375271,0.0404049716889858
629,0.00763530470430851,0.00415735598653555,0.0589516274631023,0.5,0.0463399663567543,0.0394470766186714
630,0.0125230867415667,0.00358375674113631,0.0515319667756557,0.5,0.0372034199535847,0.0411684550344944
631,0.0147712649777532,0.0030073665548116,0.0375397242605686,0.5,0.0221790540963411,0.0418783240020275
632,0.0123915802687407,0.00208064541220665,0.021964393556118,0.5,0.0064460514113307,0.0396446920931339
633,0.00684791663661599,0.00147681403905153,0.0110984928905964,0.5,-0.00303771742619574,0.036282442510128
634,0.00145222502760589,0.00242561637423933,0.00788638088852167,0.5,-0.00296219042502344,0.034457340836525
635,-0.00102546834386885,0.00482829846441746,0.0102193504571915,0.5,0.00433344533666968,0.0347820296883583
636,1.06797142507276E-05,0.00708396406844258,0.0142113817855716,0.5,0.0135965114459395,0.0360267013311386
637,0.00202439469285309,0.00761022558435798,0.0177544672042131,0.5,0.0207941960543394,0.0368502400815487
638,0.00281050289049745,0.0060831462033093,0.0210962109267712,0.5,0.0257416591048241,0.0367492213845253
639,0.00309887272305787,0.00327726756222546,0.0250326097011566,0.5,0.0305712427943945,0.0355116501450539
640,0.00286822882480919,-0.000204056181246415,0.0285331550985575,0.5,0.0357003286480904,0.0319992043077946
641,0.00126150425057858,-0.00364923197776079,0.0303132683038712,0.5,0.0398538112640381,0.0261970497667789
642,-0.000569984433241189,-0.00530087994411588,0.0313579551875591,0.5,0.0422045774757862,0.0221656374633312
643,-0.00197389000095427,-0.00440851552411914,0.0324834585189819,0.5,0.04153947904706,0.0234691333025694
644,-0.00368119427002966,-0.00196420913562179,0.033093873411417,0.5,0.0370107926428318,0.0292792413383722
645,-0.0056586405262351,0.000642225670162588,0.0326287522912025,0.5,0.0304403491318226,0.0363778918981552
646,-0.00697173550724983,0.00181753071956337,0.0308602917939425,0.5,0.0257322788238525,0.0404971241950989
647,-0.0065276650711894,0.000360917794751003,0.0283847600221634,0.5,0.0243515465408564,0.0384087860584259
648,-0.00455299206078053,-0.00267523247748613,0.0264845509082079,0.5,0.0240463148802519,0.0313961580395699
649,-0.00302111636847258,-0.00450447667390108,0.0263047739863396,0.5,0.0251475051045418,0.0240935888141394
650,-0.0030290640424937,-0.00349825248122215,0.0288987774401903,0.5,0.0300221219658852,0.0202380791306496
651,-0.00407466338947415,-0.00145818351302296,0.0331674255430698,0.5,0.0356757119297981,0.0193933118134737
652,-0.0053847199305892,-0.0016518970951438,0.0352383404970169,0.5,0.037396140396595,0.0186241175979376
653,-0.00523560307919979,-0.00324811832979321,0.0338420681655407,0.5,0.036302138119936,0.018784623593092
654,-0.00281148357316852,-0.00383298727683723,0.0309634618461132,0.5,0.034670777618885,0.02161462046206
655,0.00013530177238863,-0.00451991939917207,0.0277171954512596,0.5,0.0316522344946861,0.0241594146937132
656,0.00205389061011374,-0.00635250564664602,0.0255634356290102,0.5,0.0280667450278997,0.0242327228188515
657,0.0026976172812283,-0.00811062101274729,0.0258797574788332,0.5,0.0261755660176277,0.0235301870852709
658,0.0025733863003552,-0.00897482689470053,0.027092844247818,0.5,0.0259171091020107,0.02296475879848
659,0.00187647971324623,-0.00920866243541241,0.0270307920873165,0.5,0.0258406959474087,0.0214034058153629
660,-2.09763293241849E-05,-0.00911243725568056,0.0254688188433647,0.5,0.0249042343348265,0.0181524101644754
661,-0.00271157268434763,-0.00857273675501347,0.0237122252583504,0.5,0.0233362969011068,0.0142851788550615
662,-0.00477300491183996,-0.00752638559788466,0.0229753386229277,0.5,0.0219920836389065,0.0117343598976731
663,-0.00594621989876032,-0.00645407196134329,0.0226713251322508,0.5,0.0210860222578049,0.0120044853538275
664,-0.00676696514710784,-0.00599916046485305,0.0216867253184319,0.5,0.0211962573230267,0.0159813929349184
665,-0.00727640883997083,-0.00662924023345113,0.0205380097031593,0.5,0.0229508075863123,0.0220630429685116
666,-0.00789063610136509,-0.00821670889854431,0.0207119006663561,0.5,0.0249465778470039,0.027451803907752
667,-0.00904555991292,-0.00975372549146414,0.023008193820715,0.5,0.0260539595037699,0.031849093735218
668,-0.0101246181875467,-0.0102146491408348,0.0259817596524954,0.5,0.0273506790399551,0.0356222316622734
669,-0.0102283321321011,-0.00924114044755697,0.0268659088760614,0.5,0.0283175520598888,0.0382693856954575
670,-0.00856730062514544,-0.00700274622067809,0.0253658387809992,0.5,0.0270270872861147,0.0395866185426712
671,-0.0047186678275466,-0.00401596678420901,0.0240582469850779,0.5,0.0249510910362005,0.0397956781089306
672,0.000144829842611216,-0.00187911977991462,0.0241010654717684,0.5,0.0243760477751493,0.0386940836906433
673,0.00507969176396728,-0.00211720145307481,0.024493457749486,0.304561853408813,0.0258655957877636,0.0362616777420044
674,0.0105907237157226,-0.00452143279835582,0.0247350763529539,-0.0515253841876984,0.0302374325692654,0.0331979617476463
675,0.0151790864765644,-0.00815010629594326,0.0247016735374928,-0.362774252891541,0.036985095590353,0.0297860726714134
676,0.0161939859390259,-0.0116427727043629,0.0248951986432076,-0.5,0.0433541312813759,0.0269343592226505
677,0.0135868424549699,-0.0134952319785953,0.0268576424568892,-0.5,0.0462668314576149,0.0269529744982719
678,0.00874872505664825,-0.0133903911337256,0.0308043193072081,-0.5,0.0438170172274113,0.0308978445827961
679,0.0029793141875416,-0.0131162852048874,0.033242903649807,-0.448902249336243,0.0356482565402985,0.0351968556642532
680,-0.00137312454171479,-0.0146465674042702,0.0304667390882969,-0.289917349815369,0.0242915917187929,0.0347692556679249
681,-0.00137948349583894,-0.0170244984328747,0.0239229928702116,-0.231504067778587,0.014785835519433,0.0302345622330904
682,0.00396810285747051,-0.0182962063699961,0.0171718448400497,-0.286623597145081,0.0100327068939805,0.0258249510079622
683,0.0115779601037502,-0.0180280618369579,0.0122337015345693,-0.408432722091675,0.00984600838273764,0.0231787916272879
684,0.0157507080584764,-0.0166549831628799,0.0107603231444955,-0.5,0.0134356981143355,0.0215448904782534
685,0.0139004206284881,-0.0154948737472296,0.0124715240672231,-0.5,0.0183233078569174,0.0205913372337818
686,0.00843381229788065,-0.0152499359101057,0.0155777828767896,-0.5,0.0210931077599525,0.021992726251483
687,0.00304756755940616,-0.0147523814812303,0.0193668678402901,-0.5,0.0205587465316057,0.0269211661070585
688,9.87835665000603E-05,-0.0127577325329185,0.0224128738045692,-0.5,0.0174979344010353,0.0331242792308331
689,-9.60764227784239E-05,-0.00916816852986813,0.0234753824770451,-0.5,0.0137486299499869,0.0382564328610897
690,0.000741578871384263,-0.00536065362393856,0.0236235950142145,-0.5,0.0111887762323022,0.041248019784689
691,0.000888529466465116,-0.00283820717595518,0.02339718490839,-0.5,0.0100849149748683,0.0402472913265228
692,8.62923479871824E-06,-0.00221828906796873,0.0215569902211428,-0.5,0.00893869064748287,0.0344410985708237
693,-0.00190876319538802,-0.00372375850565732,0.0181737951934338,-0.5,0.00786420702934265,0.0254618879407644
694,-0.00477369641885161,-0.00650326767936349,0.0151112694293261,-0.484174013137817,0.0107906078919768,0.0159172210842371
695,-0.00705647096037865,-0.00842715706676245,0.0134093919768929,-0.330081135034561,0.01935163885355,0.00838359631597996
696,-0.00689238449558616,-0.00810243468731642,0.0131381489336491,-0.182170256972313,0.0277476646006107,0.00468796072527766
697,-0.00503431959077716,-0.00666634552180767,0.0133674945682287,-0.121974259614944,0.0288536623120308,0.00443746102973819
698,-0.00337836262769997,-0.00553746940568089,0.0128627950325608,-0.185864448547363,0.0225112810730934,0.00608114525675774
699,-0.00238879676908255,-0.00446823844686151,0.0123286806046963,-0.34449365735054,0.0141756925731897,0.0088187251240015
700,-0.00196383590810001,-0.00298367463983595,0.013405810110271,-0.5,0.00804055016487837,0.0122999986633658
701,-0.00204530614428222,-0.00136962905526161,0.016180157661438,-0.5,0.00445481715723872,0.0160517618060112
702,-0.00313835265114903,-0.000930424081161618,0.0181880239397287,-0.5,0.00121136358939111,0.0183950755745173
703,-0.00580074219033122,-0.00279099121689796,0.0175909046083689,-0.5,-0.00227334513328969,0.0173766333609819
704,-0.00814617983996868,-0.00515845604240894,0.0183371566236019,-0.5,-0.00124371098354459,0.014365172944963
705,-0.00806046836078167,-0.00566635327413678,0.0244703479111195,-0.5,0.00748549215495586,0.0122437262907624
706,-0.00610461458563805,-0.0049282000400126,0.0310233794152737,-0.5,0.0186868999153376,0.0124439615756273
707,-0.00301771773956716,-0.00379270385019481,0.0306546669453382,-0.5,0.0253487434238195,0.0169027019292116
708,0.00074945850064978,-0.0021643047221005,0.0235910397022963,-0.5,0.0267843417823315,0.0256005674600601
709,0.00340276444330812,-0.000690267595928162,0.0149802751839161,-0.5,0.0259965248405933,0.0339859500527382
710,0.00396819971501827,0.000155533023644239,0.0082590077072382,-0.5,0.0234338417649269,0.0377749018371105
711,0.00370350549928844,0.000139900497742929,0.00351565284654498,-0.5,0.0179222822189331,0.0356205068528652
712,0.00278088543564081,-0.00143354164902121,-0.00045330636203289,-0.5,0.00980115029960871,0.0286850910633802
713,0.000461597519461066,-0.00333775719627738,-0.00316889327950776,-0.5,0.00202796678058803,0.0218078158795834
714,-0.0021799597889185,-0.0030262260697782,-0.00234537478536367,-0.5,-0.000810273108072579,0.0195217207074165
715,-0.00474397651851177,-0.00126913702115417,0.00190539751201868,-0.5,0.00220129243098199,0.0205036643892527
716,-0.00769360549747944,-0.000438557006418705,0.00695875706151128,-0.5,0.00701496796682477,0.0216877963393927
717,-0.0101016694679856,-0.000808874145150185,0.0112750884145498,-0.5,0.00950678531080484,0.022659532725811
718,-0.0111679658293724,-0.00157796056009829,0.0141451237723231,-0.470006167888641,0.00882785301655531,0.023687869310379
719,-0.0112529536709189,-0.00196592137217522,0.0151658523827791,-0.272085696458817,0.00809370167553425,0.0251232013106346
720,-0.0103042973205447,-0.00135091820266098,0.0153825180605054,-0.122153788805008,0.011616338044405,0.0272034853696823
721,-0.00742323277518153,0.000389870110666379,0.0165083948522806,-0.0611835904419422,0.0194641798734665,0.028611658141017
722,-0.00330518232658505,0.00192581792362034,0.0181619562208653,-0.0977931693196297,0.0263765063136816,0.0272573493421078
723,0.000434347428381443,0.00232861866243184,0.0191387608647347,-0.197947219014168,0.0283376611769199,0.0237302295863628
724,0.00323170330375433,0.00234231422655284,0.0198108330368996,-0.328744858503342,0.0258627198636532,0.0206869151443243
725,0.00414338335394859,0.00180548115167767,0.0198022592812777,-0.465770900249481,0.0208006370812655,0.018796956166625
726,0.00279060215689242,0.000414925249060616,0.018624372780323,-0.5,0.0162355359643698,0.0173877794295549
727,0.000746188219636679,-0.000611296913120896,0.0180802941322327,-0.5,0.0148576106876135,0.0167490914463997
728,-0.000132074565044604,4.51964588137344E-05,0.0193999875336885,-0.5,0.015853388234973,0.0179582890123129
729,0.000853516277857125,0.00259054312482476,0.021160775795579,-0.5,0.0175698343664408,0.0209029186517
730,0.00299561466090381,0.00563419051468372,0.0218164194375277,-0.5,0.0190902836620808,0.0224617831408978
731,0.00511431833729148,0.00726096471771598,0.0221556704491377,-0.5,0.0195718873292208,0.0198343340307474
732,0.00628983089700341,0.00679469387978315,0.0232799388468266,-0.5,0.0184646006673574,0.0151825696229935
733,0.00625212118029594,0.00449552945792675,0.0236065350472927,-0.5,0.0152332140132785,0.0119779640808702
734,0.00530600128695369,0.00089600618230179,0.0206809286028147,-0.5,0.00958288833498955,0.0100106820464134
735,0.00403879303485155,-0.00276593514718115,0.0147298173978925,-0.5,0.00301228440366685,0.00815545860677958
736,0.00364783243276179,-0.00489884288981557,0.00854254979640245,-0.5,-0.00096293882234022,0.00719151785597205
737,0.00413000490516424,-0.00548228481784463,0.00409832177683711,-0.5,-0.000308330258121714,0.00733352219685912
738,0.0040122177451849,-0.00608591828495264,0.00182026391848922,-0.5,0.00450227130204439,0.00741553585976362
739,0.00324073410592973,-0.00710902316495776,0.00186847767326981,-0.5,0.0126939658075571,0.0072369440458715
740,0.00237769237719476,-0.00828047282993793,0.00278021348640323,-0.5,0.0210303645581007,0.00682365847751498
741,0.00083323335275054,-0.0108984159305692,0.0021017724648118,-0.5,0.023333478718996,0.00477988459169865
742,-0.00059150590095669,-0.0146956900134683,0.00128293700981885,-0.5,0.0194554030895233,0.000929322792217135
743,1.62882370204898E-05,-0.0166471246629953,0.00368158775381744,-0.5,0.0156767815351486,-0.00241295457817614
744,0.00238614762201905,-0.0154191758483648,0.00768400775268674,-0.5,0.0140946321189404,-0.00352771719917655
745,0.00439566001296043,-0.0126468166708946,0.00828491151332855,-0.5,0.0114092119038105,-0.00261677103117108
746,0.00393914151936769,-0.010202381759882,0.00365836056880653,-0.5,0.0049687628634274,-0.000161596442922018
747,0.00106688251253217,-0.00827178545296192,-0.00291941547766328,-0.5,-0.00377683155238628,0.00299629918299615
748,-0.00211481051519513,-0.00601293100044131,-0.00744472909718752,-0.5,-0.0112182088196278,0.00500923534855247
749,-0.00356659153476357,-0.00304201012477279,-0.00855028536170721,-0.5,-0.0151641322299838,0.00487936846911907
750,-0.00280207046307623,5.54747239220887E-05,-0.00656344369053841,-0.5,-0.0157175622880459,0.00344883464276791
751,-0.00134857732336968,0.0023102043196559,-0.00291569926775992,-0.5,-0.014042959548533,0.00200918386690319
752,-8.0145058745984E-05,0.00298555055633187,0.000529826036654413,-0.5,-0.00984655786305666,0.000419500021962449
753,0.00168724462855607,0.00215684669092298,0.00295713893137872,-0.5,-0.0027116381097585,-0.00182448059786111
754,0.00300540030002594,0.00050986633868888,0.0040333578363061,-0.5,0.0036927426699549,-0.00398114509880543
755,0.0026681877207011,-0.00114580348599702,0.00419992301613092,-0.5,0.0061900676228106,-0.00592486094683409
756,0.00140839000232518,-0.00196615047752857,0.00506828911602497,-0.5,0.00651987083256245,-0.00812691915780306
757,0.000515998515766114,-0.00124441541265696,0.00742909545078874,-0.5,0.0062286239117384,-0.00895359180867672
758,0.0019907692912966,0.00100174336694181,0.0106845647096634,-0.5,0.00477387523278594,-0.00707519752904773
759,0.00628944765776396,0.00321720214560628,0.0131609123200178,-0.5,0.00145037367474288,-0.00435836287215352
760,0.0101261083036661,0.0041065732948482,0.0128261186182499,-0.5,-0.00299391197040677,-0.00237878668121994
761,0.0104084061458707,0.0043040569871664,0.0102579314261675,-0.5,-0.00625737057998776,-0.000443657161667943
762,0.00776558090001345,0.00515159778296947,0.00845097191631794,-0.5,-0.0075918328948319,0.00243696477264166
763,0.00495770899578929,0.0068932892754674,0.00825730059295893,-0.5,-0.00716094812378287,0.005913105327636
764,0.00424014963209629,0.00855025369673967,0.00868437811732292,-0.5,-0.00344256893731654,0.00861668586730957
765,0.00540199782699347,0.00920976605266333,0.00960056204348803,-0.5,0.00329916272312403,0.0100571913644671
766,0.00651510991156101,0.00868030730634928,0.0112979570403695,-0.5,0.009914705529809,0.0110309170559049
767,0.00572937820106745,0.00686557870358229,0.013219834305346,-0.5,0.0130769098177552,0.0116286939010024
768,0.00183818803634495,0.00344177871011198,0.0141754345968366,-0.5,0.0113073270767927,0.0108061823993921
769,-0.00327619002200663,-0.000696053961291909,0.0136731090024114,-0.5,0.00669523328542709,0.00855211261659861
770,-0.00594067201018333,-0.00383421522565186,0.0109577383846045,-0.5,0.00125119555741549,0.00627207709476352
771,-0.00498795229941607,-0.0054270145483315,0.00550103932619095,-0.5,-0.00462288875132799,0.00490642944350839
772,-0.00107859668787569,-0.00556232035160065,-0.000617934041656554,-0.5,-0.00889878161251545,0.00429586600512266
773,0.00447458727285266,-0.00489856209605932,-0.00457015261054039,-0.5,-0.00834925472736359,0.00364928622730076
774,0.00933712348341942,-0.00462656980380416,-0.00542882923036814,-0.5,-0.00188005482777953,0.00242885760962963
775,0.0116588193923235,-0.00492201186716557,-0.00393525743857026,-0.5,0.00669027725234628,0.000990720116533339
776,0.0115036135539413,-0.00494162598624825,-0.00138684548437595,-0.5,0.0123227285221219,-0.000337214558385313
777,0.0105460658669472,-0.00359441712498665,0.00135270215105265,-0.5,0.0144379604607821,-0.00150010373909026
778,0.0108760250732303,-0.000424743193434551,0.0045069195330143,-0.5,0.0146627519279718,-0.0023936063516885
779,0.0126859694719315,0.00324594485573471,0.00835689716041088,-0.5,0.0128327673301101,-0.00322226388379931
780,0.0125171905383468,0.00430198665708303,0.0105344764888287,-0.5,0.00752398697659373,-0.00498094409704208
781,0.00776426726952195,0.00126078200992197,0.00846287980675697,-0.5,-0.000348152767401189,-0.00827119126915932
782,0.000603055465035141,-0.00351404095999897,0.00360011798329651,-0.5,-0.00816798396408558,-0.0114909494295716
783,-0.00534250028431416,-0.00681297155097127,-0.000365372514352202,-0.5,-0.0149050122126937,-0.0124339014291763
784,-0.00781649630516768,-0.00720870355144143,-0.00123758194968104,-0.5,-0.0194184146821499,-0.0108796274289489
785,-0.00672486424446106,-0.00512318219989538,0.000335162621922791,-0.5,-0.0203589331358671,-0.00788802839815617
786,-0.00390567118301988,-0.00187575630843639,0.00263895373791456,-0.5,-0.0179506056010723,-0.00408649165183306
787,-0.00115393113810569,0.00111077749170363,0.00443470710888505,-0.5,-0.0126859107986093,-0.000160304029122926
788,0.000620112929027528,0.00225105509161949,0.00511698704212904,-0.5,-0.00519148865714669,0.00182651844806969
789,0.00105125387199223,0.000445129844592884,0.00478661712259054,-0.5,0.00223284680396318,-0.000632411218248308
790,0.000359867612132803,-0.00294669019058347,0.00372719019651413,-0.5,0.00642725126817822,-0.00699281878769398
791,-0.000571163604035974,-0.0049835336394608,0.00223792693577707,-0.5,0.00547335390001535,-0.0135060306638479
792,-0.000798434542957693,-0.00455535156652331,0.000583313871175051,-0.5,-0.000252962432568893,-0.0168776139616966
793,-0.000403599377023056,-0.00255710841156542,-0.00110974453855306,-0.5,-0.00825067237019539,-0.0154911689460278
794,0.000406650942750275,0.000155800866195932,-0.00186321593355387,-0.5,-0.0146537320688367,-0.00966049451380968
795,0.00256183044984937,0.00318930950015783,-0.000263867143075913,-0.5,-0.0163916945457459,-0.00183161476161331
796,0.0058090896345675,0.00581283308565617,0.00323887192644179,-0.5,-0.013639135286212,0.0052107647061348
797,0.00799221638590097,0.00709162559360266,0.00648058811202645,-0.5,-0.00835799612104893,0.00964626483619213
798,0.00821225997060537,0.00686475215479732,0.008225760422647,-0.5,-0.00153806922025979,0.0107598658651114
799,0.00678887870162725,0.00530050368979573,0.00851001869887114,-0.5,0.00540620926767588,0.00824349839240313
800,0.00391267100349069,0.0025676186196506,0.00758595438674092,-0.5,0.0104918647557497,0.00231741252355278
801,0.000145103826071136,-0.000502925366163254,0.00576802249997854,-0.5,0.0132280495017767,-0.00513631757348776
802,-0.00436321645975113,-0.00359900528565049,0.00218131998553872,-0.5,0.0120451562106609,-0.0125613221898675
803,-0.00857604760676622,-0.00686538545414805,-0.00319948978722095,-0.5,0.00571322161704302,-0.0201312992721796
804,-0.0101507119834423,-0.00920912344008684,-0.00730279460549355,-0.5,-0.0027348892763257,-0.0272691156715155
805,-0.00886477902531624,-0.00921403430402279,-0.00752159813418984,-0.5,-0.00990796834230423,-0.0316753424704075
806,-0.00682431226596236,-0.00759870046749711,-0.00493640592321754,-0.5,-0.0149929923936725,-0.0323567800223827
807,-0.00556319439783692,-0.00659807864576578,-0.00271970289759338,-0.5,-0.0174637921154499,-0.0311427135020494
808,-0.00475712725892663,-0.00640599615871906,-0.00202885642647743,-0.5,-0.0158976539969444,-0.0295503400266171
809,-0.00437641749158502,-0.00589749868959188,-0.00191935815382749,-0.361093610525131,-0.0105424411594868,-0.0278648026287556
810,-0.0055050402879715,-0.00534268002957106,-0.00132816925179213,-0.186806887388229,-0.00409000180661678,-0.0265782829374075
811,-0.00737062003463507,-0.00519932899624109,0.0012899343855679,-0.0561055094003677,0.00210562767460942,-0.025497505441308
812,-0.00781387183815241,-0.00546026602387428,0.00524347042664886,0.0667108073830605,0.00774031737819314,-0.0238930489867926
813,-0.00686520198360085,-0.00636864826083183,0.00610717851668596,0.203102916479111,0.010871259495616,-0.0220898874104023
814,-0.00599678279832006,-0.00740969926118851,0.00221847533248365,0.332511454820633,0.0110379634425044,-0.020685775205493
815,-0.00564057193696499,-0.007704165764153,-0.00308640883304179,0.44148576259613,0.00993470661342144,-0.0200809445232153
816,-0.00498344330117106,-0.00696887960657477,-0.00690206559374928,0.5,0.00759928300976753,-0.0207602959126234
817,-0.00273398356512189,-0.00492797745391726,-0.00915789697319269,0.5,0.00344484648667276,-0.0221956335008144
818,0.0014037104556337,-0.00191181874834001,-0.0109441736713052,0.5,-0.0022690212354064,-0.0234710816293955
819,0.00694714672863483,0.00127903826069087,-0.0121289556846023,0.5,-0.00922832917422056,-0.0235779024660587
820,0.0125110540539026,0.00397424912080169,-0.0116275288164616,0.5,-0.0157803911715746,-0.0218893233686686
821,0.0150461429730058,0.00557403638958931,-0.00913461949676275,0.306577891111374,-0.0185123924165964,-0.0195526350289583
822,0.013487609103322,0.00671917479485273,-0.00459039071574807,-0.281721144914627,-0.0155256669968367,-0.0169358924031258
823,0.00997511669993401,0.00853781029582024,0.00193798530381173,-0.5,-0.00953466817736626,-0.0129727153107524
824,0.00634672725573182,0.0103912753984332,0.00853501167148352,-0.5,-0.00523058185353875,-0.00861943513154984
825,0.00362255377694964,0.0109053440392017,0.0121796168386936,-0.5,-0.00394035037606955,-0.00581856537610292
826,0.00230553676374257,0.0100361928343773,0.0117009170353413,-0.5,-0.00386957032606006,-0.00488056102767587
827,0.00143242091871798,0.0084149893373251,0.00826683919876814,-0.5,-0.00453698402270675,-0.00570265389978886
828,-0.000120898199384101,0.00661892164498568,0.00440345937386155,-0.5,-0.00679583800956607,-0.00790753308683634
829,-0.00212186644785106,0.0057046189904213,0.00341056822799146,-0.5,-0.0095453318208456,-0.00959501694887877
830,-0.00418625352904201,0.00590815022587776,0.00609809439629316,-0.5,-0.011244785040617,-0.00922926981002092
831,-0.00683437986299396,0.00527622736990452,0.00838944781571627,-0.5,-0.0130928475409746,-0.00817201100289822
832,-0.0099150575697422,0.00257515534758568,0.00643594935536385,-0.5,-0.0158332251012325,-0.00804146751761436
833,-0.0113101908937097,-0.000780954549554735,0.000817324675153941,-0.5,-0.0163602363318205,-0.00834754295647144
834,-0.00990729313343763,-0.00364753976464272,-0.00636899750679731,-0.5,-0.0125968409702182,-0.00918603781610727
835,-0.00814797636121511,-0.00627783918753266,-0.0129514550790191,-0.5,-0.00752988504245877,-0.011259138584137
836,-0.00841568224132061,-0.00814987532794476,-0.0156686119735241,-0.5,-0.00435642758384347,-0.0127771263942122
837,-0.0103309853002429,-0.00821269955486059,-0.0134139517322183,-0.5,-0.00331799383275211,-0.0115898726508021
838,-0.0123579138889909,-0.00671717338263988,-0.0093041667714715,-0.427399307489395,-0.00456865783780813,-0.00892658345401287
839,-0.0125907454639673,-0.00414509931579232,-0.00649017700925469,-0.135823830962181,-0.0077495789155364,-0.00641208281740546
840,-0.0103194303810596,-0.000564716290682554,-0.00568744773045182,-0.0926009565591812,-0.0112559758126736,-0.00384736782871187
841,-0.0070901270955801,0.00332883140072227,-0.00596118858084083,-0.337429106235504,-0.014220517128706,-0.00185910961590707
842,-0.00490434840321541,0.00599718699231744,-0.00614558346569538,-0.5,-0.0159087013453245,-0.0024851206690073
843,-0.00526312459260225,0.00557696539908648,-0.00679818261414766,-0.5,-0.0164669249206781,-0.00708249025046825
844,-0.00784644018858671,0.00198041764087975,-0.00878162961453199,-0.5,-0.0171263664960861,-0.0145253781229258
845,-0.0104036871343851,-0.00276522105559707,-0.0117080435156822,-0.5,-0.0179893188178539,-0.021760381758213
846,-0.0113626234233379,-0.00703503657132387,-0.0152633525431156,-0.5,-0.0189089588820934,-0.026510801166296
847,-0.0109891509637237,-0.0101014683023095,-0.0187263898551464,-0.5,-0.0194835215806961,-0.028089165687561
848,-0.0105768656358123,-0.0113715576007962,-0.0201683770865202,-0.453288048505783,-0.0175116807222366,-0.0265920925885439
849,-0.011049066670239,-0.0111381988972425,-0.0187381450086832,0.416903465986252,-0.0126744890585542,-0.0234923362731934
850,-0.0121028302237391,-0.0105493729934096,-0.0161894094198942,0.5,-0.0092364214360714,-0.0207448042929173
851,-0.0124018602073193,-0.00971007626503706,-0.0140970619395375,0.5,-0.0104940133169293,-0.0185984503477812
852,-0.0116674089804292,-0.00829809997230768,-0.0127281015738845,0.5,-0.0156847406178713,-0.0167258698493242
853,-0.0102801639586687,-0.00666553294286132,-0.0120094865560532,0.5,-0.0218390673398972,-0.0152685111388564
854,-0.00723350746557117,-0.00468695489689708,-0.0105703137814999,0.5,-0.0257938876748085,-0.0138790756464005
855,-0.00259119411930442,-0.0024872322101146,-0.00736947450786829,0.5,-0.0269550941884518,-0.0125304339453578
856,0.00133560202084482,-0.00124898040667176,-0.00400050496682525,0.5,-0.0263969711959362,-0.0118726613000035
857,0.00286860996857286,-0.00166825472842902,-0.00237023294903338,0.5,-0.0245616175234318,-0.0115202413871884
858,0.00269278534688056,-0.00254952721297741,-0.00225933641195297,0.5,-0.0222232695668936,-0.00987684167921543
859,0.00256536598317325,-0.00201654457487166,-0.002608647570014,0.5,-0.0204076878726482,-0.00632379250600934
860,0.00302608706988394,-0.000422191951656714,-0.00299896416254342,0.5,-0.0181112568825483,-0.00269116298295558
861,0.00302458647638559,-9.00536761037074E-05,-0.00346239726059139,0.5,-0.0133282179012895,-0.00213684281334281
862,0.00186620152089745,-0.00162445590831339,-0.00277581531554461,0.5,-0.00618926901370287,-0.00530475890263915
863,5.20730718562845E-05,-0.00333839165978134,0.00101116881705821,0.5,0.00183273537550122,-0.00894980784505606
864,-0.0015580226900056,-0.00410605082288384,0.00671875942498446,0.5,0.0102028558030725,-0.00991096720099449
865,-0.00261658453382552,-0.00442689657211304,0.010590435937047,0.5,0.0171122327446938,-0.00801051408052444
866,-0.00357539230026305,-0.0044642835855484,0.0108853792771697,0.5,0.0192409660667181,-0.00500881392508745
867,-0.0039706458337605,-0.00269184424541891,0.00958695355802774,0.5,0.0171982608735561,-0.00235719536431134
868,-0.00301874475553632,0.00115903560072184,0.00935736298561096,0.5,0.0135364728048444,-0.00101959693711251
869,-0.002377052558586,0.0042936890386045,0.00919614266604185,0.5,0.00683047762140632,-0.00253904610872269
870,-0.00360805774107575,0.00455089239403605,0.00574216526001692,0.5,-0.00392488855868578,-0.00719983130693436
871,-0.00456472625955939,0.00307718245312572,-0.000955055002123117,0.5,-0.0137916738167405,-0.0125302709639072
872,-0.00327267707325518,0.00192729861009866,-0.0075690159574151,0.5,-0.0173581037670374,-0.0162766929715872
873,-0.00139695464167744,0.00211412901990116,-0.0118110412731767,0.5,-0.0152854304760695,-0.0179333183914423
874,-0.0010261635761708,0.00359432329423726,-0.0132063692435622,0.5,-0.0127592589706182,-0.0177484210580587
875,-0.0020570473279804,0.00558889843523502,-0.0121049955487251,0.5,-0.0140693569555879,-0.0161129087209702
876,-0.00368314469233155,0.0071428888477385,-0.0101029807701707,0.5,-0.019159983843565,-0.0132795190438628
877,-0.00610358500853181,0.00737364264205098,-0.00964072160422802,0.5,-0.0247901659458876,-0.00958287622779608
878,-0.00828526262193918,0.00693312007933855,-0.0103040412068367,0.5,-0.0265468154102564,-0.00494305090978742
879,-0.00757404929026961,0.00742363603785634,-0.00880040135234594,0.5,-0.0215987097471952,-6.54100804240443E-05
880,-0.00465365499258041,0.00852720346301794,-0.00460802484303713,0.5,-0.0118878465145826,0.00328907417133451
881,-0.00342287472449243,0.0088729141280055,-0.00045116784167476,0.5,-0.00180487334728241,0.00504459952935576
882,-0.00482287118211389,0.00866842269897461,0.00250948360189795,0.5,0.00538717210292816,0.00700909364968538
883,-0.00652819685637951,0.00869481917470694,0.00462110433727503,0.5,0.0075456453487277,0.0102032581344247
884,-0.00694969529286027,0.00874376855790615,0.00510555692017078,0.5,0.00437109638005495,0.0135133722797036
885,-0.00656005321070552,0.00815705209970474,0.00271585420705378,0.5,-0.00261393957771361,0.0153306694701314
886,-0.00682971533387899,0.00673492625355721,-0.00235658464953303,0.5,-0.0105728032067418,0.0156818684190512
887,-0.00747485738247633,0.00550404470413923,-0.0074866097420454,0.5,-0.0147140277549624,0.0155008733272552
888,-0.00653504673391581,0.00568419136106968,-0.00951236952096224,0.5,-0.0120485946536064,0.0153159005567431
889,-0.0035658604465425,0.00711132027208805,-0.00799282640218735,0.5,-0.00527118425816298,0.0157728511840105
890,-0.0010823467746377,0.00820039864629507,-0.00576833542436361,0.5,-0.000662847189232707,0.015886077657342
891,-0.00103806611150503,0.00812465697526932,-0.0048879268579185,0.5,-0.00129144825041294,0.0136648816987872
892,-0.00220684381201863,0.00780446408316493,-0.00379167776554823,0.5,-0.00396990031003952,0.00950756575912237
893,-0.00379924802109599,0.00708050187677145,-0.00133136368822306,0.5,-0.00566831324249506,0.00513677578419447
894,-0.00570459337905049,0.00528615759685636,0.00129498995374888,0.5,-0.00722158513963223,0.00251777237281203
895,-0.00635676411911845,0.00335031095892191,0.00280388491228223,0.5,-0.0101635353639722,0.0026191440410912
896,-0.00423652585595846,0.0030512441881001,0.00332076265476644,0.5,-0.0134320156648755,0.00479025952517986
897,4.37425751442788E-06,0.00505422195419669,0.00389653583988547,0.5,-0.0140440855175257,0.00779811386018991
898,0.00403645308688283,0.00777835072949529,0.00448458688333631,0.5,-0.010604222305119,0.00951082538813353
899,0.00684818020090461,0.010112683288753,0.00445623463019729,0.5,-0.00404214672744274,0.00927286967635155
900,0.00885748118162155,0.0119875511154532,0.00384938647039235,0.5,0.00319729279726744,0.00827967096120119
901,0.00991598423570395,0.0120446970686316,0.00292987376451492,0.5,0.00781332328915596,0.00577583210542798
902,0.00982081145048141,0.00991939660161734,0.00247368193231523,0.407123416662216,0.00855890102684498,0.00123837089631706
903,0.0088055869564414,0.0077638067305088,0.00305537879467011,0.22434888780117,0.00714706815779209,-0.00272452528588474
904,0.00647746585309505,0.00638397457078099,0.00293236994184554,0.173283278942108,0.00389860710129142,-0.00509390980005264
905,0.00267338287085295,0.0045438907109201,4.34419489465654E-05,0.198711007833481,-0.00274972035549581,-0.00765236094594002
906,-0.000745583500247449,0.0025082346983254,-0.00381289492361248,0.213665932416916,-0.0113560566678643,-0.00990163255482912
907,-0.00245671044103801,0.0014007727149874,-0.0051791500300169,0.181420624256134,-0.0179753471165895,-0.00968941953033209
908,-0.00342072290368378,0.000955009541939944,-0.00377823086455464,0.15836726129055,-0.0203968435525894,-0.00678772572427988
909,-0.00325585901737213,0.00117264233995229,-0.00183250929694623,0.192559912800789,-0.0189980864524841,-0.00246439850889146
910,-0.00122486974578351,0.00182623567525297,-0.00182276940904558,0.250661045312881,-0.0162587035447359,0.000552247394807637
911,0.00159849121700972,0.00196703686378896,-0.00407675746828318,0.269753783941269,-0.0136568862944841,-0.000266245973762125
912,0.00451586535200477,0.00190750986803323,-0.00577811012044549,0.185055032372475,-0.00965726375579834,-0.00445217173546553
913,0.00691170571371913,0.00201936112716794,-0.00553451851010323,-0.019570380449295,-0.00317739928141236,-0.00957229640334845
914,0.0082373945042491,0.00211873836815357,-0.00481748022139072,-0.24043495953083,0.00406010774895549,-0.0131440097466111
915,0.00870711822062731,0.00218269415199757,-0.0045347735285759,-0.34413942694664,0.00799537170678377,-0.0143214343115687
916,0.00845043733716011,0.0024573493283242,-0.0044986791908741,-0.315822422504425,0.00595893897116184,-0.013541548512876
917,0.00747430976480246,0.0033881978597492,-0.00478887464851141,-0.233196377754211,-0.000141648895805702,-0.011525503359735
918,0.00568309379741549,0.00437083467841148,-0.00568617973476648,-0.154753014445305,-0.00662809843197465,-0.0103942984715104
919,0.0037297320086509,0.00479275826364756,-0.00604340294376016,-0.0874757766723633,-0.0103566739708185,-0.0117708193138242
920,0.0028225383721292,0.00517610507085919,-0.00459642149507999,-0.0222749542444944,-0.00940370466560125,-0.0148457363247871
921,0.00223624240607023,0.00547071779146791,-0.00314143789000809,0.040486965328455,-0.00559907639399171,-0.0181127544492483
922,0.00039730325806886,0.00525709148496389,-0.00374572910368443,0.0992051288485527,-0.00347968214191496,-0.0201115589588881
923,-0.00301982159726322,0.00402593147009611,-0.00553522538393736,0.158184677362442,-0.0058285198174417,-0.0205127764493227
924,-0.00647099921479821,0.00184215907938778,-0.00646389834582806,0.208248972892761,-0.0111999623477459,-0.0196927711367607
925,-0.00661240750923753,0.000548843352589756,-0.00557716656476259,0.203420966863632,-0.0158469788730145,-0.0176334120333195
926,-0.00230909930542111,0.00155272439587861,-0.00432129763066769,0.077862873673439,-0.0182397067546844,-0.0149124534800649
927,0.00403586914762855,0.00521720200777054,-0.00457332422956824,-0.248954609036446,-0.0188793446868658,-0.0111866481602192
928,0.00940143130719662,0.010168113745749,-0.00611731084063649,-0.5,-0.0183260180056095,-0.00695870397612453
929,0.0118817873299122,0.0132692568004131,-0.0080653103068471,-0.5,-0.0181716550141573,-0.00513273943215609
930,0.0115259643644094,0.0137432860210538,-0.00991601683199406,-0.5,-0.0184877999126911,-0.00634568324312568
931,0.00928952638059855,0.0125315403565764,-0.0109513830393553,-0.5,-0.0167140085250139,-0.00876891240477562
932,0.00583511916920543,0.00972514785826206,-0.0108905341476202,-0.5,-0.0136409485712647,-0.0112844575196505
933,0.00279973819851875,0.00644392007961869,-0.0101165762171149,-0.5,-0.0130665181204677,-0.0130873592570424
934,0.00214773579500616,0.00447019515559077,-0.00844558421522379,-0.5,-0.0152322165668011,-0.0132495518773794
935,0.00251879566349089,0.00317944074049592,-0.00651765475049615,-0.5,-0.0180660635232925,-0.0129132959991694
936,0.000296347599942237,0.000839111395180225,-0.0068944999948144,-0.5,-0.0210390593856573,-0.0144715188071132
937,-0.00440752925351262,-0.00183922133874148,-0.00951501913368702,-0.5,-0.021556381136179,-0.0177225116640329
938,-0.00771694397553802,-0.00277440343052149,-0.0102897509932518,-0.5,-0.0151157425716519,-0.0202278643846512
939,-0.00785015430301428,-0.00152049714233726,-0.00744817266240716,-0.5,-0.00424605188891292,-0.020339896902442
940,-0.00643718941137195,0.000304779125144705,-0.00490381196141243,-0.5,0.00217665894888341,-0.0186808351427317
941,-0.0056513836607337,0.000393888767575845,-0.00751808425411582,-0.5,-0.00099045189563185,-0.0170257594436407
942,-0.0056897010654211,-0.00149848032742739,-0.0148263862356544,-0.5,-0.0110385213047266,-0.0157540496438742
943,-0.00449652271345258,-0.00342757976613939,-0.0217407923191786,-0.5,-0.0205594711005688,-0.0142920250073075
944,-0.0007778872968629,-0.00405101990327239,-0.0243665669113398,-0.5,-0.0241009816527367,-0.0132151348516345
945,0.00407135812565684,-0.00293177925050259,-0.0220890268683434,-0.5,-0.0222443919628859,-0.013116248883307
946,0.00741509115323424,-0.000890403694938868,-0.0170810017734766,-0.5,-0.0190279185771942,-0.0144031019881368
947,0.00822658929973841,0.000557192892301828,-0.0127476910129189,-0.5,-0.016710601747036,-0.0171478111296892
948,0.00694238487631083,0.00113302550744265,-0.0108934585005045,-0.5,-0.0156573206186295,-0.0187744479626417
949,0.00371132628060877,0.00135846261400729,-0.0108483452349901,-0.5,-0.0165038164705038,-0.016730485484004
950,-0.000153208122355863,0.00235768500715494,-0.0100896041840315,-0.5,-0.0178148839622736,-0.0119442669674754
951,-0.00319995102472603,0.0042542302981019,-0.00756723340600729,-0.5,-0.0172921475023031,-0.00788351148366928
952,-0.00559435784816742,0.00543414615094662,-0.005723777692765,-0.5,-0.0150313153862953,-0.00747032323852181
953,-0.00693852733820677,0.00522350380197167,-0.00686010858044028,-0.5,-0.0118512567132711,-0.0104230726137757
954,-0.00589025020599365,0.0044911652803421,-0.0105086555704474,-0.5,-0.00930002797394991,-0.0141343744471669
955,-0.0024821802508086,0.00406508101150393,-0.014665643684566,-0.5,-0.00990460161119699,-0.0163748860359192
956,0.000704855367075652,0.00378328934311867,-0.0172324273735285,-0.5,-0.0142181543633342,-0.0167682804167271
957,0.00153103924822062,0.00344530981965363,-0.0166655350476503,-0.5,-0.0194594375789166,-0.015649788081646
958,0.00159203098155558,0.00331254443153739,-0.0133880563080311,-0.5,-0.0212863013148308,-0.0141584454104304
959,0.00213304860517383,0.00229544518515468,-0.0110789509490132,-0.5,-0.0189057607203722,-0.0152367660775781
960,0.00101282284595072,-0.0010920730419457,-0.0127624524757266,-0.5,-0.0155574213713408,-0.0196649506688118
961,-0.00312343495897949,-0.00609677098691463,-0.0168573074042797,-0.5,-0.0125728780403733,-0.0246029291301966
962,-0.00849694292992353,-0.0100317988544703,-0.020251102745533,-0.5,-0.00868889130651951,-0.0275127831846476
963,-0.0117779783904552,-0.0105419736355543,-0.0211517065763474,-0.5,-0.00356411677785218,-0.027600783854723
964,-0.0118754804134369,-0.0084445821121335,-0.0199181921780109,-0.5,-0.000199486283236183,-0.0261339712888002
965,-0.0104201203212142,-0.00640264432877302,-0.0187410358339548,-0.5,-0.00257566338405013,-0.025275357067585
966,-0.00849317200481892,-0.00534214125946164,-0.0189937110990286,-0.5,-0.0102617796510458,-0.0252381283789873
967,-0.00571012729778886,-0.00443950667977333,-0.0193321220576763,-0.5,-0.0174115654081106,-0.0247570630162954
968,-0.00205621402710676,-0.00346385734155774,-0.0180932823568583,-0.5,-0.0191726163029671,-0.0236036963760853
969,0.000381863792426884,-0.00306447851471603,-0.0163524691015482,-0.5,-0.0167650151997805,-0.0220818948000669
970,9.86346130957827E-05,-0.00321670388802886,-0.0159088056534529,-0.5,-0.0134317185729742,-0.020338362082839
971,-0.00171329185832292,-0.0039520007558167,-0.0169822704046965,-0.5,-0.0115068042650819,-0.0196742620319128
972,-0.00331897079013288,-0.00494508817791939,-0.0180945955216885,-0.5,-0.0117636695504189,-0.0199668798595667
973,-0.00431056739762425,-0.00516516761854291,-0.0181887932121754,-0.5,-0.013067333959043,-0.0188690349459648
974,-0.00534803234040737,-0.00495088659226894,-0.0184554383158684,-0.5,-0.0147220054641366,-0.0167090073227882
975,-0.00659392867237329,-0.00551979942247272,-0.0198337603360415,-0.5,-0.0157392956316471,-0.0166054517030716
976,-0.00744039751589298,-0.00675828335806727,-0.021288089454174,-0.5,-0.0141849480569363,-0.018752058967948
977,-0.00746144354343414,-0.00710017560049891,-0.021441200748086,-0.5,-0.0109703689813614,-0.019299428910017
978,-0.00741635542362928,-0.00624838331714273,-0.0204856526106596,-0.5,-0.0101242419332266,-0.0166321098804474
979,-0.00810711830854416,-0.00561792124062777,-0.0193884167820215,-0.5,-0.013501051813364,-0.013887083157897
980,-0.00771856866776943,-0.00502563267946243,-0.0180930532515049,-0.5,-0.0189416594803333,-0.013150816783309
981,-0.00503361644223332,-0.00372777879238129,-0.0172441527247429,-0.5,-0.023920513689518,-0.0136739453300834
982,-0.00202328944578767,-0.00263863732106984,-0.0178762171417475,-0.5,-0.0266834646463394,-0.0153563600033522
983,-4.28936982643791E-05,-0.00219870219007134,-0.0184788107872009,-0.5,-0.0257035829126835,-0.0179708115756512
984,0.00119661935605109,-0.00238959840498865,-0.0173946898430586,-0.5,-0.0215600281953812,-0.0207002572715282
985,0.00260697957128286,-0.00318958098068833,-0.014934565871954,-0.5,-0.0161758828908205,-0.0227025505155325
986,0.00455358577892184,-0.00398081168532372,-0.0122172413393855,-0.5,-0.0115563310682774,-0.0225182753056288
987,0.00478600058704615,-0.00543821277096868,-0.0115337232127786,-0.5,-0.0107491547241807,-0.0207033734768629
988,0.00181935192085803,-0.00772522250190377,-0.0138999540358782,-0.481160193681717,-0.0148298162966967,-0.018881818279624
989,-0.00210185046307743,-0.00881528574973345,-0.0172833930701017,-0.325241655111313,-0.0202772337943316,-0.0170564316213131
990,-0.00482168002054095,-0.0082694124430418,-0.0199318770319223,-0.175890728831291,-0.0231642294675112,-0.0158590748906136
991,-0.00619341759011149,-0.00786371249705553,-0.0214985981583595,-0.0493995435535908,-0.0227872580289841,-0.0167552474886179
992,-0.00664172228425741,-0.00888385437428951,-0.0219721533358097,0.0588700771331787,-0.0204657204449177,-0.0203041639178991
993,-0.00630598515272141,-0.0108356531709433,-0.0212735962122679,0.156149208545685,-0.0171717535704374,-0.025203937664628
994,-0.00559981865808368,-0.012165448628366,-0.0196401383727789,0.227966353297234,-0.0126162329688668,-0.028254721313715
995,-0.0052367583848536,-0.0119015499949455,-0.0176773853600025,0.267175495624542,-0.00666086003184319,-0.0273905377835035
996,-0.00477330898866057,-0.0100763468071818,-0.0154619291424751,0.296885818243027,-0.00107700855005533,-0.023311885073781
997,-0.00396712869405746,-0.00789713952690363,-0.0138999866321683,0.352915078401566,0.00076754268957302,-0.0184551905840635
998,-0.00368145992979407,-0.00670718401670456,-0.0145745724439621,0.452791213989258,-0.00260654790326953,-0.014923794195056
999,-0.00316099938936532,-0.00567224808037281,-0.0166466608643532,0.5,-0.00816878024488688,-0.0120186563581228
1000,-0.00120635773055255,-0.00386830070056021,-0.0177898053079844,0.5,-0.0117674246430397,-0.00833014864474535
1001,0.000842812354676425,-0.00272785243578255,-0.0174411777406931,0.5,-0.0121723357588053,-0.0048080044798553
1002,0.0016154310433194,-0.0031051707919687,-0.015961242839694,0.456038802862167,-0.0101678129285574,-0.00309848529286683
1003,0.00130509817972779,-0.00425841985270381,-0.0134163480252028,0.248627379536629,-0.00759318936616182,-0.00364906480535865
1004,0.000356257893145084,-0.00574021134525537,-0.0107686147093773,0.0069594094529748,-0.00702832313254476,-0.00588622642681003
1005,-0.000435864320024848,-0.00743792578577995,-0.0090328911319375,-0.182279020547867,-0.00865476671606302,-0.00809128303080797
1006,-0.000518409069627523,-0.00876746419817209,-0.00798177067190409,-0.247830286622047,-0.00945480540394783,-0.00721562234684825
1007,-0.000446962687419727,-0.00904571451246738,-0.00717554939910769,-0.187960207462311,-0.00745822582393885,-0.00188070058356971
1008,-0.000517509179189801,-0.00828800071030855,-0.00662054587155581,-0.0503916218876839,-0.00388608523644507,0.00495184725150466
1009,0.000371600413927808,-0.00647228350862861,-0.00593005865812302,0.101936481893063,-1.60377658176003E-05,0.00979488994926214
1010,0.00237784767523408,-0.00386192742735147,-0.00462457304820418,0.216029539704323,0.00411535426974297,0.011879488825798
1011,0.00374869094230235,-0.00153459538705647,-0.00311594200320542,0.270418643951416,0.00814075209200382,0.0116794519126415
1012,0.00379173806868494,-0.000259013700997457,-0.00246517476625741,0.27365043759346,0.0106872767210007,0.00958075746893883
1013,0.00395208317786455,-0.000257601233897731,-0.00305359694175422,0.240672752261162,0.0100582409650087,0.00561163201928139
1014,0.00570463621988893,-0.00128500524442643,-0.00382253341376781,0.192742630839348,0.00652818428352475,-6.06632784183603E-05
1015,0.00869273860007524,-0.00240739108994603,-0.00350731960497797,0.166579678654671,0.00296559324488044,-0.00579351838678122
1016,0.0104221180081367,-0.00276842620223761,-0.00250167492777109,0.189212515950203,0.00120847800280899,-0.00947655271738768
1017,0.00868252944201231,-0.00242700846865773,-0.00223127752542496,0.256688266992569,0.000519793014973402,-0.010618994012475
1018,0.00391872460022569,-0.00236148526892066,-0.00346885994076729,0.350418508052826,-0.00022799069120083,-0.0104423388838768
1019,-0.00208941125310957,-0.0032380404882133,-0.0060654291883111,0.447718322277069,-0.00222358200699091,-0.0104279471561313
1020,-0.0072155543603003,-0.00368775613605976,-0.00819970481097698,0.5,-0.00523270200937986,-0.00978012476116419
1021,-0.0102107673883438,-0.00278317951597273,-0.00867719389498234,0.5,-0.0076976427808404,-0.00833489280194044
1022,-0.0115505363792181,-0.00187260610982776,-0.00934972241520882,0.5,-0.00942614488303661,-0.00862608291208744
1023,-0.010892802849412,-0.00120296981185675,-0.0106740510091186,0.5,-0.00939995981752872,-0.0103724813088775
1024,-0.00805479846894741,-0.000437532493378967,-0.011304872110486,0.5,-0.00651642866432667,-0.0120353335514665
1025,-0.00467230100184679,5.79796324018389E-06,-0.0116863213479519,0.5,-0.00214577210135758,-0.0141059393063188
1026,-0.00156742171384394,0.00110888131894171,-0.0119090313091874,0.5,0.00284512271173298,-0.0152906700968742
1027,0.00152681325562298,0.0038695412222296,-0.0111961597576737,0.5,0.00729975290596485,-0.0132493088021874
1028,0.00438459403812885,0.00729537056759,-0.00998094584792852,0.5,0.00820901151746511,-0.00837230868637562
1029,0.00581454765051603,0.00922905467450619,-0.00963683612644672,0.379298150539398,0.0041502034291625,-0.00394578324630857
1030,0.00559563934803009,0.00866139214485884,-0.0100032519549131,0.169212460517883,-0.00163644389249384,-0.00289279129356146
1031,0.00546651752665639,0.00667188689112663,-0.00907947868108749,0.0477046333253384,-0.00410313531756401,-0.005112508777529
1032,0.00591412233188748,0.00426452979445457,-0.00636209174990654,0.00587369035929441,-0.00237867748364806,-0.00829241052269936
1033,0.00602427171543241,0.00225075031630695,-0.0034199405927211,0.00426956731826067,0.00164602533914149,-0.00902658980339766
1034,0.00586201762780547,0.00216782744973898,-0.00143942632712424,-0.00157710607163608,0.00661662267521024,-0.00496713910251856
1035,0.00629486329853535,0.00391009682789445,7.49261598684825E-05,-0.0565191619098186,0.0112520856782794,0.00247153476811945
1036,0.00835067313164473,0.00561816664412618,0.00212515238672495,-0.18964184820652,0.0152708282694221,0.00967418681830168
1037,0.0112600512802601,0.00667140446603298,0.00449267216026783,-0.359996825456619,0.0176365692168474,0.0152524784207344
1038,0.0114760221913457,0.006708690430969,0.00564715126529336,-0.481000751256943,0.0147860422730446,0.0194455031305552
1039,0.00810919050127268,0.00482186721637845,0.00484262220561504,-0.5,0.0061818566173315,0.020722234621644
1040,0.00459673162549734,0.00174389139283448,0.00268323067575693,-0.488720715045929,-0.00341036985628307,0.0178977437317371
1041,0.00256082718260586,-0.000721090531442314,-0.000423555669840425,-0.459523171186447,-0.00938248168677092,0.0123539138585329
1042,0.00144152750726789,-0.00128149101510644,-0.0029915024060756,-0.4715216755867,-0.00957421027123928,0.00682977959513664
1043,0.00108471745625138,8.96166820893995E-05,-0.0031690348405391,-0.5,-0.00485827773809433,0.0039713834412396
1044,0.000220423433347605,0.00196632416918874,-0.0021357296500355,-0.5,-0.000555957783944905,0.00463662901893258
1045,-0.00201199413277209,0.0029152671340853,-0.00162669969722629,-0.492608845233917,-0.00113019137643278,0.00717140873894095
1046,-0.00381110911257565,0.00318150548264384,-0.0010929541895166,-0.327215373516083,-0.00525339553132653,0.0100715551525354
1047,-0.00414959527552128,0.00374919991008937,-0.000746885780245066,-0.137907743453979,-0.0099296672269702,0.0126972226426005
1048,-0.00418142601847649,0.00442925980314612,-0.00189179147128016,0.0314156040549278,-0.0132799949496984,0.0133773041889071
1049,-0.00422488432377577,0.00514479260891676,-0.00378976529464126,0.190568253397942,-0.0136687615886331,0.0119033306837082
1050,-0.00380447902716696,0.00604404462501407,-0.00466404668986797,0.337933957576752,-0.0113416779786348,0.00933724362403154
1051,-0.00304666021838784,0.00634505925700068,-0.00400965567678213,0.446593046188354,-0.00781956966966391,0.00598226068541408
1052,-0.00263281329534948,0.00537806283682585,-0.00268178130500019,0.497647285461426,-0.00354324094951153,0.00287017202936113
1053,-0.00307387346401811,0.0033534299582243,-0.00156046857591718,0.498143792152405,0.00120846182107925,0.00153938273433596
1054,-0.00382453156635165,0.00170786876697093,-0.00051535660168156,0.479986310005188,0.00517977261915803,0.00322332489304245
1055,-0.00366223603487015,0.002018105937168,0.000556458777282387,0.441847831010818,0.00643790187314153,0.00794339925050735
1056,-0.00193979276809841,0.00442684767767787,0.00176299025770277,0.304012328386307,0.00400250917300582,0.0143833858892322
1057,0.000564742658752948,0.00758460536599159,0.00364262284711003,0.0248290114104748,-2.75199327006703E-05,0.0197377167642117
1058,0.00280922814272344,0.0100439824163914,0.00660880748182535,-0.325433284044266,-0.00218364549800754,0.0214470103383064
1059,0.00429603550583124,0.0114406086504459,0.0103792725130916,-0.5,-0.00180476764217019,0.020112806931138
1060,0.00460685975849628,0.011260436847806,0.0127010261639953,-0.5,-0.00178055767901242,0.0160681717097759
