,AF3,AF4,Fp1,Fp2,AF7,AF8
0,0.00244719302281737,-0.00660388497635722,-0.0086744362488389,-0.5,0.00369358970783651,-0.00801830273121595
1,0.00360495550557971,-0.00674206810072064,-0.00610909005627036,-0.5,0.00684854714199901,-0.00803751032799482
2,0.00527260778471828,-0.00569971464574337,-0.0033898672554642,-0.5,0.00977719109505415,-0.00705636106431484
3,0.00685048988088965,-0.00440370244905353,-0.00129579263739288,-0.5,0.0116945113986731,-0.00607991311699152
4,0.00788585562258959,-0.00356868747621775,-0.000231776561122388,-0.5,0.0122658181935549,-0.00610538944602013
5,0.00793680921196938,-0.00329037848860025,-0.000447824102593586,-0.5,0.0118763297796249,-0.00696225697174668
6,0.0071067507378757,-0.00331803341396153,-0.00198619742877781,-0.5,0.011738209053874,-0.00855894852429628
7,0.00615018839016557,-0.00343489996157587,-0.00392905110493302,-0.5,0.0119379591196775,-0.0109765566885471
8,0.00633758772164583,-0.00305127468891442,-0.00455165142193437,-0.5,0.0117049450054765,-0.0131178284063935
9,0.00750567018985748,-0.00205875444225967,-0.00398033624514937,-0.5,0.0101005472242832,-0.0141127686947584
10,0.00827069114893675,-0.000994973699562252,-0.0039319503121078,-0.5,0.00665062246844172,-0.0144694037735462
11,0.00848506856709719,-0.0001948975113919,-0.00509943580254912,-0.5,0.00243908306583762,-0.0150930974632502
12,0.00833963882178068,-0.000175233813934028,-0.00723712565377355,-0.5,-0.00133110349997878,-0.015834080055356
13,0.00779239181429148,-0.000962950347457081,-0.00962982140481472,-0.5,-0.0041380082257092,-0.0153106916695833
14,0.00725302891805768,-0.0018715790938586,-0.0116441929712892,-0.5,-0.0057870727032423,-0.0133147537708282
15,0.00673812068998814,-0.00281522376462817,-0.0136148612946272,-0.5,-0.0070572723634541,-0.0114579191431403
16,0.00637248391285539,-0.00397007074207067,-0.0157310348004103,-0.5,-0.00838672742247581,-0.011438843794167
17,0.00686580594629049,-0.00481674447655678,-0.0171232596039772,-0.5,-0.0089607834815979,-0.0133476825430989
18,0.00811675563454628,-0.0048631657846272,-0.0175015479326248,-0.5,-0.00889352988451719,-0.0155681315809488
19,0.00941077619791031,-0.00443558488041162,-0.0176192577928305,-0.5,-0.00894903857260942,-0.017505407333374
20,0.0107761612161994,-0.00398718379437923,-0.0175560601055622,-0.5,-0.00881850067526102,-0.0200709961354733
21,0.0118706924840808,-0.00390799157321453,-0.0174745656549931,-0.5,-0.00896107871085405,-0.0234228223562241
22,0.0117777846753597,-0.00478849560022354,-0.0179181881248951,-0.5,-0.0100584095343947,-0.0268978998064995
23,0.0108690112829208,-0.0065781525336206,-0.0177510753273964,-0.5,-0.01061637327075,-0.0293320026248693
24,0.0101067498326302,-0.00828972645103931,-0.0153325889259577,-0.5,-0.00899138953536749,-0.0292871668934822
25,0.00959071982651949,-0.00886147562414408,-0.0118167959153652,-0.5,-0.00628845300525427,-0.0268992837518454
26,0.00901587121188641,-0.00795233435928822,-0.011195226572454,-0.5,-0.005851776804775,-0.0249042790383101
27,0.00847972650080919,-0.0059407358057797,-0.0162436123937368,-0.5,-0.00957942847162485,-0.0268175546079874
28,0.00849843770265579,-0.00330095505341887,-0.0252087004482746,-0.5,-0.0159598644822836,-0.032987155020237
29,0.0089880283921957,-0.000510185258463025,-0.0339077524840832,-0.5,-0.0224714502692223,-0.0396899953484535
30,0.00893067196011543,0.00166566669940948,-0.0393511205911636,-0.5,-0.0275910552591085,-0.0436771474778652
31,0.00815067067742348,0.00292942952364683,-0.040453489869833,-0.5,-0.0302596371620893,-0.0445382036268711
32,0.00744925299659371,0.00374058051966131,-0.0383867658674717,-0.5,-0.0305417291820049,-0.0429257415235043
33,0.00696300296112895,0.00414986815303564,-0.0359003692865372,-0.5,-0.0298622753471136,-0.0403789281845093
34,0.00642392411828041,0.00377359637059271,-0.0347160622477531,-0.5,-0.0291464012116194,-0.038764912635088
35,0.00600243406370282,0.00308628031052649,-0.0345222465693951,-0.5,-0.0284421183168888,-0.0380908027291298
36,0.00569275859743357,0.00299535249359906,-0.0342983305454254,-0.5,-0.0279093030840158,-0.0370179228484631
37,0.00524367904290557,0.00369516154751182,-0.0332812443375587,-0.5,-0.027458718046546,-0.0347854681313038
38,0.00476161018013954,0.00498051149770617,-0.0313374325633049,-0.5,-0.0267172362655401,-0.0317955501377583
39,0.00416036555543542,0.00623230822384357,-0.0296589154750109,-0.5,-0.0261553172022104,-0.0296828858554363
40,0.00345298810862005,0.0069426354020834,-0.0298785883933306,-0.5,-0.0265335198491812,-0.030219467356801
41,0.00291522732004523,0.00748246628791094,-0.0329774580895901,-0.5,-0.0284191593527794,-0.0338474214076996
42,0.00226455787196755,0.00812647771090269,-0.0386085025966167,-0.5,-0.031898595392704,-0.0390620939433575
43,0.0014692316763103,0.0088309682905674,-0.0437580123543739,-0.5,-0.0356093198060989,-0.0427111908793449
44,0.00106102111749351,0.009485580958426,-0.0452039167284966,-0.5,-0.0379541181027889,-0.0431212782859802
45,0.000943321210797876,0.00941716227680445,-0.0438394621014595,-0.5,-0.0389991998672485,-0.0421113409101963
46,0.00110226694960147,0.00851677265018225,-0.0425672121345997,-0.5,-0.0388641878962517,-0.04174879565835
47,0.00202499167062342,0.00761496042832732,-0.0424708425998688,-0.5,-0.0368790589272976,-0.0420809276401997
48,0.00333431083709002,0.00701558403670788,-0.043340515345335,-0.5,-0.0342373549938202,-0.0427134893834591
49,0.00461432663723826,0.00697203306481242,-0.0443366132676601,-0.5,-0.0332570634782314,-0.0431612096726894
50,0.00547988619655371,0.007276875898242,-0.0448269248008728,-0.5,-0.034985389560461,-0.0432256981730461
51,0.00470591150224209,0.00645900797098875,-0.0452342219650745,-0.5,-0.0387854762375355,-0.0439787060022354
52,0.00223381677642465,0.00399429304525256,-0.045846413820982,-0.5,-0.0426639206707478,-0.0460137687623501
53,-0.000372655980754644,0.0010582038667053,-0.0463079512119293,-0.5,-0.045222956687212,-0.0485190637409687
54,-0.00204257247969508,-0.0013621476246044,-0.0465278439223766,-0.5,-0.0465028360486031,-0.0511687584221363
55,-0.0024941919837147,-0.00310852588154376,-0.0465147793292999,-0.5,-0.0465212427079678,-0.0540401116013527
56,-0.0016938375774771,-0.00411821063607931,-0.0459119081497192,-0.5,-0.0449456982314587,-0.0563400834798813
57,-0.000585403118748218,-0.0043574939481914,-0.0452333018183708,-0.5,-0.0425006374716759,-0.0572554990649223
58,6.11681898590177E-05,-0.0036650444380939,-0.0453772321343422,-0.5,-0.0401689596474171,-0.0565624386072159
59,0.00106898800004274,-0.00227409275248647,-0.0459468588232994,-0.5,-0.0375118888914585,-0.0548255071043968
60,0.00318767409771681,-0.00119137740693986,-0.0456823259592056,-0.5,-0.0340943075716496,-0.0524424687027931
61,0.0062334924004972,-0.000515165913384408,-0.0432783700525761,-0.5,-0.0303141307085752,-0.0488587208092213
62,0.00894223898649216,0.000221371243242174,-0.0390908196568489,-0.5,-0.0274154637008905,-0.0443183705210686
63,0.00922468770295382,0.000575425568968058,-0.0356916673481464,-0.5,-0.0273552536964417,-0.0400504618883133
64,0.00651341350749135,-0.000214650091947988,-0.0349378027021885,-0.5,-0.0303122252225876,-0.0376370809972286
65,0.00289339618757367,-0.00193443789612502,-0.0358750261366367,-0.5,-0.033989854156971,-0.0383417345583439
66,0.000776435656007379,-0.00332957855425775,-0.0363413952291012,-0.5,-0.0361214429140091,-0.0419647991657257
67,0.000448718346888199,-0.0034977390896529,-0.0355829261243343,-0.5,-0.0359268337488174,-0.0476071648299694
68,0.00111454364378005,-0.00269517605192959,-0.0339298099279404,-0.5,-0.033169399946928,-0.0542393922805786
69,0.002005017362535,-0.00206579826772213,-0.0317370146512985,-0.5,-0.0277269016951323,-0.0609307996928692
70,0.00245487713254988,-0.00231915106996894,-0.0296582374721766,-0.5,-0.021056504920125,-0.0671626701951027
71,0.00264794705435634,-0.0031720926053822,-0.028143497183919,-0.5,-0.0161978527903557,-0.0718561187386513
72,0.00305523630231619,-0.00401689857244492,-0.0269161202013493,-0.5,-0.0152056626975536,-0.0731222480535507
73,0.00347353471443057,-0.00444401428103447,-0.0254624374210835,-0.5,-0.0176045969128609,-0.0703272894024849
74,0.00343710137531161,-0.00446881493553519,-0.0233381222933531,-0.5,-0.0213613640516996,-0.0648745521903038
75,0.00314942211844027,-0.00409061880782247,-0.0204242113977671,-0.5,-0.0240863431245089,-0.0591748617589474
76,0.00312118232250214,-0.0037349765188992,-0.0179523788392544,-0.5,-0.0235953610390425,-0.0570309646427631
77,0.0036879398394376,-0.00451675662770867,-0.0186045095324516,-0.5,-0.0198110844939947,-0.0622517019510269
78,0.00536117004230618,-0.00637293793261051,-0.0236826222389936,-0.5,-0.016029380261898,-0.0744582116603851
79,0.00763035006821156,-0.00787290465086699,-0.0310255456715822,-0.5,-0.0160051211714745,-0.0881060436367989
80,0.00862442702054977,-0.00901867914944887,-0.037269901484251,-0.5,-0.0201678574085236,-0.0979278460144997
81,0.00771770160645247,-0.010490576736629,-0.0398423820734024,-0.5,-0.0249811206012964,-0.1024484410882
82,0.00605640606954694,-0.0117643512785435,-0.0381876491010189,-0.5,-0.0264788195490837,-0.102610863745213
83,0.00458266120404005,-0.0132888099178672,-0.0347157381474972,-0.5,-0.0231493376195431,-0.100888311862946
84,0.00345880561508238,-0.0155229466035962,-0.0320547595620155,-0.5,-0.0159264374524355,-0.0990650206804276
85,0.00200000824406743,-0.0166576337069273,-0.0307225007563829,-0.5,-0.00908524263650179,-0.0968919545412064
86,-0.000521781737916172,-0.0153421154245734,-0.0301656480878592,-0.5,-0.00746729644015431,-0.0937657579779625
87,-0.00297613092698157,-0.0123079856857657,-0.0303323268890381,-0.5,-0.0116282617673278,-0.0897361263632774
88,-0.00362223829142749,-0.00909464713186026,-0.03139728307724,-0.5,-0.0185036696493626,-0.0856390967965126
89,-0.00241438043303788,-0.00735000567510724,-0.0328517332673073,-0.5,-0.0247133206576109,-0.082925096154213
90,0.000345076434314251,-0.00743639608845115,-0.0344162881374359,-0.5,-0.0276402439922094,-0.0820593908429146
91,0.0044721057638526,-0.00809776596724987,-0.0361683070659637,-0.5,-0.0248956959694624,-0.0819983407855034
92,0.00837971922010183,-0.00835861079394817,-0.0369783826172352,-0.5,-0.0169479548931122,-0.0817576944828033
93,0.00993851013481617,-0.00868751667439938,-0.0361281596124172,-0.5,-0.0100754583254457,-0.0813873633742332
94,0.00879933685064316,-0.0101057756692171,-0.0354654602706432,-0.5,-0.010021049529314,-0.0814344361424446
95,0.00687667122110724,-0.0124758435413241,-0.0369028300046921,-0.5,-0.0150314755737782,-0.0816916152834892
96,0.00608763797208667,-0.014095401391387,-0.0390342995524406,-0.5,-0.0195031315088272,-0.080861508846283
97,0.00650994572788477,-0.0134188672527671,-0.0382033325731754,-0.5,-0.0194783546030521,-0.0781272351741791
98,0.00624316977337003,-0.011556264013052,-0.0339440852403641,-0.5,-0.0152916647493839,-0.0752999559044838
99,0.0040959962643683,-0.0108124623075128,-0.0288428459316492,-0.5,-0.0102729238569736,-0.0747682973742485
100,0.00114782468881458,-0.0115081472322345,-0.0244729034602642,-0.5,-0.00730241276323795,-0.0759053155779839
101,-0.00154603400733322,-0.0123686119914055,-0.0214225184172392,-0.5,-0.00754349818453193,-0.0761861130595207
102,-0.00353724579326808,-0.0124988444149494,-0.01967235468328,-0.5,-0.00970286689698696,-0.0742431506514549
103,-0.00460608908906579,-0.0122635411098599,-0.0194618403911591,-0.5,-0.0119437770918012,-0.0704188719391823
104,-0.00489777466282249,-0.0123171517625451,-0.0212760828435421,-0.5,-0.0135138565674424,-0.0654423385858536
105,-0.00430020783096552,-0.0123303243890405,-0.0237845256924629,-0.5,-0.0127904321998358,-0.0600215569138527
106,-0.00227017467841506,-0.011545991525054,-0.0248354244977236,-0.5,-0.00945455953478813,-0.0558192245662212
107,0.000447271362645552,-0.0104239927604795,-0.0247103869915009,-0.5,-0.0077057471498847,-0.0548588000237942
108,0.00217063282616436,-0.00986290071159601,-0.0243719331920147,-0.5,-0.0102319568395615,-0.0568030923604965
109,0.00289321690797806,-0.00964897684752941,-0.0223284065723419,-0.5,-0.0141409793868661,-0.059271551668644
110,0.00369008840061724,-0.00937843788415194,-0.0171603672206402,-0.5,-0.0163520239293575,-0.0604222677648067
111,0.00468328641727567,-0.00944849569350481,-0.0106988456100225,-0.5,-0.0166318658739328,-0.0601608604192734
112,0.00549030676484108,-0.00981640350073576,-0.00629431894049048,-0.5,-0.0152335250750184,-0.0591555200517178
113,0.00621013576164842,-0.00959921907633543,-0.00504611851647496,-0.5,-0.012173724360764,-0.0578532591462135
114,0.00648738164454699,-0.00904426630586386,-0.00660524889826775,-0.5,-0.00907361507415771,-0.0571616813540459
115,0.0051811239682138,-0.00926007330417633,-0.0116518223658204,-0.5,-0.00870691705495119,-0.0573995113372803
116,0.00224129646085203,-0.00995627231895924,-0.0196758210659027,-0.5,-0.0117558659985662,-0.0569886155426502
117,-0.000656847783830017,-0.0098256254568696,-0.0271598044782877,-0.45005014538765,-0.015530844219029,-0.0540663972496986
118,-0.0021402423735708,-0.00867062993347645,-0.030593104660511,-0.262024164199829,-0.0171354711055756,-0.0487638413906097
119,-0.0022401069290936,-0.00745636690407991,-0.0284753702580929,-0.026443388313055,-0.0156076503917575,-0.0423197485506535
120,-0.00165998784359545,-0.00684941280633211,-0.021035972982645,0.179753735661507,-0.0103163123130798,-0.0356858409941196
121,-0.00120679929386824,-0.00670306757092476,-0.0112568335607648,0.272809743881226,-0.00159017706755549,-0.0305109713226557
122,-0.00120710232295096,-0.0060980855487287,-0.00351088843308389,0.244704931974411,0.00714326044544578,-0.0286287423223257
123,-0.001130829914473,-0.0040874071419239,0.000318918784614652,0.0996939167380333,0.0120774349197745,-0.0301312059164047
124,-0.000720945652574301,-0.00168193702120334,0.00062008696841076,-0.13588148355484,0.0128084141761065,-0.0338588319718838
125,-0.000663101905956864,-0.000945911277085543,-0.00232097739353776,-0.332447797060013,0.0109408050775528,-0.0378615036606789
126,-0.000967086933087558,-0.00181965425144881,-0.00743334973230958,-0.362143635749817,0.00847178138792515,-0.0397105999290943
127,-0.00091697002062574,-0.0031456861179322,-0.0123352203518152,-0.237971588969231,0.00650512287393212,-0.0394263900816441
128,-0.000924387539271265,-0.00514403218403459,-0.0154286166653037,-0.0708170384168625,0.00386970164254308,-0.039590772241354
129,-0.00136001780629158,-0.00770750362426043,-0.0163172893226147,0.0397984646260738,0.000662433041725308,-0.0414995439350605
130,-0.00151110300794244,-0.00929102022200823,-0.0152410259470344,0.0506644658744335,-0.00137040484696627,-0.0440976209938526
131,-0.00123118760529906,-0.00887108780443668,-0.0132667301222682,-0.0821532681584358,-0.00247713574208319,-0.0457922294735909
132,-0.00103117269463837,-0.00677683996036649,-0.0114997979253531,-0.421386420726776,-0.00392470834776759,-0.0451184511184692
133,-0.00122868083417416,-0.00429693004116416,-0.0102882739156485,-0.5,-0.00601848727092147,-0.0413341000676155
134,-0.00156276288907975,-0.00229818001389503,-0.00945093203336,-0.5,-0.00788478180766106,-0.0353811793029308
135,-0.00123280321713537,-0.0003995583683718,-0.00788398087024689,-0.5,-0.00767416507005692,-0.0289637576788664
136,-0.000165866484167054,0.00172457890585065,-0.00384323392063379,-0.5,-0.00411455007269979,-0.0232547745108604
137,0.00059143832186237,0.00345911085605621,0.00161017279606313,-0.5,0.00169329007621855,-0.0193983763456345
138,0.000468167971121147,0.00366678717546165,0.00454158335924149,-0.5,0.00807102024555206,-0.0189128369092941
139,3.36146986228414E-05,0.00200996082276106,0.00350471655838192,-0.5,0.014189719222486,-0.0218836963176727
140,-0.000472830404760316,-0.000187682235264219,0.000790870515629649,-0.5,0.0170098356902599,-0.025797663256526
141,-0.00163326587062329,-0.00170646363403648,-0.00107554590795189,-0.5,0.0130158821120858,-0.028434744104743
142,-0.00307739502750337,-0.0026615709066391,-0.00177994626574218,-0.5,0.00399207323789597,-0.0296207834035158
143,-0.00386119401082397,-0.00370537419803441,-0.00303252204321325,-0.5,-0.00519480323418975,-0.0301324315369129
144,-0.00400952994823456,-0.00510135991498828,-0.0057146386243403,-0.5,-0.0119329672306776,-0.0305476654320955
145,-0.00396410143002868,-0.0062801307067275,-0.00842900760471821,-0.5,-0.0157727934420109,-0.0302608031779528
146,-0.00454588467255235,-0.00697547337040305,-0.00975356623530388,-0.5,-0.0170856788754463,-0.0284132305532694
147,-0.00620985217392445,-0.00751759530976415,-0.00980950705707073,-0.5,-0.0168403908610344,-0.025244353339076
148,-0.00786560401320457,-0.00764992274343967,-0.00932920165359974,-0.5,-0.0157535672187805,-0.0222675651311874
149,-0.0079036196693778,-0.00664773443713784,-0.00815031491219997,-0.5,-0.0140143558382988,-0.020534697920084
150,-0.00747179798781872,-0.00558647140860558,-0.00686186691746116,-0.5,-0.0134886251762509,-0.0203991644084454
151,-0.00863892026245594,-0.00599726429209113,-0.00675618695095181,-0.5,-0.0155457751825452,-0.021619513630867
152,-0.00977162830531597,-0.006678422447294,-0.00663360999897122,-0.5,-0.0170949641615152,-0.0220784954726696
153,-0.00905188079923391,-0.00627670250833035,-0.00549040548503399,-0.5,-0.0154950674623251,-0.0206520222127438
154,-0.00752631574869156,-0.00559023721143603,-0.00484332023188472,-0.5,-0.012262312695384,-0.0191557351499796
155,-0.00658721616491675,-0.00589144229888916,-0.00550010614097118,-0.5,-0.0095473462715745,-0.019409554079175
156,-0.00617683120071888,-0.00697143143042922,-0.00645752064883709,-0.5,-0.00797785632312298,-0.0207577105611563
157,-0.00501779932528734,-0.00783812534064054,-0.00669825356453657,-0.5,-0.0068983668461442,-0.0219387654215097
158,-0.00248082797043025,-0.00864143390208483,-0.00630873395130038,-0.5,-0.00524974800646305,-0.0236322339624166
159,0.000487722049001604,-0.00970213580876589,-0.00540433265268803,-0.5,-0.00252181896939874,-0.0260594449937344
160,0.00282591371797025,-0.0103338407352567,-0.0034293697681278,-0.5,0.00116977375000715,-0.027290228754282
161,0.0034691549371928,-0.010910764336586,-0.00112117431126535,-0.5,0.00444214185699821,-0.0265391245484352
162,0.00152766332030296,-0.0127032706514001,-0.000221821799641475,-0.5,0.00532268499955535,-0.0248271431773901
163,-0.00221034837886691,-0.0151416715234518,-0.00128034851513803,-0.5,0.0030117416754365,-0.0224474966526031
164,-0.00611346028745174,-0.0171257220208645,-0.00374864088371396,-0.5,-0.00145216903183609,-0.0203532390296459
165,-0.00878610461950302,-0.018107321113348,-0.00581304961815476,-0.5,-0.00497033772990108,-0.0204410254955292
166,-0.00922714080661535,-0.0172327402979136,-0.00532643031328917,-0.5,-0.00489927548915148,-0.0221417471766472
167,-0.00805886276066303,-0.0149520747363567,-0.00347071955911815,-0.226467922329903,-0.00255640223622322,-0.0237939488142729
168,-0.0066653317771852,-0.0125048449262977,-0.00310599501244724,0.0433855019509792,-0.000726583239156753,-0.0248628780245781
169,-0.005470035597682,-0.00962683279067278,-0.00323474570177495,0.181378275156021,-1.11656527224113E-05,-0.0240457020699978
170,-0.00469956081360579,-0.00602176832035184,-0.00112887192517519,0.17509500682354,-0.00031264396966435,-0.0203588120639324
171,-0.00451819971203804,-0.00314327538944781,0.00147671846207231,0.0675633400678635,-0.00210185395553708,-0.0162709187716246
172,-0.00478526530787349,-0.00290086329914629,0.000515665276907384,-0.0100822113454342,-0.0056977141648531,-0.0157851800322533
173,-0.00530889537185431,-0.00540534174069762,-0.00398289505392313,0.0546235255897045,-0.010061583481729,-0.0194907858967781
174,-0.00559972506016493,-0.00872054416686296,-0.00862741842865944,0.244269654154778,-0.012664545327425,-0.0242652092128992
175,-0.00459604617208242,-0.0105406157672405,-0.0109163094311953,0.465921461582184,-0.0113349510356784,-0.0269542876631022
176,-0.00235827150754631,-0.0107105979695916,-0.0111137283965945,0.5,-0.00748172728344798,-0.0272438153624535
177,-0.00113860098645091,-0.011562667787075,-0.0111762685701251,0.5,-0.00583669636398554,-0.0274994149804115
178,-0.00163491803687066,-0.013852521777153,-0.0116198901087046,0.5,-0.00789800472557545,-0.028632590547204
179,-0.0018823555437848,-0.0154461152851582,-0.0114250909537077,0.5,-0.0104311024770141,-0.0286650378257036
180,-0.000985705060884357,-0.0150519907474518,-0.00993591174483299,0.5,-0.0107880681753159,-0.0264660697430372
181,0.000615428492892534,-0.013597646728158,-0.00695122824981809,0.5,-0.00853793416172266,-0.0231835637241602
182,0.00208499399013817,-0.0126561280339956,-0.00381143181584775,0.5,-0.00534454640001059,-0.020361103117466
183,0.00244033266790211,-0.0129012940451503,-0.00287288799881935,0.5,-0.00362151488661766,-0.0184603035449982
184,0.00227086176164448,-0.0133801903575659,-0.00378225604072213,0.5,-0.00300519540905952,-0.0165987648069859
185,0.00295871333219111,-0.0128615740686655,-0.00465309992432594,0.5,-0.00172920210752636,-0.0142437759786844
186,0.0049030464142561,-0.0105878943577409,-0.0047284890897572,0.5,0.000523999624419957,-0.0114656761288643
187,0.00751090794801712,-0.0065212775953114,-0.0036697608884424,0.5,0.00316437846049666,-0.00835289992392063
188,0.0093090645968914,-0.00250364886596799,-0.00199339119717479,0.5,0.0056006801314652,-0.00676116207614541
189,0.0089238490909338,-0.000641924969386309,-0.000787722761742771,0.405917316675186,0.0083101550117135,-0.00839478708803654
190,0.00671126507222652,-0.000891003874130547,-0.000106045976281166,0.00272548547945917,0.0118783488869667,-0.0116495806723833
191,0.00442267674952745,-0.00162600842304528,0.000991489738225937,-0.408707350492477,0.0145953111350536,-0.0134012969210744
192,0.00313183222897351,-0.0016171655151993,0.00263643288053572,-0.5,0.0140594309195876,-0.0118259182199836
193,0.00243956781923771,-0.0012890292564407,0.00314415711909533,-0.5,0.00988196954131126,-0.00813168752938509
194,0.00181116734165698,-0.00143117958214134,0.00185554509516805,-0.5,0.00397117249667645,-0.00503565976396203
195,0.00154997361823916,-0.00144860916770995,0.000961032812483609,-0.5,-0.000712140579707921,-0.00321333971805871
196,0.00215914938598871,-0.000377381657017395,0.00224305456504226,-0.5,-0.00256793410517275,-0.00174194842111319
197,0.00324529618956149,0.00139388395473361,0.00463995756581426,-0.5,-0.00276005291379988,-0.000240946741541848
198,0.00397670920938253,0.00272929016500711,0.00633949646726251,-0.5,-0.00303316698409617,0.00108504784293473
199,0.00323834014125168,0.00240336870774627,0.00567446602508426,-0.5,-0.00400294736027718,0.000654664530884475
200,0.000324156309943646,-0.000425120524596423,0.00191262061707675,-0.5,-0.005434550344944,-0.00326427607797086
201,-0.00253719231113791,-0.00422174530103803,-0.00185848702676594,-0.48039898276329,-0.00527686765417457,-0.00906444899737835
202,-0.00265815784223378,-0.00641576200723648,-0.00176469259895384,-0.41435781121254,-0.00194484426174313,-0.0138954129070044
203,-0.000979879056103528,-0.00659698201343417,0.00185525882989168,-0.415647238492966,0.00287586566992104,-0.0169807262718678
204,0.000262437999481335,-0.0059442175552249,0.00577416969463229,-0.417363822460175,0.00771028222516179,-0.0186320748180151
205,0.00137238274328411,-0.00447805877774954,0.0085612814873457,-0.416822969913483,0.0127726625651121,-0.0178267303854227
206,0.00320815457962453,-0.00119851378258318,0.0119431726634502,-0.461745768785477,0.0165700539946556,-0.0129773942753673
207,0.00419946014881134,0.00335401389747858,0.0164490230381489,-0.5,0.0167177934199572,-0.00551661103963852
208,0.0032922625541687,0.00758460490033031,0.0190882459282875,-0.5,0.0130591113120317,0.00161912792827934
209,0.00229118205606937,0.010223732329905,0.0174352414906025,-0.5,0.00728151947259903,0.00723161362111568
210,0.0029297589790076,0.0102845449000597,0.0129268625751138,-0.411374032497406,0.00126314512453973,0.0107485121116042
211,0.00451072212308645,0.0077391630038619,0.00829255301505327,-0.21405403316021,-0.00387035147286952,0.0116559872403741
212,0.00520081259310246,0.00348821328952909,0.00351173221133649,0.0593304298818111,-0.00793330185115337,0.00963917281478643
213,0.0044292495585978,-0.000909172696992755,-0.00252860877662897,0.317517936229706,-0.010555312037468,0.0048471693880856
214,0.00290329405106604,-0.0035798093304038,-0.00791168492287397,0.459767192602158,-0.010878880508244,-0.000590319163165987
215,0.00146901537664235,-0.00386809301562607,-0.00923654064536095,0.480012476444244,-0.00936742406338453,-0.00342127634212375
216,0.00123950745910406,-0.00267279683612287,-0.00628981832414865,0.472103923559189,-0.00792699865996838,-0.00264992564916611
217,0.00282970163971186,-0.00122594833374023,-0.00188989238813519,0.5,-0.00762281147763133,-0.000350166519638151
218,0.00527215143665671,-0.000167887905263342,0.00166548322886229,0.5,-0.00789015088230371,0.00147027603816241
219,0.00669550616294146,0.000241598812863231,0.00316100125201046,0.5,-0.0078151524066925,0.0026083723641932
220,0.00647541508078575,0.000287627684883773,0.00232504704035819,0.5,-0.0070574670098722,0.00387684511952102
221,0.00606378307566047,0.000481076160212979,0.000618459773249924,0.5,-0.00549060245975852,0.00574243394657969
222,0.00682468991726637,0.000934656185563654,-0.000426340440753847,0.5,-0.00330035947263241,0.00796432700008154
223,0.00847448594868183,0.00153380294796079,-0.000933032599277794,0.5,-0.00166956835892051,0.010041544213891
224,0.00987630430608988,0.00178894237615168,-0.00159735989291221,0.5,-0.00170999148394912,0.011454600840807
225,0.010367994196713,0.00174010323826224,-0.00236446061171591,0.5,-0.00289110047742724,0.0122469998896122
226,0.00988089013844728,0.00177317764610052,-0.00263612461276352,0.5,-0.00364575372077525,0.0118555268272758
227,0.00873412285000086,0.0017034379998222,-0.00180579198058695,0.5,-0.00309323216788471,0.0093099307268858
228,0.00722561683505774,0.000959703582338989,-0.000168495622347109,0.5,-0.00211338419467211,0.00504357274621725
229,0.00549749471247196,-0.000739102892111987,0.00102531106676906,0.5,-0.00235973042435944,0.000883982982486486
230,0.004383341409266,-0.00265254639089108,0.0012497438583523,0.5,-0.00410065799951553,-0.00153594475705177
231,0.00450087198987603,-0.0039374134503305,0.00103065860457718,0.5,-0.00648807408288121,-0.00285762175917625
232,0.00568875623866916,-0.00407086312770844,0.00145743123721331,0.5,-0.00825743842869997,-0.00393123179674149
233,0.00753274979069829,-0.00276500754989684,0.00347114005126059,0.5,-0.00815487001091242,-0.00366753106936812
234,0.00851791258901358,-0.000854644225910306,0.00591881340369582,0.5,-0.00660782773047686,-0.00170861661899835
235,0.00758594274520874,0.000486020260723308,0.00686002848669887,0.5,-0.00410992931574583,0.000446322286734357
236,0.00564425624907017,0.000764774740673602,0.00637086760252714,0.5,5.29667013324797E-05,0.000880164443515241
237,0.00392172392457724,0.000285949266981333,0.00563223985955119,0.5,0.00480137625709176,-0.000575222948100418
238,0.00326587888412178,7.11366592440754E-05,0.00526010477915406,0.5,0.00737243145704269,-0.00202685035765171
239,0.00390267092734575,0.000594852375797927,0.00513772526755929,0.5,0.00751942023634911,-0.00193788122851402
240,0.00561818340793252,0.00161574280355126,0.00531766237691045,0.5,0.00771235721185803,0.000331378221744671
241,0.00759817007929087,0.00218256656080484,0.00540789356455207,0.5,0.00810855627059937,0.00361438398249447
242,0.00891956966370344,0.00155714096035808,0.00487215723842382,0.5,0.00712252780795097,0.00603992398828268
243,0.00985284429043531,0.000767594377975911,0.00496550742536783,0.5,0.00568500813096762,0.00762039283290505
244,0.0101313665509224,0.000492625229526311,0.00667182775214314,0.5,0.00494398362934589,0.00853591039776802
245,0.00830293726176023,-0.000494981533847749,0.0082057137042284,0.5,0.00337721407413483,0.00762217631563544
246,0.00489605683833361,-0.00296332524158061,0.00719495303928852,0.5,-0.000252645433647558,0.00415044790133834
247,0.0030779221560806,-0.00562772992998362,0.00377805391326547,0.5,-0.00423936126753688,-0.000255250139161944
248,0.00416943756863475,-0.00714697735384107,-0.000410897482652217,0.5,-0.00695676077157259,-0.00353484973311424
249,0.00583591172471642,-0.0074405949562788,-0.00432377122342587,0.5,-0.00898133870214224,-0.00560144195333123
250,0.0053626848384738,-0.00684386771172285,-0.00771561544388533,0.5,-0.0108283422887325,-0.00731927249580622
251,0.00243384763598442,-0.00613449048250914,-0.0102639021351933,0.5,-0.0117672830820084,-0.00895001087337732
252,-0.000901944469660521,-0.00628509372472763,-0.0110514974221587,0.5,-0.0107470601797104,-0.00986094400286675
253,-0.00278174411505461,-0.00706225819885731,-0.0103579517453909,0.5,-0.00789465475827456,-0.00938321277499199
254,-0.00362427136860788,-0.00782694574445486,-0.00975982379168272,0.5,-0.00580076547339559,-0.00821766909211874
255,-0.00442303717136383,-0.00835008174180985,-0.00977012980729342,0.5,-0.00713110901415348,-0.00729287974536419
256,-0.00488726841285825,-0.00836246274411678,-0.0101928394287825,0.5,-0.011252130381763,-0.00671273889020085
257,-0.00449609523639083,-0.00806301739066839,-0.0107939131557941,0.5,-0.0142257707193494,-0.00671868398785591
258,-0.0029110605828464,-0.00725337071344256,-0.0103838322684169,0.5,-0.012139986269176,-0.00656830379739404
259,-0.000728869519662112,-0.00586461229249835,-0.00853492226451635,0.5,-0.00697385286912322,-0.00546509027481079
260,0.000216759362956509,-0.00505783222615719,-0.00606607925146818,0.5,-0.00478588277474046,-0.00391295831650496
261,-0.000805388961452991,-0.0050656171515584,-0.00272220536135137,0.5,-0.00713088130578399,-0.00152558146510273
262,-0.0026228679344058,-0.00499789044260979,0.00101404637098312,0.5,-0.0110897142440081,0.00162049965001643
263,-0.00335850124247372,-0.00466075586155057,0.00274169002659619,0.5,-0.0148451561108232,0.00327888573519886
264,-0.0021303272806108,-0.00459173414856195,0.00136040337383747,0.5,-0.0182314924895763,0.00193499017041177
265,-0.000259114342043176,-0.00547788478434086,-0.00217360816895962,0.5,-0.0214805211871862,-0.00150864559691399
266,0.000583659915719181,-0.00716490484774113,-0.0060526430606842,0.5,-0.0246743690222502,-0.00466025806963444
267,0.00036329182330519,-0.00808903574943542,-0.00881426781415939,0.5,-0.0267042275518179,-0.00463392958045006
268,-0.000153131637489423,-0.0068239844404161,-0.0102450577542186,0.5,-0.0263298265635967,7.08136794855818E-05
269,-0.000129920066683553,-0.00345489336177707,-0.0104467310011387,0.5,-0.0239427294582129,0.00765600195154548
270,0.000449636077973992,0.000375993986381218,-0.0097658634185791,0.5,-0.0213760528713465,0.0140360798686743
271,0.000534509541466832,0.00252463389188051,-0.008870012126863,0.5,-0.0199431460350752,0.0163899771869183
272,0.00016110367141664,0.00240568211302161,-0.00758662074804306,0.5,-0.0187760628759861,0.0155979935079813
273,-3.54472358594649E-05,0.000593296834267676,-0.00588646158576012,0.5,-0.0170028954744339,0.013688649982214
274,0.000132898247102275,-0.00167230318766087,-0.0042806570418179,0.5,-0.0149572119116783,0.0119530484080315
275,0.000763197836931795,-0.00285392184741795,-0.00294791301712394,0.5,-0.0129654444754124,0.011155772022903
276,0.00108148634899408,-0.00338597130030394,-0.00221984530799091,0.5,-0.0115721048787236,0.0102163525298238
277,0.000231333760893904,-0.00445303041487932,-0.00245196442119777,0.5,-0.0110509777441621,0.00860929768532515
278,-0.00124333892017603,-0.00552632752805948,-0.0033110068179667,0.404504537582397,-0.0102312378585339,0.00826018117368221
279,-0.00233994168229401,-0.00609347643330693,-0.00401150435209274,-0.00620835507288575,-0.00814846344292164,0.00923727173358202
280,-0.0030296053737402,-0.00703532760962844,-0.00433708028867841,-0.317560911178589,-0.0065335207618773,0.00862359348684549
281,-0.00344108277931809,-0.00843359529972076,-0.00427533034235239,-0.435985088348389,-0.006444136146456,0.00564004899933934
282,-0.00396821275353432,-0.00965301319956779,-0.00361487828195095,-0.335528343915939,-0.00657928874716163,0.00214743241667748
283,-0.00489585567265749,-0.0104986391961575,-0.00279223034158349,-0.0727623850107193,-0.00688592111691833,-0.000514986517373472
284,-0.00555884744971991,-0.0106955654919147,-0.00284246308729053,0.247863456606865,-0.00812762416899204,-0.00160179799422622
285,-0.00539871491491795,-0.0102502563968301,-0.00318686268292367,0.5,-0.00940995570272207,-0.00108402967453003
286,-0.00438288133591414,-0.00954301189631224,-0.00253820512443781,0.5,-0.00956928078085184,-0.000215684995055199
287,-0.00281206588260829,-0.00850176997482777,-0.00198634644038975,0.5,-0.00870649237185717,0.000372394861187786
288,-0.000832550751511008,-0.00668071676045656,-0.00179768237285316,0.5,-0.00700486591085792,0.00158514978829771
289,0.0013910117559135,-0.00445325020700693,-0.000552850251551718,0.5,-0.00502718798816204,0.00334866088815033
290,0.00353405042551458,-0.0024704069364816,0.00125960458535701,0.5,-0.00366267468780279,0.00467674154788256
291,0.00542603526264429,-0.000929952249862254,0.00251292739994824,0.389342248439789,-0.00274052703753114,0.00565871177241206
292,0.00657510757446289,-0.000425306585384533,0.00247240369208157,0.279840499162674,-0.00222234195098281,0.00580679485574365
293,0.00640001520514488,-0.00113293982576579,0.000515469582751393,0.240136429667473,-0.00257398025132716,0.00400041695684195
294,0.00522166443988681,-0.0021776941139251,-0.00269958795979619,0.261734455823898,-0.00373331550508738,0.000889253453351557
295,0.00392664177343249,-0.00314138014800847,-0.00588794331997633,0.323747932910919,-0.00554354069754481,-0.00204294128343463
296,0.00312469131313264,-0.00376476673409343,-0.00755651155486703,0.388732641935349,-0.00697083491832018,-0.00352844735607505
297,0.00292592216283083,-0.00344325392507017,-0.00671423180028796,0.401665925979614,-0.00614547310397029,-0.00296508753672242
298,0.00233561336062849,-0.00306952302344143,-0.00488816294819117,0.363811016082764,-0.00354137225076556,-0.00128117017447948
299,0.000749171711504459,-0.00400700094178319,-0.00401467550545931,0.357069402933121,-0.00108177145011723,0.000362763879820704
300,-0.000548372627235949,-0.005699104629457,-0.00362885883077979,0.433868736028671,0.00105282629374415,0.00161986122839153
301,-0.000718641909770668,-0.0070251771248877,-0.00265307957306504,0.5,0.00303393788635731,0.00307677173987031
302,-0.000218959350604564,-0.00739604979753494,-0.000885797489900142,0.5,0.00465927086770535,0.00568666402250528
303,9.04027037904598E-05,-0.00659317523241043,0.00139032979495823,0.45737287402153,0.00564373750239611,0.00889089237898588
304,-0.000556349754333496,-0.00535021210089326,0.00361444358713925,0.260608464479446,0.00509204436093569,0.0110711380839348
305,-0.00170930626336485,-0.00446959352120757,0.00526353670284152,-0.00961233861744404,0.00343944318592548,0.0118060223758221
306,-0.00184064079076052,-0.00367861264385283,0.00600200379267335,-0.35065421462059,0.0028326774481684,0.0118562802672386
307,-0.000677564472425729,-0.00282645574770868,0.00562820490449667,-0.5,0.00325079937465489,0.0116190630942583
308,-0.000137524999445304,-0.00237386603839695,0.00419762078672647,-0.5,0.0022945033852011,0.0108572440221906
309,-0.00125011219643056,-0.0019353466341272,0.00217702612280846,-0.5,-0.000283080502413213,0.00974769797176123
310,-0.00270226667635143,-0.000534054706804454,0.000178696602233686,-0.5,-0.00178603816311806,0.00943968817591667
311,-0.00340533419512212,0.00159094273112714,-0.0014474387280643,-0.5,-0.000389789143810049,0.0101671498268843
312,-0.00305481743998826,0.0035962644033134,-0.00183917721733451,-0.5,0.00275759026408196,0.0107147404924035
313,-0.00130934664048254,0.00552700366824865,-3.44131112797186E-05,-0.5,0.0054549970664084,0.0115311499685049
314,-0.000472078536404297,0.00623613223433495,0.00148740690201521,-0.5,0.00483222538605332,0.013284245505929
315,-0.00385470711626112,0.00409724842756987,-0.000904935819562525,-0.5,-0.0014817287446931,0.0149878486990929
316,-0.00960264261811972,0.00128053314983845,-0.00508438004180789,-0.5,-0.0106267863884568,0.0169842131435871
317,-0.0138361938297749,0.000950802059378475,-0.00669492967426777,-0.5,-0.0170443616807461,0.0196307990700006
318,-0.0154156861826777,0.00307632237672806,-0.00510861398652196,-0.5,-0.0182272084057331,0.0214009471237659
319,-0.0140831312164664,0.0061529572121799,-0.00143369333818555,-0.5,-0.0145357819274068,0.0212438963353634
320,-0.0101049710065126,0.00933628715574741,0.00280485185794532,-0.5,-0.00892459042370319,0.0203420855104923
321,-0.00535620236769319,0.0119157647714019,0.00504463957622647,-0.5,-0.00599917583167553,0.0207325406372547
322,-0.00199273554608226,0.0129022942855954,0.00373040209524333,-0.5,-0.00750343268737197,0.0223435144871473
323,-0.00058162328787148,0.0120124947279692,0.000260310800513253,-0.5,-0.010981222614646,0.0233088955283165
324,-0.00101473496761173,0.00936325825750828,-0.00368717103265226,-0.5,-0.0136736016720533,0.0220491830259562
325,-0.00291077769361436,0.0054466393776238,-0.00805556401610374,-0.5,-0.0149925695732236,0.0181563477963209
326,-0.00474906899034977,0.00175558065529913,-0.0119886798784137,-0.5,-0.015646742656827,0.0128004066646099
327,-0.00576890632510185,-0.000592163065448403,-0.0140989329665899,-0.5,-0.0164390783756971,0.0075315935537219
328,-0.00668564811348915,-0.00150926492642611,-0.0144793791696429,-0.5,-0.0179566349834204,0.00335189234465361
329,-0.00780293252319098,-0.00117965845856816,-0.0134672652930021,-0.5,-0.0199823789298534,0.00142285518813878
330,-0.00892588775604963,4.62066382169724E-05,-0.0108547583222389,-0.5,-0.0212317761033773,0.00260387780144811
331,-0.00984145235270262,0.00173322448972613,-0.00703810900449753,-0.399280667304993,-0.0204581711441278,0.0060081840492785
332,-0.0103560527786613,0.00318097183480859,-0.00342631223611534,-0.231506496667862,-0.0176225006580353,0.00928993243724108
333,-0.00990224163979292,0.00453969836235046,-0.000762099982239306,-0.183983936905861,-0.0132472664117813,0.0116151170805097
334,-0.0071927928365767,0.00708435755223036,0.00165934185497463,-0.291487127542496,-0.00750978197902441,0.0141681218519807
335,-0.00199658563360572,0.0105984965339303,0.00431517418473959,-0.5,-0.000581848958972842,0.0173332504928112
336,0.00327775604091585,0.0129605894908309,0.00615036394447088,-0.5,0.00648482982069254,0.0195359904319048
337,0.00532948970794678,0.012101567350328,0.00502360844984651,-0.5,0.0108073046430945,0.0182651467621326
338,0.00415277201682329,0.00838689599186182,0.0012690294533968,-0.5,0.0108020948246121,0.0134013742208481
339,0.00287674926221371,0.00460383994504809,-0.00168205425143242,-0.5,0.0091148754581809,0.0078184911981225
340,0.00284961750730872,0.00233817240223289,-0.00202682171948254,-0.5,0.00853796675801277,0.00346944434568286
341,0.00289189582690597,0.000922129256650805,-0.000803444359917194,-0.5,0.0085260858759284,0.000275214202702045
342,0.00221714866347611,-0.000539382686838508,0.000384171173209324,-0.5,0.00807179138064384,-0.00214859051629901
343,0.000668730761390179,-0.00260573346167803,-7.37382606530446E-06,-0.5,0.00754624605178833,-0.00389367598108947
344,-0.00144710822496563,-0.00475418940186501,-0.00226500374265015,-0.5,0.00692869303748012,-0.00440865289419889
345,-0.00250335107557476,-0.00509825441986322,-0.0042616194114089,-0.5,0.00575269106775522,-0.00276731560006738
346,-0.00182276987470686,-0.00343080027960241,-0.00446315528824925,-0.5,0.00366868311539292,0.000283585424767807
347,-0.000786908902227879,-0.00171397358644754,-0.00377036118879914,-0.5,0.000750134757254273,0.00240800529718399
348,-6.5481748606544E-05,-0.000840883702039719,-0.00292344181798398,-0.5,-0.00185444066300988,0.00220661936327815
349,0.000882668711710721,-3.55480551661458E-05,-0.00162034877575934,-0.5,-0.00251329340972006,0.000307483889628202
350,0.00179705617483705,0.000743337906897068,-8.03579969215207E-05,-0.5,-0.00120558915659785,-0.00187676958739758
351,0.00210143509320915,0.00042797886999324,0.000923495623283088,-0.5,-0.000426853104727343,-0.00387730170041323
352,0.00243933964520693,-0.00103729346301407,0.000705026963260025,-0.5,-0.00234616547822952,-0.00596340419724584
353,0.00284399837255478,-0.00240601552650332,-0.00101117859594524,-0.5,-0.00670502800494432,-0.00772625580430031
354,0.00213153893128037,-0.00222863745875657,-0.00359793961979449,-0.5,-0.0118444161489606,-0.00811270158737898
355,0.000193176121683791,-0.00034310930641368,-0.00591624481603503,-0.5,-0.0157245006412268,-0.0067501924932003
356,-0.00201219203881919,0.00178694957867265,-0.00729032559320331,-0.5,-0.0170524343848228,-0.00441562756896019
357,-0.00405948190018535,0.00280956574715674,-0.00764558603987098,-0.5,-0.0161825325340033,-0.00265800720080733
358,-0.0059158643707633,0.00254303100518882,-0.00617743982002139,-0.5,-0.014252201654017,-0.00260201771743596
359,-0.00675153825432062,0.00218275329098105,-0.00196851976215839,-0.5,-0.0114479130133986,-0.00342933437786996
360,-0.00591379962861538,0.00274611893109977,0.0026094364002347,-0.5,-0.00816855393350124,-0.00379460910335183
361,-0.00494162552058697,0.00296078831888735,0.0029782741330564,-0.5,-0.00718339812010527,-0.00501428777351975
362,-0.00562663376331329,0.00182641413994133,-0.00179098267108202,-0.5,-0.00987883005291224,-0.00813502166420221
363,-0.0066509610041976,0.00104498863220215,-0.00800811871886253,-0.133155092597008,-0.0133959436789155,-0.0102220280095935
364,-0.00573689956218004,0.00190185301471502,-0.0117252767086029,0.122091703116894,-0.0143211232498288,-0.00895338132977486
365,-0.00277441716752946,0.00399685185402632,-0.0112610245123506,0.196428999304771,-0.0109719606116414,-0.00518831517547369
366,0.000827784824650735,0.00695367064327002,-0.0078692976385355,0.0487363189458847,-0.00362802017480135,-1.0064048183267E-05
367,0.00322675635106862,0.00995361804962158,-0.00453207781538367,-0.275471955537796,0.00392956286668777,0.00512848747894168
368,0.00313099636696279,0.011462889611721,-0.00267098285257816,-0.5,0.00615006918087602,0.00756835658103228
369,0.000998962786979973,0.0110730929300189,-0.00157408392988145,-0.5,0.00257612788118422,0.00645969761535525
370,-0.00163299299310893,0.00963804498314857,-0.00138091784901917,-0.5,-0.00116969714872539,0.00319402408786118
371,-0.00371728558093309,0.00786538515239954,-0.0031105182133615,-0.5,-0.00135257409419864,-0.000824666116386652
372,-0.00474091479554772,0.00678976019844413,-0.00514423241838813,-0.5,0.000462385913124308,-0.00358532601967454
373,-0.00420661456882954,0.00753701291978359,-0.00411325506865978,-0.5,0.00226217298768461,-0.00358204985968769
374,-0.00262709287926555,0.00916681345552206,-0.000383811275241897,-0.5,0.00341015751473606,-0.00231603602878749
375,-0.00196420401334763,0.00924034509807825,0.00159189791884273,-0.5,0.000976554700173438,-0.00237241690047085
376,-0.00287412572652102,0.00722066918388009,-0.00073499052086845,-0.5,-0.00794399715960026,-0.00436765933409333
377,-0.00454558990895748,0.00445625139400363,-0.00641060853376985,-0.5,-0.0214883033186197,-0.00767282163724303
378,-0.00610103132203221,0.00218378123827279,-0.0129113039001822,-0.5,-0.0346465781331062,-0.0111576057970524
379,-0.0066193463280797,0.00106800918001682,-0.0173555240035057,-0.347392857074738,-0.0429814159870148,-0.0129747604951262
380,-0.0056384215131402,0.00132672174368054,-0.0179948005825281,-0.250927060842514,-0.0443800501525402,-0.011963764205575
381,-0.00341622019186616,0.00228356942534447,-0.0154882352799177,-0.23918229341507,-0.0402421653270721,-0.00947128236293793
382,-0.0015359140234068,0.00213484023697674,-0.0126455696299672,-0.296528458595276,-0.0351148396730423,-0.00829196069389582
383,-0.00128911947831512,0.000501391186844558,-0.0113234668970108,-0.372075408697128,-0.0323764979839325,-0.00853951461613178
384,-0.00194387487135828,-0.001063481438905,-0.0110413376241922,-0.414406806230545,-0.0311911888420582,-0.0084017300978303
385,-0.00209440873004496,-0.00141548784449697,-0.0104478215798736,-0.418178081512451,-0.0286400262266397,-0.0075429230928421
386,-0.00143857218790799,-0.000577098573558033,-0.0088395019993186,-0.425714075565338,-0.0241084359586239,-0.00606888066977263
387,-0.000473496940685436,0.000463973876321688,-0.00645882869139314,-0.462013512849808,-0.0189751442521811,-0.00393227627500892
388,0.000611693947575986,0.000493534782435745,-0.00444376049563289,-0.488102793693542,-0.0141836507245898,-0.00190277281217277
389,0.001610669773072,-0.000457351648947224,-0.0042988839559257,-0.455524414777756,-0.0110486783087254,-0.000690178538206965
390,0.00224165571853518,-0.000995541689917445,-0.00590831460431218,-0.377354025840759,-0.0106947887688875,6.4885345636867E-05
391,0.00287942565046251,-0.000381322024622932,-0.00771427201107144,-0.283340066671371,-0.0122031196951866,0.000727666483726352
392,0.00404561683535576,0.000499795423820615,-0.00883704144507647,-0.171755611896515,-0.013415465131402,0.000403713958803564
393,0.00510032149031758,0.000914584670681506,-0.00859960075467825,-0.053996853530407,-0.0130247250199318,-0.000768311612773687
394,0.0048932870849967,0.00124215008690953,-0.00573648791760206,0.0341941118240356,-0.0108964191749692,-0.000957926735281944
395,0.00342514016665518,0.00151674344670027,-0.000651282432954758,0.112215235829353,-0.00761601561680436,-0.000236075095017441
396,0.00123869837261736,0.00109700800385326,0.00323691940866411,0.259670794010162,-0.00441932259127498,2.07636639970588E-05
397,-0.00121231214143336,-3.8478374335682E-05,0.0029024442192167,0.497549742460251,-0.00204997905530036,4.86042563352385E-06
398,-0.00233805296011269,-0.000704230915289372,-0.000258075771853328,0.5,-0.000199999049073085,0.000878732476849109
399,-0.00143937743268907,-0.000235252620768733,-0.00355186057277024,0.5,0.000517512671649456,0.0022282786667347
400,-0.000958140939474106,-0.000164353928994387,-0.00753357773646712,0.5,-0.00159067881759256,0.00125641701743007
401,-0.00226421211846173,-0.00170253124088049,-0.0126788811758161,0.5,-0.00656421948224306,-0.00330017926171422
402,-0.0033913622610271,-0.00338676967658103,-0.0164458099752665,0.5,-0.0114604290574789,-0.00877603609114885
403,-0.00261835777200758,-0.00323910405859351,-0.0165303163230419,0.5,-0.0121177583932877,-0.0121905887499452
404,-0.000705940241459757,-0.000887808972038329,-0.0130839329212904,0.5,-0.00796291138976812,-0.0127228880301118
405,0.000585381407290697,0.00280221411958337,-0.00791954435408115,0.5,-0.00353426323272288,-0.0107380021363497
406,0.000468482467113063,0.00610482972115278,-0.0041601131670177,0.5,-0.00361685454845428,-0.00788977928459644
407,-0.000159309376613237,0.00808038655668497,-0.00400136830285192,0.5,-0.00808861665427685,-0.00614984659478068
408,0.00036979909054935,0.00966145750135183,-0.00631301570683718,0.5,-0.012633397243917,-0.00528190517798066
409,0.00163326784968376,0.0109133841469884,-0.00892674457281828,0.5,-0.0143942274153233,-0.00445822020992637
410,0.00243074330501258,0.011281106621027,-0.0105173662304878,0.5,-0.0132230846211314,-0.00331771769560874
411,0.00289540155790746,0.0108698159456253,-0.0112611558288336,0.5,-0.0101726595312357,-0.00158928101882339
412,0.00283498852513731,0.0093581909313798,-0.0124268159270287,0.142575398087502,-0.00712854880839586,-0.000423035176936537
413,0.00204936438240111,0.00715221930295229,-0.0138017265126109,-0.170860081911087,-0.0048255929723382,-0.000687950407154858
414,0.000927556829992682,0.00522865960374475,-0.0141510386019945,-0.400955617427826,-0.00287744589149952,-0.00215047411620617
415,0.000186653327546082,0.00375851360149682,-0.0127382278442383,-0.5,-0.00134855997748673,-0.00460460362955928
416,0.000457037036539987,0.00274149724282324,-0.0103059401735663,-0.5,-0.000822065107058734,-0.00713765388354659
417,0.00107668619602919,0.00198167446069419,-0.00945333484560251,-0.468298107385635,-0.00176853023003787,-0.00896613951772451
418,0.000695962575264275,0.000889464223291725,-0.0113253612071276,-0.371489524841309,-0.00410412903875113,-0.0107919909060001
419,-0.000507213291712105,3.66341482731514E-05,-0.0137910023331642,-0.283267229795456,-0.00757920928299427,-0.0126256868243217
420,-0.000731977226678282,0.000808860990218818,-0.0144530655816197,-0.215060219168663,-0.0120363933965564,-0.0126890083774924
421,0.00025471523986198,0.00243158894591033,-0.0139874676242471,-0.165046662092209,-0.0169902089983225,-0.0109138740226626
422,0.000145179728860967,0.00256845564581454,-0.0154836801812053,-0.175498500466347,-0.0222327224910259,-0.0104109421372414
423,-0.00202817120589316,0.00133372726850212,-0.0192425139248371,-0.285451650619507,-0.027897646650672,-0.0130930850282311
424,-0.00425263773649931,0.000986846978776157,-0.0219681952148676,-0.438850581645966,-0.0327178351581097,-0.0168421007692814
425,-0.00474777771160007,0.00220469431951642,-0.0224298443645239,-0.5,-0.0347222164273262,-0.0192219223827124
426,-0.00357060530222952,0.00405814684927464,-0.0220581796020269,-0.5,-0.0332504063844681,-0.0201642271131277
427,-0.00160836626309901,0.00576853705570102,-0.0214104130864143,-0.5,-0.029464278370142,-0.0204635243862867
428,5.64721631235443E-05,0.00665521249175072,-0.0199343413114548,-0.5,-0.0254776757210493,-0.0208787377923727
429,0.000805389485321939,0.00616567907854915,-0.0180038865655661,-0.5,-0.0232643578201532,-0.0216918904334307
430,0.00140155700501055,0.00507707986980677,-0.0171858035027981,-0.5,-0.023495189845562,-0.0213114321231842
431,0.00276327878236771,0.00465300818905234,-0.0180030763149261,-0.5,-0.0248471964150667,-0.0181467402726412
432,0.00426879851147532,0.00500530889257789,-0.0192789845168591,-0.5,-0.025802168995142,-0.0136110633611679
433,0.00564359687268734,0.0064093004912138,-0.0196810998022556,-0.5,-0.0253418292850256,-0.00962629541754723
434,0.00682396860793233,0.00855629984289408,-0.0198823101818562,-0.5,-0.0237987469881773,-0.00767948385328054
435,0.00666673481464386,0.00960093084722757,-0.021668815985322,-0.5,-0.0236793626099825,-0.00955725833773613
436,0.00534422555938363,0.00894004944711924,-0.0246228538453579,-0.5,-0.0263638813048601,-0.0146455932408571
437,0.00397097412496805,0.0077059050090611,-0.0277308113873005,-0.5,-0.0307648573070765,-0.0203466266393662
438,0.0027754392940551,0.00693112751469016,-0.0311888717114925,-0.5,-0.0352481305599213,-0.0254448223859072
439,0.00191912869922817,0.00664391089230776,-0.0342592038214207,-0.5,-0.0381455570459366,-0.0311225894838572
440,0.00151794508565217,0.0062825083732605,-0.0363366343080997,-0.5,-0.0389795899391174,-0.038287527859211
441,0.00162495370022953,0.00594042520970106,-0.0383816324174404,-0.297202348709106,-0.0393629185855389,-0.0452689230442047
442,0.002129988046363,0.00598436966538429,-0.0413584895431995,-0.00474777212366462,-0.041423037648201,-0.0497472360730171
443,0.00232508988119662,0.00637878756970167,-0.0455614551901817,0.220196276903152,-0.0461524464190006,-0.0507833696901798
444,0.00184678065124899,0.0068507962860167,-0.0507567673921585,0.297244817018509,-0.0528329201042652,-0.0495950356125832
445,0.00110946467611939,0.00696511752903461,-0.056196715682745,0.216036602854729,-0.0597837194800377,-0.0487598329782486
446,0.000937901553697884,0.00668906792998314,-0.0605546943843365,0.0350347682833672,-0.0650701299309731,-0.0494786761701107
447,0.00202080048620701,0.00648549199104309,-0.0627442672848701,-0.182928040623665,-0.0677963718771935,-0.05135253444314
448,0.00431622145697474,0.00671561667695642,-0.062852643430233,-0.38270378112793,-0.0688584744930267,-0.0537629388272762
449,0.00599415507167578,0.00647409353405237,-0.0631265714764595,-0.466476589441299,-0.0700706467032433,-0.0567927174270153
450,0.00506599619984627,0.0047860941849649,-0.0661818310618401,-0.338535994291306,-0.0721156001091003,-0.0605331547558308
451,0.00262268981896341,0.00264515494927764,-0.0712449252605438,-0.0180621594190598,-0.0734096169471741,-0.0639446228742599
452,0.000862469663843513,0.00132076616864651,-0.0758298859000206,0.388431251049042,-0.0728543326258659,-0.0663638338446617
453,-0.000125053600640967,0.000727662001736462,-0.0790419057011604,0.5,-0.0714862793684006,-0.0682804957032204
454,-0.00108237867243588,0.000737744616344571,-0.0808854699134827,0.5,-0.0704080164432526,-0.0695318952202797
455,-0.00150513451080769,0.00194796826690435,-0.0811983048915863,0.5,-0.0693036392331123,-0.0691387802362442
456,-0.000525314069818705,0.00414498616009951,-0.079580545425415,0.5,-0.0673086270689964,-0.0671680495142937
457,0.000682566373143345,0.00562441069632769,-0.0763565450906754,0.5,-0.0650990009307861,-0.0651359930634499
458,0.000180316041223705,0.00540257012471557,-0.0730333179235458,0.5,-0.0644878596067429,-0.0636046454310417
459,-0.00109589623752981,0.00516902655363083,-0.0703775733709335,0.5,-0.0654686093330383,-0.0604121536016464
460,-0.00157871120609343,0.00632220506668091,-0.0690546631813049,0.5,-0.0671788603067398,-0.0553105026483536
461,-0.00177798431832343,0.00794565584510565,-0.0702349469065666,0.5,-0.0692294612526894,-0.0517723262310028
462,-0.00164767471142113,0.00978142395615578,-0.0731701776385307,0.5,-0.070481464266777,-0.0506577156484127
463,-0.0011989725753665,0.0116887995973229,-0.076471745967865,0.5,-0.0714684799313545,-0.0503390058875084
464,-0.00261559244245291,0.0116087589412928,-0.0806281715631485,0.5,-0.0746748521924019,-0.051760870963335
465,-0.00634825229644775,0.00898854807019234,-0.0856548249721527,0.5,-0.0785050764679909,-0.0561179220676422
466,-0.00990339368581772,0.00591023825109005,-0.0898348838090897,0.5,-0.0782053396105766,-0.0619433484971523
467,-0.0112248295918107,0.00410275254398584,-0.0915711596608162,0.5,-0.0734984874725342,-0.0665471106767654
468,-0.0099512068554759,0.00406547216698527,-0.0902543738484383,0.5,-0.0685200393199921,-0.0679191723465919
469,-0.00750003242865205,0.00532176624983549,-0.0865854620933533,0.5,-0.0669981241226196,-0.0664913281798363
470,-0.00545852119103074,0.00733497040346265,-0.0820005610585213,0.5,-0.0702052265405655,-0.0643191188573837
471,-0.00409337552264333,0.00971745699644089,-0.0781367793679237,0.5,-0.0765036940574646,-0.0628248751163483
472,-0.00302725564688444,0.0115098329260945,-0.0765813663601875,0.5,-0.0829697251319885,-0.062337227165699
473,-0.00177555601112545,0.012550232000649,-0.0770497247576714,0.5,-0.0875122025609016,-0.0616308376193047
474,-0.00050404918147251,0.0138057647272944,-0.0775403082370758,0.5,-0.0896050035953522,-0.0586764849722385
475,0.00025935738813132,0.0157575625926256,-0.0769715383648872,0.5,-0.0896322876214981,-0.0535991787910461
476,0.000311118928948417,0.0172207150608301,-0.0762247368693352,0.5,-0.0880523547530174,-0.0492159388959408
477,-0.000133992100018077,0.0166896339505911,-0.0764295607805252,0.5,-0.0855150371789932,-0.0477359779179096
478,0.000517414708156139,0.0147313419729471,-0.0767215713858604,0.5,-0.0819364115595818,-0.0484585985541344
479,0.00299849128350616,0.0125028882175684,-0.0758209452033043,0.5,-0.0775110125541687,-0.0497866496443748
480,0.0054954756051302,0.0103675909340382,-0.0741632729768753,0.5,-0.0737592652440071,-0.0510541312396526
481,0.00667949253693223,0.00880225002765656,-0.0724369511008263,0.5,-0.0708571225404739,-0.0519241467118263
482,0.00646803574636579,0.00827327836304903,-0.0708719864487648,0.5,-0.068190336227417,-0.0521465241909027
483,0.00471227988600731,0.00850723776966333,-0.0696064904332161,0.5,-0.0664709210395813,-0.0516974702477455
484,0.00198428798466921,0.00905986223369837,-0.0675853416323662,0.5,-0.0655005499720573,-0.0501628071069717
485,-0.000867571216076612,0.00970116350799799,-0.0640445873141289,0.5,-0.0638343170285225,-0.0474702343344688
486,-0.00390443275682628,0.00978742819279432,-0.0604634471237659,0.5,-0.0611697062849998,-0.0448216274380684
487,-0.00688256276771426,0.00906419288367033,-0.0578038319945335,0.5,-0.0579337105154991,-0.0428624227643013
488,-0.00896657537668943,0.0082512516528368,-0.0554669871926308,0.5,-0.0545166432857513,-0.0409885831177235
489,-0.00977129954844713,0.00807706639170647,-0.0534354969859123,0.5,-0.0516630373895168,-0.0386215150356293
490,-0.00916546490043402,0.00887223891913891,-0.0517082400619984,0.5,-0.049580380320549,-0.0355139374732971
491,-0.00698411883786321,0.0102715399116278,-0.049462866038084,0.5,-0.0467171035706997,-0.0322257205843925
492,-0.00377787975594401,0.0110299289226532,-0.0464566685259342,0.5,-0.0417791716754436,-0.0298647154122591
493,-0.00118038151413202,0.0100838243961334,-0.0436889789998531,0.5,-0.036565400660038,-0.0282582007348537
494,-0.000312844407744706,0.00785461999475956,-0.0418313927948475,0.5,-0.0336312800645828,-0.0257349368184805
495,-0.000790602818597108,0.00567686557769775,-0.0405068248510361,0.5,-0.0333395600318909,-0.021536948159337
496,-0.00189612677786499,0.00437113456428051,-0.0393182970583439,0.314421534538269,-0.0347269810736179,-0.0168997291475534
497,-0.00303636188618839,0.00436636619269848,-0.0377845093607903,0.0517831705510616,-0.0364131107926369,-0.0127280373126268
498,-0.00406165095046163,0.00497625349089503,-0.0357204601168633,-0.152335360646248,-0.0376916900277138,-0.00929161999374628
499,-0.00505477143451571,0.00489832274615765,-0.0330879129469395,-0.264236688613892,-0.0383559614419937,-0.00670437095686793
500,-0.00551411136984825,0.00450122682377696,-0.0294405054301023,-0.298226177692413,-0.0373810827732086,-0.00381325115449727
501,-0.00527168344706297,0.00476958556100726,-0.0252020638436079,-0.315117985010147,-0.0341973714530468,0.000265722221229225
502,-0.00511523149907589,0.00554447527974844,-0.0215541534125805,-0.344377398490906,-0.0297952890396118,0.00446026958525181
503,-0.00541439792141318,0.00647788448259234,-0.019022461026907,-0.378966331481934,-0.0250837337225676,0.00806845352053642
504,-0.00556251406669617,0.00777944130823016,-0.0174047444015741,-0.413608521223068,-0.0198292005807161,0.012338443659246
505,-0.00562911340966821,0.0091672670096159,-0.016364736482501,-0.442626714706421,-0.0141193624585867,0.0175745412707329
506,-0.00627755280584097,0.0102026611566544,-0.0152941066771746,-0.461272418498993,-0.00905454065650702,0.022715212777257
507,-0.00745335221290588,0.0113441478461027,-0.0135319149121642,-0.476876884698868,-0.00592151936143637,0.027972724288702
508,-0.00841608643531799,0.0130855897441506,-0.0107924556359649,-0.495900392532349,-0.00523716816678643,0.033905852586031
509,-0.00827859807759523,0.0153660336509347,-0.00658972654491663,-0.5,-0.00609052693471313,0.0399544201791286
510,-0.00725348107516766,0.017480781301856,-0.00126241776160896,-0.468181163072586,-0.00707693956792355,0.0448473803699017
511,-0.00644309399649501,0.0182715654373169,0.0032594702206552,-0.402484029531479,-0.00736171007156372,0.0469182506203651
512,-0.00627428246662021,0.0173757970333099,0.0059444117359817,-0.33582592010498,-0.00592852849513292,0.0460498407483101
513,-0.00670710066333413,0.0155238108709455,0.00768799427896738,-0.272971272468567,-0.0024203029461205,0.0445853471755981
514,-0.00740536395460367,0.0141610410064459,0.0102614630013704,-0.202839806675911,0.00167898263316602,0.045648131519556
515,-0.00723464600741863,0.0144895827397704,0.0147406524047256,-0.162896573543549,0.00509163364768028,0.0508578456938267
516,-0.00596093852072954,0.0157893262803555,0.019177945330739,-0.210620820522308,0.00726579129695892,0.0576915107667446
517,-0.00530424294993281,0.016109112650156,0.0204138215631247,-0.348323881626129,0.00860852189362049,0.0613737367093563
518,-0.0059901955537498,0.0147644048556685,0.0186428725719452,-0.5,0.0113758211955428,0.0606045238673687
519,-0.00666443724185228,0.0124828517436981,0.0163047295063734,-0.5,0.015796298161149,0.0576313324272633
520,-0.00591170974075794,0.0104392236098647,0.0151649191975594,-0.5,0.019503265619278,0.054978720843792
521,-0.0041080848313868,0.00945625919848681,0.0161419007927179,-0.5,0.021544449031353,0.0541956312954426
522,-0.00306830159388483,0.00946781877428293,0.019198052585125,-0.415383636951447,0.0227169804275036,0.0550990179181099
523,-0.00322479475289583,0.0103245507925749,0.0237451549619436,-0.285275340080261,0.0235822945833206,0.0566928498446941
524,-0.0038445049431175,0.0114043969660997,0.0282567553222179,-0.21002484858036,0.0228225607424974,0.0581081248819828
525,-0.00447488715872169,0.0114162378013134,0.0309455711394548,-0.217058584094048,0.0196764711290598,0.0584990009665489
526,-0.00439953105524182,0.010103153064847,0.0326172858476639,-0.240584373474121,0.0168612785637379,0.0579286925494671
527,-0.00349653884768486,0.00830599293112755,0.0350267253816128,-0.221308127045631,0.0169052165001631,0.0573394112288952
528,-0.00245242053642869,0.00697220442816615,0.0374611355364323,-0.197025403380394,0.0191513914614916,0.0574699528515339
529,-0.00101099302992225,0.00716171134263277,0.038616631180048,-0.251750946044922,0.0227403771132231,0.0586208291351795
530,0.000976547482423484,0.00882513169199228,0.0389786995947361,-0.420071721076965,0.0280696898698807,0.0605009011924267
531,0.00259120832197368,0.0102764209732413,0.039372906088829,-0.5,0.0347542427480221,0.0624337680637836
532,0.00372445723041892,0.0107738086953759,0.0401603877544403,-0.5,0.0404838062822819,0.0643183290958405
533,0.00502759823575616,0.0113650104030967,0.0419677644968033,-0.5,0.0429077036678791,0.0666629076004028
534,0.00557795260101557,0.0114765884354711,0.0437305197119713,-0.5,0.0414169616997242,0.0682141929864883
535,0.00377601943910122,0.00904388725757599,0.0432644933462143,-0.5,0.0368853472173214,0.0667774304747581
536,0.0012849970953539,0.00529502052813768,0.0414801277220249,-0.5,0.0321665368974209,0.0642571225762367
537,0.000938431010581553,0.00299076270312071,0.0407152622938156,-0.410049825906754,0.0304019805043936,0.0643465295433998
538,0.00231320573948324,0.00233858521096408,0.0414456166327,-0.373767226934433,0.0321036987006664,0.0668546706438065
539,0.00383759895339608,0.00245267269201577,0.0431909076869488,-0.47447595000267,0.035691425204277,0.0696139261126518
540,0.0047939638607204,0.00257235066965222,0.0448963046073914,-0.5,0.0387969128787518,0.0715247318148613
541,0.00422971695661545,0.0020674669649452,0.0453827828168869,-0.5,0.0395891107618809,0.0719616860151291
542,0.00200163619592786,0.00121908204164356,0.0446072481572628,-0.5,0.0385005511343479,0.0706414133310318
543,-0.000344339379807934,0.000638091820292175,0.0433475188910961,-0.5,0.0373005904257298,0.0678267329931259
544,-0.00131240405607969,0.000153852917719632,0.042631309479475,-0.332507491111755,0.0371833145618439,0.0636947080492973
545,-0.00068578333593905,-0.000324143737088889,0.0431352108716965,-0.0628456398844719,0.0385361351072788,0.0590409561991692
546,0.000713214452844113,-0.000396623247070238,0.0443095564842224,0.179638653993607,0.0406158417463303,0.0551023110747337
547,0.00211019697599113,-1.77004985744134E-05,0.0454456135630608,0.36645570397377,0.0421746335923672,0.052502728998661
548,0.00344528816640377,0.000598408980295062,0.0467555783689022,0.480394423007965,0.0430716164410114,0.0515778288245201
549,0.00485227070748806,0.00134609534870833,0.048579853028059,0.49591001868248,0.0439074113965034,0.0519507974386215
550,0.00581657001748681,0.00209492072463036,0.0508118607103825,0.385932117700577,0.0445474646985531,0.0524108856916428
551,0.00546224368736148,0.00257438537664711,0.0531396195292473,0.166883111000061,0.0444221682846546,0.0518291145563126
552,0.00395910255610943,0.0028303568251431,0.0550659671425819,-0.0866366624832153,0.0437743552029133,0.0500482507050037
553,0.00281102233566344,0.00349737657234073,0.0558570921421051,-0.323366850614548,0.0434859469532967,0.048199187964201
554,0.00290146772749722,0.0043696784414351,0.054680373519659,-0.5,0.0434926599264145,0.0469649285078049
555,0.00337145128287375,0.00411336123943329,0.0511227622628212,-0.5,0.0431258268654346,0.0461494140326977
556,0.00332691124640405,0.00252664787694812,0.0461300276219845,-0.5,0.0424886122345924,0.046552512794733
557,0.00273777823895216,0.000556048180442303,0.0409268438816071,-0.5,0.0412723496556282,0.0482947304844856
558,0.00220793625339866,-0.00101489271037281,0.0365909188985825,-0.5,0.0392403304576874,0.0500562638044357
559,0.00254774349741638,-0.0015888293273747,0.0346892923116684,-0.48842853307724,0.0372792966663837,0.0514948889613152
560,0.0028833772521466,-0.00157301977742463,0.0346486233174801,-0.40399369597435,0.0351119823753834,0.0523052550852299
561,0.00152137770783156,-0.00212334888055921,0.0339740999042988,-0.402801215648651,0.0317959375679493,0.0516884960234165
562,-0.000634056224953383,-0.00296037038788199,0.0326295159757137,-0.5,0.0287849009037018,0.0498416312038898
563,-0.00137534865643829,-0.00268985563889146,0.0324980542063713,-0.5,0.0283372271806002,0.0480321869254112
564,-0.000380638055503368,-0.00126580335199833,0.0340568982064724,-0.5,0.0310290958732367,0.0473456829786301
565,0.00118734897114336,0.000134853326017037,0.0364284589886665,-0.5,0.0356611981987953,0.0477163530886173
566,0.00236634421162307,0.00105825788341463,0.0387479774653912,-0.5,0.0395737327635288,0.0483471602201462
567,0.00333285797387362,0.00194641738198698,0.0407914780080318,-0.5,0.0410809703171253,0.0486866347491741
568,0.00438466435298324,0.00285797216929495,0.0425514206290245,-0.5,0.0408422611653805,0.048556849360466
569,0.00532096205279231,0.00336413644254208,0.0440050065517426,-0.5,0.040471788495779,0.0472910851240158
570,0.00621615303680301,0.00330986944027245,0.0450027585029602,-0.5,0.0408259145915508,0.0442720092833042
571,0.00712166680023074,0.00282278098165989,0.0453656539320946,-0.5,0.041592925786972,0.0400206781923771
572,0.00798811111599207,0.00197825813665986,0.0454544723033905,-0.5,0.0428538173437119,0.0352757647633553
573,0.00861949473619461,0.000817737600300461,0.0451419278979301,-0.48995777964592,0.0445490106940269,0.0308325476944447
574,0.00898667424917221,-0.000146739461342804,0.0441955588757992,-0.364592760801315,0.0460242405533791,0.028441833332181
575,0.00915743503719568,-0.000833889527712017,0.0428348295390606,-0.228446543216705,0.047452550381422,0.028203722089529
576,0.00876755733042955,-0.00164913036860526,0.0406418442726135,-0.0551210194826126,0.0486825704574585,0.0286613032221794
577,0.00820811092853546,-0.00169767695479095,0.0379208400845528,0.167170524597168,0.048802949488163,0.0303933750838041
578,0.00838940124958754,-3.64028892363422E-06,0.0362375825643539,0.382566750049591,0.0478474125266075,0.0340694226324558
579,0.00900431629270315,0.00245827506296337,0.0362776108086109,0.5,0.0463055893778801,0.0380776450037956
580,0.00907351449131966,0.00383605528622866,0.0376012809574604,0.5,0.0444817021489143,0.0401848740875721
581,0.00828697439283133,0.00332906446419656,0.0397206507623196,0.5,0.0430205315351486,0.0397508852183819
582,0.00677818711847067,0.00141806760802865,0.0417402945458889,0.474440485239029,0.0420847460627556,0.0377077125012875
583,0.00537841115146875,-0.000575526268221438,0.0430749654769897,0.450301975011826,0.0415186211466789,0.0353709943592548
584,0.00504524679854512,-0.00169355480466038,0.0442812442779541,0.447847545146942,0.0417185090482235,0.0339955128729343
585,0.00510214176028967,-0.00254376558586955,0.0454196818172932,0.467384666204453,0.043271116912365,0.0337320379912853
586,0.00476237526163459,-0.00378744816407561,0.0457821488380432,0.5,0.0468837320804596,0.0334802493453026
587,0.00457268441095948,-0.00508247688412666,0.0454061515629292,0.5,0.0520188733935356,0.0320698656141758
588,0.0052787740714848,-0.00583060132339597,0.0450445488095284,0.5,0.0558184683322906,0.0295105073601007
589,0.00703841308131814,-0.0059666195884347,0.0444578155875206,0.5,0.0555512346327305,0.0268872510641813
590,0.0094879949465394,-0.00560508854687214,0.0428988970816135,0.5,0.0519826859235764,0.0255788117647171
591,0.011948068626225,-0.00436072703450918,0.0410999059677124,0.5,0.0490336120128632,0.0266428422182798
592,0.0136536788195372,-0.00268670753575861,0.0409381911158562,0.5,0.0495783947408199,0.0292239245027304
593,0.0139509402215481,-0.00200700666755438,0.0431648977100849,0.497026413679123,0.0515386760234833,0.0315285064280033
594,0.0129399728029966,-0.00266301166266203,0.0456535071134567,0.297931909561157,0.0499249175190926,0.0330424904823303
595,0.0123571874573827,-0.00406312383711338,0.0453074052929878,0.153537735342979,0.0439837202429771,0.0330685414373875
596,0.0133210029453039,-0.00581703055649996,0.0424510687589645,0.0842565149068832,0.0378948301076889,0.0305675473064184
597,0.0144936572760344,-0.00700737442821264,0.0409454070031643,0.120821073651314,0.0341751836240292,0.0265353508293629
598,0.0139610199257731,-0.00726938480511308,0.0415054634213448,0.250509798526764,0.0306855253875256,0.0222784336656332
599,0.0110921747982502,-0.00762343825772405,0.040861152112484,0.41556841135025,0.0248415600508451,0.0174948256462812
600,0.00722337095066905,-0.00790250953286886,0.0378397069871426,0.5,0.0178624968975782,0.0126038827002048
601,0.0041585061699152,-0.00664981454610825,0.0333730094134808,0.5,0.0128300739452243,0.00937149859964848
602,0.00256006862036884,-0.0041252700611949,0.028617100790143,0.362335175275803,0.0106365643441677,0.00747138913720846
603,0.00245962128974497,-0.00200741249136627,0.0244548432528973,0.120813585817814,0.0095534548163414,0.00507854018360376
604,0.00301409885287285,-0.00148309301584959,0.0209093298763037,-0.136377170681953,0.00799289811402559,0.00170195440296084
605,0.00324476487003267,-0.00243105250410736,0.018562588840723,-0.389339119195938,0.0061550666578114,-0.00245218118652701
606,0.00322137516923249,-0.00339934602379799,0.0168631728738546,-0.5,0.00387945561669767,-0.00645656604319811
607,0.00319778779521585,-0.00399280386045575,0.0133178876712918,-0.5,0.00059458811301738,-0.0102406674996018
608,0.00351994531229138,-0.0048445644788444,0.00695137912407517,-0.5,-0.0027024180162698,-0.0147413602098823
609,0.00483886850997806,-0.00578576000407338,-0.000863226712681353,-0.5,-0.00516732502728701,-0.0203331988304853
610,0.00723670236766338,-0.0062367245554924,-0.00782659091055393,-0.5,-0.00714343832805753,-0.0265420898795128
611,0.00899337325245142,-0.00594579195603728,-0.0124701103195548,-0.5,-0.0102255456149578,-0.0310147050768137
612,0.00846053101122379,-0.00452993763610721,-0.0149350157007575,-0.5,-0.0159526839852333,-0.0314045436680317
613,0.00626237830147147,-0.00197665742598474,-0.0183586720377207,-0.5,-0.0238938741385937,-0.0291976891458035
614,0.00412224885076284,0.000327814719639719,-0.0256960336118937,-0.5,-0.0319291688501835,-0.0288776755332947
615,0.00320915994234383,0.000738788570743054,-0.0344624035060406,-0.5,-0.0373567268252373,-0.0339537039399147
616,0.00335846003144979,-0.00125735509209335,-0.0410407222807407,-0.5,-0.0396604016423225,-0.0451034754514694
617,0.00348343304358423,-0.00437195179983974,-0.0462876707315445,-0.5,-0.0424428544938564,-0.06000941619277
618,0.00280994898639619,-0.00715371314436197,-0.0531955659389496,-0.5,-0.0489248894155025,-0.0756807029247284
619,0.00162912497762591,-0.00887802336364985,-0.0625674724578857,-0.5,-0.0580857805907726,-0.0885636359453201
620,3.16215591738001E-05,-0.00874993856996298,-0.0737412720918655,-0.5,-0.0688243061304092,-0.0946031659841537
621,-0.00235345703549683,-0.0068442989140749,-0.0857047140598297,-0.5,-0.0808521881699562,-0.0932667851448059
622,-0.00529365940019488,-0.0040092091076076,-0.096334844827652,-0.5,-0.0922346711158752,-0.0878587961196899
623,-0.00774250086396933,-0.000969807093497366,-0.103785917162895,-0.5,-0.100855849683285,-0.0831689238548279
624,-0.00833707023411989,0.00180392211768776,-0.108752630650997,-0.5,-0.105521649122238,-0.0826800912618637
625,-0.0067846323363483,0.00375449121929705,-0.113410301506519,-0.5,-0.105300970375538,-0.0873093456029892
626,-0.00384453451260924,0.00433300482109189,-0.118200905621052,-0.5,-0.101559691131115,-0.0962153002619743
627,-0.000862739980220795,0.00421363348141313,-0.122102826833725,-0.5,-0.100494094192982,-0.105162642896175
628,0.000469695805804804,0.00482743605971336,-0.125002935528755,-0.5,-0.10696317255497,-0.1093919724226
629,-0.000497023633215576,0.00595797225832939,-0.127266079187393,-0.5,-0.117653906345367,-0.109942175447941
630,-0.00281180487945676,0.00592269981279969,-0.128393933176994,-0.5,-0.125900059938431,-0.111413270235062
631,-0.00427150959149003,0.00447952793911099,-0.127954378724098,-0.5,-0.128985196352005,-0.116004720330238
632,-0.00326053006574512,0.00280859810300171,-0.126597926020622,-0.5,-0.128205820918083,-0.122684322297573
633,-0.000116644987429027,0.00176349014509469,-0.124835662543774,-0.5,-0.124590389430523,-0.129172593355179
634,0.00371529208496213,0.00177435972727835,-0.122528150677681,-0.5,-0.117783486843109,-0.133564785122871
635,0.00636971881613135,0.00219024787656963,-0.11940972507,-0.5,-0.108692653477192,-0.136342838406563
636,0.00742699485272169,0.0017144923331216,-0.114820569753647,-0.5,-0.0992134511470795,-0.139425069093704
637,0.00867661833763123,0.000314636999974027,-0.10893889516592,-0.5,-0.090384267270565,-0.143126919865608
638,0.0122713418677449,-0.00162861740682274,-0.103590816259384,-0.5,-0.0829579532146454,-0.147515296936035
639,0.0191502869129181,-0.00364715629257262,-0.0994305238127708,-0.5,-0.0768917426466942,-0.152777493000031
640,0.0260470937937498,-0.00464931409806013,-0.09541005641222,-0.5,-0.0712551400065422,-0.157557114958763
641,0.026944337412715,-0.00480092875659466,-0.0922340825200081,-0.5,-0.066026359796524,-0.160955041646957
642,0.0210210029035807,-0.00516501814126968,-0.0917156636714935,-0.5,-0.0624692738056183,-0.16305111348629
643,0.0132872518151999,-0.00588713632896543,-0.0936899408698082,-0.5,-0.0634993389248848,-0.162990406155586
644,0.00817063078284264,-0.00606293557211757,-0.0958850681781769,-0.5,-0.0705224424600601,-0.159296631813049
645,0.00658708531409502,-0.00485072517767549,-0.0961522832512856,-0.5,-0.0797066241502762,-0.152597114443779
646,0.00644223811104894,-0.00329561298713088,-0.0944520682096481,-0.5,-0.0863631069660187,-0.145860642194748
647,0.00538880750536919,-0.00298252631910145,-0.0917065218091011,-0.5,-0.0883957967162132,-0.140072926878929
648,0.00356788234785199,-0.00378105952404439,-0.0882936418056488,-0.5,-0.0850231945514679,-0.134050026535988
649,0.00219529611058533,-0.0050765722990036,-0.0843691974878311,-0.5,-0.0780472978949547,-0.127935603260994
650,0.00156907644122839,-0.00660272175446153,-0.0802001804113388,-0.5,-0.069896437227726,-0.122584126889706
651,0.00204713991843164,-0.00768088549375534,-0.0759206041693687,-0.5,-0.0606675744056702,-0.117772698402405
652,0.00408197520300746,-0.00760866701602936,-0.0716208294034004,-0.5,-0.0525846220552921,-0.113016791641712
653,0.0065975384786725,-0.00702812662348151,-0.0682196989655495,-0.5,-0.050273522734642,-0.109168030321598
654,0.00792017672210932,-0.0071951923891902,-0.0662813484668732,-0.5,-0.0534640997648239,-0.106805197894573
655,0.00788064301013947,-0.00795226357877254,-0.0646341443061829,-0.5,-0.0568902976810932,-0.104353189468384
656,0.00705675315111876,-0.00856385566294193,-0.0623985901474953,-0.5,-0.0575574934482574,-0.100572012364864
657,0.00568018108606339,-0.00922307558357716,-0.060213927179575,-0.5,-0.0555781461298466,-0.0963008925318718
658,0.00463291956111789,-0.0105006480589509,-0.0585529133677483,-0.5,-0.0503327697515488,-0.0929405987262726
659,0.0049795787781477,-0.0121516082435846,-0.0565494783222675,-0.5,-0.0420550294220448,-0.0901883691549301
660,0.00664427736774087,-0.013743438757956,-0.0536427460610867,-0.5,-0.0344280526041985,-0.0864419639110565
661,0.0085429260507226,-0.0152339423075318,-0.0505234375596046,-0.5,-0.0309382304549217,-0.0815001651644707
662,0.00936250947415829,-0.015723705291748,-0.0472952090203762,-0.5,-0.0305589996278286,-0.0761049911379814
663,0.00899629015475512,-0.0141035495325923,-0.0432294793426991,-0.5,-0.0300671476870775,-0.0703469067811966
664,0.00826606899499893,-0.0106752263382077,-0.0377146415412426,-0.5,-0.0281847417354584,-0.0641167610883713
665,0.00685451272875071,-0.00721493829041719,-0.0315644964575768,-0.5,-0.0257075186818838,-0.0579964071512222
666,0.00376251805573702,-0.00584994303062558,-0.0279602371156216,-0.5,-0.0243132151663303,-0.0529952272772789
667,0.000921957660466433,-0.00645842496305704,-0.0280685592442751,-0.5,-0.0238220039755106,-0.0476404316723347
668,0.00294040702283382,-0.00702990684658289,-0.028624452650547,-0.5,-0.020885081961751,-0.0395219549536705
669,0.00972907338291407,-0.00641034170985222,-0.0267944224178791,-0.5,-0.0147899417206645,-0.0302375610917807
670,0.0145136844366789,-0.00463073421269655,-0.0228715352714062,-0.5,-0.00923528335988522,-0.0231532007455826
671,0.0125285563990474,-0.00260612205602229,-0.0186604298651218,-0.5,-0.00675281276926398,-0.0190101489424706
672,0.0049803713336587,-0.00174623890779912,-0.0161245130002499,-0.5,-0.00772768585011363,-0.0170417204499245
673,-0.0040541235357523,-0.00264204735867679,-0.0152991088107228,-0.5,-0.0115123353898525,-0.0165456868708134
674,-0.00988053251057863,-0.00411887047812343,-0.0130397789180279,-0.5,-0.0141157926991582,-0.0156666282564402
675,-0.0112038105726242,-0.00551487458869815,-0.00752341141924262,-0.0426666885614395,-0.0111349411308765,-0.013747095130384
676,-0.0102441692724824,-0.0069844895042479,-0.000281606218777597,0.387454092502594,-0.00364547013305128,-0.0111094135791063
677,-0.00905399955809116,-0.00777506828308105,0.00681814877316356,0.5,0.00370649108663201,-0.00633641937747598
678,-0.00880728382617235,-0.0075378199107945,0.0124373529106379,0.5,0.00825301092118025,0.000899248814675957
679,-0.00935299601405859,-0.00706624379381537,0.0160444993525743,0.5,0.011271333321929,0.0086191687732935
680,-0.00962574314326048,-0.00743527663871646,0.0179543606936932,0.5,0.0151915950700641,0.0145410941913724
681,-0.00859709084033966,-0.00804055109620094,0.0186220314353704,0.5,0.0197286959737539,0.0188580304384232
682,-0.00635470636188984,-0.00732084596529603,0.0181670691817999,0.5,0.0221746582537889,0.0238531678915024
683,-0.00449428195133805,-0.00556537695229054,0.016842620447278,0.5,0.021887294948101,0.030088797211647
684,-0.00420292606577277,-0.00408275425434113,0.0157477334141731,0.5,0.0204207003116608,0.0366473160684109
685,-0.00492807058617473,-0.00327129545621574,0.0163661167025566,0.5,0.0181058775633574,0.0434002988040447
686,-0.00505048735067248,-0.00246606790460646,0.0199061613529921,0.5,0.0155633445829153,0.0509055517613888
687,-0.00414762040600181,-0.00116062036249787,0.0259469337761402,0.5,0.0146719198673964,0.0585798136889935
688,-0.00389792583882809,-0.000542000925634056,0.0315843597054482,0.5,0.0152187440544367,0.0635951012372971
689,-0.00547046354040504,-0.00188765826169401,0.0343269892036915,0.5,0.014820558950305,0.064091645181179
690,-0.00815957877784967,-0.00438581220805645,0.0347129628062248,0.5,0.0118399458006024,0.0619812235236168
691,-0.0104163875803351,-0.00623585190623999,0.0351608209311962,0.5,0.00671219732612371,0.0608663037419319
692,-0.0104907900094986,-0.00596263445913792,0.0371028259396553,0.5,0.0030058715492487,0.0631676763296127
693,-0.00848019309341908,-0.00354911084286869,0.0393922813236713,0.5,0.00520282611250877,0.0681645125150681
694,-0.00734380586072803,-0.000794321938883513,0.0403144061565399,0.5,0.0138969868421555,0.0724781155586243
695,-0.00892835017293692,0.000746412144508213,0.0402667000889778,0.5,0.0262989401817322,0.0740431621670723
696,-0.0118805272504687,0.000599689141381532,0.0406920127570629,0.5,0.0396035574376583,0.0736131221055985
697,-0.0148814236745238,-0.00126979744527489,0.041369054466486,0.5,0.0498850084841251,0.0724777206778526
698,-0.017299447208643,-0.00374437286518514,0.0421737767755985,0.5,0.0528042763471603,0.0721848905086517
699,-0.0180573426187038,-0.00512019963935018,0.0443258881568909,0.5,0.0486296117305756,0.0739999413490295
700,-0.0169505756348372,-0.00475536054000258,0.0478002913296223,0.5,0.0415858328342438,0.0775495544075966
701,-0.0150833055377007,-0.00281358393840492,0.0516639836132526,0.5,0.0354611277580261,0.082026906311512
702,-0.0138189299032092,-0.000333513948135078,0.0555495359003544,0.5,0.0330479517579079,0.0862188339233398
703,-0.0134263727813959,0.00102376251015812,0.0594644956290722,0.5,0.0366102941334248,0.0886256247758865
704,-0.0133064622059464,0.000588493421673775,0.0631438344717026,0.5,0.045493371784687,0.0891313701868057
705,-0.0129327028989792,-0.000579447252675891,0.0661428570747375,0.5,0.0554506033658981,0.0898107811808586
706,-0.0116049963980913,-0.000820237211883068,0.0687178894877434,0.5,0.0625477507710457,0.0934819579124451
707,-0.0097931195050478,-0.000407463521696627,0.070868082344532,0.5,0.0658415108919144,0.0993684530258179
708,-0.00863049551844597,-0.000329248490743339,0.072456993162632,0.5,0.0658651739358902,0.10478301346302
709,-0.00816881936043501,-0.000641881546471268,0.0734259113669395,0.5,0.0631134286522865,0.108855001628399
710,-0.00745493499562144,-0.00178314722143114,0.0733971148729324,0.5,0.0595926009118557,0.110636278986931
711,-0.00543479155749083,-0.00340544083155692,0.0736016184091568,0.5,0.0585895106196404,0.110022574663162
712,-0.00319125363603234,-0.00422854395583272,0.075840525329113,0.5,0.061198964715004,0.108522586524487
713,-0.00282850791700184,-0.0038298717699945,0.0797276124358177,0.5,0.0652904361486435,0.107378870248795
714,-0.00414404971525073,-0.00261188647709787,0.0835446864366531,0.5,0.0689160600304604,0.107677213847637
715,-0.00470105186104774,-0.000904720509424806,0.0866853222250938,0.5,0.0732013061642647,0.11023822426796
716,-0.0037920125760138,0.00111093290615827,0.0889869555830956,0.5,0.0788163021206856,0.11432746052742
717,-0.00422226777300239,0.00226634973660111,0.0892434865236282,0.5,0.0826082229614258,0.117459014058113
718,-0.0074543422088027,0.00128414237406105,0.0878349989652634,0.5,0.0828663930296898,0.117567449808121
719,-0.0110425222665071,-0.000876531412359327,0.0871921628713608,0.5,0.0829927697777748,0.115524269640446
720,-0.01301509141922,-0.0021146081853658,0.0883598178625107,0.5,0.0849009081721306,0.113929502665997
721,-0.0141857666894794,-0.00181326607707888,0.090434730052948,0.5,0.085734598338604,0.113541461527348
722,-0.0155239440500736,-0.00109019689261913,0.0918930172920227,0.5,0.083371989428997,0.112728469073772
723,-0.0166306104511023,-0.00114551291335374,0.0915257558226585,0.5,0.0790644809603691,0.110156267881393
724,-0.0167375225573778,-0.00162482832092792,0.0896604731678963,0.5,0.0742675885558128,0.107089050114155
725,-0.01540263928473,-0.00101650389842689,0.0879077091813087,0.5,0.069179892539978,0.106659568846226
726,-0.0125704202800989,0.00115326838567853,0.0871161445975304,0.5,0.0650353655219078,0.109989143908024
727,-0.00931773986667395,0.00335818924941123,0.086588978767395,0.5,0.0630428269505501,0.114280685782433
728,-0.00718756718561053,0.00402360362932086,0.085532046854496,0.5,0.0624202340841293,0.116383135318756
729,-0.00626859162002802,0.00311623211018741,0.0842824056744576,0.5,0.0627816170454025,0.115544445812702
730,-0.00563725456595421,0.0015707976417616,0.0835156962275505,0.5,0.0648632198572159,0.112919867038727
731,-0.00497989030554891,6.72571768518537E-05,0.0828940644860268,0.5,0.0682033374905586,0.110038734972477
732,-0.00440378254279494,-0.00136240315623581,0.0820468664169312,0.5,0.0713313221931458,0.107761912047863
733,-0.00365848909132183,-0.00236897240392864,0.0818304196000099,0.5,0.0738133192062378,0.106540970504284
734,-0.00302086770534515,-0.00261805602349341,0.0827706605195999,0.5,0.0758559182286263,0.105964034795761
735,-0.00292971520684659,-0.00251370947808027,0.0850948467850685,0.5,0.0784921273589134,0.105005115270615
736,-0.00294918543659151,-0.00285854958929121,0.0893017798662186,0.5,0.083787202835083,0.102710574865341
737,-0.00250130449421704,-0.00397989898920059,0.094330869615078,0.5,0.0912231951951981,0.0991353169083595
738,-0.00148821796756238,-0.00554874539375305,0.0980390459299088,0.5,0.0964344516396523,0.0954127758741379
739,-0.00078822165960446,-0.00810171384364367,0.0989271700382233,0.5,0.0957184955477715,0.0908517837524414
740,-0.00101326091680676,-0.0115739675238729,0.0971137136220932,0.5,0.0904040709137917,0.0840996354818344
741,-0.00119795370846987,-0.0137856164947152,0.0939861238002777,0.5,0.085763119161129,0.0769549906253815
742,-0.00079785764683038,-0.0138151133432984,0.0901299193501472,0.5,0.085778497159481,0.0720120444893837
743,-0.000415082700783387,-0.0129255400970578,0.0856903344392776,0.5,0.0899323597550392,0.0699955821037292
744,-0.000308650633087382,-0.0120113892480731,0.0817436054348946,0.5,0.0948885530233383,0.0703412517905235
745,-0.000443137279944494,-0.0112819280475378,0.0791328698396683,0.5,0.097253829240799,0.0716122016310692
746,-0.000719949952326715,-0.0105524435639381,0.0778255686163902,0.5,0.0952892228960991,0.0732169076800346
747,-0.00101803801953793,-0.0095052495598793,0.0771301835775375,0.5,0.0894501283764839,0.0751611217856407
748,-0.00167169922497123,-0.00833732914179564,0.0758563727140427,0.49468070268631,0.0816043764352798,0.0764860063791275
749,-0.00368075235746801,-0.0075953877530992,0.0736673027276993,0.5,0.0735504552721977,0.076699323952198
750,-0.00682304240763187,-0.00710591394454241,0.0719607472419739,0.5,0.0667145475745201,0.0765862390398979
751,-0.00876567326486111,-0.0059682484716177,0.0719201192259789,0.5,0.0627910643815994,0.0765189602971077
752,-0.0089929923415184,-0.00479326769709587,0.0722362399101257,0.5,0.0623159520328045,0.0753792077302933
753,-0.00883210357278585,-0.00446805218234658,0.0715475380420685,0.5,0.0645019039511681,0.072919525206089
754,-0.00847928505390882,-0.00462290877476335,0.0707323029637337,0.5,0.0685466527938843,0.070272222161293
755,-0.00773357832804322,-0.00527484063059092,0.0710616931319237,0.5,0.0739021301269531,0.0677174776792526
756,-0.00672480929642916,-0.00611978257074952,0.0721962377429008,0.5,0.0792659595608711,0.0657092928886414
757,-0.00597957847639918,-0.0062808645889163,0.0726192817091942,0.5,0.0816788077354431,0.0652279406785965
758,-0.00494112446904182,-0.00524531351402402,0.0728221163153648,0.5,0.0803671553730965,0.0660741105675697
759,-0.00247692433185875,-0.0034419905859977,0.0744909271597862,0.5,0.0777944400906563,0.0663526356220245
760,-4.47849197371397E-05,-0.00236170599237084,0.0761124715209007,0.5,0.0750334933400154,0.0636474713683128
761,0.000566556060221046,-0.0027106530033052,0.074845977127552,0.5,0.0723412781953812,0.0576900206506252
762,-0.000149684536154382,-0.0040167816914618,0.0705747082829475,0.485432088375092,0.0712549984455109,0.0509700328111649
763,-0.00125745276454836,-0.00574494665488601,0.0650730803608894,0.485759317874908,0.0723322778940201,0.0463855490088463
764,-0.00187166931573302,-0.00697519117966294,0.0605024583637714,0.5,0.0741260051727295,0.0455015376210213
765,-0.00121025065891445,-0.00689893588423729,0.0580474659800529,0.5,0.0745023712515831,0.0477970167994499
766,0.00035417135222815,-0.00581548549234867,0.0573397949337959,0.5,0.0726571008563042,0.0513492301106453
767,0.00187174591701478,-0.00451657176017761,0.0581589601933956,0.5,0.0704250410199165,0.0545991584658623
768,0.00253004883415997,-0.00345336482860148,0.0600988082587719,0.5,0.0707520246505737,0.0566061660647392
769,0.00201194896362722,-0.00236195418983698,0.062267392873764,0.5,0.0744480565190315,0.057368066161871
770,0.000837797357235104,-0.00116920762229711,0.0639037117362022,0.5,0.0780323073267937,0.0575461275875568
771,-0.000498139124829322,-0.000750407518353313,0.0643769204616547,0.5,0.0772066339850426,0.0571435950696468
772,-0.00165628676768392,-0.0017425746191293,0.0639909207820892,0.434828191995621,0.0728430673480034,0.0555575229227543
773,-0.00179944676347077,-0.0039086421020329,0.0630361586809158,0.473291337490082,0.0692773163318634,0.0521734692156315
774,-0.000618333579041064,-0.00616535497829318,0.0610030107200146,0.5,0.0675558224320412,0.0478473789989948
775,0.000692183675710112,-0.00686104269698262,0.0579348616302013,0.5,0.0653343349695206,0.0451983734965324
776,0.000613050302490592,-0.00568227609619498,0.0544574782252312,0.5,0.0614072270691395,0.0455729961395264
777,-0.000582118460442871,-0.00405128253623843,0.0512097403407097,0.5,0.0565500967204571,0.048095166683197
778,-0.00126448925584555,-0.00331071112304926,0.0486691109836102,0.5,0.0517263300716877,0.0506622046232224
779,-0.000620922306552529,-0.00333710014820099,0.0474740564823151,0.5,0.0477775856852531,0.0512937195599079
780,0.00129342800937593,-0.00248761707916856,0.0484403893351555,0.5,0.046644352376461,0.0508051663637161
781,0.00286889611743391,-0.000332287250785157,0.0505327209830284,0.5,0.0484839230775833,0.051249124109745
782,0.00159848493058234,0.00130708364304155,0.0519432090222836,0.5,0.0493266060948372,0.052793126553297
783,-0.00246559316292405,0.00128663575742394,0.0522955134510994,0.5,0.0458518490195274,0.0539676174521446
784,-0.00712318532168865,0.000453186134109274,0.0522719621658325,0.5,0.0396218374371529,0.053788248449564
785,-0.0108495550230145,0.000354755204170942,0.0530502125620842,0.5,0.0362048931419849,0.0534291379153728
786,-0.0133173698559403,0.00120727729517967,0.0534636601805687,0.5,0.0387120768427849,0.0533397383987904
787,-0.0135745499283075,0.00192304234951735,0.0509359762072563,0.5,0.0440696887671947,0.0521134585142136
788,-0.0109728313982487,0.00185790855903178,0.0456306859850883,0.5,0.0479314438998699,0.0498249717056751
789,-0.00775645906105638,0.00119770329911262,0.0394196026027203,0.5,0.0483182333409786,0.0480824820697308
790,-0.00627267500385642,0.000902587722521275,0.0340386778116226,0.5,0.045100562274456,0.0480329319834709
791,-0.00617073010653257,0.00172973982989788,0.0307312123477459,0.5,0.0391676984727383,0.0492734834551811
792,-0.00647033331915736,0.00272136623971164,0.0294571202248335,0.5,0.0323920883238316,0.0494108162820339
793,-0.00707210088148713,0.00244982424192131,0.029318930581212,0.5,0.0275047514587641,0.0467586033046246
794,-0.00770506355911493,0.000989079591818154,0.0297229681164026,0.5,0.0267941262573004,0.0424607507884502
795,-0.00775572657585144,-0.000696706585586071,0.0308549273759127,0.5,0.0303495787084103,0.0381525717675686
796,-0.00715995440259576,-0.00166876439470798,0.0332295782864094,0.5,0.0361535809934139,0.0351330973207951
797,-0.00635746866464615,-0.001280611846596,0.0364129282534122,0.5,0.0416960716247559,0.0350876525044441
798,-0.00580896530300379,0.000116067043563817,0.0388289615511894,0.5,0.0444768182933331,0.0378779098391533
799,-0.00555706210434437,0.00149416388012469,0.0390493236482143,0.5,0.0434025265276432,0.0407102853059769
800,-0.00469592539593577,0.00266124773770571,0.0372827649116516,0.5,0.0403219424188137,0.0418153405189514
801,-0.0029418624471873,0.00357683282345533,0.0347351357340813,0.5,0.0372481234371662,0.0414149835705757
802,-0.00185518071521074,0.00315790507011116,0.0317607410252094,0.5,0.0337116718292236,0.0396704338490963
803,-0.0022604854311794,0.00121533044148237,0.0285054892301559,0.369040489196777,0.0290261078625917,0.037581842392683
804,-0.00304658524692059,-0.00041643381700851,0.0257327128201723,0.0366615056991577,0.0244423057883978,0.0365450084209442
805,-0.00351025001145899,-0.000627787492703646,0.0237364340573549,-0.167411834001541,0.0215206909924746,0.0353518612682819
806,-0.00375164835713804,-0.000275839935056865,0.0223290100693703,-0.19544406235218,0.0209518596529961,0.0317327193915844
807,-0.00361756864003837,3.95475544792134E-05,0.0217852555215359,-0.0409278124570847,0.0231745410710573,0.0265346094965935
808,-0.00344920787028968,0.000534324499312788,0.022245092317462,0.26158881187439,0.0269281044602394,0.0227844789624214
809,-0.00347299291752279,0.00157305772881955,0.0234259609133005,0.5,0.029198732227087,0.0215422194451094
810,-0.00331430742517114,0.00289581739343703,0.0247034262865782,0.5,0.028326852247119,0.0208630878478289
811,-0.00271058292128146,0.00410861754789948,0.0252662505954504,0.5,0.0250504203140736,0.0192021150141954
812,-0.00129225826822221,0.00575592694804072,0.0252511091530323,0.5,0.0217200201004744,0.0174291040748358
813,0.00128140649758279,0.00803583581000566,0.0259339492768049,0.5,0.021146459504962,0.0175509043037891
814,0.00462308758869767,0.0104274665936828,0.0277667604386806,0.5,0.0239101406186819,0.0208292901515961
815,0.00735284015536308,0.0120810428634286,0.0289371944963932,0.0831457152962685,0.0275402572005987,0.0252903625369072
816,0.00871885381639004,0.0123350629583001,0.0278174132108688,-0.5,0.0296444166451693,0.027325788512826
817,0.00927152764052153,0.0115826046094298,0.0250644441694021,-0.5,0.0294812973588705,0.0261305887252092
818,0.00938227400183678,0.0103682335466146,0.0223820917308331,-0.5,0.0271446891129017,0.0237990207970142
819,0.00878811068832874,0.00852578226476908,0.0205910429358482,-0.5,0.0232542622834444,0.0221844203770161
820,0.00740040140226483,0.006085772998631,0.019188079982996,-0.5,0.019068306311965,0.0210000462830067
821,0.00585077423602343,0.00370758888311684,0.0177554041147232,-0.5,0.0162035245448351,0.0187706220895052
822,0.00473374594002962,0.00211345544084907,0.0168822966516018,-0.5,0.0160800833255053,0.0153789659962058
823,0.00415279902517796,0.00157577265053988,0.0172405336052179,-0.5,0.0188003443181515,0.0122489780187607
824,0.00412658927962184,0.00151910039130598,0.0183623377233744,-0.5,0.0221411641687155,0.0101143401116133
825,0.00479376083239913,0.00146164651960135,0.0192220862954855,-0.5,0.0235488098114729,0.0089724063873291
826,0.00590565381571651,0.00111778581049293,0.0190519746392965,-0.5,0.0222645122557878,0.00826634932309389
827,0.00680775614455342,9.9130513262935E-05,0.0177645590156317,-0.5,0.0197478029876947,0.00710030738264322
828,0.00758812250569463,-0.000985789694823325,0.0161014292389154,-0.5,0.0183379147201777,0.0058641261421144
829,0.00858694221824408,-0.00141257478389889,0.0141599029302597,-0.5,0.0178902223706245,0.00483412109315395
830,0.00919454544782639,-0.00166993855964392,0.0111037716269493,-0.5,0.016281770542264,0.00286628538742661
831,0.00918346736580133,-0.00236143404617906,0.00774327386170626,-0.5,0.0141765354201198,-0.000518578628543764
832,0.00904103554785252,-0.00316445529460907,0.00697189103811979,-0.5,0.0150747457519174,-0.00364759680815041
833,0.00790050625801086,-0.00375800323672593,0.00940204598009586,-0.5,0.0192087236791849,-0.00424849847331643
834,0.00525615690276027,-0.00399290723726153,0.0119859417900443,-0.5,0.0222981311380863,-0.00199838471598923
835,0.0022979686036706,-0.00375324301421642,0.0116951549425721,-0.5,0.0206564497202635,0.00161688320804387
836,-0.000579435669351369,-0.00386225734837353,0.00770460069179535,-0.5,0.0144904209300876,0.00429843878373504
837,-0.00322558498010039,-0.00461585680022836,0.00171350897289813,-0.5,0.0074550905264914,0.00478776637464762
838,-0.00420386344194412,-0.0042777662165463,-0.00244393502362072,-0.5,0.00337248644791543,0.00523449154570699
839,-0.00277307978831232,-0.00166986125987023,-0.00208803033456206,0.160227239131927,0.00247506843879819,0.00786386523395777
840,-0.000825544935651124,0.00137562991585582,0.000549724150914699,0.5,0.00150713557377458,0.0108518907800317
841,-2.31658577831695E-05,0.00271374522708356,0.00212054396979511,0.5,-0.00115194090176374,0.0116175822913647
842,0.000738954229746014,0.00260650971904397,0.00304619991220534,0.5,-0.00333197484724224,0.0106297787278891
843,0.00229902379214764,0.00184713862836361,0.00405877595767379,0.5,-0.00356229650788009,0.00917086750268936
844,0.00380142615176737,0.00076045491732657,0.00450850138440728,0.289603173732758,-0.002693897113204,0.00734063517302275
845,0.00467215478420258,-0.000200632523046806,0.00497989449650049,0.0908745229244232,-0.0012237123446539,0.00533742364495993
846,0.00480866152793169,-0.00123883306514472,0.00604231096804142,0.050997368991375,0.00108606601133943,0.00297372951172292
847,0.00430601183325052,-0.00280226860195398,0.00698170764371753,0.208756595849991,0.00423319637775421,-0.000782824179623276
848,0.00343581638298929,-0.00467648589983583,0.00707767624408007,0.5,0.00728632090613246,-0.00549106951802969
849,0.00260233343578875,-0.00649948650971055,0.00610582996159792,0.5,0.00913774874061346,-0.00961836148053408
850,0.00290463422425091,-0.0074547054246068,0.00483063701540232,0.5,0.0103035792708397,-0.0117922034114599
851,0.0050401478074491,-0.00650563649833202,0.00454909773543477,0.5,0.0115646403282881,-0.010416210629046
852,0.0077189807780087,-0.0038961567915976,0.00549150072038174,0.5,0.0121521530672908,-0.00565125467255712
853,0.00855072494596243,-0.000750418112147599,0.00646471558138728,0.5,0.0109260072931647,-6.37158154859208E-05
854,0.00686254724860191,0.00209176260977983,0.00661429017782211,0.5,0.00817821826785803,0.00366438995115459
855,0.00381365907378495,0.00386097189038992,0.00656062364578247,0.5,0.00506256660446525,0.00437752762809396
856,0.000484321994008496,0.00416161818429828,0.00669996626675129,0.5,0.00245591928251088,0.00275442143902183
857,-0.00168457464314997,0.00339530245400965,0.00671005761250854,0.5,0.00196832441724837,-0.000181158378836699
858,-0.00139722181484103,0.00210801791399717,0.00684669008478522,0.5,0.00479455525055528,-0.00390732893720269
859,0.000864949717652053,0.000743955664802343,0.00736737437546253,0.5,0.00904101505875587,-0.00747034419327974
860,0.00368289928883314,-0.000432646629633382,0.0076688751578331,0.5,0.0114039955660701,-0.00942576210945845
861,0.00604891171678901,-0.00152674352284521,0.00680902553722262,0.5,0.0102724144235253,-0.00919443741440773
862,0.00700732693076134,-0.00281796301715076,0.00402530888095498,0.5,0.00603462615981698,-0.00810262467712164
863,0.00652147550135851,-0.00390584906563163,-4.04586307922727E-06,0.5,0.000791747064795345,-0.00737801007926464
864,0.0059395101852715,-0.00420420523732901,-0.00324534019455314,0.5,-0.00300461519509554,-0.0071393777616322
865,0.00626685936003923,-0.00399018777534366,-0.00401058001443744,0.5,-0.00401844969019294,-0.00765181332826614
866,0.00709045957773924,-0.00380330672487617,-0.00245956983417273,0.5,-0.00268797832541168,-0.00881550740450621
867,0.00698924250900745,-0.0041590123437345,-0.000854185724165291,0.5,-0.0013074449962005,-0.0110059008002281
868,0.00626628706231713,-0.00447371462360024,0.000122748897410929,0.5,-0.000841814035084099,-0.0135709624737501
869,0.00672683445736766,-0.00310651608742774,0.0019652817863971,0.5,-0.000382398982765153,-0.0129169225692749
870,0.00819390732795,-0.000265817710896954,0.00399586232379079,0.5,8.26648829388432E-05,-0.00838733464479446
871,0.00918431859463453,0.00170021632220596,0.0038984683342278,0.5,9.54991410253569E-05,-0.00503751402720809
872,0.00937766022980213,0.0016875471919775,0.00125888676848263,0.5,-0.000388336688047275,-0.00626287236809731
873,0.0092109302058816,0.000758363690692931,-0.00280739949084818,0.199794366955757,-0.00157008366659284,-0.0100942682474852
874,0.00859311036765575,-0.000583380227908492,-0.00735314888879657,-0.246842131018639,-0.00371270859614015,-0.01476239413023
875,0.00735702225938439,-0.00252140918746591,-0.0112190023064613,-0.5,-0.00656842580065131,-0.0202810280025005
876,0.00643321080133319,-0.00396774429827929,-0.0129127539694309,-0.5,-0.00929294805973768,-0.0246658623218536
877,0.00667423941195011,-0.00380577216856182,-0.0122665371745825,-0.5,-0.0111872646957636,-0.0254646092653275
878,0.00749208545312285,-0.00259857927449048,-0.0109039377421141,-0.5,-0.0119572468101978,-0.0239842925220728
879,0.00810344237834215,-0.00195127236656845,-0.0103926565498114,-0.5,-0.0103723956272006,-0.0239030160009861
880,0.00842120870947838,-0.00312685570679605,-0.0108629800379276,-0.5,-0.00527810212224722,-0.0265270937234163
881,0.00839447788894176,-0.00554973818361759,-0.0116357924416661,-0.5,0.000947157968766987,-0.0298919267952442
882,0.0078700203448534,-0.00729297613725066,-0.0121626388281584,-0.5,0.00398497516289353,-0.031107259914279
883,0.00668090581893921,-0.00745158968493342,-0.0127323735505342,-0.5,0.00167021923698485,-0.0288023520261049
884,0.00462974654510617,-0.00687606120482087,-0.0140895526856184,-0.5,-0.00478703435510397,-0.0250294096767902
885,0.00232629291713238,-0.00646414654329419,-0.0159132182598114,-0.5,-0.0113816764205694,-0.0229366105049849
886,0.000751153856981546,-0.00627054227516055,-0.0176557842642069,-0.5,-0.01493308134377,-0.0229950398206711
887,-6.7116561695002E-05,-0.00607314379885793,-0.0197184160351753,-0.5,-0.0162621811032295,-0.0235214941203594
888,-0.000493279541842639,-0.00550942402333021,-0.0221536848694086,-0.5,-0.0183326117694378,-0.0229210890829563
889,5.28087330167182E-05,-0.00402204506099224,-0.0236213356256485,-0.5,-0.0220704600214958,-0.0208370890468359
890,0.00169225491117686,-0.00159421958960593,-0.0230638589709997,-0.5,-0.0254597738385201,-0.0186337232589722
891,0.00332348397932947,0.000953176117036492,-0.0206650905311108,-0.5,-0.026074830442667,-0.0179691575467587
892,0.00410252809524536,0.00258598430082202,-0.0171846076846123,-0.5,-0.02394007332623,-0.0191229823976755
893,0.00385702308267355,0.00282910419628024,-0.0140500459820032,-0.5,-0.0216406490653753,-0.0215400941669941
894,0.00335140270181,0.00223801494576037,-0.0121179241687059,-0.5,-0.0207555368542671,-0.023937463760376
895,0.00284420233219862,0.00134808570146561,-0.0112126544117928,-0.5,-0.0212281849235296,-0.0243342481553555
896,0.0018610650440678,0.000276253384072334,-0.0109382746741176,-0.5,-0.0223076287657022,-0.0222549755126238
897,0.000931949412915856,-0.000941763399168849,-0.0109195010736585,-0.5,-0.0222815722227097,-0.0203168969601393
898,0.000805938907433301,-0.00199054274708033,-0.0110516548156738,-0.5,-0.0204997081309557,-0.0204643476754427
899,0.00133175880182534,-0.00215241056866944,-0.0113326441496611,-0.5,-0.0179717075079679,-0.0217511635273695
900,0.00244612479582429,-0.0011298171011731,-0.011089832521975,-0.5,-0.0145749934017658,-0.0224268566817045
901,0.00456462521106005,0.000884942535776645,-0.00900558941066265,-0.5,-0.00837212987244129,-0.0204846374690533
902,0.00699184369295835,0.00272376975044608,-0.00588833959773183,-0.5,8.75808927958133E-06,-0.016653336584568
903,0.00793310534209013,0.00243412749841809,-0.00549531914293766,-0.5,0.00504647102206945,-0.0152965020388365
904,0.00702019641175866,-0.000284991518128663,-0.00982797704637051,-0.5,0.00270290160551667,-0.0188771951943636
905,0.00605170568451285,-0.00335918692871928,-0.016013141721487,-0.5,-0.00403155479580164,-0.0246993992477655
906,0.00576450349763036,-0.00497971940785646,-0.0202886033803225,-0.5,-0.0104045765474439,-0.028395151719451
907,0.00464191474020481,-0.0053853546269238,-0.0223661679774523,-0.445474416017532,-0.0160312727093697,-0.0285899043083191
908,0.00229886802844703,-0.00520682148635387,-0.02335543371737,-0.0702033340930939,-0.0215137414634228,-0.0262076910585165
909,0.000351396127371117,-0.00412896508350968,-0.0230393130332232,0.404650539159775,-0.0250878594815731,-0.0223797634243965
910,-0.000358855293598026,-0.00206154189072549,-0.020999314263463,0.5,-0.0256307274103165,-0.0190946105867624
911,-0.000378616445232183,-1.24282860269886E-05,-0.0179892014712095,0.5,-0.023306792601943,-0.0188511069864035
912,-5.12507831444964E-05,0.00118479388765991,-0.0153624191880226,0.5,-0.0182916671037674,-0.0216603148728609
913,0.000932710245251656,0.00204136944375932,-0.0136494925245643,0.5,-0.0123881110921502,-0.0244917143136263
914,0.00281105120666325,0.00353970844298601,-0.0125226248055696,0.5,-0.00837349332869053,-0.0247302055358887
915,0.00488010048866272,0.00563230132684112,-0.0117932911962271,0.5,-0.00706375762820244,-0.0226867087185383
916,0.00574643490836024,0.0074127116240561,-0.0117180803790689,0.5,-0.0079683493822813,-0.0200909711420536
917,0.00488859042525291,0.008424979634583,-0.0121080279350281,-0.15652371942997,-0.0107510518282652,-0.0176617205142975
918,0.00350301270373166,0.00914177298545837,-0.0119593292474747,-0.5,-0.0143559155985713,-0.0154184997081757
919,0.00258162128739059,0.00962401274591684,-0.0114332139492035,-0.5,-0.0180810671299696,-0.0144253559410572
920,0.00161228573415428,0.00911726895719767,-0.0116236712783575,-0.5,-0.0222148783504963,-0.0153677640482783
921,0.000479649257613346,0.00775923253968358,-0.0123506542295218,-0.5,-0.0263297632336617,-0.0167087726294994
922,6.90267188474536E-05,0.00639704475179315,-0.0130682736635208,-0.5,-0.0293863117694855,-0.0166978575289249
923,0.00114584690891206,0.0058263405226171,-0.0131942490115762,-0.5,-0.0297261457890272,-0.0139409322291613
924,0.00302924611605704,0.00575845269486308,-0.0125569989904761,-0.5,-0.026821319013834,-0.00888258591294289
925,0.00335709052160382,0.00433485629037023,-0.0131675535812974,-0.5,-0.0237369146198034,-0.00538927130401134
926,0.00146881898399442,0.00126020796597004,-0.016318229958415,-0.5,-0.0232187490910292,-0.00626170169562101
927,-0.000101969933893997,-0.00131686532404274,-0.0198514200747013,-0.5,-0.0244624391198158,-0.0103929666802287
928,-4.54338696727064E-05,-0.00264012441039085,-0.0216151084750891,-0.5,-0.0259887725114822,-0.0159812234342098
929,0.000564808899071068,-0.0031903381459415,-0.0212704576551914,-0.5,-0.0268448609858751,-0.0213764291256666
930,0.000515559513587505,-0.00271887239068747,-0.0198898874223232,-0.5,-0.0271784793585539,-0.0249527245759964
931,-0.000796475680544972,-0.0016217646189034,-0.019538251683116,-0.5,-0.0280895624309778,-0.0269331838935614
932,-0.00248596328310668,-0.000618930149357766,-0.0204021017998457,-0.5,-0.0285066571086645,-0.0281344801187515
933,-0.00352050689980388,0.000130228334455751,-0.0211615357547998,-0.5,-0.0268375333398581,-0.0289066229015589
934,-0.00336517672985792,0.00102183641865849,-0.0211987812072039,-0.5,-0.0235708393156528,-0.0291984993964434
935,-0.00199704291298985,0.00224458728916943,-0.0209268759936094,-0.5,-0.0210044290870428,-0.0291644427925348
936,-0.000393338297726586,0.00301153911277652,-0.0211229845881462,-0.5,-0.0215525142848492,-0.0299002360552549
937,0.000806812779046595,0.00297513231635094,-0.021752592176199,-0.5,-0.024826854467392,-0.0316432639956474
938,0.00120063382200897,0.00246876501478255,-0.0223047435283661,-0.5,-0.0284507647156715,-0.0331631265580654
939,0.000846986717078835,0.00183111953083426,-0.021943099796772,-0.5,-0.0305068716406822,-0.0338146425783634
940,0.000720581156201661,0.00146177771966904,-0.0201129093766212,-0.5,-0.0303489938378334,-0.03422462195158
941,0.001284722937271,0.000960963196121156,-0.0177136603742838,-0.5,-0.0279702506959438,-0.0350636206567287
942,0.00190822756849229,-0.00038719130679965,-0.0162143837660551,-0.5,-0.0236048735678196,-0.0360958650708199
943,0.00183802691753954,-0.00180695031303912,-0.0156619641929865,-0.488314867019653,-0.0186366736888886,-0.0351812839508057
944,0.00126055674627423,-0.00176838831976056,-0.0146165201440454,-0.333718210458755,-0.0147488554939628,-0.0304834358394146
945,0.000570102129131556,-0.000375190982595086,-0.0126335164532065,-0.195104584097862,-0.0124074732884765,-0.0238310489803553
946,0.000394774600863457,0.00141268817242235,-0.0106218419969082,-0.12088817358017,-0.0113978199660778,-0.0178643148392439
947,0.00159322132822126,0.00332528143189847,-0.00977461971342564,-0.104776583611965,-0.0118603585287929,-0.0137934349477291
948,0.00371932447887957,0.00491070235148072,-0.0107351811602712,-0.109466671943665,-0.0134724862873554,-0.0126128233969212
949,0.00508360331878066,0.00575145659968257,-0.0128890797495842,-0.11049423366785,-0.0150764528661966,-0.0138549758121371
950,0.00433159014210105,0.00596001837402582,-0.0152553441002965,-0.0946575105190277,-0.0152743151411414,-0.0155330495908856
951,0.00210972223430872,0.00553952530026436,-0.0168735086917877,-0.0586200766265392,-0.0131236109882593,-0.0168904159218073
952,0.000163220975082368,0.00460308697074652,-0.0172083843499422,-0.0141964675858617,-0.0104163438081741,-0.017886945977807
953,-0.000386735424399376,0.00331111182458699,-0.015977693721652,0.0203448478132486,-0.00930586829781532,-0.018126605078578
954,0.00113889575004578,0.0025030286051333,-0.0124257998540998,0.0309210922569036,-0.00871517043560743,-0.016851058229804
955,0.00416311388835311,0.00403866684064269,-0.00778069300577044,0.0132147762924433,-0.00775630632415414,-0.0134164318442345
956,0.00631450721994042,0.00668480340391397,-0.00600552465766668,-0.0384218655526638,-0.00760946189984679,-0.010594142600894
957,0.00636452017351985,0.00658285059034824,-0.00895179063081741,-0.128637209534645,-0.0092128673568368,-0.0114907631650567
958,0.00504789082333446,0.00341339292936027,-0.0141059150919318,-0.226196527481079,-0.0115429200232029,-0.0146066714078188
959,0.00286049232818186,0.000227402590098791,-0.0175907127559185,-0.301848888397217,-0.0121920229867101,-0.0171957928687334
960,-8.8886299636215E-05,-0.00155419227667153,-0.0178666952997446,-0.380640655755997,-0.0120272887870669,-0.0188564043492079
961,-0.00276877568103373,-0.0035134528297931,-0.01619878038764,-0.48004150390625,-0.0141516327857971,-0.020978482440114
962,-0.00317471520975232,-0.00660720653831959,-0.0142874764278531,-0.5,-0.0178910307586193,-0.0245331097394228
963,-0.000816200976260006,-0.00943330954760313,-0.0132199311628938,-0.5,-0.0207879897207022,-0.0289839878678322
964,0.00239305407740176,-0.0106629971414804,-0.0132498275488615,-0.5,-0.0221451595425606,-0.0330366007983685
965,0.00447706738486886,-0.0101148625835776,-0.0135198747739196,-0.5,-0.0221886076033115,-0.0349713824689388
966,0.00490436190739274,-0.00827462319284678,-0.0131301302462816,-0.5,-0.02158766053617,-0.0344371497631073
967,0.00418062089011073,-0.0062183290719986,-0.0123789459466934,-0.5,-0.0208713952451944,-0.0333591215312481
968,0.00313728209584951,-0.00478890910744667,-0.0120483031496406,-0.5,-0.0196668077260256,-0.0324171632528305
969,0.00244682771153748,-0.00406374270096421,-0.012541132979095,-0.5,-0.0180514995008707,-0.0306941587477922
970,0.00229440303519368,-0.0038861024659127,-0.0138012124225497,-0.5,-0.0171572528779507,-0.0284076053649187
971,0.00228803185746074,-0.00388080021366477,-0.015082229860127,-0.5,-0.0173702072352171,-0.0258092321455479
972,0.00148365378845483,-0.00371246645227075,-0.01598253659904,-0.5,-0.0180804803967476,-0.0225766040384769
973,2.65868020505877E-05,-0.00370770553126931,-0.0166181940585375,-0.5,-0.0183590687811375,-0.0198239553719759
974,-0.00043820493738167,-0.00413648597896099,-0.0164277218282223,-0.5,-0.0170463193207979,-0.0186683759093285
975,0.00107571214903146,-0.00442593079060316,-0.015181933529675,-0.5,-0.0141186192631722,-0.0184953361749649
976,0.00412738416343927,-0.00428957352414727,-0.0138888703659177,-0.5,-0.011226219125092,-0.0189652312546968
977,0.00700149172917008,-0.00405046110972762,-0.0133049879223108,-0.5,-0.00974596105515957,-0.0200331006199121
978,0.00850752927362919,-0.00325636984780431,-0.0122242635115981,-0.5,-0.0085046011954546,-0.0204537864774466
979,0.00819290895015001,-0.00219837832264602,-0.0100864516571164,-0.5,-0.00603499729186296,-0.0200263019651175
980,0.00534379109740257,-0.00267982040531933,-0.00905910041183233,-0.5,-0.00419244915246964,-0.0212237983942032
981,0.001514324801974,-0.00473481230437756,-0.0101426299661398,-0.5,-0.00553005281835794,-0.025366373360157
982,-0.000510420417413116,-0.00634068856015801,-0.0119241904467344,-0.5,-0.00957843195647001,-0.029963007196784
983,-0.0009200120694004,-0.00626591127365828,-0.0131785301491618,-0.5,-0.0137906409800053,-0.0321556739509106
984,-0.00116529676597565,-0.00486180000007153,-0.013151990249753,-0.5,-0.0148617113009095,-0.0320874974131584
985,-0.000346775399520993,-0.00316346623003483,-0.0111657818779349,-0.5,-0.00948658492416143,-0.0314563736319542
986,0.00209802319295704,-0.00184381287544966,-0.00841654278337955,-0.5,0.000251127290539443,-0.0309497844427824
987,0.00407734280452132,-0.00106852862518281,-0.00732922554016113,-0.5,0.00636567920446396,-0.0301794242113829
988,0.00454163225367665,-0.000394531060010195,-0.00749614089727402,-0.5,0.00554925901815295,-0.0274736639112234
989,0.00407742336392403,0.000587067916058004,-0.00684128561988473,-0.5,0.00128368951845914,-0.0214114915579557
990,0.00236652186140418,0.00133348244708031,-0.00594541104510427,-0.5,-0.00383814377710223,-0.014049063436687
991,-0.000631319358944893,0.00134488521143794,-0.00697546359151602,-0.5,-0.0095398798584938,-0.00955186504870653
992,-0.00321261561475694,0.000727400765754282,-0.0099730072543025,-0.5,-0.0157948955893517,-0.00932183861732483
993,-0.00376927340403199,-0.000472120300401002,-0.0129774417728186,-0.5,-0.0221653264015913,-0.0111036924645305
994,-0.00282165966928005,-0.00188711902592331,-0.0153544098138809,-0.5,-0.0279651526361704,-0.0130553934723139
995,-0.00156428292393684,-0.00200218264944851,-0.0176787804812193,-0.5,-0.0322738252580166,-0.0144478352740407
996,-0.000321853993227705,-0.000890442461241037,-0.0193046629428864,-0.5,-0.0334575511515141,-0.0152434203773737
997,0.000440474832430482,-0.000826348841655999,-0.0191732291132212,-0.5,-0.0303724259138107,-0.0162184238433838
998,0.000424446276156232,-0.00230394583195448,-0.0173130873590708,-0.5,-0.0238165501505136,-0.0170666221529245
999,3.80629244318698E-05,-0.00406694272533059,-0.0148783335462213,-0.5,-0.0169123969972134,-0.0174224432557821
1000,-0.000484247721033171,-0.00550342071801424,-0.0137457251548767,-0.5,-0.0139497676864266,-0.0181566309183836
1001,-0.00102521677035838,-0.00606785155832767,-0.0147752920165658,-0.5,-0.0166352856904268,-0.0190099086612463
1002,-0.00174123677425087,-0.00488299550488591,-0.0167702008038759,-0.5,-0.0225181896239519,-0.0183084364980459
1003,-0.00305139063857496,-0.00208076904527843,-0.0179313626140356,-0.5,-0.0280013661831617,-0.0157607644796371
1004,-0.00421610381454229,0.00164957193192095,-0.0166553873568773,-0.5,-0.0304851960390806,-0.0122568709775805
1005,-0.00458616716787219,0.00531454291194677,-0.0137371057644486,-0.5,-0.029473252594471,-0.00884501449763775
1006,-0.00558358104899526,0.00651520909741521,-0.0128214387223125,-0.5,-0.0271577220410109,-0.00803206861019135
1007,-0.00797586794942617,0.00409205071628094,-0.0147324101999402,-0.5,-0.0255714505910873,-0.0114518357440829
1008,-0.00982079841196537,0.000609308655839413,-0.0168938934803009,-0.5,-0.0249812006950378,-0.0168578941375017
1009,-0.00931667536497116,-0.00112137291580439,-0.0180931016802788,-0.5,-0.0248573794960976,-0.021603599190712
1010,-0.00744452187791467,-0.00104580575134605,-0.0184020530432463,-0.5,-0.0237056892365217,-0.0243418477475643
1011,-0.00648887129500508,-0.00060944864526391,-0.0174304526299238,-0.5,-0.0206595193594694,-0.0241553988307714
1012,-0.00681800860911608,-0.000712630746420473,-0.0149244405329227,-0.5,-0.0172345191240311,-0.0219303164631128
1013,-0.00681409286335111,-0.00131339265499264,-0.0119905294850469,-0.5,-0.0154617456719279,-0.0192288961261511
1014,-0.00587140442803502,-0.00243634823709726,-0.0108854379504919,-0.5,-0.0161890313029289,-0.0168353579938412
1015,-0.00506730750203133,-0.00405101990327239,-0.0122960973531008,-0.5,-0.0189622659236193,-0.0142408767715096
1016,-0.00460461946204305,-0.00515322666615248,-0.0144663471728563,-0.5,-0.021986061707139,-0.0101161478087306
1017,-0.0034018736332655,-0.00511203100904822,-0.0159386713057756,-0.5,-0.0226609464734793,-0.00658241426572204
1018,-0.00169131660368294,-0.0045969937928021,-0.0173169318586588,-0.5,-0.020364835858345,-0.00753886112943292
1019,-0.000462204858195037,-0.00354532152414322,-0.0189769584685564,-0.5,-0.0167490411549807,-0.0117287803441286
1020,0.000579785963054746,-0.00190149538684636,-0.0197196360677481,-0.5,-0.0120645798742771,-0.0153931509703398
1021,0.00242311740294099,-0.000673192727845162,-0.0187694747000933,-0.5,-0.00533194560557604,-0.0171909797936678
1022,0.0058956341817975,0.00106412149034441,-0.0161126889288425,-0.5,0.00206525647081435,-0.0163251142948866
1023,0.0103625748306513,0.00522807100787759,-0.0121630132198334,-0.5,0.00646988674998283,-0.0121434573084116
1024,0.0137380827218294,0.0103139597922564,-0.00779489614069462,-0.5,0.00634006503969431,-0.00655014300718904
1025,0.013782705180347,0.0124156372621655,-0.00507132336497307,-0.5,0.00285320961847901,-0.00425817677751184
1026,0.00980132538825274,0.0102270357310772,-0.00604279944673181,-0.5,-0.00277320365421474,-0.0080386558547616
1027,0.00436414172872901,0.00622139777988195,-0.0093701146543026,-0.5,-0.00924982875585556,-0.0151198487728834
1028,0.000552720623090863,0.00297846691682935,-0.0122746108099818,-0.5,-0.0151070840656757,-0.0212449915707111
1029,-0.00175448530353606,0.0010604050476104,-0.0144420955330133,-0.5,-0.0197951700538397,-0.024924797937274
1030,-0.00411238567903638,0.000147920785821043,-0.017045833170414,-0.5,-0.0237444937229156,-0.0276335012167692
1031,-0.00626397971063852,-0.000312272342853248,-0.0194293428212404,-0.5,-0.0262620411813259,-0.0304636601358652
1032,-0.00695766182616353,-0.000510117795784026,-0.0196870248764753,-0.5,-0.0253982730209827,-0.0315490663051605
1033,-0.00617181183770299,0.000731663196347654,-0.0176545027643442,-0.5,-0.0215590391308069,-0.0287044513970613
1034,-0.00499928696081042,0.00392537051811814,-0.0147854462265968,-0.5,-0.0178484115749598,-0.0227684248238802
1035,-0.00509018264710903,0.00646088737994432,-0.0133814476430416,-0.5,-0.0169393122196198,-0.0179194789379835
1036,-0.00738723762333393,0.0056328596547246,-0.0144087234511971,-0.5,-0.0182237848639488,-0.0173653978854418
1037,-0.00992205552756786,0.00290053035132587,-0.0151256220415235,-0.5,-0.0181250534951687,-0.0189001988619566
1038,-0.010295495390892,0.00124366476666182,-0.01370601169765,-0.5,-0.0154738072305918,-0.0193611923605204
1039,-0.00931232795119286,0.000654057541396469,-0.0124232992529869,-0.5,-0.0128863342106342,-0.0198322143405676
1040,-0.0080717783421278,0.000497263506986201,-0.012538518756628,-0.5,-0.0117859030142426,-0.0209162943065166
1041,-0.00608693761751056,0.00124426081310958,-0.01271709240973,-0.5,-0.0116505390033126,-0.0206046085804701
1042,-0.0038628417532891,0.00232073455117643,-0.0122430985793471,-0.5,-0.0124477976933122,-0.0185432285070419
1043,-0.00229913624934852,0.0029078908264637,-0.0112514179199934,-0.5,-0.0141971167176962,-0.016318766400218
1044,-0.00110260106157511,0.00317075732164085,-0.0102430330589414,-0.5,-0.016399584710598,-0.0149424141272902
1045,-3.52775605279021E-05,0.00321957981213927,-0.0101460199803114,-0.5,-0.018640149384737,-0.0144132152199745
1046,0.000924328109249473,0.00266192550770938,-0.0106401154771447,-0.5,-0.0199607443064451,-0.0146190142259002
1047,0.00222923699766397,0.00174117588903755,-0.010143855586648,-0.5,-0.0188605487346649,-0.0147755434736609
1048,0.00324764451943338,0.000776580476667732,-0.00867687352001667,-0.5,-0.0158933885395527,-0.0142951663583517
1049,0.00258109346032143,-0.00102489674463868,-0.00757384300231934,-0.5,-0.012856918387115,-0.0153043977916241
1050,0.0005345240351744,-0.00407353043556213,-0.00692918570712209,-0.5,-0.0100134806707501,-0.0197387579828501
1051,-0.00188253505621105,-0.00702346907928586,-0.00674712844192982,-0.5,-0.00812718365341425,-0.0250539798289537
1052,-0.00426857452839613,-0.00803446304053068,-0.00750890700146556,-0.5,-0.00820572767406702,-0.0266528222709894
1053,-0.00577450543642044,-0.00709921726956964,-0.00839255098253489,-0.5,-0.00864071678370237,-0.0232532620429993
1054,-0.00628975639119744,-0.00566553184762597,-0.00891936104744673,-0.5,-0.00829290878027678,-0.0176571346819401
1055,-0.00641196174547076,-0.0042964331805706,-0.00934402085840702,-0.5,-0.0080327158793807,-0.0122776785865426
1056,-0.006140295881778,-0.00288258097134531,-0.00949631724506617,-0.5,-0.00862107798457146,-0.00794329680502415
1057,-0.00555887585505843,-0.00124806701205671,-0.0092801796272397,-0.5,-0.0100071746855974,-0.00484970677644014
1058,-0.00438852189108729,0.00120089529082179,-0.00796645041555166,-0.5,-0.00997787248343229,-0.00237264204770327
1059,-0.00265590101480484,0.00410607643425465,-0.0052980175241828,-0.5,-0.00712575623765588,-0.000527716765645891
1060,-0.00142755545675755,0.00613201828673482,-0.00238752784207463,-0.5,-0.00395292229950428,0.000725258607417345
1061,-0.000884253764525056,0.00696792686358094,0.000157746937475167,-0.5,-0.00277449609711766,0.00172787276096642
1062,-0.000225122377742082,0.00718672852963209,0.00304443319328129,-0.5,-0.0025403902400285,0.00211595115251839
1063,0.000980696291662753,0.00732618849724531,0.00707790488377213,-0.5,-0.000835724640637636,0.00202342472039163
1064,0.00181512674316764,0.00714163202792406,0.00994670577347279,-0.5,0.00145095738116652,0.00157992367167026
1065,-2.60855395026738E-05,0.00497791590169072,0.00739762745797634,-0.5,0.000293486227747053,-5.76924758206587E-05
1066,-0.00412672571837902,0.00115862814709544,0.000156855909153819,-0.5,-0.00499045941978693,-0.00243525998666883
1067,-0.00677067320793867,-0.0008431879687123,-0.00648888852447271,-0.5,-0.010990290902555,-0.0036516145337373
1068,-0.00586031191051006,0.000302408501738682,-0.00939675979316235,-0.5,-0.0144555298611522,-0.00391297927126288
1069,-0.00231986516155303,0.00204914878122509,-0.00970422383397818,-0.5,-0.0143826473504305,-0.00559216272085905
1070,0.00112026219721884,0.00264066830277443,-0.0101147359237075,-0.5,-0.0126170096918941,-0.00858864653855562
