,AF3,AF4,Fp1,AF7,AF8
0,0.008549354817824305,0.0037227735266378795,-0.01637911159409413,-0.015171734812352221,-0.023538209820890877
1,0.004173918539768591,0.0008540131079405353,-0.016025658053120142,-0.016264500047937953,-0.027178612632252935
2,-0.0012113023813411187,-0.003079729837043865,-0.018074351554794227,-0.019758080065406178,-0.02971145741862337
3,-0.006603902831910969,-0.006330250036426146,-0.022883408273865532,-0.02600146376290134,-0.030573667216207308
4,-0.012056888281692598,-0.008093655799640642,-0.029178431361838453,-0.03449676605193717,-0.030262042034992203
5,-0.01667079360325965,-0.008965338719960414,-0.03498980854340262,-0.04218626981250632,-0.02923346463294191
6,-0.018683391320953875,-0.0096673437263925,-0.03803253526933441,-0.04587922891557914,-0.027724645364123366
7,-0.017347565280127222,-0.009900286766122564,-0.03680457372480161,-0.04518503953839304,-0.02479675041461573
8,-0.01594453033043957,-0.009433199655569772,-0.03272857996858017,-0.045749252946348795,-0.020203848746241964
9,-0.017616527019196315,-0.008969280093539662,-0.028627461130834104,-0.051495630483770656,-0.016799763722004136
10,-0.018105133234932517,-0.009532910973469325,-0.024034697799278516,-0.05192417139540979,-0.017500541482813936
11,-0.013413338846750271,-0.01008614514304175,-0.01648724420608084,-0.03976017338052361,-0.019356090443724164
12,-0.006235020969752566,-0.008083711258423852,-0.0070386663701987985,-0.024513456345694185,-0.01645020349640998
13,0.0008771979308532112,-0.004359187425820734,0.0010550518397075513,-0.014691084398354112,-0.00894830699981609
14,0.006743194806021779,-0.0021522152129031112,0.007188793618497806,-0.00892492511605752,-0.0011024421007779011
15,0.01058426016631064,-0.0022386492947909548,0.012695965728405267,-0.004258042040383894,0.0040621610525247934
16,0.011893091970758758,-0.004451392315634919,0.017184683867887667,-0.0011771046246931583,0.0035471677671431584
17,0.009627555728670077,-0.008666777252243359,0.018506531451365073,-0.0009188483906590897,-0.0030155901537758678
18,0.004203887104993458,-0.013457593244514156,0.015471227074006064,-0.004327480413794462,-0.011360277038060378
19,-0.003335601261266833,-0.01800453437429273,0.009355128659569127,-0.012256061395866815,-0.017855276000767015
20,-0.010176025112272186,-0.021289780717775035,0.0042604520235760895,-0.018428067947407405,-0.020260220090743866
21,-0.011959382936829533,-0.021666114969865286,0.005314661116363204,-0.01382180078615586,-0.016235797943975522
22,-0.008476589532195697,-0.020187665150079328,0.012759546176830188,0.001631166656669209,-0.008249719897907766
23,-0.00322523980682898,-0.019780503174963476,0.021519009959709935,0.020155532051456083,-0.003075618952622374
24,0.0007212527097056337,-0.021245465642624636,0.028198208336557132,0.034006826656766194,-0.0030424798365860438
25,0.002787456291835924,-0.02279889096279033,0.03320852665818832,0.04169289606240547,-0.004444800594976013
26,0.004297080603483572,-0.023426677723397106,0.036662751288387585,0.04546368414459514,-0.004483824492322692
27,0.006402361630958093,-0.022869017518089153,0.03835613581169997,0.047412136900577384,-0.0025751131856266286
28,0.008677256559787839,-0.020850522260659747,0.03933889449295091,0.04774010375808504,0.001167629659694034
29,0.008316418817185837,-0.019423857162850725,0.0387203278800528,0.04543979395561232,0.00392821248726366
30,0.004023762257307174,-0.020305707409316063,0.03552596569528777,0.03986703934887928,0.0033120140928142266
31,-0.0017891644732842985,-0.02262493912372398,0.03142283647661323,0.03293523455606641,0.00021748208621031934
32,-0.006564860308084579,-0.025142387864579542,0.02819680901684621,0.02827869943146691,-0.0033932093491417436
33,-0.0102061024166899,-0.028088542930989245,0.02646202886561304,0.02660054889303736,-0.006649537920618828
34,-0.013316912815655127,-0.0318601055386604,0.025644910752885868,0.026472396529747946,-0.009314886321715104
35,-0.014600912684415388,-0.03400131274794253,0.026011270202034555,0.027782393094639087,-0.009216680525335629
36,-0.011636548421544926,-0.031012997104631318,0.02591345822047505,0.02838447808405764,-0.004474954774424142
37,-0.004863866398462674,-0.023408742484049536,0.02623477401180216,0.029457394410593973,0.004998072766317525
38,0.0007304778199018609,-0.016311049048169934,0.02463948046817926,0.02665629894296422,0.014748140099412861
39,0.0014635436503667649,-0.014271084020709972,0.019153667717182868,0.01861643332882054,0.018702406898071216
40,-0.00275546963205405,-0.017754648641967574,0.013311568077471747,0.011838901290822669,0.015093638487200852
41,-0.01160030073678142,-0.02325454246888465,0.0072095302863158205,0.002135831601441725,0.006954466719805718
42,-0.022264914841367226,-0.02667125663610594,0.0008661807685736889,-0.012323879468085582,-0.0007255998235741059
43,-0.028169499325446046,-0.02732772968663934,-0.004236513190950416,-0.02241958670110964,-0.006272275567028542
44,-0.025818720182587407,-0.02588124529126726,-0.005485266100905944,-0.021441801771708152,-0.007993882622929669
45,-0.01828189729670596,-0.022751397692644445,-0.003302158470511045,-0.01510430811881649,-0.005142973327074734
46,-0.00937661416903583,-0.018558376764193037,0.00061870113750167,-0.00881977128415816,-1.2227323773134276e-05
47,0.0003220011775270761,-0.01136857846755904,0.006632748190186925,-0.0015936641904643846,0.007292844147360409
48,0.010526022963203183,0.0001530691664649126,0.013097269114863025,0.005107014271241761,0.017285316451821586
49,0.01806092374147716,0.011703628784035658,0.016372771575754057,0.007997446656479166,0.026646846343127233
50,0.020232693868597145,0.017827933617092076,0.01344166347273901,0.0058148341819948225,0.03006240760295798
51,0.017905795558190937,0.01761095143411064,0.0046865517042263445,0.000747774149452833,0.025144763454744427
52,0.01245116385694508,0.012776435255737026,0.002585269351722128,0.0017510380607888263,0.016852916996492016
53,0.00504450910205391,0.005584468231760673,0.001784133019774565,0.0033706909971140944,0.0072096535110612835
54,-0.0034843621066718237,-0.0018770372123365574,-0.002369261873706376,0.001069040972029896,-0.0013626077119460167
55,-0.012854074292254448,-0.008640723312698375,-0.004582789958748871,-0.0008668775792980278,-0.006386673540684622
56,-0.02045926891141502,-0.013595667212290526,-0.008046109499812966,-0.002889725060384274,-0.009899885660471522
57,-0.023758151520928753,-0.015721899858379917,-0.008700380470379594,-0.001978630126773098,-0.01079863825561828
58,-0.023510387328115168,-0.014719095538201762,-0.0027329642004823044,0.0028008638015512297,-0.007633541353822306
59,-0.022483603680879226,-0.011844813777874021,0.006302201455274477,0.007278352127719535,-0.0020485652137010113
60,-0.022424342555571963,-0.009423300552323096,0.009854487777475076,0.0065169197948992145,0.0011709992448749994
61,-0.023257328033179845,-0.009322121031217498,0.010045060468840919,0.004867334757738406,0.001076672488716375
62,-0.025077986243636736,-0.01210868773767784,0.010287490463807596,0.0028054983356036716,-0.000623868885781467
63,-0.026055611704045703,-0.015889321144877067,0.011688340668701048,0.0006251289684423152,-0.0021984563906337386
64,-0.024283091297943666,-0.018259570335380167,0.018770951313300272,0.005748024533908568,-0.0012924215209258792
65,-0.022692247872281204,-0.019436695990726862,0.025756324902347513,0.01069521765083886,0.001392191495288303
66,-0.024258244233353106,-0.021818349800664855,0.029710000345269848,0.010086051059358205,0.0034817490180387677
67,-0.02761562054485219,-0.025357265087028916,0.03364927124738566,0.007890872650939589,0.004547548904250734
68,-0.03002827270458492,-0.02641907162137376,0.03183616177419344,0.004420424658687739,0.003286006552391669
69,-0.0305250794796119,-0.023048641661392193,0.030226419572681962,0.0014542185338493145,0.0028596744462533264
70,-0.030345478890433576,-0.017362219456878557,0.029953214572083827,-0.00205520094118705,0.003579757757270803
71,-0.031164151316472332,-0.012907212088049817,0.02447875600561351,-0.008763263574646575,0.002330054234674592
72,-0.03259628757764686,-0.01102885784077037,0.019294085011283678,-0.015176488050858035,0.0005829412648756429
73,-0.03216951328360493,-0.009235419083482821,0.0166292601489557,-0.018689911918635175,0.0007963727603904326
74,-0.029058404813191392,-0.006063611193916413,0.01606678186196406,-0.017999917302609185,0.0038918366234021815
75,-0.0254986057860521,-0.004194401778041537,0.016937721399860904,-0.013712594972426334,0.007120776149880185
76,-0.023382220928547363,-0.00433676520340986,0.021037023530489623,-0.007553894347731541,0.010326494432848362
77,-0.022726280313812672,-0.0038779834678190446,0.024666192146234566,-0.0030082675766772383,0.013497856669491727
78,-0.023181215574023598,-0.002952985224508453,0.025185847574126348,-0.0003746221715528232,0.014834150160441125
79,-0.025392857698141574,-0.004068288668787439,0.022369525786203624,0.0006894719975857263,0.013321461269849334
80,-0.029029780334554535,-0.0074221270202482785,0.015468274257466741,-0.0006491586134031002,0.008964207147264735
81,-0.031312776835708774,-0.011322527607670666,0.011004627375301888,0.00020704799025409758,0.003501472616416005
82,-0.030997679874611963,-0.01396859621174919,0.011984346375766395,0.004714713394386233,-0.0016506150994948607
83,-0.030235117631160564,-0.014898909001107992,0.014735269975506747,0.0073506723410999425,-0.006083628358372019
84,-0.030394737176141395,-0.015431835325637688,0.016777673713169437,0.00617876197903343,-0.008364360323996324
85,-0.03133723618053921,-0.01632928756339168,0.016490892607264086,0.0026115621290633286,-0.010498136833889891
86,-0.03330721271827943,-0.016433277909221406,0.01312530874039593,-0.0028563831895886053,-0.012442333510100349
87,-0.03397383376846675,-0.015432332919629374,0.008203211297039244,-0.005455012818713623,-0.012179463408904842
88,-0.030908414033987613,-0.01506282466195175,0.0036882570920190308,-0.001864866767927215,-0.011440397413663829
89,-0.025335906206462026,-0.0145966634796676,0.0006019215669224458,0.0038059370635007373,-0.009336554003764935
90,-0.018735234567317318,-0.011618969571107404,0.00032161864132092505,0.008748120798846789,-0.0038782375998232597
91,-0.01327815839918694,-0.007030992748047281,0.0028225468904362044,0.012358664845603964,0.0031209090355404073
92,-0.01163042623419678,-0.0030323509127490288,0.004886546318469877,0.012731377532357556,0.007198395374823338
93,-0.013910799962797883,-0.000497967825881509,0.003985922490678232,0.009149459663678378,0.007280195097471744
94,-0.018596939263481126,-0.0008259140680413889,0.0005144917792696393,0.0035102837103132816,0.0023537584804593876
95,-0.023040449063491134,-0.0036684735228325613,-0.0032858200873521325,-0.0011148841152575951,-0.0055109165494460705
96,-0.023438100739883026,-0.004995208604480649,-0.004810765853772799,-0.0022766386271050585,-0.007886224601597365
97,-0.018223663301417555,-0.0022822530305544415,-0.002790335542089253,0.0012500967307324193,-0.0024643622801899046
98,-0.011008215416460923,0.002280873422744011,0.0011387015809376274,0.007281076177516595,0.005169503687451801
99,-0.006688704373227689,0.0048774363831553605,0.0033153284102181847,0.010645469309520138,0.009310908391810833
100,-0.005990523383728179,0.003667286558773485,0.00446643210245474,0.010025569956607545,0.008153632508801701
101,-0.00646760720826192,0.0005157525886027481,0.004404948113053994,0.006733135682124067,0.0031901867058112517
102,-0.006582903272501115,-0.0010243962092590867,0.004300789249599892,0.003086807556807203,-0.0015700931871800068
103,-0.0069201638981466074,-0.00022963382187828134,0.004617705865704766,0.0008969687229406318,-0.0035494098501060974
104,-0.0077644931887224915,0.001198550449441504,0.002327239245714264,0.0006891165707696552,-0.004151898256633353
105,-0.008602303641203096,0.002044030378467312,-0.0010961626813869637,0.003026732676366382,-0.004661885936548732
106,-0.009770726144319697,0.0018050894942966932,-0.003450162065649198,0.006047010192013597,-0.004111390372087116
107,-0.011312616859733208,0.0003959345247051442,-0.005280224584539667,0.007868562271776104,-0.002138258069657049
108,-0.013217730653443218,-0.0024975208012124224,-0.009435255422383871,0.007275109084540645,-0.0008787166084537409
109,-0.015108142681971228,-0.006204723932687461,-0.01478807124767401,0.003928112121917698,-0.0009634758938180079
110,-0.01405824390012232,-0.00737507198450866,-0.017865212759169084,0.0009198947303363669,0.0007139301736537028
111,-0.008012465804649021,-0.004519502081062145,-0.017159595981848956,0.004025248212392709,0.005135039576634102
112,0.0006946697123023097,-0.0004019255144315241,-0.012527137501062748,0.013852745395984663,0.008865886965134316
113,0.008738253781816824,0.002756362787692461,-0.005835563784760506,0.0246034008927217,0.009640151472696106
114,0.015331627903865304,0.005943861264944701,0.0023342782736145633,0.034209274516786715,0.009706575077410776
115,0.019041076805666968,0.008965102773565915,0.010229968655639785,0.042515700703561386,0.010789519497524144
116,0.01705690670949838,0.008047390262943287,0.013218862307465305,0.04313599257117571,0.008965782215985473
117,0.011787502294477243,0.0031653023729560433,0.010301284016974015,0.039997065360488096,0.0027775571685243953
118,0.00894384156378768,-0.0014525652220553486,0.005920740016744494,0.04028779905388399,-0.0034793064711162542
119,0.008273826688509118,-0.005228512740527351,0.0022570679464285312,0.041558271023463426,-0.007231761346621364
120,0.006744060970470378,-0.009016077483099013,-0.0013990239791524777,0.04047607291307303,-0.00842509556232608
121,0.007009866770544987,-0.009950806498517041,-0.0018653296781552912,0.0383815538809211,-0.005128738953931644
122,0.011374663028086266,-0.0061153013021708925,0.002546820434782061,0.03819100458868098,0.0043145126747447665
123,0.0171409487200643,-4.809023379555846e-07,0.008200614537192095,0.03942710179834992,0.017068630803711883
124,0.021944468739279157,0.00487663813263552,0.011902801529898945,0.042570116531568836,0.028320558422062568
125,0.02428041999618766,0.0070619193276911536,0.012078171970840835,0.04450407782399201,0.03562144656265172
126,0.023969038665655848,0.007541652831079424,0.009011951515184118,0.043465564244446385,0.039895003243148174
127,0.02166023715967664,0.007004539920763818,0.004355055640289327,0.040410729066954025,0.042267344937001135
128,0.017490245818853264,0.005670637685395264,0.003314474033693117,0.036941220078740955,0.04656997684965698
129,0.01300683641893194,0.004504369424587046,0.0007001951766919183,0.029533967714171085,0.047369588570276226
130,0.010587784331308457,0.004083060852735354,0.0002982468727141273,0.024414051314343998,0.04796763814041903
131,0.012243800036182157,0.004894813845323182,0.002572429793365602,0.023659237705627018,0.04929271442457963
132,0.017447017360215335,0.006720181823538901,0.006988418255513104,0.027563058980672035,0.048367152999899445
133,0.021225061384845565,0.006921464760479664,0.010811881669637691,0.030405295476947723,0.0458261421423425
134,0.018786368414669997,0.002734619065451741,0.011249265791961205,0.02835467518218828,0.04101065702064136
135,0.011494665462209739,-0.004373898997036508,0.008922618109141661,0.0236228254067358,0.03318856497714049
136,0.004302277158619896,-0.010685552563141689,0.006132877437031817,0.018903989562583767,0.026613787443445818
137,-0.000958704288920381,-0.014772226744727342,0.003187170092797051,0.015155000857781854,0.021310234357290094
138,-0.0047226255768404975,-0.016291377080686845,0.0007924087839515041,0.012020631201111215,0.01693678650811525
139,-0.005984528430882331,-0.015029784305029326,0.0005215588482212714,0.009862433774669067,0.01420551771149362
140,-0.00482935032614163,-0.013075517800653028,0.0014180719632711008,0.007296184546342021,0.013389703326923106
141,-0.0032712210123328946,-0.012842128238539047,0.0015464947080799922,0.0038028129356967974,0.012098475362000396
142,-0.0018623819784713952,-0.013610224969597302,0.0030130539816591233,0.0013570725109944743,0.010248199531459598
143,-0.0006731487465765138,-0.013931362082640125,0.00852016936633634,0.0012104496602754625,0.009097144864328954
144,0.0002060094024071561,-0.013213984823284659,0.017328563589360472,0.004343643193580908,0.008391239182513792
145,0.0013097728281741136,-0.010818369385195087,0.026627031017859508,0.008969077866759727,0.010800588256027949
146,0.0013501384561203642,-0.007761522970526145,0.03285969784226299,0.009627468102100871,0.01570431182188336
147,-0.000989931641397526,-0.00618609755802384,0.03510610183527806,0.00539453149652678,0.01826709612681224
148,-0.004731028510597665,-0.006905123711101922,0.03268515171916067,0.0006799238120297264,0.01831206468168941
149,-0.007344742520593418,-0.009043457906524199,0.028416426895031044,-0.0012250336933443257,0.015829465611541693
150,-0.00634713743000674,-0.010394424598779694,0.025139618712158678,5.696190983897554e-05,0.012694747589954087
151,-0.001895916613021643,-0.008663685529152764,0.0228734664942983,0.001988956242521197,0.01275181470969944
152,0.003680494029706963,-0.004175703175131482,0.02272065922652987,0.0030364312647366124,0.015514755282207977
153,0.007238380721778085,-0.0008740336995769826,0.022992979468482503,0.0030768244529827573,0.017711405045406903
154,0.007423890634204322,-0.0018275745734261213,0.02066441266655184,0.0007292274937998605,0.01702232905793825
155,0.0062777912518100715,-0.0054766670752928875,0.01624968452266207,-0.004178783888460638,0.01513747523858095
156,0.005338853231002819,-0.009103664045783012,0.012345761425153541,-0.009598617898170882,0.012405719422689938
157,0.003668687963994187,-0.012753331218392644,0.008288399061843182,-0.014152675533234554,0.008497918418967638
158,0.0011896018937450532,-0.016731144003623005,0.0031466395331328683,-0.017839206518499195,0.0050451599766280055
159,-0.000450624637795054,-0.019970062946623783,-0.002280309879154125,-0.02055249242118814,0.0024230010233582604
160,8.580044294491397e-05,-0.021566084884884464,-0.006670094326440065,-0.021504234166885034,6.037651303484147e-05
161,0.0029436934689002596,-0.020439085069741587,-0.007316964331422758,-0.01991621557223336,-0.0014348736732778106
162,0.005494999248591827,-0.016538577221544913,-0.004175131072352539,-0.017488698764813407,-0.0012496695352242528
163,0.004688805663314331,-0.011635748432227951,-0.0004192183858982034,-0.016956488717112642,-0.00014706828165721072
164,0.002603765586847658,-0.00655906465940369,0.002944173814021322,-0.016923988354603382,0.001680494237307423
165,0.003982523672328117,-0.0003159090914470145,0.005913387607942475,-0.013360138223761028,0.005316061600734219
166,0.007601396831051888,0.005219726162097287,0.007169816368292378,-0.007308680785451818,0.008796223707406485
167,0.007958890224586979,0.005923572352803986,0.005122019357983027,-0.003549726005491404,0.007974071489624314
168,0.0035194347151334075,0.0016946397126800425,0.0007646453903020898,-0.003273663436417594,0.002988215577902384
169,-0.003867881822192186,-0.004718171596474418,-0.0035132649791436536,-0.00577976886122247,-0.0020353659374386097
170,-0.011677869699484311,-0.010940474688577694,-0.00708051670234244,-0.010117352990841913,-0.004440428517473474
171,-0.017109152219961753,-0.015054378927195095,-0.00939531465922366,-0.013400409395668103,-0.0043803697249243595
172,-0.019118957424150245,-0.015742246529050898,-0.009549524922436098,-0.014174774017351097,-0.0021584562733458095
173,-0.018971096652198573,-0.01339723867404492,-0.007792659925374142,-0.01374334550025965,0.0011204682575670834
174,-0.01873977154564567,-0.010799348127722113,-0.006158045940327034,-0.01416383245619728,0.0030047856106878925
175,-0.018688100303867375,-0.009761635870635806,-0.0054183064877222405,-0.01555327542732204,0.0038939123635262124
176,-0.01709382252784696,-0.008927068339887633,-0.004371614757638191,-0.01563658127938029,0.007049804454290374
177,-0.014638168029892843,-0.008307423237062954,-0.0035924345200401657,-0.014595996678047148,0.012214953354809146
178,-0.013194010587300485,-0.00971932637687121,-0.0037696677998009555,-0.01444282064683492,0.015790471396132832
179,-0.012523362703491197,-0.012843487804974432,-0.003412022241044675,-0.015345097671782432,0.016039506134981858
180,-0.012934746250829115,-0.01641755744781764,-0.002003280973029985,-0.016822832386460727,0.013219181489451297
181,-0.015146448240629835,-0.01968365930240257,-0.0008332197502029523,-0.018362351987795025,0.008582255333674495
182,-0.01760563987525889,-0.02099303180209299,-0.0007309380465784208,-0.019370155226067543,0.004844192674569988
183,-0.01855733200038701,-0.018648308503685308,-0.0019098143811342345,-0.020434946763476396,0.003843254940458751
184,-0.018162202640674734,-0.013886168972085692,-0.003677541416445359,-0.021949178449542757,0.0035447295609166356
185,-0.017060268485376878,-0.009552276305403628,-0.004663808408172185,-0.022913546180554738,0.001793616054565653
186,-0.016731992179151566,-0.007313466385849687,-0.004998053074093714,-0.02393250879061597,-0.00046193615052733526
187,-0.018674598286351506,-0.008001025931371244,-0.005600149027588354,-0.02624235446853807,-0.0019434665209365437
188,-0.02197314862719523,-0.011496928650420637,-0.007051355703667343,-0.029166525615390893,-0.002538740070564329
189,-0.024307611181051656,-0.0158880173941489,-0.009524152896205366,-0.03124972060794121,-0.00286071582559915
190,-0.024598533317763564,-0.019110523315358133,-0.012840963757305495,-0.032028053490313665,-0.0037371224444246827
191,-0.023974959762547123,-0.020904191110200466,-0.017646079374156503,-0.03377729126358485,-0.005227112890738242
192,-0.023653025058378966,-0.021355650465872542,-0.023944601964344038,-0.03795051481807754,-0.006723930635625071
193,-0.023021005342016544,-0.01959425060171821,-0.029496391704411356,-0.04198796113724328,-0.006824946381643478
194,-0.020711775405261285,-0.015905743419728887,-0.03228847734489446,-0.04215760171232043,-0.004670626111678206
195,-0.01754270535406773,-0.012438239055907841,-0.03282791874901464,-0.03960314939517207,-0.002679448300328085
196,-0.01613537925063542,-0.010766503982338431,-0.03244591730172893,-0.036953627667055906,-0.003815826295806604
197,-0.016505171776045935,-0.009864649646163754,-0.030926798084724,-0.03405857560203707,-0.00703418957333774
198,-0.017389319810651633,-0.007801917211051104,-0.02895562944108644,-0.030681569249764513,-0.009393242902745262
199,-0.018953189374769107,-0.004996007103773055,-0.02912907630293605,-0.0284083878398191,-0.010835647208691445
200,-0.020360825698945616,-0.0024361881863305315,-0.031098582763212368,-0.02625986312827102,-0.012550026302011599
201,-0.02002800101911802,0.000891944668957436,-0.032171830434980044,-0.022434561895097883,-0.013543886908997375
202,-0.01822650728332212,0.00472080446532356,-0.03279306655660213,-0.01921735898515278,-0.01334272917819315
203,-0.017268584099554483,0.006260173646247964,-0.03552611324048284,-0.01975228553261366,-0.013450094812964252
204,-0.01885232716156219,0.004741469080282415,-0.04028633395716591,-0.023884469291441966,-0.014513852241729644
205,-0.021866475259852514,0.0023030952505145143,-0.04392786298438661,-0.02805680944900891,-0.016132437891132213
206,-0.02390381132914211,0.0006154886363094679,-0.043859358196934574,-0.029751744551981228,-0.01824410200416465
207,-0.023632482950380552,-5.256092011811756e-06,-0.04006986701235044,-0.029656058595818553,-0.0210585348319874
208,-0.022210051768582765,5.6474899575721146e-05,-0.03490051452040169,-0.029712322711788107,-0.024311441453853524
209,-0.02266267572828685,0.00020970847291638755,-0.031223229541252222,-0.03368188692149621,-0.026810174866830724
210,-0.02336787947286235,0.0006247697674450178,-0.028148009722818654,-0.03947899808204816,-0.02721242223635912
211,-0.019085738914558947,0.0008423822015921581,-0.02328587660256568,-0.03897057328654856,-0.02582500368738472
212,-0.011430690890979282,-0.0008095793445587422,-0.018690678879551427,-0.034167392045665344,-0.024887147099294866
213,-0.006320467408251869,-0.004373195638009804,-0.0171248590869114,-0.031928883314808816,-0.02676397283229207
214,-0.005145447726469044,-0.007166886385136245,-0.017167313964997447,-0.03227279050302802,-0.03092583277102309
215,-0.006250296650712584,-0.0075098732842746934,-0.016926725104200624,-0.03302165292442922,-0.0347639346911199
216,-0.007779863734017511,-0.006342494576784081,-0.01633818306402836,-0.03216158947011654,-0.036552477033077686
217,-0.008348414916715086,-0.004260533572477323,-0.015185777609061087,-0.028991515187732506,-0.035549095762605315
218,-0.008709926037420442,-0.001612739300465023,-0.014085240649926948,-0.02633175259352752,-0.03272072041687262
219,-0.008827841197123501,0.001343538544173511,-0.013331698976023928,-0.02575738384309547,-0.02944254999079404
220,-0.007328640659972091,0.00439422450173908,-0.011507175668177105,-0.02530404077625948,-0.026468311913438698
221,-0.003877757432161522,0.006806728573741135,-0.007323211080878352,-0.02397790428857362,-0.024065994858134477
222,0.0011416684893297922,0.008400272139161963,-0.0006690247192912474,-0.02173901368874677,-0.02167251246460162
223,0.005584109751305782,0.009223907430909263,0.005794837007239954,-0.02017648615920314,-0.019623434782409306
224,0.007078991405205911,0.009273200221393203,0.008426990325002846,-0.02251386737469867,-0.019125199463470865
225,0.006171812612105071,0.008642321949810263,0.007805581520857557,-0.027865150709331418,-0.02015143473805908
226,0.0052445232871256315,0.007327485942280637,0.00790745089396289,-0.03099212768655391,-0.02176102003938511
227,0.005948037260948375,0.005742734807011732,0.01085003265248314,-0.028859085685397794,-0.02364329823070203
228,0.008909073149039248,0.005471555294537654,0.015794292314961524,-0.02355503742818687,-0.02523650427816997
229,0.013092394284950737,0.0073926374243201845,0.019840280914141556,-0.019045527833855696,-0.025892510621934435
230,0.01734280096134008,0.011324808101008764,0.021746867166301725,-0.016393860450211403,-0.024956355600324255
231,0.021771534175450073,0.01665313029252697,0.023993609286993824,-0.01428136865320863,-0.02235247934120925
232,0.025524415473152692,0.021103488400964893,0.028090078067458217,-0.01237737941518452,-0.019474225292028337
233,0.02801794922984379,0.02273740525500032,0.03290495242102694,-0.010330628184509014,-0.017254641823702215
234,0.029576371039270622,0.02194091592551909,0.03637770459755191,-0.008385632236041133,-0.015790919878832504
235,0.029566375302391527,0.020230703453167617,0.036274591974075614,-0.008894030508545219,-0.01537586345242786
236,0.02822572984881135,0.018876705355386318,0.0323877145484048,-0.011924970038381034,-0.016367013620179793
237,0.02757093546651135,0.018683346883558397,0.027520872042332736,-0.01375704475757592,-0.017387001769212977
238,0.027880983992872678,0.0192060528672048,0.022716192983943582,-0.013497391400829187,-0.017298926684130186
239,0.027243442866787426,0.018481899910790633,0.01563931449938884,-0.014670524216401913,-0.018081421836452234
240,0.025441361557899108,0.016498280755365417,0.006362828449911957,-0.018005550154782737,-0.020002003494335823
241,0.02431950485496947,0.016077485634422902,-0.0012843047968202268,-0.02034979709081414,-0.02036199340851827
242,0.024794934060366834,0.01844714770578345,-0.004215435553732833,-0.020117288608679146,-0.019010695370625545
243,0.027117479286878795,0.022890345158938417,-0.0024009218302559073,-0.017725450646472036,-0.01741962983626826
244,0.03061304460356004,0.028457957907726428,0.0016096248086971277,-0.015838634567935442,-0.015329636679268873
245,0.03140140392844541,0.03225070805832022,0.00322676077271092,-0.018789943724584413,-0.013756791440363188
246,0.027537883950564484,0.030821308884792228,0.0002308353000837586,-0.024598982219752374,-0.01586974657874574
247,0.022371870726704022,0.024893940111984095,-0.006038611077644225,-0.028073085506025202,-0.021106514610192403
248,0.018427093699417686,0.01831052254488699,-0.014578473019315509,-0.030382986312164486,-0.02544313231415926
249,0.01637478667836344,0.014118718081729358,-0.02334144994166832,-0.03241159659242767,-0.026160192018503975
250,0.01674345638812821,0.013734236721746196,-0.028381043348918878,-0.031925386219644275,-0.02265843430182042
251,0.01782079431474899,0.01550462166979837,-0.029490771571561946,-0.03040163124424543,-0.018369978374907753
252,0.017116769568511814,0.016587567711894773,-0.030708141721772296,-0.030859412045461544,-0.01792043690579482
253,0.014711413163979377,0.017270954108493896,-0.03410429821590486,-0.033090932548950444,-0.02105403297221042
254,0.012273509965074921,0.018887807063732772,-0.03840591743062781,-0.03484575462122686,-0.02519782726634901
255,0.011132483886436118,0.02114149006709555,-0.04067693784925333,-0.03448040334272044,-0.028699189075637534
256,0.012333690513956887,0.024504205973759217,-0.04079004334228168,-0.02937762412482269,-0.02875273369527677
257,0.016138268476178746,0.02925993639802794,-0.033844328903388635,-0.025028927063537806,-0.024021717938038117
258,0.020983623262848094,0.033111091706913606,-0.025671609265110546,-0.021526001589840447,-0.016457015564392212
259,0.023099073657325213,0.03354888250214104,-0.019654606539464735,-0.02128712256240164,-0.007730581157897333
260,0.02023113737776972,0.029825803089932067,-0.014987828520936063,-0.022620681866400236,0.003044288003517622
261,0.015332969181119045,0.023616764336965426,-0.011884056526251824,-0.0235089830160352,0.01113025929970792
262,0.012368126815038063,0.017391166954425597,-0.010163080359777565,-0.022749871382636868,0.012321603591094918
263,0.01166493331509696,0.011826858522633904,-0.010571450600293313,-0.021288702866541945,0.006328922294751275
264,0.011042047274393486,0.005835713894161079,-0.016191340612626576,-0.022913241831279785,-0.006301949751629378
265,0.009010183147741895,-0.0013588553911098352,-0.02506877320717517,-0.028220288238243754,-0.020468728189433457
266,0.006233511086622258,-0.00897462036420475,-0.032058951214375166,-0.03397561503564986,-0.03127201398389399
267,0.00434503301732103,-0.015593398931234384,-0.032665286159471646,-0.03563527023800046,-0.036580365478591816
268,0.004328686851860179,-0.019344189515825318,-0.026781243570391012,-0.03102020156577347,-0.036187341902676
269,0.006326759456402879,-0.019570535793575608,-0.017750153770301633,-0.020897640839253887,-0.030350638845480473
270,0.009845444602355868,-0.017706373176019696,-0.010795748604021754,-0.00931430277773386,-0.02231818794764118
271,0.012776906788703793,-0.016358069784775175,-0.009108967668344667,-0.0016125563938810142,-0.01569054376547298
272,0.013294664427419773,-0.017778806454096942,-0.009680769095947688,0.001015965332772173,-0.010551037852217176
273,0.013510155800478221,-0.019933181923344426,-0.007355766141314883,0.002797210255079838,-0.004303505097974481
274,0.016952432767029325,-0.018740619908722715,0.0005610012632389687,0.008086855598873548,0.00672124256951143
275,0.023035636638296313,-0.014825956478347549,0.011377437186893559,0.016035466379628712,0.020766501348398837
276,0.028334358994222344,-0.011158609969836995,0.0173251518754335,0.019537183654202605,0.026308275417782776
277,0.031055760485411997,-0.008033245915166186,0.019221396334618647,0.01895344409729924,0.02531465050477239
278,0.030189346198085953,-0.005694687366535958,0.01874881153300489,0.014487530136197555,0.021572411272565713
279,0.02640311217465593,-0.004617125405284965,0.01584325713209253,0.0064153280297937106,0.015080310703990114
280,0.022431078981187666,-0.00429981008920149,0.013653993570243973,-0.0005407176535144537,0.011166015861861939
281,0.018860232385987503,-0.005792332545933003,0.010181143552199902,-0.00788980829655213,0.007495247843837271
282,0.01585775560311589,-0.009816437913633402,0.00429990415335672,-0.01572315789560138,0.0007911994499058258
283,0.015458590831610398,-0.01396916865548191,-0.0006987558523232347,-0.0204263982960948,-0.006593912348595284
284,0.01867707826309008,-0.015273283049340136,-0.0008907554177322159,-0.020200123039599813,-0.008081170831274737
285,0.02280233758276613,-0.01413607927937611,0.0019741892842637834,-0.01817319820973281,-0.005289891412834867
286,0.0236937457505949,-0.013274900643001906,0.004773016859337351,-0.01715617785087017,-0.0034751619790764567
287,0.021264766882998876,-0.013211164105176561,0.006504267287916303,-0.016739201871825236,-0.00423440550266076
288,0.018332569569925006,-0.01258347281155749,0.00593986924517809,-0.01662228384252306,-0.00787677155816273
289,0.0158853505585475,-0.011151377261702533,0.004429809518128633,-0.01668680321633228,-0.010283396449588433
290,0.014326419662596871,-0.009218627728599755,0.0034919666459205653,-0.016328572857111597,-0.008956813183779399
291,0.014488634960304506,-0.006512118924738471,0.0029783161035072153,-0.01516215656100749,-0.005207270565214437
292,0.015137215444259805,-0.003115988850183163,0.0003029536254739165,-0.01254279077753208,-0.00035490371217665294
293,0.014826488104593541,-0.0003144899378357098,-0.0048752089574497625,-0.010436063469692596,0.002250110880027255
294,0.013816357702089383,6.14914398798057e-06,-0.01207950853497905,-0.009596118994132624,0.0006679328035155785
295,0.012350421829144488,-0.002828985868547931,-0.02011623067736897,-0.009660826346023684,-0.0035962666726484026
296,0.010159424491927012,-0.007391151836025521,-0.02554236563793317,-0.01134243189792778,-0.008079130247473514
297,0.00801177795735021,-0.010631792645813836,-0.027060128852983617,-0.012913200162599288,-0.009945502705461986
298,0.006972234116318995,-0.010510304972667512,-0.024870491910742656,-0.012275865004972537,-0.008755462236664015
299,0.005827743520962713,-0.008093533660599317,-0.02092698238970844,-0.011914721279436088,-0.007269695679643852
300,0.0033473144722074993,-0.005628324218325747,-0.01784443946052447,-0.01482549383099708,-0.008677039837432616
301,0.0008545017870475343,-0.003868605610425703,-0.017627094222733057,-0.017699949304358007,-0.012463079941913782
302,0.000563336618818027,-0.0015283188048653626,-0.019635713177972317,-0.016954536152834203,-0.01581538608865111
303,0.002198982681138465,0.0011688893755088367,-0.02181201133959302,-0.013215103577288969,-0.018451780995556652
304,0.003394942997669756,0.0024360197436896548,-0.023911215175971234,-0.009394526032389362,-0.022046661361209693
305,0.003760078064580107,0.00272317064072728,-0.026465405655862667,-0.008298094008130964,-0.026403833512539977
306,0.0040667775502103275,0.002685469609879346,-0.03055462424139588,-0.010179309978881999,-0.03100605425234197
307,0.004593048253118939,0.0027072395050240076,-0.03608883049063944,-0.013023858795670631,-0.03600692933095782
308,0.005774752828751658,0.004043011834798795,-0.0367152639499069,-0.012752141913932712,-0.03575991884030803
309,0.007529991140981016,0.006298044713778423,-0.03508130561405589,-0.010346103451990671,-0.03261195464559039
310,0.00980853954481292,0.008488404507744431,-0.03313218934738254,-0.0070203605880838245,-0.029073294326299733
311,0.012201853795807042,0.010723774223010749,-0.02900593524760425,-0.0025696613191961222,-0.023502536444004046
312,0.012331139197677669,0.011576225321554006,-0.027016360858939704,-0.0009985212772960026,-0.02014912660815129
313,0.008654131229420456,0.009103457409433606,-0.02681753109070177,-0.0031701312018345526,-0.019811500037585018
314,0.003957666667937588,0.005391213237479795,-0.025822421217341726,-0.005558560420792711,-0.019343302047421067
315,0.0022252157897756104,0.004566571372913296,-0.02363057292194223,-0.0057492674594031845,-0.01670413568103739
316,0.004076411441001609,0.008383059002252674,-0.022212726730678246,-0.005014072073233936,-0.013093813744243985
317,0.00813126280112999,0.015951773515629805,-0.02044550970024007,-0.0037367192291528893,-0.007413271967946904
318,0.012807570932265401,0.02461932507613504,-0.018358630847122,-0.0015200808341437571,-0.0010930561305068358
319,0.014756589976032443,0.03153486205548277,-0.017392631295296064,0.0008770449537300439,0.001861761221574438
320,0.010990946194316429,0.03511258127006515,-0.016024480646794348,0.003010118735941032,0.0019452108855031707
321,0.003681056461847562,0.03680372787013634,-0.014130511480802103,0.0054388082617954255,0.001317748031322946
322,-0.003449935068804413,0.03733981905128014,-0.012044603230162054,0.008350948966706606,0.0029205916924001183
323,-0.009781273874036966,0.03560172411712511,-0.011558888606969997,0.009978375470808327,0.007263690015694053
324,-0.014635213275003157,0.031580420698489896,-0.014964053723848602,0.00924492032169064,0.011481206260759599
325,-0.016767968812079422,0.02741095037573113,-0.01945946363427933,0.008463686039331482,0.016070523159653318
326,-0.01684908473702112,0.024357144922252487,-0.02349110754956114,0.007617694335523424,0.01994772036507157
327,-0.016189728869469774,0.02226858586690975,-0.027050386161710613,0.005248886760806553,0.020572893910028422
328,-0.01628902674405343,0.01959375165127709,-0.029018299301988924,0.0006874879326546403,0.018261726719646546
329,-0.0194987707459092,0.013852283198313133,-0.03149052552785695,-0.008137810642915366,0.011590931814763967
330,-0.02576532778139548,0.0055556422134728995,-0.03518989068447312,-0.020113141185219358,0.0008344501095565622
331,-0.03128248303616102,-0.0018584761767353397,-0.03750902830306425,-0.029712760923948634,-0.010439061621240123
332,-0.032627771354148176,-0.005318602201330441,-0.03567713088039249,-0.03222053306093022,-0.017401254285664934
333,-0.029231154474800906,-0.003702395336559332,-0.030225922676507793,-0.028181063024574043,-0.017645364134336376
334,-0.021472960449393227,0.002217313426381058,-0.022275769225236566,-0.019156523475765273,-0.011894033737786405
335,-0.01015968686681209,0.010562399378650751,-0.012084100675842105,-0.006427942468206907,-0.0030271013596661935
336,0.002991042718498052,0.01957377063269855,-0.0004642545073786379,0.0067250292235207666,0.006023683765193627
337,0.017005930274761986,0.02883342183292237,0.01283280378552158,0.01886279020978467,0.015535698937717413
338,0.02956616619300719,0.03648166955341373,0.02587149229698194,0.028406667899473034,0.025114836189489936
339,0.03604742477162121,0.038736526497401766,0.03341849493946316,0.030790732267372254,0.03159139957729841
340,0.035032281510953035,0.03499080279374544,0.03293937400186085,0.024315421732774622,0.03280073536819181
341,0.029363350352910895,0.02732558445988037,0.02696359960075386,0.012840956677737022,0.029525910532331792
342,0.0203699233061891,0.01698420080201,0.01748342518975141,-0.0006285141841084878,0.021965764141122265
343,0.0076066429621998366,0.0050891867790508515,0.005149758973514948,-0.01589324717345681,0.00982696623548488
344,-0.005134560457937103,-0.0042975117511494035,-0.005733532507275378,-0.029519117536777592,-0.002506277521189803
345,-0.011896755429252582,-0.006127918745757413,-0.01031434939879993,-0.03606119686562504,-0.00855555984838537
346,-0.010941776939506969,0.0005565263947374103,-0.008144173821638874,-0.033868428632101766,-0.006186235366382022
347,-0.004686707727861212,0.011930138077684898,-0.002088792846471375,-0.025692856945029867,0.0014825440986815238
348,0.0030820542212419795,0.022420771783289196,0.004100974537426787,-0.01613421980261928,0.010107990693334543
349,0.009574411246828285,0.029161449360438435,0.007377429135325928,-0.008746477554241565,0.016901804285709084
350,0.013805068675888137,0.031475095743317236,0.006611676219995955,-0.004960003366331325,0.02044214016918013
351,0.01609265720337532,0.030184790744725215,0.002937358232140753,-0.003980915925284014,0.021242063703651927
352,0.017150378122310267,0.027587053009026183,-0.0021619892085978022,-0.0046360151704054105,0.020757195198601388
353,0.016945182879892075,0.024961629597746574,-0.007434474203882226,-0.006660208885684211,0.019599277528636726
354,0.014900324911534734,0.022217445699712412,-0.011219733521955886,-0.00951542192162984,0.017628132340207804
355,0.011165611543149063,0.019285336566057715,-0.011927556538278527,-0.012209784616036801,0.015265903724517811
356,0.007545475348458128,0.01785442444460943,-0.008497340158360523,-0.012981053966365884,0.013998695509973269
357,0.005564241082539539,0.01917219203784546,-0.0024994114534295357,-0.01109829813144038,0.013937615553776803
358,0.0041482345174018,0.021214478305112805,0.002064439283626186,-0.0090321723311535,0.01282466526100886
359,0.0014553902914965931,0.020757665717584042,0.0020122279982731873,-0.009741091433097652,0.008985594663989493
360,-0.001984621356193282,0.017246670525995298,-0.00293806200093404,-0.012674874496407806,0.004202415097059675
361,-0.004103708730382258,0.012479378882965101,-0.01023603818167566,-0.014863043631920437,0.0014746664328702931
362,-0.0043927573509702665,0.0075463169327804015,-0.017384814126642268,-0.01584326758599218,0.0008179108167632065
363,-0.003215741609708099,0.003538920894151574,-0.022742144387899052,-0.01650466283107771,0.0008407374559316224
364,-0.0016338221494561385,0.0009122273699415311,-0.02566244000347434,-0.016804527754509656,0.0004291712531398631
365,-0.001898428081262942,-0.0014998404038655136,-0.027099144213185985,-0.017574348497001582,-0.0013714226222418969
366,-0.005169245660885938,-0.00463902296263181,-0.027662764702962687,-0.020150123498144466,-0.004291412349606767
367,-0.009464814091539892,-0.007637882592863785,-0.0263591177806551,-0.023183036304096623,-0.006746175601108294
368,-0.011649382095406712,-0.00906374457377898,-0.022139339712761743,-0.02341405331967726,-0.00755171865999591
369,-0.012043680157439963,-0.009789628996351326,-0.016428785142322253,-0.021007969549328934,-0.0076782748735756065
370,-0.010642030718794465,-0.009320475178358404,-0.010000785822155939,-0.01680457649350824,-0.006550897673119558
371,-0.005584403596261236,-0.005715453986729096,-0.0016617386234899043,-0.010225063905093031,-0.00238466964691135
372,0.0008470624562470405,-0.000917612265159214,0.007142913874047951,-0.0032327614762032047,0.0027682199346582637
373,0.004573637562240586,0.0021973328744499705,0.013098777255545691,0.0017724343510599743,0.006369647697600427
374,0.0048291208838616515,0.004015108642544339,0.014803828591923456,0.0049562913909428265,0.008044450660323003
375,0.004172494502580962,0.00701505788960905,0.014073792619384292,0.00863853007786087,0.008980971141123211
376,0.004234790219970567,0.012110184113631543,0.013001805497010506,0.013540595765444882,0.010285043513375438
377,0.005589003818354688,0.019488134348524082,0.013150453357633271,0.018731360813039676,0.01394498322354754
378,0.010943773803514531,0.030537621982300842,0.01755533587570681,0.025714227997096932,0.023560012739750565
379,0.01930861922396985,0.04198323052588119,0.025826271340465903,0.03398005694894789,0.036178949519346235
380,0.024243028900808834,0.04622953427818204,0.032114898875201754,0.03813899883160999,0.04275317434135694
381,0.02231420138248573,0.0405767796746957,0.03188852698934509,0.034918097291344395,0.03928199626233404
382,0.014828495324171664,0.028361956607665873,0.025202173859720636,0.025733248434562917,0.0288255541086627
383,0.00426463218983695,0.014064850102670513,0.014181927445779478,0.01360505277742172,0.015816759325015892
384,-0.005630144690987913,0.0013036585843644666,0.002393525081933276,0.002403717293039311,0.005514549102664744
385,-0.011054482163281209,-0.007846730056555808,-0.005347960893822338,-0.004892307792685111,-0.003512648213224693
386,-0.011268293237498637,-0.013215115595599363,-0.006309789486799026,-0.007846942270927259,-0.007835015055123623
387,-0.009341504117034001,-0.01659656476290404,-0.0027475331267289606,-0.008595021688207305,-0.0089940010695495
388,-0.009118277414485697,-0.020170396402472236,0.000262565379823342,-0.010589110856993317,-0.010568038799262255
389,-0.011024983956032202,-0.02388374571644727,0.00017393486955989335,-0.014378031900675875,-0.013663551028095
390,-0.012974591506227068,-0.02625179107946741,-0.0018196141440841509,-0.01731532676292253,-0.016458010400152902
391,-0.013480890109901812,-0.026102426694023587,-0.0027999774652398535,-0.017463212431659245,-0.01696898495350398
392,-0.012567624974147365,-0.023635804068499553,-0.0010312138056357948,-0.015497677636684474,-0.015488458869993242
393,-0.011016913561689153,-0.02064730740461828,0.002553492553910482,-0.013240955030779447,-0.01345347347034449
394,-0.009884548069175547,-0.019486049973579847,0.00617226751064048,-0.011727816130783572,-0.011892833898607756
395,-0.011314094290989127,-0.022251304783552438,0.007402410887561455,-0.012512017589480435,-0.012754139484882514
396,-0.015584688463697415,-0.027705110639422544,0.005567389230324043,-0.01583450517803792,-0.015633496680663047
397,-0.018510279859902494,-0.0301991519801402,0.004581256999837824,-0.017546160089394358,-0.015907449888996485
398,-0.0168143082665161,-0.026001592617821565,0.00757674139536199,-0.014941068969159007,-0.011400669955525132
399,-0.012317300945621565,-0.018359255376901324,0.012758336738172423,-0.011370566036446733,-0.00564457735335973
400,-0.008860369580169154,-0.01354778619684702,0.01662087798924223,-0.011357865037353131,-0.0032049545703518134
401,-0.00872778792233169,-0.014779342316930627,0.016323752075057422,-0.01628052229743891,-0.00587859980514287
402,-0.011178530785623452,-0.020490903339660745,0.011466269729270057,-0.02392990624534498,-0.011750767056516101
403,-0.01363858300624192,-0.026734659629325436,0.004839727097709551,-0.03053442865346349,-0.017156136586933622
404,-0.014724480043196934,-0.03088608245522139,-0.0009553413236171316,-0.0340438164469331,-0.020098700336579088
405,-0.014681407704338558,-0.03283414865324136,-0.0045288659132831305,-0.03437992432605313,-0.020490508330205503
406,-0.014153383234988699,-0.033498604305725106,-0.005530285559140716,-0.03248401412665528,-0.019411760833495224
407,-0.014107522027809653,-0.033471586062047504,-0.005812365600933068,-0.029764398579401295,-0.019049005789238
408,-0.014383186062154451,-0.03211157465781796,-0.006584180110428774,-0.026582997424952095,-0.019265025623200968
409,-0.013207861939674133,-0.02809418280993026,-0.006214798078573124,-0.022273442327189537,-0.017197373886790955
410,-0.011308501152752982,-0.023213230957337013,-0.0034785290812872384,-0.017523400021423583,-0.014084932478353315
411,-0.010940521304556963,-0.020636363314106194,0.0010785024028245045,-0.013835595453672965,-0.012666597309391785
412,-0.012000379999899488,-0.020553284813803984,0.006233901538821224,-0.011552368568762883,-0.011465740490577827
413,-0.01357261898731014,-0.022038348515830853,0.010581702579219898,-0.01032271023199476,-0.009613377211087062
414,-0.015243096043455818,-0.02410410681647278,0.013547054121761137,-0.00948791173363124,-0.008386110862443463
415,-0.016712197393665394,-0.024979311072603073,0.015561760375701726,-0.008349539823397995,-0.007643498230042239
416,-0.016149278265895017,-0.022202574712097634,0.018062634582992496,-0.005110707347153391,-0.005096026226549266
417,-0.013408530915736162,-0.016514210084750142,0.020638177174916776,0.00023343861817690142,-0.0009951517971747202
418,-0.01276335888034761,-0.013128996243558006,0.02002654532445013,0.003054037383191786,-0.0003299435609051071
419,-0.01615635398495619,-0.014572574222364602,0.015060674651275852,0.0006364369124992436,-0.00516413545454594
420,-0.021200719074917596,-0.018578708788601784,0.007282183779388712,-0.004779928315533811,-0.011357480116968398
421,-0.02345756405119289,-0.020516030087088778,0.0004439894084081329,-0.008142266067514841,-0.01265235137071038
422,-0.019158970142940795,-0.016573190371884334,-0.00125676465092091,-0.005280767424487492,-0.005823982276377314
423,-0.009935113211716907,-0.008148403366336833,0.0008421010108813811,0.0018133870201782229,0.00599754263156631
424,-0.001526069541136726,-0.0005659448498907383,0.0015654972155814933,0.00736545806734003,0.016268037557595965
425,0.002750893278375534,0.0034820650331976203,-2.9200645535337568e-05,0.009495475992263053,0.021860430002215648
426,0.005341776244970775,0.007022747912206958,0.0006488733595846194,0.011816343049126207,0.025972585316584213
427,0.00917507998192878,0.012714593710634716,0.0064710938169751705,0.017067176783608258,0.030764652791310836
428,0.011339702233864813,0.016806102887779374,0.012826414869312687,0.021508685806868842,0.031841454548568446
429,0.008128588262953889,0.01445621985052988,0.01361109126029623,0.020482853222081963,0.02567017918652275
430,0.001981578360713642,0.00697427434550367,0.01021918404437528,0.016330605642528598,0.015415756565047426
431,-0.0028830340289012846,-0.0011669535073139305,0.007237779030105205,0.013741652461585329,0.006717712491588778
432,-0.004774373861310663,-0.006426374756664423,0.006630009308521657,0.014939825732820305,0.0037514900666788644
433,-0.0036989787523829146,-0.007524007795336106,0.00925355063350892,0.020300546802700825,0.006921487761380307
434,-0.0008548291178059907,-0.005887428440833404,0.014430640964463221,0.027511863459980142,0.012915222341813842
435,0.0022977122199592448,-0.002940988292152646,0.01933346530854194,0.03404328852362638,0.019295289792321237
436,0.00616398561981386,0.0022634570953424553,0.02082227343214807,0.0383846248978188,0.025324984894572893
437,0.01208208712329919,0.010476645755478063,0.02154783238930109,0.043426427237419005,0.03302131472051486
438,0.01789534766448094,0.01823401049937185,0.02147057152039275,0.04723375354843619,0.039320941464673756
439,0.020238220558127712,0.02151608816206528,0.017701571689381593,0.044889808638898444,0.039033008683086096
440,0.020486753818289852,0.02163725850580402,0.012955333436791493,0.03872506832133951,0.03453509307086401
441,0.02161919326265069,0.02207933990110444,0.009733190866555323,0.03179038671011432,0.03001929972853897
442,0.022813541144087755,0.022422837646152372,0.0076504734654357035,0.02446500455827765,0.0264879160043731
443,0.021742116580308387,0.019817381241181306,0.005158907144273732,0.016584193184085994,0.022676943831635363
444,0.018125805202774813,0.014171000689837124,0.0022147207719595955,0.009283221180701863,0.018016546600907967
445,0.014007567875856103,0.008599152270822528,-0.0011570013685583494,0.0020689679724313448,0.011472566759278912
446,0.011880241459458542,0.005973405239297488,-0.004127070674933091,-0.004081927915273603,0.0036825466798670364
447,0.012936930959131029,0.006823687961763055,-0.005691145494080413,-0.006755927956583106,-0.0030616800569144703
448,0.01739813914243176,0.010294344673020013,-0.010054396811318518,-0.0074187271718052705,-0.007386587544847608
449,0.023956994911586805,0.01517971879909698,-0.008062412825380309,-0.004873639618246205,-0.009057573276992829
450,0.029786068606559083,0.019844280696972163,-0.005226843235178904,-0.003990037689020281,-0.009782002700592587
451,0.033774787925935905,0.02457764133853391,-0.0031269097558407747,-0.00647609975375239,-0.01079062084561096
452,0.03593481034998637,0.02990194384705715,0.0037477866286767724,-0.005561080517382493,-0.006339870054089343
453,0.03475447936507127,0.03249662641400724,0.008848038770377398,-0.005038825677472653,-0.0016782517044492283
454,0.030005974128064366,0.02962289743344053,0.008884023882982884,-0.007190677301544578,-0.0007602429649731244
455,0.02438414383191187,0.023410908543193925,0.008796545095035954,-0.00734075670016053,0.0001620790113896963
456,0.01979627689404117,0.01731894256562407,0.006785601414447605,-0.006673199660323843,0.0004373352789252409
457,0.015443783207095775,0.01171742272381575,0.004912434129766215,-0.0047362173761004225,0.0013683534434028167
458,0.010797644968430211,0.005814205358448011,0.005586066995393503,-0.001925417184563504,0.003873774183124548
459,0.0066724986662054465,0.00044953479632766665,0.008327364417363311,0.0003461410476491489,0.007219646663294547
460,0.0036771841667506563,-0.003595794792972915,0.008309575334237599,-0.0010105081946049253,0.007918354889092191
461,0.002934091752737442,-0.00510502619429561,0.007186324725628151,-0.0030375140698183597,0.00873293783729686
462,0.005126747421345092,-0.002157736932920107,0.008293266615854304,-0.0018495558623060533,0.013037092559035117
463,0.0077059657674682525,0.004341119477547035,0.010496684736050492,0.0009880712376963714,0.018013827923433
464,0.006182714310876709,0.010328930097934287,0.013079192181547888,0.0032372992743222168,0.021230629663815087
465,-0.0005163248852602562,0.013094104392601993,0.013598616165856451,0.0023106212142301606,0.021215883613177607
466,-0.008340519156308695,0.013957133760381747,0.013558961979142147,4.450250759607014e-05,0.020766379729163304
467,-0.013941609692729093,0.014881486451155404,0.01604844112208451,-0.0005631289531383419,0.023061210822515346
468,-0.016543616580872743,0.01742154868283571,0.013102223904298773,-0.003075801383583918,0.0237017109210351
469,-0.015616304206915826,0.02356635726008125,0.010589607825418802,-0.003474937861022592,0.026583632450308967
470,-0.013701555280298277,0.030853062250571547,0.010558673238418277,-0.0014437677657340837,0.030859191382360263
471,-0.014056234374859923,0.034261380526357875,0.007025540027820971,-0.002179977199307482,0.030353361074365905
472,-0.014715172290390387,0.03353136417461183,0.005341389258883122,-0.0031574003039927354,0.02897428297349273
473,-0.013100011390170873,0.03086616950232645,0.004914924996486134,-0.0034706361140220284,0.02789563990526289
474,-0.009525111690439838,0.027662634237854426,0.0038289906932876855,-0.003308029459002413,0.02594153483874311
475,-0.0034431343790696503,0.025943027665420122,0.00458320128618407,-0.0005714509665145131,0.024779489068611132
476,0.0047593854906945255,0.02591945210356705,0.010733647853098858,0.006480562156511547,0.026666310619856862
477,0.010826825032719244,0.024418276077770865,0.015414841908833197,0.012178161951075505,0.026582845044809726
478,0.011640956586126896,0.020128220848285607,0.013341807651744144,0.012458701080993692,0.022246768490793264
479,0.010177070145490961,0.016896460945490577,0.008091619507597975,0.011102151670285483,0.01836159729035737
480,0.010569808840625177,0.01869638003231104,0.002194948774712788,0.010821746226572653,0.017132401439966534
481,0.011244109415476123,0.0232201982515646,-0.0023617902890350124,0.009936455825910179,0.017566421525894254
482,0.009091004630440321,0.025276323357628003,-0.0070488712793556505,0.005557738248730663,0.016654501831428754
483,0.004525883781064107,0.022845408937815333,-0.013277599358422739,-0.0014811033298504762,0.013597937161319596
484,-0.0008363961915374772,0.01687279986420415,-0.012804733173514658,-0.004882027334212191,0.011481587125530516
485,-0.0051648490375229405,0.01045538524130836,-0.009113226761901889,-0.006140880457783702,0.011523228847015607
486,-0.006370134603860163,0.0069650773661777835,-0.004850708869689069,-0.006250733855781489,0.014401954803464966
487,-0.004711369661074795,0.00684947886980679,0.0022401244922369986,-0.003455464010955755,0.01951813561928789
488,-0.0030535682797630487,0.007881505922481814,0.0065996820769841395,-0.0009725076779902337,0.023911344447369563
489,-0.002337712110225585,0.008831531678954847,0.009808706876655027,0.0021210910513536447,0.02678948635862341
490,-0.001673218606444642,0.008984387840078272,0.015008329430363773,0.007950094400191144,0.027394185825113646
491,-0.0017429252762727577,0.006624817265469079,0.020632388294046334,0.015411531224827746,0.02463354478611784
492,-0.004256450827120974,0.0015639327926982192,0.02192484225801617,0.02071713497989274,0.018978316832928475
493,-0.009888603681856342,-0.004826592513300024,0.02119387685873391,0.02388260246851411,0.012589405700767147
494,-0.015317219260186761,-0.010304979511007702,0.021888395518691702,0.027624418474793244,0.007577183904940628
495,-0.01722750152840782,-0.014292172861417691,0.0233133609023758,0.03289859515041532,0.0038719657616857923
496,-0.01825324355817098,-0.018745916251047295,0.02408304569461516,0.0376850455963565,-0.0009810363082189658
497,-0.02176506909876296,-0.023742602567950275,0.020806103411936384,0.03783175259346698,-0.0083184548107434
498,-0.02630047165471751,-0.026498598230141317,0.016320468123173556,0.03451904513022127,-0.01515782522127291
499,-0.027677639195693864,-0.02344423709133381,0.017376147135921952,0.033869062108614616,-0.016639135644312904
500,-0.024083174386339307,-0.014184403799313692,0.021027382197039826,0.034559805368414874,-0.011460844952018311
501,-0.019187361147452696,-0.004487536298779157,0.0255438811145547,0.035754963262549004,-0.004901725524725841
502,-0.0165301950167092,0.0006627390678255761,0.028615451228432,0.03458989999530472,-0.0005527656486990318
503,-0.01572214211216579,0.002029558498185946,0.02767110018094975,0.02883025383845421,0.0031522043013734718
504,-0.015591377997451684,0.0012134471436961933,0.02559539930260883,0.022978949073175183,0.005954868623581932
505,-0.0141953845101776,-0.0004295065896345818,0.023003983495649114,0.019215358566608852,0.007682197559292437
506,-0.01061303418734657,-0.0011728589320973166,0.019293461081338135,0.017498489037275074,0.009744599254811498
507,-0.005712035456832919,2.4438021548108528e-05,0.015243653552178776,0.017469251027498505,0.012320288125684378
508,0.00040580485998797716,0.004016429397447738,0.015293171474737213,0.022165499614944024,0.015467815999269269
509,0.0069059193221059,0.010111997958237149,0.018706132433117327,0.03007548340903996,0.019192625295772037
510,0.011136598212841131,0.014997819348313821,0.022037036272254076,0.03679067390452336,0.022096814456630396
511,0.011391164355921567,0.016036023525449614,0.023603497908433108,0.04009806514288662,0.022756426980904583
512,0.007904233422821798,0.013648765421324253,0.021352662274748163,0.04055275458662238,0.020801672764007836
513,0.0017211879934252525,0.009115100832319234,0.016727605921294436,0.03612589265116676,0.01603771846289826
514,-0.004477204610679856,0.004248699565453824,0.011651299149756005,0.030938912121531405,0.009849322913128808
515,-0.007872360044667237,0.0018157777247303894,0.007104891118040118,0.025567891884970485,0.00546678685909694
516,-0.009254272245252765,0.002287134214124521,0.004070392897217995,0.020633917132334922,0.004185418516659978
517,-0.012093056520968953,0.0016857706701168254,0.0002020024402269951,0.013743505296327957,0.002854517594717038
518,-0.01703881966236138,-0.002820289351074646,-0.0044852995445515955,0.005398891615387015,-0.0011806581471412345
519,-0.020371024618968586,-0.007470055397679968,-0.005726630844206262,0.0007552902907585711,-0.004889530859984342
520,-0.020046267399476684,-0.008490045839818284,-0.0024697377928589244,0.0017856645371713302,-0.005909834222772077
521,-0.0174435606753244,-0.006603913359928303,0.0034871638475929604,0.006956387285587604,-0.006278140103567486
522,-0.013635569648989317,-0.0030842041787065852,0.009930763394204376,0.01374831568817522,-0.007386208049444727
523,-0.00947544670816587,0.0004759146961591855,0.014336303595542176,0.019816472894086026,-0.00955804749251227
524,-0.007544335894008115,0.0006989758734850575,0.013479523879279408,0.0213078722552109,-0.01422903096814028
525,-0.010632869138343132,-0.004757061246211944,0.0064798160586191055,0.015888769631563913,-0.022484285781096333
526,-0.0169358044116302,-0.013418447342880288,-0.003071581531135,0.007140059298491927,-0.031026651198211484
527,-0.021786980959301018,-0.021131490104469755,-0.010187494127657517,0.0011844415835644143,-0.034674187571756415
528,-0.025393713934077893,-0.02719711066922042,-0.015454337704756122,-0.002310623902727765,-0.03467005102452441
529,-0.030853681740446233,-0.03237626173238282,-0.023079067400682298,-0.008081170846969403,-0.03604775581066125
530,-0.0372001238345244,-0.03643494168158148,-0.03208366773346525,-0.01495683057069841,-0.03858200273523516
531,-0.04048965343097297,-0.03861009989047794,-0.038217684748654814,-0.01803467190267666,-0.03777266615921834
532,-0.039564696724235474,-0.03856134966969267,-0.040271039437298733,-0.016370747147896547,-0.03277994545867657
533,-0.03758857326193548,-0.036918280466750025,-0.04066507668510218,-0.013979872420750971,-0.027741087508598085
534,-0.036485578405644044,-0.03403505979158167,-0.04133196972901585,-0.013026002692290765,-0.02490406571658998
535,-0.035160607492739256,-0.03004640942846137,-0.042516205504831636,-0.012790286239563834,-0.02272124467038218
536,-0.03287144135162928,-0.02598113940962581,-0.044200843484101915,-0.01319205061867756,-0.01972421662872504
537,-0.028581555343659637,-0.022615984223801188,-0.04449091764377095,-0.01246282862190934,-0.014715965034823721
538,-0.021525165807829736,-0.020058031301320615,-0.04079825848689705,-0.008398884231494803,-0.007256732710855514
539,-0.013686429381067858,-0.018443605963191938,-0.03311599766525335,-0.0016211895416521798,0.0006289667726111975
540,-0.009126519597442902,-0.018469706433911996,-0.02492911350412954,0.004142871888077932,0.005308811175604643
541,-0.010382997841829977,-0.021247614833913783,-0.020535137364667867,0.005681298421231986,0.004180187778964942
542,-0.015774882468887315,-0.026950555333967247,-0.020180165771026378,0.003063975310041327,-0.0015568675165062726
543,-0.020716543790414668,-0.0327363251358403,-0.02020460067573649,-0.0006180901760910311,-0.006689674471207115
544,-0.02170647298102164,-0.034409403519541665,-0.017354437990525415,-0.0014202558541329539,-0.006438864567449901
545,-0.019398437477491728,-0.03133548891558784,-0.011791185239899664,0.0013243079088312618,-0.0013595180099130791
546,-0.016025049719563717,-0.025749559759780733,-0.005994381199524244,0.005832762077216795,0.005357100474345531
547,-0.013839595565037482,-0.021001978018489697,-0.002749846650539513,0.009105990466818795,0.010282112634221713
548,-0.01385171174099068,-0.01886418974423532,-0.0030399519025580773,0.009233378383453667,0.01187989600375906
549,-0.01466331271958639,-0.018508384826902896,-0.0054481310022449735,0.00784734433960307,0.011954305390468717
550,-0.016057036203059264,-0.020171372156518916,-0.008515433321055345,0.0063637064551616725,0.011197071573815632
551,-0.017186890115211996,-0.02275270615409067,-0.010216026895762644,0.0054605826975290435,0.009883583552039416
552,-0.014724622655081517,-0.0224600222076828,-0.008234384241228982,0.006406448477374513,0.009727764131712138
553,-0.008703934434490872,-0.018414961547189666,-0.0029807940198103874,0.009069082551594373,0.011177017431654723
554,-0.0025303174357896464,-0.013330132860262071,0.0032531296728138858,0.012996171901361963,0.01342644924626406
555,0.0024197423399247627,-0.008806540513080168,0.008785149159796094,0.018553583125540157,0.015799556486619466
556,0.005983537943117984,-0.005049904625729,0.01248927786568771,0.024866412912587475,0.01622168424020152
557,0.0074472851964814965,-0.0026414452195795543,0.013776724641418278,0.029965571735801468,0.012349338210623178
558,0.007198358325378559,-0.0013429534448569547,0.012983529311712635,0.032448996108674195,0.005348622567620403
559,0.006947968020815378,0.00025509375268463865,0.011019471875741425,0.03168267633623635,-0.0013740998705859438
560,0.007409457613816861,0.00292408725745708,0.00864756154908042,0.02809523460976514,-0.005972204908375148
561,0.007319536832892834,0.005665296663631663,0.00594799507990026,0.023185240809741214,-0.008647152019287003
562,0.005570136685998721,0.006278451263083446,0.002635191758744735,0.01826276565317012,-0.01028876200276601
563,0.00410798078192424,0.004530288735144654,3.404746510202156e-05,0.015605262589621105,-0.010017952407127927
564,0.0064228813859321275,0.0027801914583661038,0.0008899589480995627,0.018112694020063973,-0.005616939642082372
565,0.011282777861754729,0.0014320707960944897,0.00481874680502785,0.023663311839522493,0.0008586007374513002
566,0.014844296862838433,0.0001931400685257631,0.009297236481193719,0.02770418496673071,0.00523079101059234
567,0.01743033758303604,0.0008641573350306372,0.013689396726071883,0.030398074373397827,0.007539014520307101
568,0.020883470928457416,0.003973069842262312,0.0175914687847756,0.03358214858063022,0.009502503743900107
569,0.024111569860141152,0.006907403993779072,0.019400927095956418,0.03605446581688861,0.010473801360145826
570,0.02466533479308124,0.006994313715044548,0.01809441320185359,0.03528030785343866,0.009292588304932457
571,0.021785926580435502,0.004169704851274632,0.014062637332147734,0.030523673934898018,0.0067945997312253495
572,0.01736688117145093,-0.0004996736418516476,0.00868421497222747,0.023899026161215003,0.004600457229435241
573,0.014201546789921353,-0.005659454280087557,0.004026893924143161,0.018967960529541007,0.003402268119970836
574,0.012021866343868372,-0.011049040847935286,0.000915243434311432,0.0167790934319593,0.0019286634390894809
575,0.008677238089256085,-0.018324086838901733,-0.0012992125165799204,0.015759332426940748,-0.001448662355175458
576,0.004301948758950869,-0.025342296964628263,-0.003156510296577296,0.014697191873364022,-0.0064864495488676744
577,0.00048376199266824587,-0.03574901815100754,-0.0053177757281642505,0.01296047112043046,-0.011592289490688995
578,-0.0015364617288183132,-0.04371409674291016,-0.00783122548474045,0.010561729312201904,-0.014607853606638615
579,-0.0012200888609734013,-0.04802234274162835,-0.009133925264348933,0.008218013640808541,-0.014502489183586924
580,0.0008634973851797213,-0.049490476241539696,-0.007416362695321363,0.006851703119958702,-0.012702263599334946
581,0.003044698265891954,-0.048906287490356984,-0.0034080033552933856,0.006334983764427202,-0.01162621860262515
582,0.005382278434311558,-0.0456538311126848,0.0010445712771372396,0.006522046791696468,-0.011281870350898773
583,0.01012772616942187,-0.03834124920913224,0.006372664527197191,0.0092714257948318,-0.008928654112548439
584,0.01720210903888042,-0.027148067105373857,0.012796392718175542,0.015265439350625047,-0.002777817690467325
585,0.023252752512845847,-0.015485896571706017,0.017789698231385657,0.021169302337508588,0.005136408926842937
586,0.024610754799669187,-0.008030352132171275,0.01843374833322076,0.02307467672407172,0.009363332958075433
587,0.021600098585563225,-0.005414954980556173,0.015568224758464741,0.021524061402906962,0.007225938279558321
588,0.019729456150655723,-0.003183035223236738,0.013785210508081564,0.020514573200691322,0.003226790859042285
589,0.022248453992200688,0.0008171895123194064,0.014566282177921821,0.021469254644475876,0.00272622140964904
590,0.02430706397366025,0.002266228085074073,0.01292674331127807,0.020588339944055505,0.004341622112591239
591,0.020708845131122432,-0.0031063066262453976,0.005413080870343916,0.015388375800768316,0.002908754846311453
592,0.013462056816051381,-0.01370797283292095,-0.0048351172920879865,0.008905692766894041,-0.0033827689575664727
593,0.0074446841261286215,-0.024865724573093124,-0.013220859746240722,0.0048517457761416555,-0.011924542633071088
594,0.004855271552868037,-0.0332181691592655,-0.017779059457638174,0.004343899033444826,-0.01898571016021379
595,0.005921604977690416,-0.036612868057060634,-0.01827933440697865,0.006972893518671079,-0.021309707602033677
596,0.010075486623312677,-0.031892977919371665,-0.014976231835027151,0.011486805894897466,-0.017680804224363612
597,0.013328313206774186,-0.024594993943414117,-0.010518358496584687,0.014249722544549486,-0.01256551430395804
598,0.012581803058024749,-0.019879162752363976,-0.00784252388162626,0.01312273460820668,-0.011466738703344175
599,0.009593148080951332,-0.01622271231085068,-0.006139101345922315,0.01057429997267277,-0.014107738582292056
600,0.004763601613268685,-0.014720574901518258,-0.004690480855563797,0.007558711185704523,-0.018463475058577105
601,-0.0038479186079171095,-0.01610341722610165,-0.0060790948124297955,0.0015592920559913588,-0.025169591790836613
602,-0.015045211772850172,-0.019183647086904735,-0.011192921585088503,-0.007708316075055331,-0.03394631277812819
603,-0.0237790339515376,-0.020752841805049778,-0.015640577654207944,-0.015898932990893826,-0.04041854154652706
604,-0.026611570436930576,-0.019325660125221043,-0.015356316520910402,-0.01936443329814302,-0.041173012578915605
605,-0.02535436589131547,-0.014862475552567747,-0.011560212227953393,-0.019432255136185527,-0.03773216837284021
606,-0.023306078470508945,-0.009320518764077407,-0.007485930253975985,-0.019047221401307355,-0.03326270900004223
607,-0.022057432446233746,-0.005329764303597433,-0.005887504688712033,-0.019952813739739065,-0.03087993495790516
608,-0.022208880481876723,-0.0024299462530226554,-0.008479389034728732,-0.02312161679937847,-0.03198657503318371
609,-0.022122938719880213,0.0012559905965759783,-0.013028133481557505,-0.026628367455466376,-0.03294227991801686
610,-0.019679890023306022,0.007060500646743963,-0.015409357729340998,-0.027246491294262407,-0.030286663610615477
611,-0.015691510552443985,0.013734327915605835,-0.013974748503326622,-0.02448563929012172,-0.025798392927260654
612,-0.011522957129246617,0.013333356861042521,-0.009150926233249215,-0.019113015774329646,-0.022039595019378275
613,-0.008604657351628102,0.008445435423776624,-0.003914145759120075,-0.013408171524178527,-0.020768781261257085
614,-0.008287827935477603,0.0019381970972621183,-0.0013564507923249309,-0.00980816969464144,-0.023017582642599278
615,-0.008523560953760011,-0.00572264343637838,0.001476420966354451,-0.005840131163936654,-0.02580731801533255
616,-0.00651093201063447,-0.009083763266482057,0.008986793498876103,0.0016948295370456615,-0.025156778579746273
617,-0.002542409426994413,-0.0100908045405366,0.01854286774148103,0.010078728850061744,-0.020724192916426104
618,0.002670212089223196,-0.010533427811133936,0.023204907882643823,0.01364114246955764,-0.013851855170843827
619,0.0083287576617839,-0.01003144002384029,0.018115538215368356,0.008549967901689616,-0.0076564605494203394
620,0.012452397745169277,-0.0076370818595447336,0.004498710954286133,-0.0038946967844114694,-0.00579586874663913
621,0.013417620399680301,-0.007558235243289414,-0.010966972111923665,-0.01753387924893921,-0.008343967587123441
622,0.010368915834936595,-0.012180857909775149,-0.021849188014314524,-0.02701839501755325,-0.012922453471480484
623,0.004247604266122244,-0.019092206538637503,-0.025736427982178463,-0.03112520066998374,-0.016524309405668576
624,-0.002438778066507702,-0.028175872801779474,-0.024368819861406606,-0.03149078151500113,-0.01706989909682532
625,-0.008026985378984944,-0.03695662699352844,-0.021558970724929148,-0.03035798053100616,-0.015452132991951821
626,-0.011842792899509331,-0.04321477502892142,-0.02035046840482124,-0.02972934046118428,-0.013469909934789833
627,-0.012578372872627227,-0.04686630097947122,-0.021076632719853428,-0.03002870386403416,-0.011132294310589893
628,-0.009544810150972251,-0.04304812535638639,-0.02045470666691933,-0.030048518879375347,-0.007858630423173597
629,-0.004271253429933426,-0.03559256370222357,-0.018322326701448545,-0.029447296193519275,-0.003666947586087347
630,0.0008311090687764283,-0.028317292566439393,-0.015895269271659063,-0.02887360159896906,0.0004210621718644381
631,0.003609042560580836,-0.021397365395111126,-0.013655587504693789,-0.029277257266282115,0.0020400105510199017
632,0.002815660738980053,-0.01861217033228093,-0.01380443708777585,-0.032527650524182807,-0.0005839387561482999
633,0.0013636228973862281,-0.016320017791110503,-0.014704300881064239,-0.03679771547246674,-0.004495524939655328
634,0.002922302371387019,-0.01100418474535611,-0.012959751441058431,-0.03717478000577887,-0.0057499459041766305
635,0.005491564381015351,-0.006201851288170201,-0.009161589876804545,-0.03330287219877283,-0.00572406488195096
636,0.007006818720706965,-0.005463938927458335,-0.0052724703126371605,-0.026982355577134288,-0.005554355508273226
637,0.007742406626840291,-0.005050661653441786,-0.0015074004329297453,-0.019876869513075608,-0.004366631997455878
638,0.006641566312292726,-0.004015435223599596,1.262962439958945e-05,-0.015395418525225569,-0.0028496658767488553
639,0.002739579075473161,-0.004421331572436636,-0.0029249009459332708,-0.016060445367557703,-0.0018723852360454487
640,-0.0032988422772143554,-0.004563758161636991,-0.004497937078633007,-0.020641885107132676,-0.0013367260629741815
641,-0.009473450198743629,-0.005120842440964405,-0.007711250718525764,-0.025872931388250663,-0.0009833708578971662
642,-0.013901368459697108,-0.0070878826689803,-0.00836943855350655,-0.02985345978471953,-0.001919606367920687
643,-0.016569031915365427,-0.009740829782370636,-0.0073480136038879505,-0.03211541223084303,-0.004788543406838045
644,-0.017666612706753793,-0.012261416084930539,-0.009197290020182347,-0.03174210696533404,-0.0070788500374288485
645,-0.015416168799816795,-0.010811498227673662,-0.008709474900494292,-0.027663316284260293,-0.005108361087733837
646,-0.01038924333516703,-0.005183476972227857,-0.0035357443441363027,-0.02150923405803674,0.0009385761581962544
647,-0.006968681115029895,-0.00019662199631661543,0.00144712146534749,-0.017245999051910994,0.0066283332714879364
648,-0.00655191328879294,0.002658995415961151,0.006673664502099302,-0.016183453931264188,0.009625262513250316
649,-0.00613890448907671,0.004679387939314816,0.010438421209391443,-0.015780368291344247,0.011634585668079244
650,-0.004801718829377657,0.0062338949371406405,0.009942961352977616,-0.014840390870216094,0.01337480395730076
651,-0.005057561617253118,0.006652182179851781,0.004500835253887332,-0.015070461115985171,0.013311391772714667
652,-0.008171909772888024,0.006764191778728961,-0.0017792042175452214,-0.016720974351767347,0.011031333198265502
653,-0.012880724131860276,0.006763220626210917,-0.00708873304725878,-0.017905367146027428,0.00808855801676963
654,-0.016847257482994333,0.0071448855150894365,-0.01067513776767056,-0.017684972536547487,0.006592000807391487
655,-0.0192670858137763,0.008160564976789637,-0.01266994385831979,-0.017337439710407368,0.0070009089543865595
656,-0.021195266099287353,0.008889128882829313,-0.01621781398609911,-0.018323515191234017,0.008481839079005926
657,-0.02267153816173312,0.010204639796600619,-0.020516813060973912,-0.020399972630116878,0.010731545890623804
658,-0.02254462740805971,0.01302147710601049,-0.024504023708923336,-0.022531442730900974,0.01369110154655587
659,-0.020960640030073818,0.01667649962368797,-0.02983780376285822,-0.024302957902088505,0.016840981320593713
660,-0.020042419051399946,0.018814766979149054,-0.0323855627519099,-0.027470745048749193,0.01851160736363816
661,-0.021190466267724903,0.01746165080849633,-0.03345188954187386,-0.03162307502603935,0.01751055736869202
662,-0.023813301846717504,0.013664312590556423,-0.03417363742883705,-0.0359402701463272,0.014437938498198466
663,-0.02640256727660167,0.009801002722033153,-0.03348941453698235,-0.040390099136796115,0.010121728205771965
664,-0.027879284744967668,0.0065137014773798815,-0.03443100380140453,-0.04390665635519934,0.004377713571475768
665,-0.025665160730812868,0.0056253103509598095,-0.03356777733526965,-0.045150604983903254,-0.0007460947039296365
666,-0.0168112670094919,0.010169509552939375,-0.02661235475928546,-0.0421289532350863,-0.0012984706249230791
667,-0.0033709299935376115,0.01822307947526104,-0.01622107628305675,-0.036153767201455224,0.0025498617793366842
668,0.009266572990500727,0.024887523222862924,-0.009324943033103427,-0.029409251086841504,0.006841652662167255
669,0.016341622476788175,0.027299406527269966,-0.006701369545495851,-0.02438334233025717,0.007995453745809443
670,0.0165080377768542,0.025879764040948737,-0.006647220322923795,-0.02188130489850862,0.006018368279476877
671,0.012217277343073664,0.023059694007014384,-0.007892583555057512,-0.020482806200916075,0.0032935640421232724
672,0.006840066210343614,0.020925331013242128,-0.008415927243783374,-0.02091828007699645,0.0016183350730229736
673,0.003781759689955734,0.021253445426009467,-0.01000307256296491,-0.02286238557980879,0.002697978307818102
674,0.004125105396430275,0.023818523070103036,-0.01345372940290962,-0.025024846359666134,0.005842406540130675
675,0.005639560965122205,0.02600029064473511,-0.016337742452115524,-0.027045891884892266,0.007906301632941311
676,0.00723215820996138,0.025352980099443288,-0.017414474560057423,-0.02485787462718582,0.008322219199093707
677,0.009051970507145976,0.02404334353043085,-0.015214837977385992,-0.02011380653938592,0.007791976075859546
678,0.009391515975582273,0.021633243946030195,-0.01269593522931174,-0.017750781189316663,0.005038891951349513
679,0.007186238207864454,0.016805420786787758,-0.013698389068995348,-0.01850553097688392,2.51977981010733e-05
680,0.0040326096455070995,0.012697043817901597,-0.016501148711067216,-0.021307103600640653,-0.00425285336849484
681,0.0010040458663201318,0.009580594398946813,-0.019853659850581094,-0.023247043039205762,-0.0055681809906663535
682,-0.0013583219604402833,0.006169124417346121,-0.023249114557666407,-0.023026441472741948,-0.0038554328569678476
683,-0.001316021797620325,0.003519614712988263,-0.024429429930082562,-0.020411701581726473,0.0004468575562162916
684,0.002332523935104574,0.0036636168313821066,-0.020486201253879576,-0.01690392554560199,0.006218643189680724
685,0.008355160634243256,0.00506291860564348,-0.01275301223580991,-0.013161578090574371,0.01116371283634849
686,0.013882097911174368,0.005513923263478133,-0.0043849748692033974,-0.0112730701405107,0.013484747900576969
687,0.017959356905021213,0.005485798904107056,0.003005873727444027,-0.012300777122482178,0.013936667951772603
688,0.021452528338392556,0.0053519435473264034,0.007617001298511371,-0.013576765977243502,0.013777137121020827
689,0.023820428974334427,0.004165908673352167,0.008753509670908181,-0.015417547027863568,0.012689182043218223
690,0.024448478008351635,0.0009210297078040346,0.007664119351996116,-0.017679173783056026,0.011540667118083879
691,0.023814727832297836,-0.003768787185088983,0.0058498798404390435,-0.01824047841840218,0.011952991575311095
692,0.021911393341657703,-0.005379916482375912,0.0034223897816320014,-0.018726441977482567,0.012660476887271021
693,0.018507648813694294,-0.006313197186354547,0.0005719009081632753,-0.020295020962144056,0.011089379490825568
694,0.013578457248917892,-0.008864161022683283,-0.0015301176523394016,-0.022977961907338137,0.007257971706628128
695,0.007862253778701955,-0.010660504679429784,-0.001522213657070873,-0.02640322837349253,0.003593010655989904
696,0.003895964488688713,-0.01125125440036091,0.0015002906819985113,-0.028292025898436098,0.0021786011309496973
697,0.004305650445459744,-0.008757684145772087,0.006942044393989724,-0.027505070315614315,0.004167991813951496
698,0.009022167984854735,-0.0035309049351564454,0.012442954813530626,-0.025038602974878456,0.00973120794082506
699,0.015515496921726723,0.0012956985495817125,0.016237527682393366,-0.02274209669240694,0.016989716064322875
700,0.02123662084254497,0.0024275266101809433,0.018733091343639003,-0.02088117475053828,0.02278314560824498
701,0.0262182835786596,0.0023580225582586416,0.021464721118942872,-0.019236682258022796,0.026660036833333674
702,0.031365326827904806,0.003758159119514804,0.025052826159519124,-0.017042470409737127,0.030522260946982342
703,0.03485483969316162,0.004950761909282165,0.02773844814575501,-0.01514256217884338,0.033602732734477433
704,0.03403808887989345,0.0047596604949456415,0.027094876276221785,-0.01656660536980585,0.03096315487958186
705,0.029385936397819574,0.0021175113194901525,0.02285317296965296,-0.020611274874986256,0.027880143330261425
706,0.024667884462727246,8.007605868269396e-05,0.017750586843847463,-0.02321074073771345,0.026169299584182345
707,0.022711804791941518,0.0013632876917481723,0.014536024478651429,-0.022397535708481058,0.028062683094091125
708,0.022689975214442572,0.003323918528295554,0.013166216396528723,-0.01955592915365,0.03149864495175677
709,0.02280869456239847,0.003921400039765431,0.012536341643244305,-0.016406346670958534,0.03478031387453397
710,0.02267025828096154,0.0037749431901110526,0.011306155609326768,-0.014171142124044855,0.03788227180227172
711,0.023598302930748265,0.0032665722795121514,0.009151154848089486,-0.012625818361027033,0.039753225512430865
712,0.026047589491143434,0.001973808366449443,0.007780736161309275,-0.011181977129727873,0.03956285433901482
713,0.027759779771176323,-0.0012489636583002484,0.007995369994505813,-0.011710241656369056,0.03756687743982659
714,0.028383712800621186,-0.005071540892055994,0.009971633567666076,-0.014284066593656487,0.035234894422223224
715,0.02977353608690098,-0.006068063540884071,0.01380228855562771,-0.01658988925560921,0.03445044529161947
716,0.031909345099830476,-0.003929249334867431,0.018242050344422788,-0.017800657745050946,0.03395446507949875
717,0.03281282779773413,-0.0022979386696527077,0.021604924776486328,-0.01875120998359562,0.03143223939329876
718,0.03087782486426577,-0.0036791936735487752,0.02379651791518262,-0.020807847336515656,0.026898332906083174
719,0.02737585937998045,-0.006716947534725504,0.026643359151668208,-0.023491682573833765,0.022745732745972493
720,0.025142096548585336,-0.00813033554684493,0.0302507705556173,-0.02477700268902333,0.022340881218514425
721,0.025257458595791125,-0.005324179045028323,0.03262805423623379,-0.02345214294516518,0.026792107978733756
722,0.02728576929883938,0.0012639916895839517,0.032861325808509236,-0.01932998162551771,0.03389346418492882
723,0.029852366075381526,0.008768214104132518,0.03103276871972768,-0.01372404224930928,0.04015164125831954
724,0.030455633821725944,0.015137881224020277,0.02776825734104402,-0.009476056232548461,0.042502330129868586
725,0.027220059471819925,0.018907629684807248,0.024027533710350216,-0.009161340149155378,0.04141394162035804
726,0.019899165827038715,0.018494365746003667,0.0193284212452385,-0.014062899450973594,0.03745610977432768
727,0.009312879099544213,0.013182306551126746,0.012126554752545883,-0.023311214939578696,0.03028847314979958
728,-0.001679277181671602,0.005200932833691015,0.0032778887426712622,-0.03257379367952222,0.022824285877311255
729,-0.00847880145652971,-2.085030614156728e-05,-0.0031091424211855128,-0.036287884958406146,0.018629213840090926
730,-0.009618803025246779,7.866482800355768e-05,-0.004741269170404171,-0.03367662715121799,0.017939181135769332
731,-0.005970992517741195,0.0047885170221379685,-0.00206198257920925,-0.027409332287656383,0.020102172077676332
732,0.0024843124330518203,0.013805257494394787,0.0048426004809573415,-0.018758700552184968,0.026954713761620584
733,0.012537380493295688,0.024009786484619145,0.013506472254518963,-0.010112248698562101,0.0350036372340556
734,0.01826320791206765,0.030072027397039524,0.019020074471751695,-0.005302090042215219,0.03812877331114018
735,0.018153928127389085,0.03138631060577547,0.019727250684982853,-0.004982720401497546,0.036413263319316616
736,0.015670965912277027,0.03194249917346846,0.018139814343257486,-0.006406854611542892,0.03320038362951078
737,0.014394849104464593,0.03485004847379656,0.017679286955851158,-0.006750430982813165,0.03160986734964597
738,0.015100337906704743,0.03964828911651352,0.019987406127928684,-0.005500157311874387,0.03174388812025981
739,0.014820773524790271,0.042772043190572935,0.02278469085428997,-0.005971497768167352,0.030187775490584753
740,0.011027781239245372,0.03931233706549775,0.022610921518113194,-0.010707046245184678,0.02582419726187508
741,0.005221097972658377,0.0336608572062163,0.018641647640624537,-0.017270833110730292,0.020458970312585444
742,0.0007102438733433628,0.030272603202011448,0.013050755477604379,-0.02156168877410417,0.01646691474257046
743,0.0003673322124297139,0.02925040476540112,0.010541990405491516,-0.02076406153588734,0.014856802100231634
744,0.0034775878936480057,0.030675444547223957,0.013384459973844317,-0.01616185287557679,0.013619463483313051
745,0.0058407573058905735,0.030302882734058952,0.018207610192176156,-0.012077538893312282,0.010691360091322768
746,0.004449802854604495,0.025752364594491067,0.02012657474632248,-0.011082453550793438,0.005859581298034914
747,0.00037456356891839396,0.019031226682860124,0.0176454728625057,-0.01284273556788862,0.00034187936559170324
748,-0.003239183999235745,0.01319503646357851,0.01289453147808395,-0.015671575932120086,-0.005075786213487661
749,-0.005437928705693187,0.007320201154882526,0.00851954979135382,-0.018987273178577638,-0.009280744727487508
750,-0.007221675149645084,0.0013898968974986154,0.006204791848478832,-0.022974068709450558,-0.010803885329235745
751,-0.009009087585030318,-0.003018976326130286,0.00538877466203122,-0.026562473042797963,-0.00956131495884881
752,-0.010136217186114582,-0.006299151669379853,0.004419618560796182,-0.027866262280965736,-0.006467768542010381
753,-0.009780346567312512,-0.007383007989247968,0.003693146047990138,-0.025511874622192735,-0.003083598816630733
754,-0.008556807064087664,-0.006641386875420357,0.004108786217879919,-0.020662645515858356,-0.000849949850117815
755,-0.008638551703756209,-0.0068295988739948904,0.004426961843863438,-0.01752313403853083,-0.0006095130972321329
756,-0.0111818243109827,-0.007699839175218855,0.0027455001471962236,-0.018620734472990688,-0.0030658863262163745
757,-0.015827891103490848,-0.010262816041511085,-0.0016497286720990416,-0.02282401745708648,-0.008791998021248696
758,-0.019959886604701074,-0.012584468640619528,-0.006319745024909751,-0.026571009195047512,-0.01467204769309733
759,-0.02030250056223393,-0.010833450333449367,-0.007471156756769077,-0.02669162646290591,-0.016419622975353612
760,-0.01790490529608447,-0.007447580323539076,-0.005551265787181735,-0.024495283798520905,-0.015764213141154514
761,-0.014350707005124235,-0.004027626343813436,-0.00209371767279598,-0.02187470929719481,-0.015444966222350651
762,-0.00961001251683464,-6.395214751758253e-05,0.0028644116493430007,-0.01948366964344735,-0.015069944318519546
763,-0.0047465169837316926,0.002997897740716968,0.00770914332421797,-0.01892141875427048,-0.0145312196530047
764,-0.0003807794634448817,0.002772452224208478,0.011146938073947395,-0.02009084386237748,-0.014626952018100825
765,0.0018368884362852508,-0.0006935288372429591,0.012948102083228599,-0.02233853587115455,-0.016683469224012218
766,0.00021805928511485433,-0.005165646550352034,0.013167035303054764,-0.024896148837908215,-0.01969335111546081
767,-0.003529177730335085,-0.007306268124401899,0.013054003693765453,-0.025327244342860683,-0.019758734984844657
768,-0.008313104172178547,-0.007123637962156939,0.013183884921818554,-0.02417818545596795,-0.017027766014269523
769,-0.014653269787443123,-0.009309519292613838,0.01282336073921617,-0.024985440325141432,-0.016183465602449605
770,-0.022371895239638374,-0.016587176331778534,0.010635175655654914,-0.029763853391937194,-0.020756437621647795
771,-0.029668368793644255,-0.0256449441347122,0.007268562242814422,-0.036417339903829476,-0.028536609971678402
772,-0.03324637195580513,-0.029696213072561463,0.006202006099728658,-0.03985472019325841,-0.032588942474356467
773,-0.03196823925872179,-0.026709839712474683,0.008307063822385965,-0.03795504485554809,-0.03033959431410054
774,-0.026915400641084733,-0.01926284976497896,0.011770530505179315,-0.032644710994673025,-0.024844636842458877
775,-0.02110485798443501,-0.011404411158789521,0.014804297852014064,-0.028062115896548966,-0.020202295246444048
776,-0.01836946296608057,-0.007137241281184415,0.01577587343878699,-0.027392775607859247,-0.018735680997359738
777,-0.019030915077100873,-0.006440262336066888,0.014369825637154419,-0.02955168472665368,-0.01983153504660453
778,-0.021229486298680374,-0.007054889890559737,0.011599302203643944,-0.03211864086054748,-0.022225399126732274
779,-0.02340562742479093,-0.00744125273435333,0.008837920454814132,-0.03346269550670661,-0.023692643900294554
780,-0.023304874570659283,-0.0063061990346370625,0.007566399089621061,-0.03197350857200843,-0.02105589532698072
781,-0.01960228715249958,-0.003935134811109752,0.008782725517281683,-0.027802020894393674,-0.013718254583176116
782,-0.015500083779098131,-0.0035719550859344617,0.011808934190169977,-0.024080142063889202,-0.004124334635166963
783,-0.01535349569165309,-0.007762730146657522,0.015429424925193277,-0.023007471394230337,0.0044692633720528445
784,-0.01806807274459665,-0.014954354078881477,0.018852348562408687,-0.023390657662228434,0.008524245187752992
785,-0.01912356651063362,-0.02156539687114607,0.0196862639594437,-0.02392420727989571,0.005462095072843206
786,-0.01686966942925328,-0.025418595201195764,0.014918291181674488,-0.02476981885897329,-0.003410100991378126
787,-0.013190571757976128,-0.026547770542081246,0.00513010075527724,-0.026021264433264836,-0.013306124289907458
788,-0.010515650014595179,-0.02436412269562073,-0.005869519174339306,-0.027647469727740095,-0.018557470368265886
789,-0.009681816473586357,-0.021477515804045322,-0.01457884575756901,-0.0292446434102913,-0.020074922766541787
790,-0.00976732348775576,-0.01888575309402663,-0.01878028360408862,-0.029697757326786336,-0.01940388544855283
791,-0.010426265081769684,-0.016199327971724378,-0.018814802435399278,-0.02905859524392345,-0.016826649883645996
792,-0.01111515685964637,-0.014836933552024598,-0.017212129854192612,-0.02777859063256576,-0.014786485393037858
793,-0.010654599953812708,-0.013554885842692446,-0.016359685408045378,-0.026220300594931623,-0.013542081537009261
794,-0.01029890626037785,-0.012679171493332402,-0.01819251351106461,-0.025660084292642656,-0.01387261011517761
795,-0.010315865177456944,-0.012375650765913524,-0.02144667752748208,-0.024374368036927264,-0.014879358169423824
796,-0.008540239691290035,-0.010917241209603062,-0.022163533963964276,-0.01871611415064132,-0.01361471748556401
797,-0.005811392645953436,-0.007802072788606387,-0.020112193954947094,-0.01004800322686076,-0.009934752868388035
798,-0.004775207305460748,-0.004631549122622265,-0.01817152671514077,-0.0029929055704683584,-0.006466782709929437
799,-0.005704407098556202,-0.002301902132199027,-0.01722227440945898,0.0005889481178185343,-0.0031874286956933627
800,-0.007498875225358491,-9.195671903813115e-05,-0.01706496325525795,0.0017345752032410888,0.001297556351016158
801,-0.009074815874391925,0.002422220757297956,-0.01776229704772316,0.0020843293406928066,0.0058767961492350385
802,-0.008690921384153102,0.006995571891136023,-0.018102679637418816,0.003967988194382798,0.011532936900260714
803,-0.006301612046659557,0.013832672441546262,-0.01774292671501897,0.008238253108850518,0.018785079383956047
804,-0.006080795486461709,0.014473250955677447,-0.018972549656348172,0.011242265033618913,0.02000711863597337
805,-0.011007482009589373,0.00837772349992642,-0.0229897713259376,0.009480206687234868,0.013789191828446384
806,-0.01852682257660974,0.0006029246571700032,-0.027895110168469798,0.004486680806378105,0.003899170785421117
807,-0.024599785970561956,-0.005386682355977663,-0.031653813311021545,-0.0006783922575497866,-0.006377837664217664
808,-0.02785705119380564,-0.006022268837646627,-0.03439180231451085,-0.005276548430427992,-0.012693547461062306
809,-0.028432013482022865,-0.00309158003434498,-0.03613958432220831,-0.00864635026692237,-0.013913600414357756
810,-0.027290796896575018,0.0006321204475630359,-0.03653753923152554,-0.01023063001283396,-0.010581424832050263
811,-0.026417937925895144,0.0024118011861483336,-0.03667918030478278,-0.011463179655023487,-0.005820810562610515
812,-0.025317902035176604,0.0028463612580194924,-0.03681177927808493,-0.012484144784654386,-0.0006894902650803977
813,-0.021865921808646337,0.0024474908223577905,-0.036627361834715454,-0.011693509453964539,0.003952940099073245
814,-0.016050270146887015,0.001713161947185573,-0.03650552965097816,-0.008026791283896021,0.00670631623270819
815,-0.009189618450680033,0.0019366526112136872,-0.035189752840256786,-0.0012076962547876572,0.007493908084155199
816,-0.0027456021998677237,0.001573477797576501,-0.03162733368201679,0.006611804529820204,0.0060498474305330455
817,0.0020449704397182663,0.00019420809500816084,-0.028109524604677943,0.012115767575129778,0.004141271572684331
818,0.004660239928012625,-0.0013811542326059357,-0.027252196241006832,0.014766454611148871,0.0031072023758501864
819,0.004426351614415727,-0.003592523647736067,-0.02896830611959026,0.015361272462752892,0.0016984763127434522
820,0.00083095149047028,-0.007489438279606167,-0.032201656230189696,0.011312032940054324,-0.002262236061747241
821,-0.0035523249515291666,-0.011873983319081747,-0.03580965644921264,0.004768202817073775,-0.0073056651863445815
822,-0.0033932726878138047,-0.011815128750812537,-0.037001134307526835,0.0007371220233708575,-0.008821215126408172
823,0.001792161385395458,-0.0063480053303043675,-0.03459013113828191,-0.0003418441289608226,-0.00638425534104969
824,0.006435796161250232,-0.001844419826687818,-0.031197213377153768,-0.00020867637859976586,-0.005090528563891594
825,0.009596767723796114,-9.138248735660593e-05,-0.02641992208256893,0.0017774761220597324,-0.00497028862298399
826,0.014483082865652157,0.0029131955166962213,-0.018391644885516787,0.007482277311373917,-0.0007478381717493023
827,0.020576897428106193,0.007052414497120907,-0.010365980280180835,0.01423663943974551,0.00740804578377903
828,0.02507345997163401,0.008504745549132902,-0.006271295810108188,0.018712484042679636,0.015141889148230591
829,0.02502393973510108,0.004560979456533278,-0.007347901657396466,0.01773881760769452,0.018297153469256512
830,0.020374520325239977,-0.004455895990325421,-0.01281508076099552,0.010979046869788777,0.015028025820757717
831,0.015326840344751598,-0.015028466645540915,-0.02021666963056766,0.002045727080287901,0.006778840795406725
832,0.013267986918826727,-0.023268954218046246,-0.02712296927851614,-0.005947361086909832,-0.0024964076948198674
833,0.01448682196306169,-0.02733141886456698,-0.03209872978362705,-0.0111300129885378,-0.009762390161581268
834,0.017733915832372722,-0.027978656492403987,-0.03443851941551473,-0.01402042056449638,-0.011928823198025322
835,0.0229904140402269,-0.025060480962402692,-0.03258755639223877,-0.014611413079026633,-0.008272168649922968
836,0.030934015033140534,-0.015823025858304796,-0.02573467282453818,-0.00730308987718515,-0.00020284169843476143
837,0.0388016553360687,-0.0059959349378151325,-0.017321351922779685,0.0026424702934667406,0.007569189970282057
838,0.042037926296542745,-0.0015020105380741222,-0.012438596660889402,0.0073215883307539585,0.010343913280512257
839,0.039646516929813684,-0.0017971112847694254,-0.012773173959465088,0.0067408609772004425,0.006917217161347116
840,0.034586301686027734,-0.006128852310501823,-0.016379975244535,0.002355007467242951,-0.0008999716704864881
841,0.02989149903464624,-0.010831461692004985,-0.020590514506746486,-0.0022680023151029757,-0.009216028758186109
842,0.027174324558098307,-0.011739290868203535,-0.023555767533449887,-0.005473268836332048,-0.013316278916881513
843,0.026663760049437994,-0.00738892788986467,-0.02462830009077195,-0.007057935135597802,-0.01103865517572021
844,0.027012579751125507,-0.0002819964488429004,-0.023819526665214724,-0.007965790851793879,-0.003911081875270325
845,0.027351542482370515,0.007555706315923821,-0.021292772970334134,-0.006482018954787179,0.004719871783809984
846,0.028130092803505237,0.01415181015301246,-0.01733440123215263,-0.002032039853540713,0.011334028928190366
847,0.02930679007920593,0.01786972222470053,-0.012373845742242397,0.002562376051925027,0.01397187185400803
848,0.029471846152595505,0.01859951233826186,-0.0074034121067259265,0.004890742761587567,0.011986435519636891
849,0.02777920990723353,0.016322235396554797,-0.00331158719784762,0.002950181464900051,0.006703561381916737
850,0.024579341353529245,0.013024442636050279,-0.0006201580010628768,-0.002224969972481998,0.0009836859856234175
851,0.020525827412145793,0.010843668560244976,0.00046703061076412873,-0.007940770524492843,-0.003936766772053947
852,0.017060034732880296,0.00927769869226414,0.0002512668147782196,-0.010800488772547728,-0.0052422730249652195
853,0.016094806472936332,0.00958936710401971,-9.674833238191552e-05,-0.009056914283949512,-0.004383037956581723
854,0.01924001542372135,0.013994072117456605,0.001976205679289742,-0.0018877467724612706,0.0005189843701637654
855,0.026014767395959735,0.022038279155845483,0.007178150628015432,0.00924787252434561,0.011446745765349237
856,0.032709179748868736,0.029944944990860665,0.011930002247975944,0.019184088910831395,0.020940834862067603
857,0.036019832589472896,0.033626606663951036,0.01297559554250737,0.025531689733633314,0.024954283987171175
858,0.036757252185139935,0.03340225574994478,0.011629705943849976,0.02962272272904937,0.025495045321166514
859,0.036936485319226796,0.03116770181818608,0.010588536308241974,0.032248686559452955,0.02519338760787651
860,0.03747315625481565,0.02860577482088008,0.011127662274544195,0.033724891208429385,0.02463274033386138
861,0.03876052165426069,0.0270930320221089,0.013821999784480024,0.03551085963819169,0.026296715840498728
862,0.03971155688416728,0.026406266602554403,0.017956423168409844,0.037559663569017084,0.02995027643775641
863,0.03907370782102249,0.02534170226538891,0.021936953131585273,0.03867220782688523,0.03228983759278664
864,0.03598648857954544,0.022856548807457366,0.02358234219988035,0.038344893184192326,0.032629987744354064
865,0.030492084703931745,0.01957579395471908,0.021768455332402122,0.03743921768969707,0.031003459243806823
866,0.02403669528742747,0.016462140856901578,0.01821327442208559,0.03763840059654408,0.02829219192585383
867,0.017396384468200365,0.012545925498003194,0.014823251536285468,0.03873804644870105,0.024945458197770956
868,0.010765959407087529,0.006488181099085969,0.01171646227588039,0.034844407654281005,0.018987452742839108
869,0.004973882450644061,-0.0011648536052194138,0.00883525648963922,0.02953048364544099,0.012091385162181235
870,0.0012130946945193514,-0.007298994359141751,0.007551259483296741,0.02742003793650383,0.006629002683350495
871,-0.0010289723026914892,-0.009655078701129857,0.007843278401208893,0.02672505898123831,0.0033376134864360587
872,-0.003095041773107288,-0.00945053670297253,0.007688424907417078,0.027617368351942593,0.0024934593950824207
873,-0.0039261599114355054,-0.007941536569273632,0.006966360415515769,0.02785327757668424,0.0022811632822020552
874,-0.0025462312058766,-0.0053663925957551225,0.00723572324605761,0.026050410552808136,0.0018083362178740105
875,-0.0005308358379268481,-0.0029208139868421995,0.009073916974206486,0.02392718720812166,0.0016813364531317499
876,0.00024256067506754018,-0.002128188564707555,0.011401019589644215,0.024675729098025567,0.0031599201953987376
877,-0.00010715103701253214,-0.0028224321275719163,0.013128936438717561,0.026500754967105255,0.005861682483680729
878,-5.1774532502864e-05,-0.004016924911849733,0.014504127783258103,0.02790838253708895,0.009707182272769867
879,0.0005155599473280027,-0.006318408191416262,0.01558141090529603,0.02860494576047113,0.01389043497971415
880,0.0008036627940340958,-0.009846513711997644,0.01565473480706622,0.02618313697039695,0.016354327246087326
881,0.0005957637663849491,-0.012524814644402797,0.014459769799346699,0.02231215589227269,0.01809667419631262
882,-0.0013881721890332771,-0.013882428831601352,0.011266170892787024,0.018310374269173754,0.019011490317879375
883,-0.006532703759002706,-0.01590704758122713,0.005265984935230598,0.013144848341176841,0.01655075058505625
884,-0.014134245110612936,-0.01925472242356471,-0.0022678416946604104,0.009621308163886285,0.01108595928713001
885,-0.02113892186761483,-0.021863421024312553,-0.008243587795271208,0.009256620322754898,0.006587457046296947
886,-0.024201474795156573,-0.02223049008882613,-0.010429303942031534,0.01199638098521819,0.0054961270860439
887,-0.02312911512443506,-0.02182877899529124,-0.008637357024596172,0.016036549174923295,0.006108501875548691
888,-0.020878519638428614,-0.022353229303461647,-0.0039216059842872245,0.017519045937902995,0.005819056207668489
889,-0.019628603560240102,-0.023029214675382364,0.001467443219360182,0.015716417415697934,0.004354746360363773
890,-0.01811943393220288,-0.022098505155839138,0.005735029224862489,0.012516350793544248,0.0037557624241315642
891,-0.014974517542193316,-0.019609463036877512,0.008249603275548271,0.010098275305709196,0.005651250389844702
892,-0.011194774277364086,-0.016674771312353433,0.008461980931758987,0.0089549672657635,0.00995474394282247
893,-0.00859023589052957,-0.014313256753723169,0.005932111995742088,0.00928038254841861,0.014630796818221844
894,-0.007752927325005798,-0.012980677486855023,0.001941553779689074,0.009698292040711307,0.01704323977176555
895,-0.007702638455091047,-0.012024498814268158,-0.0006602138940905173,0.009300164751538642,0.017156167761118498
896,-0.007537880412409741,-0.010921062120346261,-0.0002923029687284926,0.009597531587602928,0.017223469161427425
897,-0.006586406287629452,-0.009351853668034048,0.0033083009706206036,0.010956396603675169,0.019309208199017915
898,-0.005111973836848733,-0.007800755709433737,0.008643734613838583,0.011631260734043901,0.02266607011411415
899,-0.004319414544630534,-0.007528597627884169,0.012101250028124434,0.009735084678621901,0.02442343754249554
900,-0.0029425809821857093,-0.007273034880997998,0.01066057918315651,0.007503572255593456,0.02233876575023353
901,0.0009134657536163704,-0.004999537185019674,0.0076552908443955495,0.00856810097207471,0.018838592759490336
902,0.00506221406472338,-0.0021084413844306726,0.004953854228421804,0.012606939841748134,0.01528724783941958
903,0.006143818526159009,-0.001033051786237016,0.0021344405811628197,0.016834533776632667,0.012691328639994432
904,0.004580765794990397,-0.0014852474251223161,0.0013708256159728775,0.020219572829246715,0.013394074980860027
905,0.0031547168608485167,-0.0020230317148161705,0.001933259702172758,0.023870204163823842,0.015077056489475419
906,0.0018245658442418693,-0.003584148619716902,0.0004405215574169371,0.026818723762327884,0.013444330175544797
907,-0.001005290972839836,-0.006893547653719136,-0.004121790512703852,0.0274168874129947,0.007535563688540095
908,-0.0034544074104802844,-0.008964943981960025,-0.007470970044808966,0.027500737140780634,0.0013859904264453228
909,-0.0035319721550600386,-0.007367363463441473,-0.0069695893242205246,0.028318192304697384,-0.0031803439387448054
910,-0.0024467606194738373,-0.00296452661087594,-0.003212457263637961,0.028490605961343774,-0.006327231113852367
911,-0.0013778263004386425,0.0020631006772144534,0.0019229032267306604,0.028028190341104313,-0.007534852564660154
912,2.2350667861445937e-05,0.006520860856951782,0.0054982306174413366,0.028704663227744953,-0.007229680534986327
913,0.001447450172878366,0.010506816741380553,0.00671928062070839,0.03080002689594456,-0.005459041302895254
914,0.0009593589283837585,0.012598688989208177,0.004741127947497501,0.03184729427273917,-0.003968756187670438
915,-0.002252761483231132,0.011307987203394567,-0.0009389345892614638,0.03021347499966142,-0.004974970959373815
916,-0.007690992668158612,0.0076509594289107955,-0.00512943971997183,0.026681174654299936,-0.00586739486844597
917,-0.013722816507667594,0.0047281773129940665,-0.008487878989153342,0.02290009772638004,-0.006622333673344479
918,-0.015903753838992545,0.0065566678440494046,-0.009816275161047553,0.021689350251245004,-0.004547765894396661
919,-0.013130363109232974,0.012024635192806164,-0.006287660642853052,0.02335533399022359,0.0016352117239622458
920,-0.010721685722595332,0.014633013112848212,-0.0032694828096631024,0.02420410295504341,0.004985113521676226
921,-0.010543985977599219,0.013558154069074293,-0.0015908250541501927,0.02349273925463585,0.005187727040978534
922,-0.009491322964496247,0.013249963549673132,0.0018596862419056632,0.023556722615438046,0.006399949137260985
923,-0.007799930519697431,0.013242581039595495,0.006455129907720029,0.024460218848732992,0.007704318124113952
924,-0.008489234154710446,0.010172417275605703,0.008524547121865041,0.024623133734547272,0.005637996134015635
925,-0.012121727800672858,0.004788017171336278,0.009143879053920343,0.023503085928611504,0.0015951366223382628
926,-0.016406687203135057,0.0008743421996603477,0.010008786013514515,0.022368911786769412,-0.0019911036524235134
927,-0.018158758523788454,0.001504583997317026,0.011192366089928523,0.023246723911199686,-0.0035407065903079087
928,-0.01673975031976625,0.006160500531625142,0.013162534835014627,0.025236892168960755,-0.0018830812094543037
929,-0.015902720225769613,0.010719331021233458,0.01264719309938807,0.024323004734215052,-0.0001977194107319615
930,-0.019179646467251916,0.0125146288865382,0.007587947409806135,0.019303162128070338,-0.0009784559898592404
931,-0.026553119395157792,0.011609572961541135,-0.00025940860857411946,0.012534207780483671,-0.004247672150575753
932,-0.03364342762957845,0.008353271590224554,-0.00717471153334044,0.006904431853162486,-0.007000334456307876
933,-0.03770733826054079,0.004763566173878731,-0.010924591135842975,0.005550983738352783,-0.008342546100344095
934,-0.03638510853411633,0.004295146754109308,-0.010645190120054262,0.009519684722527146,-0.005800294199763899
935,-0.030207308487409823,0.006598400116662913,-0.00796474818185901,0.015375239341069524,0.0002199242081324188
936,-0.024746262866945326,0.007918718073509577,-0.006359435953998982,0.018353635615783813,0.003924048191938994
937,-0.02248003596179311,0.00684399454752524,-0.005553997125885054,0.01708184477015803,0.0058231948554451456
938,-0.022479835199866047,0.004902032685453291,-0.0036407317352582995,0.013789172297119522,0.00865445773116267
939,-0.021896678995426286,0.004141224925687449,-0.00038328461251803956,0.011170581670820023,0.01311046222636763
940,-0.019599428077353282,0.0047701177984799635,0.001442782463960391,0.008379706891327563,0.016528344598715206
941,-0.016675513665575258,0.004714110765254571,-0.001496366408247637,0.0016898521449973238,0.016442544553505755
942,-0.014783279852816252,0.0018016600626527624,-0.007829626157300549,-0.009106259832007302,0.012521448847102766
943,-0.01347028403547351,-0.004069314038967117,-0.012161450398139931,-0.019612662056535963,0.006077287371606853
944,-0.009245824025065215,-0.009418220730763285,-0.010925964012053783,-0.025369298717450577,0.0009322752782340193
945,-0.0015697786250067085,-0.010687652802285626,-0.0056160218638265525,-0.025897059020760275,-0.0006996181432807291
946,0.006506624809038552,-0.008461844167172513,-0.0006573483627249719,-0.024927709575135404,0.0003621501784473237
947,0.013302485355529525,-0.004934805863813588,0.0019515265294941875,-0.02469462253161727,0.003174104508394965
948,0.013585410738610448,-0.0010502364775986036,0.0001956460761048505,-0.023514320864861805,0.0022119578769492485
949,0.011700185906041476,0.0027275071486625156,0.0003554671204838547,-0.019857948740883126,0.002815597421121254
950,0.010505223232812713,0.005069509812682329,0.003946239396758188,-0.015183829540818934,0.005951052439525414
951,0.007980701062719479,0.004971130174381821,0.005121198290102069,-0.012342523815555704,0.004281334643596929
952,0.006627749374555587,0.002483294220103523,0.0028823369105678235,-0.013160620917027258,-0.0012852039968132315
953,0.004482215163090063,-0.0002819594759388035,-0.0029692580426371826,-0.01626594806730565,-0.008918359988972184
954,0.0017526419414863037,0.0011210957842844598,-0.00948477976517891,-0.017861223764346013,-0.01450800174958339
955,0.00015094134725675848,0.007038667749503886,-0.014800640494166248,-0.01729231998933574,-0.016829356954390442
956,0.001636508159142872,0.013870505293248769,-0.017241451231561514,-0.016454745248775608,-0.015567851442316389
957,0.004701872358613255,0.019734603017123906,-0.01700501739475099,-0.01589024071399254,-0.013272117241497983
958,0.008174093973368107,0.02394502754543272,-0.014530570959605436,-0.015474483729120416,-0.011826857803767112
959,0.011379843894582284,0.02596504296768916,-0.011287836687783066,-0.01579663360686188,-0.010941928776014218
960,0.00945812945857607,0.023539937392404453,-0.011037242500828865,-0.016671700165457562,-0.012509004752857189
961,0.0057741263399409565,0.021662923171732167,-0.013782333845177833,-0.01924358348570901,-0.01654572268428004
962,0.0008934032031597999,0.018392951109821868,-0.016337576970278166,-0.021096306142346668,-0.021170546709228404
963,-0.008172467580877649,0.011491257828133481,-0.020523087916167623,-0.024308579912670998,-0.02921652956216513
964,-0.016126861923713643,0.002305200899847097,-0.025002373452386147,-0.02937827365898926,-0.03786173053002197
965,-0.020992669548852413,-0.003955499564810537,-0.028557281143320765,-0.03227201752563585,-0.04419239327307739
966,-0.02016438710910482,-0.004343684681255288,-0.028663049713315136,-0.028976208979365137,-0.04585996663595487
967,-0.013271356787709057,-0.0019310376774996122,-0.024022055144730044,-0.021494396534297678,-0.04284191889898455
968,-0.007432614053418898,-0.0008572173569424569,-0.01842865795796979,-0.014726342562407685,-0.038044801057517584
969,-0.0026052737334025253,-0.0014794527316672954,-0.014261523124005466,-0.010242138010607136,-0.03147832055899487
970,0.0018970589701809144,-0.003554007755818957,-0.012357314671076184,-0.008199434680437094,-0.02498213046976315
971,0.003510618555876221,-0.007591238451888717,-0.013171712724070646,-0.009406782061070984,-0.021888707843542247
972,0.0007195614786353929,-0.012114941691846376,-0.015908860059976687,-0.01284988628845245,-0.022262322263139633
973,-0.0021272006146227512,-0.014688971930911848,-0.018173001505478424,-0.016648755841723616,-0.022278003188053924
974,-0.003371424151971674,-0.015022478277591799,-0.020440737710577018,-0.020695568404455883,-0.021189501927260518
975,-0.003840238431086253,-0.013759528741619573,-0.02339062567693485,-0.024995607587559882,-0.019820529304736042
976,-0.00213355434307518,-0.011852360992440933,-0.02533769250225504,-0.028963080683598638,-0.01783167943970272
977,0.0007181922011331546,-0.01040039263710939,-0.025992545613810782,-0.03180772663465233,-0.016644731586295803
978,0.005128288588805807,-0.008733154571601395,-0.02484732928677921,-0.03174667840356453,-0.0163662021620497
979,0.012657391273924172,-0.005039148141857578,-0.02133183758536464,-0.027287060892022413,-0.015319481090168199
980,0.02042833095309309,0.00027730965771239957,-0.017303385415162173,-0.020288929638729157,-0.013079338552053413
981,0.025850262679586396,0.004234429277734015,-0.015486012982173883,-0.014524201492117198,-0.011358919568431587
982,0.028163895444637016,0.005059060845476655,-0.016444655524342454,-0.01155563174067524,-0.011271123876411103
983,0.02785378935329606,0.003601979850966923,-0.01881071395808176,-0.010638334591330902,-0.01195984324964002
984,0.026258414753592415,0.0014356886525675424,-0.021005258937394307,-0.010519532889670613,-0.01269971701399403
985,0.025210465255815946,0.0009914127455851217,-0.02044057356794101,-0.008758730786863051,-0.011941477627084003
986,0.02694114475905981,0.004023238666178701,-0.015241747510375665,-0.0035191805504117073,-0.008214101871656873
987,0.029794430952679984,0.0081071030901974,-0.007984581080676692,0.0027228342968357365,-0.003978930971211699
988,0.030976549068669444,0.009978659959723874,-0.0024963285168047925,0.006936404390759468,-0.002223128633998143
989,0.029007266967002544,0.00879817719800575,-0.000530059792365837,0.008392947806378429,-0.0033294003250003766
990,0.0247659581055743,0.005564319736040036,-0.0017214537683421672,0.007765340372397291,-0.006239902361373905
991,0.020740268598057447,0.0021768311412528802,-0.0036241522707294678,0.0069828621822793395,-0.00942107555142216
992,0.01717986859825356,-0.0007183465883233716,-0.004836095112509161,0.006499477620710927,-0.01253845014824724
993,0.013538137424901214,-0.003187091974135978,-0.0058687760553659245,0.005422619402160275,-0.015463939411375069
994,0.010153194539105993,-0.004816763352950873,-0.006654310461582205,0.003796431029083027,-0.016966495726938317
995,0.007298408494765003,-0.005590615765481196,-0.006679505397112285,0.0018850875103327957,-0.01622691964894118
996,0.0053761431809365694,-0.00516659902490984,-0.005691657849843688,7.743904653701108e-05,-0.013136260331543859
997,0.004909940762896014,-0.0031700228528588727,-0.0038769393637450643,-0.0011087733144804033,-0.008406639434648732
998,0.00533099868932389,-0.0007696643473829288,-0.002369978702553264,-0.0018573120047804597,-0.004294645036069097
999,0.005701026901052831,0.000780219194820318,-0.0020919104048338875,-0.002475058998021586,-0.002330394371137056
