,AF3,AF4,Fp1,AF7,AF8
0,-0.011101785703699555,0.022390348230177534,0.0015777176670411274,0.00937455064435218,0.009876119148416476
1,-0.014717796159386709,0.020146477236288145,8.394209707822494e-05,0.007119256890695642,0.006950874523917735
2,-0.022865760777022723,0.01198913715765315,-0.006139167233813542,-0.0011056420996377004,-0.0007018512602905298
3,-0.03216836727202006,0.0012584443390474523,-0.015615288702096391,-0.011834022886154672,-0.00883841869916803
4,-0.037798824664935955,-0.006747628326153056,-0.023567668299393267,-0.019341360556664064,-0.01293754888581321
5,-0.03809567094837695,-0.010464252349351492,-0.02680119079820853,-0.021409656439003014,-0.013635667341180449
6,-0.034197700227241425,-0.00998712459976618,-0.02461785121485942,-0.01828569046807874,-0.012804320011056886
7,-0.029064211371780627,-0.006708748929842064,-0.01882083772622651,-0.012425779192482776,-0.011713850550384819
8,-0.025384270795530548,-0.003878945327062582,-0.012448562540967965,-0.007195072037056672,-0.01180777641558447
9,-0.022785903779195208,-0.0028047744071856414,-0.007335069864573053,-0.0037138844457349535,-0.013252546387873609
10,-0.020149179372581236,-0.0033881806177734103,-0.004731120021939653,-0.0025295522849092702,-0.015352701823301567
11,-0.018678542986972194,-0.006863193982897147,-0.006264468712256455,-0.004943164177697748,-0.018074671257104633
12,-0.019933247965305535,-0.013157589169897602,-0.01193565710196555,-0.010855214945290636,-0.021287491046343775
13,-0.022726792743025137,-0.018930636316538508,-0.018239694378123467,-0.017112120603659915,-0.02295474130954303
14,-0.02439456635768451,-0.021187163468796774,-0.021516442280733225,-0.020493130044702688,-0.02077976264308541
15,-0.02482930641920851,-0.020795250415242654,-0.022132104450135283,-0.02253760090536666,-0.016042036437117775
16,-0.02475646479189762,-0.019509715213723165,-0.021968276456746674,-0.025097591544076293,-0.012467667541947955
17,-0.023872389461189178,-0.017419454003655934,-0.021901809264976584,-0.02635512337727581,-0.012731234230442392
18,-0.02273363531238842,-0.01517476785550752,-0.022138956596264303,-0.025711669096622872,-0.016855586023186722
19,-0.02158387394251374,-0.01427901201738573,-0.021712367605718826,-0.024530155987645772,-0.02151144068177813
20,-0.02061882513199028,-0.015864914414866302,-0.0203656665398722,-0.0237829070393005,-0.023301235241143647
21,-0.020483408012385934,-0.019913533144087288,-0.019661979919509447,-0.024245855225461455,-0.02358808430826297
22,-0.018720172231967883,-0.023027883285432343,-0.01865344302925396,-0.024199122966458243,-0.023096304097298445
23,-0.01221709680538311,-0.021314136019442244,-0.014874239375965543,-0.02104527333070124,-0.020466122990469505
24,-0.003792206493131134,-0.01737158569923082,-0.010392010677801423,-0.01711392326446138,-0.01851556734742383
25,0.0011134680463767209,-0.01653913115923843,-0.008328234559297704,-0.016518790670064804,-0.02012248550197082
26,0.0007603696117107209,-0.01919150203234653,-0.008643684427008167,-0.02036562252421924,-0.024113464712271774
27,-0.002300772677770065,-0.022008670040003446,-0.01025402182963621,-0.026789797955556683,-0.027582418550941384
28,-0.004408227196064921,-0.022863709255063983,-0.012392865276774037,-0.03163063558828484,-0.02884002530874838
29,-0.004923990247938525,-0.022599588205299958,-0.015684625415836675,-0.03287097099981928,-0.02814894880698089
30,-0.004870136106082212,-0.022012675653377323,-0.020308495708275205,-0.032075111322789514,-0.026183060163076526
31,-0.0049792971622884385,-0.020978649651623157,-0.024700129155786447,-0.031646134963698926,-0.023396066189005606
32,-0.005852742897456645,-0.0197114929205451,-0.027163861985028025,-0.033153847203980694,-0.019697063529375797
33,-0.006713350131529895,-0.017907912871124154,-0.026145740173580415,-0.03573271910464071,-0.014784734681752615
34,-0.006616577554348043,-0.015547191228794022,-0.02133404098467598,-0.037478618045975944,-0.009096786361588073
35,-0.005837355914969309,-0.013222764666921787,-0.015058130650249649,-0.03761429662390508,-0.0031784313680441796
36,-0.004321032223281252,-0.011378689301852062,-0.011056741837404554,-0.03583033663972344,-0.000821036034553251
37,-0.0017199316130819956,-0.010588013005095324,-0.011073106744621093,-0.03231577843459574,-0.0018927443690976808
38,2.2345446503818955e-05,-0.011700933918446834,-0.014276706366049262,-0.029818787567592868,-0.0059045442732582444
39,-0.0013377788007165668,-0.015042305863153959,-0.01866873311450374,-0.03043152812018699,-0.01318866202254118
40,-0.003925516093837549,-0.01901231499039052,-0.0211332837611589,-0.030996380567134576,-0.019131560170607468
41,-0.004642260855527296,-0.02120848878510973,-0.019745512052049673,-0.02806572622245449,-0.02212585244225042
42,-0.003913286414306175,-0.021442737893008088,-0.01664575722909825,-0.023235095180322823,-0.023903104084432372
43,-0.0038234998445259485,-0.021137955944504874,-0.015453942969133142,-0.02054570020181021,-0.025787248615314513
44,-0.004868804425625636,-0.020910000672045643,-0.016451048493943105,-0.021681285820589726,-0.026257938532886355
45,-0.006459486945665491,-0.021313206450049946,-0.017872469757985787,-0.024337121742476053,-0.02686787628748582
46,-0.008362158367935463,-0.022825505480327142,-0.01924342459029343,-0.027017260326489552,-0.02900759372666457
47,-0.010170138623801584,-0.02400548569813289,-0.020472854061321617,-0.03095548252536328,-0.03077430845049657
48,-0.010478990266353063,-0.02271190924978399,-0.020795607677167278,-0.034441330581850615,-0.03208242170121384
49,-0.00873079607714727,-0.01879272388259879,-0.020070498433307157,-0.034373196453515734,-0.03233067229983629
50,-0.006311357643263314,-0.0139047626147376,-0.01914214026233254,-0.031246083189271526,-0.0313286362996135
51,-0.004937180049632716,-0.010599836887762424,-0.018639269967612563,-0.027435147620338617,-0.03005448751875529
52,-0.0052759056132009405,-0.010574055012391457,-0.016542701226887353,-0.023665446886174408,-0.024914024654399063
53,-0.006378970798204851,-0.012202771496075567,-0.014110815373075444,-0.021121761400735305,-0.01921763303011804
54,-0.007128553672848022,-0.013275602043009751,-0.012419174338908991,-0.01950873468504346,-0.016629264565419858
55,-0.007984280575118047,-0.014153610802545787,-0.01158056247968961,-0.01833732808404447,-0.017024342876211105
56,-0.010238689594978586,-0.016118705013673233,-0.014133685995871904,-0.01929992096240951,-0.021631921676780463
57,-0.014192419474636927,-0.019445957458302635,-0.01861474517991192,-0.021898133868918635,-0.026038561016947032
58,-0.0180664397437687,-0.023017297577898936,-0.021070216676539563,-0.023305180483505942,-0.027055545021884578
59,-0.019233141817713864,-0.025360040447641848,-0.02056986525191779,-0.02153226219578619,-0.02594654112949006
60,-0.01695830353258668,-0.026001283115034725,-0.019302699415087422,-0.017678044734073823,-0.025862425448741948
61,-0.013505004420587876,-0.025681564895102007,-0.017143455485309607,-0.013536658601919311,-0.02589337236194275
62,-0.010782399262145423,-0.02478272407938748,-0.013146180189645022,-0.010301668257031583,-0.025361143358999052
63,-0.008695651040767784,-0.02270816236269997,-0.0076955614852712555,-0.007748090106317293,-0.025010517046669754
64,-0.008693292064747081,-0.020932620796728547,-0.002288376052417053,-0.0027314030467218203,-0.021577994027583425
65,-0.011740625067707644,-0.022047000451955425,0.0011462660492419386,-8.966640389403534e-06,-0.02239787655431977
66,-0.014298037639215416,-0.02458814004148526,0.0039604339477419094,0.004106948632894165,-0.025329585977965634
67,-0.012931039656970294,-0.025664918334447166,0.008476560413372523,0.009711330314252777,-0.02790478721338551
68,-0.00940534841700108,-0.023918701021748194,0.011050610154035233,0.01214933883068832,-0.029841889877535995
69,-0.007697225823541472,-0.022212440344163756,0.012281746700079605,0.010674220507482053,-0.03236451209691331
70,-0.009300994696685279,-0.02199976817149418,0.013177137893131404,0.006522797576878471,-0.035566411358043774
71,-0.013060955537765147,-0.02246152426016562,0.011800397851882395,0.0016954268588144602,-0.038572089980392354
72,-0.017420862098864766,-0.023679625897607404,0.009566513426743457,0.00047622440082944437,-0.03996989478842196
73,-0.02158947717384669,-0.024362902787716693,0.00601090213359933,0.0016280498357857472,-0.03808017523005596
74,-0.023973998621823926,-0.022937368009550034,0.0012277615754586158,0.002892051719681003,-0.032022709129270285
75,-0.0227933036184977,-0.018249274776384636,-0.001398617410951087,0.00600933018520726,-0.022308169044736214
76,-0.020095253286146888,-0.012480229063462345,-0.0004260280234886783,0.010484645641999408,-0.012492029276919815
77,-0.01942878486403217,-0.0072530106516232075,0.0007786730469834419,0.011601644467991222,-0.005910822121203354
78,-0.0207536415178252,-0.002222653343846718,0.001494577143934948,0.00912788690247548,-0.0017507344289974358
79,-0.022112692408330123,0.002172803396863181,0.002673024703052433,0.005010909965532486,0.0015393927099047703
80,-0.02233391927338839,0.006252342600932998,0.003600421650799114,-0.0007764823267345231,0.004702670937004867
81,-0.020908465325464205,0.00968266978863543,0.00438777331789237,-0.005775817840455844,0.007730566264576016
82,-0.018433646774710936,0.011495140086823872,0.004145764173162171,-0.006814685338283805,0.00930443479070715
83,-0.016719533385162008,0.012680582786273705,0.0022736114554214658,-0.004837697741829072,0.010572697555882072
84,-0.016733299761154913,0.01123316560469067,8.74139146427021e-05,-0.0018542051058223373,0.010994472856696538
85,-0.017697038268845795,0.009040603363260522,-0.00045748254845890264,0.001522341573230422,0.012451213877676037
86,-0.01840616535054879,0.008303368402503479,0.0010912512477095901,0.004848740150745405,0.014971694331663503
87,-0.018854337274229426,0.007847156885585438,0.0029723969129858566,0.006400917033178522,0.01533653358349969
88,-0.0197670847669644,0.0074883287074926875,0.0031071320951612936,0.005522366951240666,0.012871296546829102
89,-0.021085210082144524,0.005363613307792541,0.0008188580392912036,0.0037385935009381826,0.007210289786569696
90,-0.023012793117403937,0.000160680414686034,-0.0035665243144175868,0.001078180478420436,-0.0007738719371938028
91,-0.02627606556331073,-0.007263663279701611,-0.009566903340561218,-0.003364881740692761,-0.008931196158029033
92,-0.030465828084439955,-0.013098040752249993,-0.015740638939140888,-0.0092853547326969,-0.014580587132371144
93,-0.03365156239902659,-0.015988385846442434,-0.019665683659681847,-0.014233644932499486,-0.017375278712988926
94,-0.03409261730101481,-0.015149352096684526,-0.01866985749019437,-0.016065769791635303,-0.016554199921149787
95,-0.031532262751492554,-0.010072271385779359,-0.012744319493372305,-0.014843675005310548,-0.011844747056649332
96,-0.0262081708194633,-0.0036942546718001647,-0.0051362304027081,-0.010216210341857126,-0.005339346641682064
97,-0.01985705569522972,0.00150010234204956,0.0010084629640962225,-0.0025499621436124724,0.0015044201188991583
98,-0.01506084426519669,0.004223424909361391,0.00398329136773618,0.004957873534936411,0.007517386364746628
99,-0.011698460037514935,0.0045082085072458405,0.003570684952830211,0.009441785086635669,0.010931963310522977
100,-0.008803276067973027,0.0042203800199452565,0.001648426997997551,0.01026519084526751,0.011179657034699303
101,-0.005229380486533312,0.005082988189905857,0.0005641881734841369,0.009675287585359743,0.009673999762596327
102,-0.0023358480168572397,0.006324796273480366,0.0007249753186364735,0.00876227521962025,0.0073031361985905156
103,-0.0025670211568645904,0.006143932501114663,0.0017592594549332282,0.0075965968579909775,0.0030936820629968763
104,-0.004918582085994319,0.004369586853984803,0.003852884638659342,0.006631715245241882,-0.0026023313940141605
105,-0.005871050970189021,0.0024332671504044214,0.00716167027608298,0.005046276280656329,-0.006635483046926392
106,-0.0021901435627506485,0.0013838931899623499,0.011077508966067906,0.0029022611844561758,-0.006834918941900109
107,0.004885347424345343,0.0008187894903559338,0.014228636863729698,0.0008441261227193581,-0.004155687257038183
108,0.011848644250210044,0.0002951974218621189,0.015405095513455518,-0.0017835701418025345,-0.0005499035464014924
109,0.015405697476834623,-0.000735119554993913,0.013450104829528528,-0.006348427670208688,0.0014024173661824442
110,0.014909121738930591,-0.0029793257917882314,0.007834312880136767,-0.010865960679529408,0.00045279268671425966
111,0.01134670433822176,-0.005188057432434769,-0.0004315927834324281,-0.015417498637777697,-0.0002560222937292397
112,0.005674369388547303,-0.006484396887993501,-0.008512482420739988,-0.01998556183911511,0.0006841816201067556
113,0.000969183133202685,-0.0072889408251600105,-0.013116823428858806,-0.018099451327498975,0.0013908338485511104
114,-0.0015420397546229466,-0.006654624307558696,-0.014313744987136594,-0.010331342010243591,0.0024713865135368804
115,-0.003281964807111835,-0.003923077217420124,-0.013692603331038462,-0.0035338104798318397,0.004938556350021509
116,-0.0004499093894438437,0.0013510648537293844,-0.009910072751659792,0.0019465574485864117,0.006211314137892637
117,0.004970653139869069,0.005741725258636848,-0.004545138644224485,0.007269144159561163,0.003790961556942445
118,0.010754894440076344,0.00666950625035011,-0.0006475030313005543,0.011783216775189523,-0.0025025759693726515
119,0.016514943568379487,0.006183149201443473,0.002216566701654174,0.013141276079657264,-0.009174045089294118
120,0.018806320378422003,0.006015194622310024,0.005687150186482475,0.011346224997858216,-0.01229017879438818
121,0.020032342591283468,0.005665189180843516,0.009020151953056173,0.011108282223573832,-0.013803173675755339
122,0.02217158409509901,0.004194952715929519,0.009640673119929435,0.01146036806169587,-0.015967209927038237
123,0.0241987105540089,0.0027148168667817624,0.008664738589643756,0.008029215947363746,-0.017250581684541928
124,0.024522828297540378,0.0005056871664764897,0.007632601760017459,0.002819781966460691,-0.017602180099866777
125,0.025554173375473443,-0.0026185453927719056,0.006160168254675036,0.0007693322058477919,-0.018872314689487326
126,0.02797165917387479,-0.00453397392753095,0.004636285587253118,0.002553294645354861,-0.020279823373200064
127,0.030076160838163574,-0.0035357365797845266,0.003914400544252655,0.006065553313967623,-0.020393817642782888
128,0.03227995226678232,0.0006542167477205615,0.004002563854254982,0.007157892283296922,-0.019832149180997974
129,0.03446439540999205,0.006063955121052267,0.0030771325343092876,0.0022988955250799682,-0.019335377500955642
130,0.0364360213150256,0.010110088246092358,0.0032508082849130814,-0.0031303843748155293,-0.019027725711522475
131,0.03793403443369306,0.012424208914530322,0.005299515844681391,-0.0051157669113043504,-0.018167150463735987
132,0.03328513955947951,0.010442209138866934,0.005103450884541404,-0.005789671049178762,-0.014426422106340597
133,0.02608356826096065,0.006180500196659062,0.002729070937903502,-0.0065138160909579594,-0.010991834098879502
134,0.022553348044072205,0.00010720256667646462,-0.0016971606321091884,-0.00397220738589501,-0.011638061980877742
135,0.023118067924323065,-0.008381701595806085,-0.009443175564471312,0.0015091414932816682,-0.015080063270267365
136,0.025356075735189002,-0.01620123840160504,-0.01731959878969829,0.003700072913886554,-0.019244690047859298
137,0.024281926837821988,-0.024145069473074307,-0.024340421219331967,-0.00034350881937476776,-0.022348453757912737
138,0.02173561760628898,-0.03207881894197957,-0.03150996667355143,-0.005361248406536129,-0.02499598998077458
139,0.020314418326552494,-0.03719722745243021,-0.039178402641817746,-0.007926831368339897,-0.027493066989306633
140,0.01938332161887787,-0.037398097408745626,-0.04448935420512878,-0.00997094063855997,-0.029474773554251533
141,0.017641076857528318,-0.03458839827084958,-0.044850350994506544,-0.011023181359159586,-0.028749592816680332
142,0.017943769686501593,-0.029714381690386486,-0.039467301581928446,-0.008096402968995149,-0.02341624361219622
143,0.021352908675857783,-0.023642312250505965,-0.03146299070433912,-0.0031908687816415916,-0.014186033769070832
144,0.023375146150551918,-0.019679586923152807,-0.02720629837653095,-0.002609797227722701,-0.0030284508615052077
145,0.023816246502517836,-0.01829983333790917,-0.028004212023016756,-0.007492455087785121,0.006745265586503208
146,0.024599083056173986,-0.020126372442606025,-0.0312686118733418,-0.0110831919473859,0.012085900624820045
147,0.025517466307824564,-0.025534991435013116,-0.034730130831247534,-0.008220164632551185,0.012741050067373994
148,0.02813462762067606,-0.026055288623694894,-0.032180758492283204,-0.001379076537933155,0.011483264358495462
149,0.03251889017224849,-0.02239450237418889,-0.02652158314487882,0.004706302961528778,0.011939963983704827
150,0.03570478883599821,-0.020111622579303202,-0.022303179648098515,0.006297221406259991,0.011942352881493094
151,0.03441374312254908,-0.020437097716066274,-0.019483101432901644,0.0021924302388125487,0.009027189614355328
152,0.02962831387593882,-0.023271831911522992,-0.018373889710669843,-0.0038455960588481605,0.006428971160464275
153,0.02659011728102156,-0.024512711688792193,-0.015637407628622965,-0.007136759985411138,0.005303751235117528
154,0.02795268705875128,-0.023047855140166194,-0.009268258619632536,-0.004249092477442442,0.004318950438379056
155,0.031738207305002666,-0.018628058452348314,0.001216144570838784,0.0036243292246055125,0.005699206727710822
156,0.03428604886096772,-0.013240909251589796,0.01212133841657968,0.009545328719700033,0.012080743895946903
157,0.03576646437185295,-0.008358762808699991,0.02194762211892534,0.011684424116260299,0.020571757241085637
158,0.035424976815290304,-0.004592912078333416,0.03078861856362335,0.01103569506472547,0.029661779926260706
159,0.03219529391810944,-0.0014635225228934986,0.03919795646028783,0.00945714933177421,0.040738395536428884
160,0.03013015704331833,0.0019472110936516519,0.04846331396074614,0.011397578910818586,0.04924620094181956
161,0.030595043935128168,0.0028284013392285176,0.05231163642405668,0.010626247740545401,0.04821585700518075
162,0.030924175066271875,0.0012259790679979524,0.046384176932042664,0.0007425769870337617,0.03815757358302641
163,0.02973900142258545,-9.437888490554283e-05,0.03548486024740641,-0.01082249027255634,0.025929970086888937
164,0.026421391767768913,-0.0023637272162095684,0.024681128660723254,-0.016469090850648956,0.016468938321602993
165,0.02030720112391682,-0.004840047303162277,0.018070538542744433,-0.021015235900646856,0.00957603286679057
166,0.014074661868192007,-0.007102491760893822,0.01300695717499638,-0.026010434157473648,0.003742181146703868
167,0.012340379146478125,-0.010322705337886665,0.004692948218315344,-0.025321116607091534,-0.0014597708451763835
168,0.014125706627319271,-0.01338834349358746,-0.005103559305091438,-0.020686536158829753,-0.005684679503412754
169,0.01425105223470296,-0.01516038465635262,-0.013394871354655733,-0.017461929094584744,-0.0075735454579088455
170,0.011003067857393018,-0.014879412613362992,-0.01726116341326571,-0.016315105822989704,-0.005755565543173298
171,0.006593734924503032,-0.013294641129429933,-0.014927026153062357,-0.013769853287244532,-0.00068753723808809
172,0.0043666631872025935,-0.011281916235457132,-0.007331183883410504,-0.00534872493118798,0.003939647358148195
173,0.005112993724882918,-0.01073079729076546,0.00021179082854840543,0.007196342658710403,0.003875911461607668
174,0.004772094475758127,-0.011651783687035478,0.003178941932047939,0.011696407540820285,-0.0009917803766067888
175,0.0019252431418420191,-0.012152988680471212,0.003169612712889398,0.004384843007037942,-0.007133677754437864
176,0.0009642692121436693,-0.01216473343572793,0.005416995627115012,-6.10618322690867e-05,-0.011382504831122972
177,0.003995983814716991,-0.010156303172483753,0.012161734354956233,0.00800193951607644,-0.010729934055304653
178,0.00859642439901832,-0.00470585063705659,0.018451166830949314,0.020335614215139117,-0.003944620150500588
179,0.012791269941240522,0.0018804591422838049,0.020209967536933455,0.027366269401197033,0.004341352659443412
180,0.01571292343487154,0.00558763816827806,0.01832573863980267,0.0288993740134745,0.008080844887426077
181,0.017106892302143132,0.005665680800873553,0.014758898918888907,0.026432756559888432,0.007201326431253743
182,0.01793615714279199,0.004980342613857489,0.011551333697281271,0.02013934086865454,0.006149226838311309
183,0.017736550900792403,0.0052479501824322684,0.00975411848449083,0.01078615024946167,0.0071672689806053305
184,0.0156975233244861,0.0062511332702398,0.009499564823390157,0.0013301743533024046,0.009767433608031001
185,0.012219224769597593,0.00718704263555167,0.009905594468784772,-0.005396874501345801,0.013558857014515553
186,0.005401211479289286,0.008552685160096265,0.009972354755606264,-0.013756869638568205,0.019790388067207287
187,-0.006450661285036464,0.010325750334115709,0.011247649527234099,-0.025018129088641428,0.027660224365497643
188,-0.0182838197072119,0.008704593175465559,0.014022939140613006,-0.030598846211310572,0.030519575066939378
189,-0.02233002795181754,0.0022217145303005,0.01457951376207572,-0.025555245859046345,0.024193145195959873
190,-0.018139744427702338,-0.004606327224636611,0.01161880894610278,-0.013556083373724916,0.013353707114610938
191,-0.013215089585111675,-0.00797005533016396,0.008385740040402533,-0.003667472801557459,0.005565705923043099
192,-0.012986535132358515,-0.008325098832373866,0.007705538471649316,-0.002687432482338299,0.004666530596674569
193,-0.016881255003733022,-0.007043182850319275,0.010246580829843142,-0.0031038930331503465,0.009588450532349323
194,-0.02189661752601644,-0.004961094074364012,0.015237124801698946,-0.0029969077828006924,0.016822652935322556
195,-0.023218881628353,-0.003958486445554535,0.01960005508972846,0.0028072353164127818,0.021847034830396805
196,-0.019172997509469665,-0.005215560510843089,0.019608805957808333,0.009900705231574564,0.022194642722843404
197,-0.014245079940183264,-0.007808010585540594,0.016278148957253376,0.010000076261962594,0.01954458118387009
198,-0.012813046436616073,-0.010602832439975824,0.014535493015671069,0.00465604846675712,0.016228957147876165
199,-0.014370534324230856,-0.012239518037291636,0.016627680795418272,0.00016300094519793257,0.013732794914763773
200,-0.015049665298345548,-0.011652140070863196,0.02001817104829857,-0.0006722434579738943,0.012412922017284273
201,-0.012552599619324095,-0.008496657665971012,0.02261298899827253,0.00029621208165762344,0.013202941456970452
202,-0.007114762070205548,-0.00422144560559495,0.026731555642164482,0.005186934739742711,0.01594971077054717
203,-2.267560368396428e-05,-0.0017122741683025145,0.03310515741457107,0.01756184586211794,0.017626204788394356
204,0.0050517253578172055,-0.001116370465739315,0.036302602971516815,0.027978085424595112,0.01845103138003921
205,0.004585000133444153,-0.0012771693009795244,0.03311124881990191,0.025968683978890798,0.020289335691067147
206,-0.0013889228964927398,-0.0020861783443177962,0.027266946389425846,0.015128821718203714,0.022767512350345857
207,-0.010219449142864332,-0.003348880560557071,0.022901356045854696,0.0020089268982795843,0.024863647381179833
208,-0.017860687756418452,-0.0052878868213305985,0.021073009847298953,-0.009418646528139387,0.024288009874027097
209,-0.020946754970404165,-0.008139680684346586,0.021160558471198705,-0.014243148700992287,0.019753746807370715
210,-0.019612645867633807,-0.009948203458908265,0.022383099900656334,-0.012521337834487525,0.014720516674439143
211,-0.01666719757913676,-0.008119954292777716,0.02400445385234988,-0.009650678761429306,0.014155051544326596
212,-0.013171162245932897,-0.0035578777646857436,0.02378150702645024,-0.00648679299167692,0.016464895387036618
213,-0.010210877331379554,0.0018448326109895435,0.022727163508836967,-0.00488457382024994,0.020724736382062268
214,-0.0102744437333567,0.007262782181910811,0.022091438735396516,-0.007213424045414666,0.025929558583546425
215,-0.012398570316888156,0.011283224949301335,0.020910304004236897,-0.008272495024131766,0.027564002481297825
216,-0.014879698628861555,0.014154153324886834,0.01932244771730434,-0.007510779036102407,0.02596522048430268
217,-0.016964234158174156,0.0152414224201319,0.018142068501206157,-0.0037723619314546826,0.021391216278564138
218,-0.016839374339676264,0.012423170576983089,0.016188250420903404,0.004419209532333233,0.011688927268052558
219,-0.016703910374964943,0.00795173128692045,0.010939171860629274,0.006050398550338803,0.0001281148620401931
220,-0.01805782861441619,0.00491070702482193,0.004332775865682977,0.002193252860142222,-0.008406802875770024
221,-0.01641868661981065,0.0028355924762307515,-0.0018437880045155644,0.005288988701397406,-0.014730821879713142
222,-0.010738878814339612,0.002290777953078253,-0.00713751677933688,0.012377715983018657,-0.017708924624069842
223,-0.004980990965683352,0.0050527256392617955,-0.010118888629296196,0.01531859613394935,-0.015561117846146761
224,-0.0014798581364380771,0.010788880736450087,-0.011013634143761053,0.013688730510755276,-0.0116927902300114
225,-0.00010389007555646469,0.01752477816032205,-0.011661932136702703,0.010036527694771433,-0.008713798193848125
226,-0.0012022675790640779,0.02226402024948505,-0.014258456192907405,0.005091107412381432,-0.0068096568958945025
227,-0.004115236148900988,0.022531902950986955,-0.018058438661150113,0.0002131937734586048,-0.0072579739033688485
228,-0.005681441771248458,0.019495681717679708,-0.016290097928680886,1.3243371448228736e-05,-0.006986645544950756
229,-0.004773442048839239,0.01751112916935853,-0.009318696292171875,0.003080062272258818,-0.004730736986439426
230,-0.0040730975970562095,0.018235794106494535,-0.0013300201761666307,0.0019919933054299405,-0.0002719372533445511
231,-0.00492199895246013,0.019776263930725096,0.00633979307548284,-0.0027858201756886785,0.005463794424836765
232,-0.005533811513469017,0.02100781010553227,0.011425852324435059,-0.008082658034331882,0.008116479677237248
233,-0.005999169524914821,0.021988811797039955,0.01432157956253827,-0.016225221725000342,0.00892909068443595
234,-0.007007510346358566,0.02205756093613861,0.016479291418262845,-0.020559309943257494,0.009608119965810378
235,-0.007926236539260145,0.021063053425865706,0.016318922981754882,-0.014428079615996832,0.008399570748063462
236,-0.00916590639889943,0.022118500208864404,0.011217680852820553,-0.008981762369105783,0.006058001307035599
237,-0.011198549176337702,0.027536517732663572,0.005063415976959792,-0.01373538142065024,0.008189072264206163
238,-0.013824352855144145,0.03346886547747579,0.002312788653114965,-0.01774996441314265,0.013701642830565849
239,-0.015893578677289064,0.03504718265155916,0.004459341346826715,-0.0038181345902623927,0.017474153765218957
240,-0.01389723166525114,0.03178414689283148,0.009724374781570613,0.02346856307944717,0.01834516080859112
241,-0.0075645849630044245,0.02602574280599343,0.00964940043543519,0.03948294409816041,0.014129083759830982
242,-0.003542231827349278,0.02180271584423317,0.001709281991466855,0.0312362925857745,0.006943534707035222
243,-0.003101048596832352,0.021025739608585545,-0.005296332062820499,0.014339870674894136,0.002223006125422285
244,-0.0005310751315873777,0.0216799222360946,-0.007722969428358477,0.0068933968315237,-0.001274905924812649
245,0.004348803906219762,0.020656332496734726,-0.0074240265884983015,0.007014803259943905,-0.005608690672062371
246,0.007700722939641267,0.015550294274320023,-0.00766823691120015,0.006409452678916486,-0.013602094221820075
247,0.0070924094984751405,0.008990762485484909,-0.010266898089498168,-0.0004988476976878769,-0.023213196160950283
248,0.002732695377215813,0.006734848264202388,-0.013035848135404874,-0.015436057499258546,-0.02572470431156546
249,-0.0005948267280236741,0.00992332040721052,-0.014035526005252834,-0.0293767641334581,-0.020527009417995505
250,0.0008966712405927543,0.0151929526751635,-0.011992758033669837,-0.032982790677275824,-0.014029422683778471
251,0.0061161521414683844,0.01904445274094953,-0.0074360104648621755,-0.025871698607299275,-0.011399125850052134
252,0.012497956315072048,0.021319860492173878,-0.0019690010281404884,-0.012649101093256912,-0.01088459367613033
253,0.016278400667363586,0.02564235580015764,0.0023730484781780076,-0.006036420061444777,-0.005564684378240005
254,0.017854482108323067,0.03329798515379697,0.0071815544163639725,-0.006500880456940946,0.006246822964001923
255,0.022821396981172914,0.03986802995978633,0.012611482033436915,0.00017578476063077447,0.01629521188433261
256,0.028767465429945144,0.0422536773270013,0.014575584785847804,0.008750158808425614,0.01926127904166119
257,0.028054110662336377,0.04221318498472193,0.016069654075592084,0.01646590598629019,0.020351044074399513
258,0.02348366440196576,0.04028043867467174,0.01625561456486411,0.02211489388423925,0.020159700447734092
259,0.022069161594992295,0.03577637651245431,0.00890461968583201,0.019618742193644772,0.014401911854081483
260,0.0225722664771478,0.02873373063863454,-0.00464326937276889,0.007976637491358088,0.004261282690536787
261,0.02094149978429962,0.02369063702368003,-0.014835706429457059,-0.005738782705380989,-0.0036971294049172525
262,0.0173724331445786,0.024546210905652482,-0.015078677790216686,-0.012705980115635238,-0.0032319847016321975
263,0.016484640371654913,0.027131403244003746,-0.007520734685328074,-0.008472603790153589,0.0014264629639229296
264,0.021119092847188728,0.02606517608212113,-0.0001546681652240924,0.0001948143941381017,0.0008720634258667588
265,0.027464112633002934,0.02252565387801358,0.0016526755273227449,0.00475326150491279,-0.002730073938716253
266,0.03129401182988888,0.020163928423317705,-0.0008349571438696366,0.004634814339868034,-0.0018065233935328684
267,0.03236928254767026,0.0192021268579622,-0.0038618168849356175,0.003911060434886288,0.0039839126680626955
268,0.03081916866614169,0.018372619426234544,-0.005977952524087181,0.0015136383496079002,0.010103396620904773
269,0.026573458485812364,0.01945147312084386,-0.006515738032676754,-0.0052046625056173645,0.018096202824786082
270,0.02297428033622996,0.02275661953174818,-0.004728465901353558,-0.009184045113053839,0.026587099248276243
271,0.023400162555220375,0.02493706259282007,-0.0017773287179700906,-0.0030565281044363807,0.02951755294074946
272,0.025489918731147025,0.02618230578712341,0.00011901515595512349,0.004342575037708553,0.030335366897664248
273,0.02359137787772243,0.028233382305756408,-0.0001437725054532625,8.89121359710586e-05,0.03401088371398888
274,0.01685183952312725,0.030284195479872864,-0.000441279198748745,-0.011971819420646429,0.03926892123567368
275,0.012854646224089683,0.03085754255272158,0.0017313383526655365,-0.01235479198061143,0.042035347299708
276,0.015778612851904114,0.02914076597949071,0.003989823656103387,0.0003551761145819538,0.03516893364952364
277,0.020051256965584675,0.026459275317425146,0.0023748840152596627,0.01064482836655429,0.02399425582117348
278,0.02181804004760071,0.0248172462274405,-0.00024479255966137,0.01462933036993962,0.015317386845607937
279,0.021182168497552438,0.02618651486424712,-8.345931640989827e-06,0.014220513232352185,0.01072982885472473
280,0.020219360359127827,0.03171188901362088,0.0024785617717613963,0.010734115794413074,0.011993847832594112
281,0.022768104029748912,0.038416480077210144,0.006091582268273385,0.008974470176946886,0.013944629259370232
282,0.02654421335525864,0.04184671418051123,0.008611056043743785,0.008717202682632553,0.0124808519320624
283,0.025027616389586695,0.04162923520271779,0.008128571820576696,0.0018244444704056705,0.010218185177725448
284,0.01788164218625875,0.03976615714726552,0.005286820060236604,-0.011138101570090531,0.01192309296107072
285,0.012045186510926653,0.036307700150406436,0.002262331483372603,-0.019364176491980738,0.014300915252043193
286,0.012190306240028398,0.031006667427892442,-0.000611662071064722,-0.01841970951466391,0.012367046825064936
287,0.01702430249940173,0.025142433468487997,-0.003694383503910518,-0.010509080589589527,0.005833926347881312
288,0.02310252548638789,0.02009931590522526,-0.006775804201152577,-0.000797695818402494,-0.003399257979775309
289,0.026584826497749327,0.015623514168010421,-0.009018489124419627,0.0046442978137583085,-0.01200624157745243
290,0.026607690711758468,0.011338328852067968,-0.007799722305169114,0.006269929671847058,-0.017058947789347856
291,0.025752126203009082,0.009236733324496225,-0.0027497438246349435,0.006720860447782863,-0.014355445694140935
292,0.026601991174136065,0.010700885535660617,0.0023780686266187305,0.008073646938183214,-0.003528445252487034
293,0.028202079213522316,0.010587398428114014,0.004029225618799622,0.006804321935612115,0.005070592025780914
294,0.029004414143304073,0.007949068814112146,0.003946813563822359,0.002454333927863352,0.007457282139516433
295,0.02918688374348632,0.005629862600786781,0.004198859642165428,-0.0010343350268395243,0.006568497748029538
296,0.0274686287779918,0.003972335483124258,0.003079371650931265,-0.008280430726171264,0.004409622554509717
297,0.02418242774334144,0.0041281583641499635,-0.0007234746421616332,-0.018918318914430795,0.0024929869500401195
298,0.022755119786461057,0.004133852905508553,-0.00538889420716518,-0.020537241626713967,-0.0007037086717404743
299,0.02307861639774377,0.00277576072631479,-0.006897302114597646,-0.009958373460499817,-0.003602437466460139
300,0.02229584267285872,0.0003681085259251433,-0.003991607012524257,0.00414546567588254,-0.005235350174788425
301,0.020761412272905014,-0.001429790519445174,-0.0007661466535715541,0.013074053618104368,-0.0063183975349937966
302,0.01960114505009746,-0.0016728901241681773,-6.06820534962778e-05,0.011553105110875995,-0.006597725055487996
303,0.021449484540722662,-0.0013937784544359939,0.001948884365185596,0.01180841035161324,-0.0061912331053178
304,0.02738433656178861,-0.000255552639519509,0.004042589867206905,0.019762945354956686,-0.005185692171442465
305,0.030681893838108074,0.0015806921327472304,-0.00033167567563089175,0.017022979059564222,-0.004180772822125236
306,0.028116791898858576,0.003945738804486986,-0.007668629164702856,0.00264316832895752,-0.0031176380643947524
307,0.024838987193702918,0.0066059800887164,-0.011013188066566358,-0.005877039205277922,-0.002108397754720139
308,0.023180615755118622,0.009368000722628894,-0.00912767056653027,-0.005925321850545241,0.0003465797801497825
309,0.02084076168495143,0.013569440463848387,-0.0045518239372120345,-0.007146728408992783,0.005105451746244797
310,0.017127875819611952,0.019078831296407518,-4.381446731300329e-06,-0.014063459339554878,0.012361778241420042
311,0.01553822423773835,0.02259071296842987,0.006268045258465511,-0.017091701795635426,0.018042328120436636
312,0.019545289496816193,0.022169496822957137,0.01451343989522803,-0.006678858586156925,0.016631049173680457
313,0.02515500894309472,0.02068719875695651,0.018244112819913057,0.00720572054230711,0.012987545133826573
314,0.025028199585677445,0.02122697573061004,0.014249058912795128,0.008510820249282944,0.013748682084997379
315,0.018581876459227854,0.022089702997966643,0.006747522539953363,-0.002579738281011101,0.016269710616837407
316,0.011681752264870629,0.020313788762818898,0.0010038141567765657,-0.009404228559987453,0.01490963636151385
317,0.009064136364325051,0.01671537199541146,-0.0013314744242808232,-0.0027393486397346584,0.01038823636508974
318,0.009545338119183592,0.01547104506691597,-0.0025335640717445164,0.0069821775257257355,0.0068618406137209926
319,0.00958166233673629,0.018396693197461397,-0.003455957707810179,0.011995806921093363,0.006961257123449083
320,0.00704351950095425,0.02195644586900136,-0.002124159506348493,0.013619412663881907,0.01020273764769808
321,0.003994455085363212,0.022045004777134326,-0.0004004089588034654,0.012677726147917463,0.012839011541301416
322,0.0031728103096194593,0.020711031989679867,0.00199154307732701,0.01069243475249561,0.016494261944168104
323,5.795715873157732e-07,0.024566182226391592,0.004199403446122221,0.0015190140837099324,0.026876459661873457
324,-0.00508325978266024,0.029664114249860145,0.00734063799723314,-0.005611419627236539,0.03594403580255931
325,-0.003100612138543089,0.0307208062961341,0.008852076477019457,0.00038247115779124535,0.035011365874923206
326,0.004649257839525121,0.02857540238714335,0.005374250642601863,0.005691728357416201,0.02655543935503568
327,0.008347156986362219,0.02533407454726671,0.00021591392321840237,-0.00044818371018538695,0.017324769187443908
328,0.005730118645754996,0.021381491254400795,-0.003012272997190188,-0.00957697365762446,0.010421370171345387
329,0.002852557712342279,0.014461517000812994,-0.0029680108398249428,-0.007866576748668877,0.0018724686278930164
330,0.0023011471371356777,0.007046388157574963,-0.00019575364848114737,0.003179433682410689,-0.007351366809208569
331,0.00028214755632813786,0.003626603315683807,0.0025705986044580013,0.008299174821940227,-0.012043702341761756
332,-0.0047289007666692345,0.007072219793376526,0.005766591420492939,0.0033013819949629626,-0.007558143784193026
333,-0.0103388003114559,0.014897057094320971,0.010700326055722338,-0.004802822725340164,0.002993004261215412
334,-0.013520010704920496,0.02075492900122467,0.015309292059030867,-0.007845761185442286,0.009047372366838162
335,-0.011265253004649265,0.021250542384870105,0.018655092202022123,0.0008463014010263338,0.00481014601196696
336,-0.005199165766180418,0.019146236647045903,0.021309962203380505,0.013462286831832631,-0.004033939565772384
337,-0.0007168242084501191,0.017628290859388066,0.023983426610983658,0.019760822751664794,-0.009839909277940036
338,-0.00022474858250122977,0.014624842064700482,0.02775048081082553,0.02277324641893321,-0.01375779699558472
339,-0.003602273922008679,0.010124644958986318,0.03137985446620764,0.022267665553473346,-0.016997547678495404
340,-0.008856962714920492,0.008302002406169483,0.02815736197161166,0.0076058298299422206,-0.01730679524503324
341,-0.010431426932934256,0.008785561262758465,0.022358025940335962,-0.003142662113616847,-0.017716943582647016
342,-0.005882479236496149,0.009469212523341137,0.020881832700253213,0.0060814114238899545,-0.019757462631853344
343,0.000418450492218702,0.009212913136527303,0.02142011234606212,0.021001141856337217,-0.021848944009791902
344,0.004947663600643608,0.00800245795401613,0.020914454553071272,0.028909906495568606,-0.02448041768705874
345,0.007326813888226015,0.009194224531796113,0.01691264374620457,0.023275897588418155,-0.02704368379456233
346,0.007935413759629329,0.014135674464774942,0.01031017254285256,0.007551244857320566,-0.028389497931626408
347,0.0077607609070086125,0.020722536709605482,0.0036267291834359166,-0.011022014321354776,-0.027940429235616446
348,0.007677068562121403,0.026200465433707486,0.0007957524346908119,-0.018135625498092056,-0.02721267210375303
349,0.007792768560845791,0.029181607748359706,0.001123071924514836,-0.018490035499351076,-0.02714322090027586
350,0.006954153665599049,0.03075703492817351,0.0022980007310316945,-0.016582381805637567,-0.024822425194746704
351,0.002386896606936881,0.034009567013443896,0.003724861559177666,-0.013228691944181855,-0.017254825496624188
352,-0.00498398949940987,0.03872903399129759,0.0040830489194643846,-0.017658764786985564,-0.0075206513349442795
353,-0.00848536442134459,0.039708575378354975,0.0030380443411853583,-0.020405195833504343,-0.0037361001633412607
354,-0.006464486111255526,0.03555428434569588,-0.0013077800040956057,-0.01751553862409113,-0.0075517837726572015
355,-0.0029446096429804813,0.029458910271417827,-0.007612818598875011,-0.013886763400793894,-0.01470802619509579
356,0.0007675181373645732,0.023384404249860793,-0.007479773447531454,-0.011970219501513451,-0.020659175742024645
357,0.002181812386791304,0.019001208040284923,-0.006162447403600671,-0.011612522512142396,-0.025191263964365235
358,-0.003274606174639865,0.017851590153472503,-0.00819071519771011,-0.01942301778433364,-0.024884921499349063
359,-0.012234968474671475,0.01806694314131047,-0.007743603368568914,-0.026423901765243025,-0.020285229642319685
360,-0.015921282393728562,0.01761092734118129,-0.003951517399854519,-0.013598171584317325,-0.01709836349169996
361,-0.012383118388282726,0.017527199735678903,-6.48313139668714e-05,0.004598737754678651,-0.013483677744448036
362,-0.004736206554983101,0.017977844698901978,0.0004949221326595068,0.010066559191626455,-0.009390410178989384
363,0.0028532847510693332,0.017506271467510357,0.000488151614287558,0.007635795238936039,-0.0069993225457939704
364,0.006136992844039416,0.015738896912302375,0.0006257189962633217,0.0063952346045875125,-0.007222498269299056
365,0.0058233709051708086,0.014328319850834152,0.00022598541151860755,0.004969933759664657,-0.007133007770358146
366,0.0055097271848710576,0.014096379056715817,-0.0004872005972884164,0.003029193079264519,-0.005823063768726061
367,0.005273250475160752,0.014472753269476052,-0.0002402193510856558,0.0014908814190528548,-0.005358851088920159
368,0.0021101436054605303,0.015878197117245967,0.0030041264775281015,-0.004457652202718573,-0.002578589828475962
369,-0.004730863535308281,0.01861160648396811,0.006657665256940125,-0.014779377502739171,0.006282729891139698
370,-0.009847125501999204,0.020390865822943933,0.010083568341034308,-0.020009677565199387,0.017663069293536202
371,-0.007100702296370253,0.018389008839232994,0.01565658560750721,-0.010244329963018118,0.023605436967865292
372,0.0017924557880095468,0.013199019028908108,0.020620529807748887,0.011457593581422674,0.018775928042493673
373,0.007212628466192902,0.006837990034356684,0.022856696078540992,0.025599761378801374,0.012426512663988016
374,0.005382245725780084,0.0011177011295699032,0.01915878821452434,0.022687893601482205,0.00934108767625812
375,-0.000791477161732656,-0.003271566706466542,0.006861565931981881,0.011266834537951267,0.005042055267512556
376,-0.009407344840595822,-0.00707444248981193,-0.009160944091282614,-0.0002545752812311232,0.0004408327011920782
377,-0.019861765458780704,-0.009823047634514465,-0.021620124156686894,-0.00759919253775446,-0.002464424093651418
378,-0.029400710830284792,-0.011484218041664137,-0.026262705168193304,-0.0054381034916019515,-0.0045599803261247565
379,-0.03311258724123606,-0.013290928358432303,-0.026518795785749456,0.006563166174936996,-0.00991102028957383
380,-0.032425801198045376,-0.015442435583919679,-0.026801933995921106,0.009333441243975752,-0.016291279052891915
381,-0.031152398437467657,-0.017674658267119395,-0.028324867330245494,0.0012896514713099515,-0.022442940805389767
382,-0.029341627171347737,-0.0185031043863664,-0.029956926114994915,-0.01118985237223423,-0.027089396696975163
383,-0.022428932645479956,-0.016272594825851718,-0.028473757872876232,-0.019813631940984247,-0.028006938792677034
384,-0.010622951603507869,-0.012352871410685359,-0.023821273648534032,-0.013964711527769309,-0.02950014871228979
385,0.0013787878552638726,-0.007908379994294373,-0.014311810973664657,-0.007056563866628937,-0.026278636518158455
386,0.008302128116272806,-0.0012173722803672368,-0.0024323923800671676,-0.006560659136366549,-0.015913355881473905
387,0.014985539087011123,0.009036213464927804,0.010503413055253848,-0.0033673629478295844,-0.0012161951211391976
388,0.018445392808883746,0.017635747928038972,0.017170828802286053,0.003946872038675407,0.010404683806608764
389,0.019759876740722864,0.021226608379390634,0.017641729801782264,0.007049011565868933,0.0157104357579101
390,0.02121596438413304,0.019569355350630178,0.01591318679780303,0.007727940556356198,0.015900087875508218
391,0.02226585911926517,0.0145147036266155,0.015101042139738853,0.013045931605527262,0.013874897059221384
392,0.024040994536989237,0.011730382806510757,0.01864459680216392,0.01851465047950877,0.014925872498216463
393,0.018740696183166046,0.014315935333214659,0.020860577658524514,0.010975375515249618,0.022987002091135984
394,0.004120010199121845,0.01870404857416574,0.01900656835526154,-0.00899437213819727,0.03328014899269079
395,-0.005709909587864006,0.016698407334726245,0.016925992460563657,-0.017049193108346128,0.03306190024718864
396,-0.0017928526491801104,0.00853161274685412,0.015216919479302907,-0.007487538665419974,0.021270837586700536
397,0.004818860980807163,0.0011487188570505917,0.011203670946639209,0.0025622860375561166,0.010425553822678143
398,0.007342564300639225,-0.0026477485110893437,0.005289012565498894,0.005669250759342044,0.004858785775359293
399,0.008062574955206597,-0.00362139320953066,-0.0021039541035475146,0.0017793240052565455,-0.000258907367500982
400,0.005498260211747395,-0.001988649472722008,-0.010587751340053818,-0.008266405218931353,-0.004219279076199769
401,0.002770800223441738,0.0009903889864346475,-0.015547904982116523,-0.014736232547620368,-0.005518233965296748
402,0.004710218954209671,0.001426156987771646,-0.014578607711876588,-0.008420178497454642,-0.006887642696125652
403,0.008591939142344325,-0.002440807386269472,-0.011601351331272075,0.002436612162996022,-0.008954565813380893
404,0.011588451070470709,-0.0042868780689065454,-0.009609460868672214,0.005936332350180058,-0.007220749536003995
405,0.009056710708873313,-0.005341934114823883,-0.00873725084622845,-4.695169559993071e-05,-0.004447504037345431
406,0.005693784904611365,-0.007436470470318564,-0.006544966462415896,-0.006446131251904491,-0.003615071329857391
407,0.0090544914593661,-0.00965548258074081,-0.0032552562662719695,-0.005081524601457036,-0.004956609032464028
408,0.015830100484813227,-0.01426532354499733,-0.002695189221285279,0.0026721115514648027,-0.010260737936564287
409,0.022311283721410873,-0.015954153846300306,-0.005808264164140204,0.00982276510672547,-0.013836802008653561
410,0.02672883559605052,-0.010723542887104788,-0.009573099415456587,0.0116892622993527,-0.010307206309205973
411,0.028335301627294928,-0.0017946624461487128,-0.012081361112017098,0.00760665466031594,-0.0013958006094122448
412,0.025877189920285232,0.0060801326552945055,-0.016505741952857297,-0.005493762172649683,0.00817068406735657
413,0.022671813712022003,0.011382547156378332,-0.02318211625102006,-0.019899854909985557,0.015050509288673972
414,0.022137411075826948,0.01255898926848999,-0.028207077667214486,-0.02188161988473209,0.01782280032377033
415,0.02389696249075022,0.010864470541247215,-0.029700305153676297,-0.01442783795922749,0.019690659579086785
416,0.0280176235164166,0.00888577347533063,-0.028854040443313064,-0.007374364238662817,0.022491327784558236
417,0.032224694485495024,0.005764712462436432,-0.027910383990841968,-0.006774552409604416,0.02414073791601924
418,0.0335829475201829,0.0020364866530681145,-0.02891522982584613,-0.014077958854498977,0.023628982913400005
419,0.03268769517664705,-0.0017263990859511156,-0.032792679847634454,-0.021036318079249324,0.019259260757154218
420,0.02927083635699521,-0.004037649362822858,-0.0335851816129096,-0.018473432274235386,0.012795550149966797
421,0.02244294076353359,-0.003107702894559022,-0.033384491213660994,-0.017864268832670206,0.010473006921825265
422,0.012282092726821613,-0.0005077872329963815,-0.033646927937538096,-0.022920661045919336,0.013170405340788676
423,0.003969014896828594,-0.00019135721276961596,-0.0314297819631362,-0.020235765317879108,0.014526178813700902
424,0.00388663122696835,-0.0013479126473988064,-0.029698554683454982,-0.010994952749769653,0.012091704531593162
425,0.010019787066121952,0.0007581323114255615,-0.026916334084895584,0.000216046484754869,0.009184697215776286
426,0.01742970325718644,0.005715088143545185,-0.021481688111589476,0.01369952895816449,0.007765393523472015
427,0.023160997455440924,0.010121164189645529,-0.016564751761343824,0.0241122014777994,0.006773057089262948
428,0.02617046917973334,0.013187562665956982,-0.01608458391560085,0.02547054036865714,0.006200395276072302
429,0.02551467311640805,0.016448789891143494,-0.017382138956474977,0.021672192564891567,0.00761651029141244
430,0.021558972848105703,0.021191639677757862,-0.016791767057997144,0.01688285461394278,0.012339294911510377
431,0.01607866407862169,0.026269457540650812,-0.012769049334373816,0.015009755305304299,0.017819673988059757
432,0.011882725023913574,0.029249517963944417,-0.005148779126697204,0.021584400470294425,0.01818322019787414
433,0.010762405555694474,0.030163592044614437,0.0007460374357232967,0.031046047244973146,0.012660846338239743
434,0.00891322718265123,0.030293939010224966,0.002010400014197612,0.03475898420010635,0.004178046608872405
435,0.0036278043055913713,0.029341983421736672,-0.0001969565253146084,0.031968822233388726,-0.00634215336926482
436,-4.8057537941321267e-05,0.024358265220980484,-0.006974349661884245,0.024500929178838147,-0.012887631152577309
437,-0.003156840382460257,0.018615177415430954,-0.013470830177631002,0.01670881633116342,-0.014715226112966722
438,-0.007300018652772679,0.01502553187505629,-0.017408540258550195,0.009779317801763871,-0.012225161799052291
439,-0.008494898095465619,0.01202320673260446,-0.02112439182045957,0.0053549874532300085,-0.006883515101953253
440,-0.007423324836682342,0.010315599709287089,-0.023209891886503235,0.005321093890211384,-0.004088298880442311
441,-0.0049584827104890376,0.00889492987209257,-0.023576238430987072,0.007414497599302838,-0.002440967159547576
442,-0.0004026952450302813,0.005324091367948657,-0.0230712767073787,0.011724659363269732,-0.0008980541308406244
443,0.0044427907971165475,-0.00011438749581892338,-0.02160709586759878,0.01679143033005601,0.0008677184054127893
444,0.006044807615454008,-0.003809007891687913,-0.01834796931111758,0.01993841267664151,0.002521164951183712
445,0.004314846138002243,-0.004306202831347993,-0.016388714137429202,0.01721517406231345,0.006723221377832345
446,0.0002905423473398028,-0.0016128197585793059,-0.017614522259364187,0.007551285672376926,0.014748314409001586
447,-0.002227220733552561,0.002356849609560057,-0.020073114345100642,-0.00011892303659579924,0.02285651395598365
448,0.003084486675482901,0.005615172238698568,-0.02299264411448797,0.0015229671584722768,0.03136673050015027
449,0.0095752599085008,0.00524329253353464,-0.026356591582539474,0.006535195934453588,0.033458091517300795
450,0.01236152681777278,0.0027747281617185675,-0.03186568719132685,0.00586936328049345,0.030864814217460353
451,0.009948671157031436,6.296301033911693e-05,-0.03903812213990198,-0.0019268045054371694,0.028521903988622168
452,6.45486654324806e-05,-0.0015669000346179376,-0.04298230959161363,-0.015156240917021896,0.02458695655128956
453,-0.009965556135418517,-0.002302182615732524,-0.04284014711791324,-0.028002476658048208,0.022124169200730535
454,-0.012300380958233163,-0.0026739622418390126,-0.039610812124574325,-0.030578778167728565,0.02132836196301345
455,-0.009891623590211921,-0.002678114563972406,-0.03401946164313514,-0.02127573116322193,0.0192834438255276
456,-0.0054365038775727225,-0.001512940734812861,-0.02794841499496641,-0.006535384273609922,0.01965769616199721
457,-0.00023370568318530454,0.00018174844017104409,-0.02213906010336289,0.007000782127969986,0.02029247263638061
458,0.003196719338405854,0.0009036696033017691,-0.01807830765798594,0.01188846292012252,0.01824177806169452
459,0.002196267186763404,-0.00025820575060601605,-0.016701849114304647,0.00471220499229706,0.01451725471868903
460,-0.0010434477933011852,-0.003412906366237555,-0.016628403855799962,-0.005907715131563276,0.01285677161842928
461,-0.004559564073968552,-0.007516899647995195,-0.01569894328696712,-0.011630316715668753,0.011647428506879916
462,-0.007372553393457006,-0.010726908931272773,-0.013650959757835368,-0.013031623041541594,0.010236217915467978
463,-0.008127358103042409,-0.01254787990350067,-0.012537274626895472,-0.012128762096340166,0.009515019162161693
464,-0.008425576542329278,-0.012549136793309172,-0.013821961542604323,-0.0122771050424914,0.007968150485158889
465,-0.009111576652884477,-0.009628250624711758,-0.01538689086586373,-0.014794490711283043,0.007792337505522499
466,-0.008898554237170397,-0.004196603615098563,-0.01357443419380594,-0.016447235126216,0.01029689778058961
467,-0.005669927736589874,0.0016934039762367319,-0.007124180580562406,-0.013241554932967569,0.013456343422979637
468,-0.0015399250940278794,0.004198278253116319,-0.0027693381143058986,-0.00636605179137178,0.016631290203403055
469,0.0014119506505441482,0.0054548835958218005,-0.002039891427120709,-0.0033648095520050487,0.01919133347668994
470,0.002293266865602274,0.006994268682152035,-0.002273546532021083,-0.005687107488901593,0.021057721205270847
471,0.0014646349456815548,0.006686245980117944,-0.0022549910579164646,-0.006078258525140884,0.02219432814356408
472,0.0018291527739768547,0.0060210455986260064,-0.0008207134552856151,-0.0025806839477021657,0.022584507020803175
473,0.004165183319123866,0.005285522448415141,-0.0003811304578928935,0.0017354055211568115,0.022810185724691675
474,0.007301861556171288,0.004223335042761458,-0.0015981604855704798,0.008241763784256338,0.023441550573620074
475,0.009892601190549188,0.003051849502349095,-0.0029813201405923194,0.01768297274763895,0.02421420453096884
476,0.013768096471815375,0.00284379083692453,-0.0027042437579281155,0.02632861325201214,0.023773367605286515
477,0.01846999215619668,0.004214236235095418,-0.0021664051472639143,0.030148766014614074,0.023742666838910468
478,0.020292643962569825,0.006133036527537828,-0.002911635091923651,0.027338661351135295,0.024948607767203732
479,0.017381435300368824,0.006324832832896941,-0.004673545383692038,0.019675668318505198,0.025704860433462453
480,0.009464643342078156,0.002357395114711212,-0.007749854115099327,0.011179244462056714,0.024568219712446236
481,-0.0008524331160559632,-0.004338134529643221,-0.011752008996278604,0.004608961766703157,0.021794286340929787
482,-0.009909495303217561,-0.010634161643179851,-0.0161053800883608,0.0014685169293033294,0.019211205800428732
483,-0.01566109349307134,-0.014822812719876411,-0.01991672399388233,0.0027191747395441555,0.017475524306176674
484,-0.013334198393000925,-0.013505806457873106,-0.02071788849050834,0.008077108708096819,0.016695249168467326
485,-0.009262225739282114,-0.008832153725767938,-0.020087920814952465,0.012674498860673643,0.017285093652376717
486,-0.008485873265245756,-0.0032732195246110095,-0.01926031710913331,0.013055197540985513,0.019323090467485378
487,-0.0077764572650243745,0.0024094484615375437,-0.018517927310748514,0.011672612854432376,0.021227407045504677
488,-0.0066238311128568724,0.005938694348689302,-0.019407489974164076,0.012055769024416144,0.021336294329727935
489,-0.003138245009741665,0.008337339349792854,-0.020200221647706032,0.01390063190749162,0.020226543373623396
490,0.0013953930478164932,0.009843357678115321,-0.018733973550195505,0.013694596693711177,0.018177518129607096
491,0.0047695805521972235,0.010127994621570343,-0.015424724347497608,0.012700885096535684,0.014837412939191453
492,0.005907665540327566,0.009151165850327813,-0.01287488098619444,0.014514319554958776,0.010699236641468666
493,0.006042769736716152,0.007543486852696323,-0.012577316119364912,0.017893693875583653,0.005674252088531573
494,0.004736682089289258,0.005453542722101036,-0.01364535024668792,0.019243657447199962,-4.436405505502806e-05
495,0.0017405283938502743,0.0028382245468033486,-0.015597429371810245,0.017961543682704775,-0.0064352743108659766
496,0.0007737827920028778,0.0011268713880856884,-0.019679606749873752,0.014300759758601254,-0.012986345501394884
497,0.002182487090657703,0.002294159858273992,-0.024984259317427142,0.00669581049835215,-0.015335492704610943
498,0.003874502954968687,0.005685061888287778,-0.029410071163164263,-0.002599635014995724,-0.01303770348262967
499,0.0061611155368540725,0.006659420911801514,-0.03396445769907979,-0.006982733669247918,-0.012959082809152237
500,0.0052728303372781195,0.0021366631476793614,-0.038333228357550424,-0.007673512423592635,-0.01687114431063844
501,0.0034266895630090093,-0.003411131057251202,-0.04016192282658824,-0.008085564207888286,-0.020911493946049537
502,0.001130842794171409,-0.006528854416005989,-0.04073221550903288,-0.009899887123445998,-0.02374578163349674
503,-0.003851304208027133,-0.008314129337404474,-0.04196512175455219,-0.012964389170407325,-0.026775668984300525
504,-0.007084979796091364,-0.009644136796401633,-0.043697814631690736,-0.014095081858254994,-0.0317840685930277
505,-0.007972007278255918,-0.010852315657658226,-0.04479254646321863,-0.01366160076950384,-0.038208063015347585
506,-0.008551301572956265,-0.011524821014480508,-0.04318389925965069,-0.012972188796570527,-0.04382219166481608
507,-0.009664408034776003,-0.010909304321236593,-0.03861750734673294,-0.012209337820539403,-0.04619296326151452
508,-0.00838998233409543,-0.0076912047545198365,-0.03328931078971056,-0.010685227289283164,-0.04332028338281213
509,-0.0053898445776860895,-0.004443922156537687,-0.028670569840577483,-0.007981022466604997,-0.037576771357998605
510,-0.0023599432370307832,-0.003110801635611567,-0.023779853722698252,-0.0030378414215422493,-0.03229574097599831
511,0.0012817096474023138,-0.0012895965148008715,-0.017817260599063255,0.0014280869302486408,-0.027044157133424482
512,0.001470903512833934,0.0007702081224375281,-0.011833079197602951,-0.001060458155115978,-0.023700754800920015
513,0.0010667003284359588,0.0023293883748416074,-0.006464818290678244,-0.0020541730588154836,-0.02013783515552161
514,0.0027343674496145224,0.0014647172731769313,-0.0035457874012558297,0.004539416387385143,-0.022738452697918018
515,0.004842400953989223,-0.0004077562062541517,-0.004832473460522512,0.009586924965714123,-0.029059882381963716
516,0.0035518666111450403,-0.0016108208199473284,-0.007536963164397772,0.008518044105423577,-0.03239049192706707
517,0.00035668733036802694,-0.00048432450008158644,-0.008105409118958901,0.006795681680020971,-0.030953324822379377
518,-0.0029485502103523565,0.0015698276543147315,-0.0068226092611970435,0.00736083337355209,-0.028994112338783823
519,-0.006552390325196978,0.002178015474266511,-0.0067954147234389264,0.006413803627013239,-0.030122102918362263
520,-0.009424418302849798,0.002643340628209416,-0.008732683106512502,0.000231168804767353,-0.032922782204152165
521,-0.012479070098952884,0.0037031177626293756,-0.010253464370292615,-0.008982595251344518,-0.03421606036617559
522,-0.016348158851491525,0.005352648880954395,-0.009389188857184679,-0.015093957036807503,-0.0324332906000838
523,-0.02129704669580732,0.008580418606582294,-0.005264492505474068,-0.016953653221934706,-0.026003501311819617
524,-0.027305876585547513,0.01202393300270117,-0.0004761136654798213,-0.019091424870891018,-0.017829256976400042
525,-0.031058312301063075,0.011967645120097103,0.00039728657648342936,-0.02133494176483347,-0.014397068130206333
526,-0.029659259732236345,0.008320630349734036,-0.002151059149866721,-0.019407438478094414,-0.01599049217177762
527,-0.026119123667847768,0.0032145570605217064,-0.003923384858503129,-0.012013352760657316,-0.01944851432115257
528,-0.025248189448367857,-0.001573196092329786,-0.003694198281699704,-0.002801624400884901,-0.02294685806885083
529,-0.02667415559775293,-0.003990146858071531,-0.0020825572719790414,0.0038220496444715214,-0.024608447240383028
530,-0.029451537816905234,-0.0030348239314855717,0.00013232019988068178,0.004687661187735943,-0.022936701963920524
531,-0.03593555293443836,-1.2886059437167195e-05,0.001403313110357189,-0.0015826046329234864,-0.02003895879357415
532,-0.03919036516571837,0.0011840831763247782,0.00019130363392972063,-0.011593316407575265,-0.020225589265024112
533,-0.04048781774584354,0.0007145013906062776,-0.0018227825733311488,-0.025316800870831116,-0.022657627266643773
534,-0.039531755877214664,0.001180003379900284,0.0004979173831283797,-0.036005668047029864,-0.0231519255114246
535,-0.032317031679198326,0.0012143374198623701,0.006448493717514365,-0.0350343706432111,-0.02312787791294717
536,-0.024727506104071165,-0.0011652157917968072,0.009074244086337101,-0.02799757036284289,-0.026210901059549034
537,-0.017634841981816734,-0.004561385028717462,0.005116345586939545,-0.021771405002346988,-0.03070434150481443
538,-0.009605471436465446,-0.006042134100333906,-0.002024499865729803,-0.01616436846814869,-0.033236299347834224
539,-0.0004816596251362009,-0.005526114869535131,-0.008064464361329553,-0.009137904862832016,-0.03407572738787581
540,0.006683004803527892,-0.003987419458577269,-0.01326696550172938,-0.004459064568371755,-0.03424149316546816
541,0.012438991010646381,-0.001839305077903989,-0.018712014718420465,-0.005193498058572816,-0.032470185445973486
542,0.016453240988018227,-0.00036700699429904714,-0.02306176628328444,-0.010851449637659969,-0.02954751949692436
543,0.017555460102896277,0.0006973318273784114,-0.02506439697514211,-0.020406912604336032,-0.026413350833856562
544,0.019050696920432535,0.00344986380454063,-0.025080850075514253,-0.029054588643088734,-0.020605025556839504
545,0.02143958480401173,0.007484503007450378,-0.02202325653404296,-0.027915230633539317,-0.01208134507203716
546,0.026419540994840868,0.010630038934551857,-0.013911384905556866,-0.014883572056340333,-0.003367120396654397
547,0.03425587937557576,0.011551122936883068,-0.0050578698174657015,-0.0024696306868449047,0.0035525138843745052
548,0.03467645589576512,0.011732475569591401,-0.0020502621743936377,-0.00032320711652270663,0.005143276725423599
549,0.03020392689417322,0.009015962396298876,-0.00509619108700044,-0.006120529285162063,-6.505422178756347e-05
550,0.025509880780460185,0.0038431599289951036,-0.010427132241043427,-0.01327911184906342,-0.008768040364895285
551,0.023943559365875663,-0.0008538810048159179,-0.016910322278867823,-0.01344829650515911,-0.01895793783335041
552,0.028975323400084768,-0.005176893569497636,-0.02465367309689779,-0.009273834448280088,-0.028729529133513742
553,0.032057714916648945,-0.006425829989732229,-0.030576492375929527,-0.009644904769582071,-0.0334071168748473
554,0.029923132927032803,-0.004025858909919379,-0.0328539507254311,-0.012568836663725862,-0.032830252823543765
555,0.024397987410447255,-0.000625159487197005,-0.03292268089755049,-0.014026250435420742,-0.02930329807839083
556,0.019401192923868632,0.0023876074210309253,-0.03216052073182,-0.015691811799549694,-0.021981441211242625
557,0.01411845557549053,0.006483071827605262,-0.031638239677572684,-0.020072531725542075,-0.01257823288221323
558,0.007024543064522401,0.009566103900293273,-0.03149880112987612,-0.024990152208508396,-0.0067651659991591175
559,0.00017475049683040984,0.007749203200161903,-0.031109329368643426,-0.026501144938775447,-0.008075189485705587
560,-0.006787755345349012,0.0025748136615530264,-0.031171852064660548,-0.02584618826989903,-0.014487849103985439
561,-0.012501257923604304,-0.003757082584042909,-0.032571127835609344,-0.023456673314573993,-0.022322886488289062
562,-0.017685479214679462,-0.01023327256950189,-0.03529363127059565,-0.01937297104016317,-0.029279215489650685
563,-0.024204065937028247,-0.014789291128081061,-0.03883861287828858,-0.02026539785061495,-0.0327559659720715
564,-0.02396415569151076,-0.013347210783093248,-0.03908117514181258,-0.02636266041525326,-0.03101995487058152
565,-0.018059479035484098,-0.008496175708783827,-0.03420109104070915,-0.02477793876530717,-0.026866572713725764
566,-0.009709079231723606,-0.003826699215121206,-0.027110895593352453,-0.011881626323108218,-0.02453107899620324
567,-0.001991118349139212,0.0016800911009613468,-0.02145234532505456,-0.0037040813958210605,-0.02248972518968149
568,9.079773314434378e-05,0.006296303943805418,-0.017639166485448138,-0.006751637483757424,-0.01917496456206731
569,0.003211919383142542,0.009044383849022992,-0.012731400718511168,-0.008661470735363714,-0.016981409429988336
570,0.009549540696832151,0.011889687732652452,-0.00792691161308741,-0.007595380423346569,-0.016114623934002502
571,0.014491432329990327,0.014821182716766338,-0.005969313386137892,-0.009825081931081753,-0.016648661012595593
572,0.014090782205194493,0.014574500847703023,-0.00624796677004839,-0.012235451901527675,-0.02004262529189595
573,0.010988865723830985,0.011503916334189847,-0.006099129380298273,-0.012930583701809788,-0.02468685011846697
574,0.00746689309924055,0.007524405147303613,-0.0043089066091541485,-0.013474265092359427,-0.026807371038605594
575,0.0026773241109555217,0.0031941778061740887,-0.0015571697776691354,-0.012785274854546148,-0.023788544815019397
576,-0.0007034172425329037,0.0015976241557582834,0.002367856039097251,-0.011365286745150228,-0.015397020565932869
577,-0.003769642034989318,0.0017744275290640084,0.006449085091240867,-0.010208043566218286,-0.007098687958611841
578,-0.005915615776703964,0.0016740780456361564,0.007689348064581557,-0.011296755344600846,-0.007176583090087748
579,-0.00763496520770308,0.0009297048723613221,0.006679687045564741,-0.01784648333712927,-0.01542392649200801
580,-0.00980472543492514,0.00011670463790637461,0.0031177098595356525,-0.02754573467681579,-0.022874981742956938
581,-0.009593507065648639,-0.00013430314354880116,-0.0015996711967379879,-0.03461047327904897,-0.027774490409673683
582,-0.007670844466885532,0.00023315456288888997,-0.004096786009088163,-0.03661475666824682,-0.02825650533296168
583,-0.005774005140355886,0.0002584033250224383,-0.0033692028872282505,-0.031425227694938065,-0.022870893601842877
584,0.000737572417405562,-0.0023640899642316335,-0.002153825837942236,-0.01542861362678036,-0.02086177515634448
585,0.008725075002332683,-0.007954073709279351,-0.004794910774824826,0.001970936071328224,-0.023887590031423028
586,0.009753004275566877,-0.013228378427945475,-0.009035642035294862,0.009962071110700044,-0.024751607771721508
587,0.0059340530536384824,-0.015864193742900407,-0.009937646540142094,0.013261739460926738,-0.02193282470951606
588,0.004342382388527622,-0.014860755643525729,-0.006925390730296572,0.016066481710658685,-0.018756388230929278
589,0.005854530747284977,-0.012236352532625033,-0.003204363926304745,0.01736231789576939,-0.016474620003057182
590,0.008095648743062232,-0.009013089274903484,0.000304265098552882,0.015761853773605172,-0.013020142191421512
591,0.00854475354253618,-0.004167827041567329,0.003798345257157766,0.01058209800860428,-0.006209056619438202
592,0.006243352193019455,0.0008772285808502408,0.006049580587570615,0.004411084109302384,0.001749993142705197
593,0.003110573259000964,0.005698421950683022,0.005917322766896175,-0.0017612733767982326,0.00836152373457948
594,-0.00018432250419209544,0.010026997831768573,0.0031732108515763894,-0.009540431314815783,0.014693969634745363
595,-0.0029503868982679784,0.011844242520969574,0.001436333497764554,-0.015370149997826864,0.02054428810322405
596,-0.002236196346586662,0.01170867211184146,0.0018460364444218588,-0.015134632021621623,0.02066656637608223
597,0.0011135387377908638,0.009394446199747055,0.0033564422785682725,-0.009486215197400373,0.01618343125022985
598,0.0019599139445154183,0.006108922579204865,0.003278085885934225,-0.0058948535986286105,0.010635427572808404
599,-0.0002723307816266539,0.004304765758983349,-0.0005253643635776869,-0.007164743739466487,0.005417246818691425
600,-0.0017546224896935992,0.0025397832107259223,-0.004864285927694208,-0.006170944937782681,0.002011844549408351
601,-0.002883042208339622,0.000901039097381863,-0.006741099204927111,-0.0031855547872768264,0.0003424534354523944
602,-0.00790445515064814,0.0007064456060954279,-0.006680975350330424,-0.009864504055969956,0.0008563341238020242
603,-0.014552680322372677,-0.001133093921478475,-0.007973473586486824,-0.026144883498478412,-0.0004168586076938571
604,-0.01623289165396253,-0.007533934312139887,-0.011521754865038914,-0.03677686573995149,-0.0052030628629374485
605,-0.012638776452409751,-0.01385752210402251,-0.01687359486002663,-0.036942437030861364,-0.009765143671398033
606,-0.0078078753936504965,-0.015606081767715786,-0.022258366197983707,-0.031768041451924016,-0.010593974080217438
607,-0.004698637469143266,-0.013082370156452763,-0.024781304877423332,-0.025992297731519894,-0.00713324867153108
608,-0.0042620344514335195,-0.008019039579817743,-0.02482706075255506,-0.022360624514827586,-0.002059088680425534
609,-0.006225386765996394,-0.0026708335431788782,-0.025014364075244204,-0.023509826022313635,0.003016001071752136
610,-0.00818968644284013,0.0029522165632851084,-0.025618552085048908,-0.027234835625846877,0.008614314735362099
611,-0.006991972175694983,0.008157661126082738,-0.024382238531220835,-0.024749726034277546,0.013118814621992148
612,-0.003077988027410955,0.008337509299395453,-0.017605357609311024,-0.013437819109213258,0.011075031180990355
613,0.0033183695664290775,0.004978624514919865,-0.011252823761277172,-0.0006394267391114004,0.002758481323575132
614,0.009965736184899177,0.0029757258039464886,-0.008951451389251335,0.007152293889430963,-0.005553154869126985
615,0.013455960378309442,0.002967914314594905,-0.00946951785345003,0.00768557916382561,-0.01072342409113328
616,0.013804701020717618,0.003407426700067704,-0.014517421782868823,0.0029476048040838858,-0.013683717335141697
617,0.011826393385799883,0.002909122059604784,-0.02010484314489768,-0.003428361353094477,-0.015346489724894162
618,0.009787610266344083,0.0017282922937729114,-0.021109141278090448,-0.008050311853090523,-0.016160511863033567
619,0.009615661057678242,0.000670976719241042,-0.01681343297997913,-0.00804292133532747,-0.016659397496328245
620,0.009914103410415102,0.0009868384417076564,-0.012977772626270864,-0.007916281955851437,-0.015770726238973617
621,0.007667094904386408,0.0017412900609547815,-0.011715969706851641,-0.012897990709790901,-0.014209645828048416
622,0.0036312311515315924,0.0013968462542952539,-0.012445934260999063,-0.020288561327436987,-0.01449281573013786
623,0.0012968409848753424,0.0002222789042276264,-0.013681623143457966,-0.023171226392918458,-0.017559716508891807
624,0.001483699436971818,-0.0007071765931709751,-0.010597585003022658,-0.01890425530094035,-0.0225351466234702
625,0.002247685067731777,0.00021900616434281122,-0.004022696748533767,-0.013452633871585613,-0.026226151144056378
626,0.0013057551005058981,0.002077581059051359,0.002046481515699346,-0.013205803898594137,-0.02735221300846922
627,-0.0012556637314545998,0.0016167946720519453,0.0057772904956756126,-0.01708194462260181,-0.028956391190421534
628,-0.002131459717861164,-0.0019013343083060118,0.0043286438568602955,-0.020779247968457974,-0.02684301331848811
629,-0.0022355537777564113,-0.003916333725651394,0.0015197154245990378,-0.024277279514774344,-0.02010853951280882
630,-0.004994231919671638,-0.002489081581453131,-0.00038872580730949934,-0.03174623493543715,-0.010265412952144637
631,-0.007865592064241736,-0.0014459629285123253,-0.001526284740933501,-0.03716683244447361,-0.000853207136864146
632,-0.006651711163905851,-0.0024591360228114886,0.0004613582436290994,-0.03167414437360955,0.0028940909010876596
633,-0.002284087073616219,-0.003479097748440148,0.0037446434317506025,-0.020951891004172843,0.005639528306404974
634,0.003942648335371377,-0.0032060990479687982,0.006944740719018444,-0.008610910073886717,0.010139011463655053
635,0.012239343505573,-0.0021625797949914836,0.007612818491959259,0.005158714469302436,0.013389296907617712
636,0.01877707509372247,-0.0004740669474117768,0.004218982139677746,0.012622978538423792,0.013162489284215796
637,0.0205049472157851,0.0015659057975089077,-0.00215412778357784,0.010139161508254993,0.013785099463432041
638,0.019581912631420475,0.002256180999037153,-0.00851318496706251,0.002981142047189653,0.016233726447521465
639,0.02035766376496277,0.0014201062294270169,-0.011052425019726237,-0.0005806950391689291,0.01897608204936558
640,0.023665750492047985,0.0012188147452840662,-0.010585142672496415,0.0019274133980605708,0.025027010866067005
641,0.02596882469580109,0.0015795318762675437,-0.005707531233514969,0.007139473029436336,0.03278276757239109
642,0.027106599042177184,0.0011267285482648014,-0.002180355017219553,0.012540252674473689,0.03961506472147371
643,0.027787704453481048,-0.001746110423232337,-0.0031308388865010977,0.017397366106648434,0.04458136904067955
644,0.02458863413681061,-0.004054952142152269,-0.005940586666379847,0.0189174399962758,0.04165408572294751
645,0.020278075750521474,-0.003268546544728876,-0.006848656888931939,0.021401927486221592,0.037708443057625524
646,0.017086503302535867,0.0013708211505487405,-0.0038845874681345607,0.025292082121217013,0.03710308121951289
647,0.014028551323254609,0.008483848582798968,0.0018306192235890255,0.025666063480534695,0.03494906221105833
648,0.012035414556720173,0.014454150624248888,0.006317396651593605,0.02255069845282653,0.03202901207858331
649,0.009761811833595169,0.018321126022018547,0.00798143680707405,0.016077055566095847,0.0264653481108463
650,0.00795348953391345,0.020819210534614524,0.008937643609713932,0.009316330438202089,0.018444176516675605
651,0.008835555474514326,0.023502243897907643,0.011018308847041774,0.006620767026576292,0.01175094086492346
652,0.013460151109195446,0.026044489483328225,0.012396262757160763,0.008987944950113697,0.009959505123045623
653,0.019202490750776617,0.02935917885237181,0.013079141196156406,0.013125665304379034,0.01050820271198144
654,0.023193761006425603,0.03505077270440216,0.014534188303648048,0.017125460370497985,0.012370852196894187
655,0.023936894104583932,0.04096314516725264,0.014035855153595476,0.018563649765673432,0.015030844343072674
656,0.021347609432830393,0.04451213883541268,0.008559861245797594,0.013952328395033752,0.014054478399374256
657,0.0188013640375293,0.04549521260761316,0.0005716314409822056,0.006381713390336665,0.010216438190594255
658,0.018180612902420602,0.04514840091247306,-0.004967145234363305,0.00022801222277437608,0.004842013645975222
659,0.017529016340295755,0.04368609393389909,-0.007142489787802604,-0.005324280840827687,-0.0036095154927226966
660,0.015827962406804535,0.03817786282471233,-0.005784522278220766,-0.0070018796062522376,-0.006552668649888644
661,0.011728167218893859,0.03109814374281709,-0.005489920247041472,-0.009474900414691748,-0.008784538561377188
662,0.0065814468242358795,0.0254311823911284,-0.006838258411558755,-0.013432755198099715,-0.012460484334805549
663,0.0032921156320851685,0.020634004306047636,-0.006448431712862852,-0.01324499963337076,-0.012866770163948495
664,0.0007076218061090883,0.01609569246628974,-0.005662297127939816,-0.011826098932136557,-0.015586152352675376
665,-0.003408358470687176,0.010930468608120797,-0.003953202803190879,-0.011663757970864167,-0.01828475356424216
666,-0.007758347080250436,0.005797497558897576,-0.0008973956134587775,-0.01144846772927407,-0.018165092091648627
667,-0.00886120941455783,0.0018602072853893174,0.001514999705406026,-0.00772503386188109,-0.017230941308329355
668,-0.007802580528354928,0.0010775688186185962,-0.00034024447107636657,-0.006304995945847352,-0.01873054861112238
669,-0.007384210273913625,0.003418694353658514,-0.005594506512202653,-0.010648697849832014,-0.017183160890349315
670,-0.008496438578544069,0.006188952867926389,-0.011040846491994952,-0.015066700401389969,-0.011735218932360505
671,-0.011261774249620386,0.006291557882568001,-0.014444137306379426,-0.014341139091761051,-0.007681302188750396
672,-0.015035815663959982,0.0037912533566377814,-0.013768082397213,-0.007199398156485545,-0.0028552570735098075
673,-0.018106716819031966,0.002756212881525614,-0.010441633960455192,0.0017799126402481302,0.0021411043044076397
674,-0.018729284410206336,0.00563402487336438,-0.006115636121821513,0.008198205150078883,0.005962350222181289
675,-0.017032340985290065,0.010513673797548024,-0.0009125729525737706,0.010949875644768878,0.009342388583023243
676,-0.01520765145031929,0.012774025031455057,0.003247554974971303,0.006289350440504377,0.009450688101822657
677,-0.01567669745788259,0.011484079496313302,0.0058090774759602,-0.003800228770338005,0.008812200651730795
678,-0.01614459157833671,0.008375365210365117,0.008237467397656793,-0.009699475467706121,0.009083155840752533
679,-0.012781331286892544,0.004986636641974303,0.011167167321141407,-0.004950308178109156,0.00881930837968697
680,-0.006967805847098822,0.003035669336111676,0.01325340439538321,0.006518022847955082,0.008548403384561705
681,-0.0024950298364047026,0.0014355346067495113,0.012916631022719284,0.015154000192901458,0.006617574632289774
682,-0.000835278133281154,-0.0010560307398597521,0.010783422460433444,0.01722370457201319,0.0031831097335007327
683,-0.0015142917131307737,-0.004200896653471896,0.007341925086964514,0.014159403213023898,0.00038599759386970126
684,-0.004444758037352517,-0.00659814935207996,0.002656962430961231,0.009725428586885045,0.00036895211039177675
685,-0.00847263038191217,-0.007511005085699697,-0.001834571608577729,0.0061247957479352265,0.0019749942151987975
686,-0.010944656570014578,-0.006296235889596427,-0.003078884512884421,0.005032548255788582,0.004211427769928246
687,-0.010803848157992697,-0.0035508467516933637,-0.0003229635560990252,0.006523935587117419,0.006519370569966325
688,-0.009740855638727104,-0.0020513250200804366,0.003969666944822864,0.007379968440011747,0.007211439769663744
689,-0.00998180880008812,-0.002215547043356964,0.007435553320613924,0.0059677025469959625,0.007326289839386867
690,-0.012035295527722747,-0.003723647062657448,0.008098746404953608,0.002919663155009828,0.00676043384512914
691,-0.015826883897541152,-0.007502386703410566,0.00519032447934979,-0.0010265344811592719,0.004137133983458391
692,-0.021833537337147203,-0.012063264028760455,0.00037338246243874795,-0.004807675720670382,-0.0006529535216806291
693,-0.028695820880763823,-0.016755982258893607,-0.0029416204401791148,-0.008223850959104436,-0.0039730185305572535
694,-0.0328912900570882,-0.02066712906814974,-0.0036493923403643808,-0.009119165665420436,-0.0051599832394416505
695,-0.033357302795876474,-0.02257313401372613,-0.005083560012542292,-0.008748881571085871,-0.00644494272317545
696,-0.03239988640755891,-0.023616171372168697,-0.008957756257305103,-0.010575231709357093,-0.0071053080334224335
697,-0.03146019660527875,-0.023659060547820895,-0.012039588242183975,-0.01123371698304091,-0.006696138595825429
698,-0.030497983346516502,-0.02159528690968032,-0.011570699718355722,-0.008431798029802309,-0.005396298459282268
699,-0.029932345064256325,-0.01863415282390236,-0.008501522662753285,-0.00441645809441289,-0.004537375364109894
700,-0.029851886087464925,-0.017710795498234087,-0.004811765293130886,-0.0008197226356802813,-0.005210255435685367
701,-0.02934340814214628,-0.01801742293475717,-0.002114756934322775,0.0021532346421618016,-0.007198814536087727
702,-0.02779832634111269,-0.017998069385603707,-0.001433759542602874,0.002999114768989855,-0.00878887870411776
703,-0.025938746368481706,-0.018389317215844043,-0.0021225195587392656,0.0020127370605060543,-0.008910159767230795
704,-0.024223499828012397,-0.01910712658510234,0.0011595339699699452,0.0028210602284689354,-0.008074567933344639
705,-0.021675924828300747,-0.01922019892631953,0.003276075749469798,0.00429246819310883,-0.005567548332982281
706,-0.018834050949502606,-0.01890741292938251,0.006832541197496163,0.0053313016161227736,-0.0013263680667717254
707,-0.01762979225798185,-0.01972300656679398,0.009230280723294947,0.0040372126669196455,0.0019428165611681328
708,-0.017887613997983328,-0.021244189622649262,0.008268443799128746,-0.0010730094101305328,0.001705031240310966
709,-0.017463294986508244,-0.02165605635782756,0.007043404712463949,-0.004681093154144436,0.0009297068413322503
710,-0.015468494179949116,-0.020960491569262985,0.007617125449195816,-0.00333089000524736,0.00039600428440502436
711,-0.012883289900985554,-0.01992316889437747,0.00972616852334921,0.00044237812315247167,-0.0010735520011274041
712,-0.010836844732060678,-0.018572122758100603,0.01472064930211581,0.004949571644883604,-0.0009026830658839291
713,-0.010053059023375584,-0.016616967624500677,0.02066497709836847,0.006976047896759211,0.0011302930038091042
714,-0.010004785627513332,-0.01362972972432105,0.025347965525304054,0.005675208542558698,0.003962708764644699
715,-0.010831166022817163,-0.010620659148581542,0.028109803088001616,0.002349937318603396,0.006239452437308663
716,-0.014021276949692808,-0.009807562319879545,0.028877480606836727,-0.0027144345904460605,0.006726696384722304
717,-0.018469748326198323,-0.010871717543772624,0.02823937372052621,-0.007165022227178258,0.0048281920805654955
718,-0.02125909096151702,-0.011713982767111733,0.02745053023097552,-0.00690714798334654,0.0009487648972251339
719,-0.021156924569244548,-0.011213864305659838,0.02744466060758952,-0.0029076006181480156,-0.0037620009332195604
720,-0.019012540494398645,-0.009395152785476512,0.029126024690951772,0.001629586665461676,-0.008360371656580557
721,-0.01656674595557891,-0.006885135172259797,0.033193637513987836,0.005888776433334803,-0.01191409904002787
722,-0.014647527126107259,-0.004712421391501828,0.037488559960816785,0.008625249340546363,-0.014755848426825745
723,-0.013721724566889847,-0.004374364531930521,0.039214537596143254,0.008865883602279698,-0.017986828115909487
724,-0.0140773964175162,-0.006000806664006739,0.03693852566169899,0.008842445281262264,-0.020273381863138165
725,-0.015074911166717726,-0.008174079784436402,0.03226575936087759,0.008193903372454051,-0.02180053749607002
726,-0.015996910804452265,-0.009880658381947344,0.026612661703101812,0.006282289387189964,-0.022445634939826663
727,-0.01677028883172934,-0.011298038873163085,0.02059232468895272,0.003917334172807014,-0.022214720081345236
728,-0.01767549885979455,-0.012988874663783428,0.016111187506094762,0.0016146098588831332,-0.022685906928408297
729,-0.018762444909819934,-0.01480343902372539,0.01465796668540537,0.0008706182511877044,-0.02246628270049012
730,-0.01997998180282698,-0.01618894198079152,0.01619734142097496,0.0004045527984073149,-0.019478760064080676
731,-0.02030143980237213,-0.016973867827815296,0.018947646812300146,-0.0009592403881381727,-0.014495041283580694
732,-0.01851079612788228,-0.017486272633916812,0.021017171188572846,-0.0014311641746645317,-0.009918338723175251
733,-0.014961704399537883,-0.017831615286190945,0.021550729275619747,0.002073622231895555,-0.0057577910183847425
734,-0.010803907359745065,-0.01831537210271819,0.019077386665074882,0.008450120232184413,-0.0032986942565910115
735,-0.006793745379923629,-0.018890477547495184,0.013174914016850376,0.013457353925863981,-0.00409953913404019
736,-0.003357346449797973,-0.019165337316213317,0.007106523438784071,0.01679269371469486,-0.005937209135545587
737,-0.0011618109543776662,-0.019974691971817435,0.0030729114110034806,0.02001413027016964,-0.007313312162550953
738,-0.0006067854362859634,-0.022511799379881084,-0.00020057534526222106,0.02352512653060041,-0.008576139022656235
739,-0.0017801986816359308,-0.027513872031407195,-0.00410958704116361,0.026908456960010062,-0.011142916273689681
740,-0.004509848593886686,-0.030945656358143298,-0.007345317535163908,0.026096365118131414,-0.015979602522821625
741,-0.007406786745798697,-0.03247256026531627,-0.009392425181758673,0.023643240827178117,-0.020651654387407632
742,-0.009230646572022633,-0.031989003514071565,-0.010637274012992203,0.021655278239337324,-0.02232060484100588
743,-0.010361303919588994,-0.028682729422794373,-0.011044856402543945,0.018751135069429357,-0.021435507307602766
744,-0.011209639320416421,-0.025708006034949854,-0.010564708877288694,0.01732349273740317,-0.019754990620020528
745,-0.011584850038604289,-0.02315180040185989,-0.008616086596738057,0.01684699041993785,-0.01773072007491567
746,-0.011734659605532837,-0.02028884435514029,-0.005665921037692249,0.015380669829236858,-0.014939577282608045
747,-0.012253694755254774,-0.017806978157602946,-0.003239766983310468,0.013006871583811898,-0.011747653735587442
748,-0.012589596036250499,-0.017226122482648324,-0.0017998658875783132,0.013197417030749864,-0.009401575066755733
749,-0.011800901098779657,-0.01666173622187321,-0.0007855026336797035,0.014892314156884894,-0.009243170320056095
750,-0.010489960910750525,-0.014578768000658427,-0.0008159314060099402,0.01442304462233547,-0.01152866021010467
751,-0.009495322334778105,-0.011184892612026752,-0.0021255777568861345,0.011906854346972355,-0.015058913679378174
752,-0.009583039615298262,-0.006087574920951303,-0.004322016338964629,0.006715140422214029,-0.019229950423562497
753,-0.011646932756093594,-0.001170788234072695,-0.007759931884114366,-0.0012316166483790374,-0.024259143498870178
754,-0.013674927908919101,0.004293294005070511,-0.01114060695910662,-0.008631854576821658,-0.027597676899872425
755,-0.013132445354411187,0.012884958961267162,-0.012276986075379841,-0.011856932006643024,-0.026295046791682024
756,-0.011399432456718064,0.016505587915603314,-0.011571869567408452,-0.009846448618968074,-0.021753348601461706
757,-0.010440491559254052,0.01674449521273912,-0.011725417522903181,-0.007779121223885741,-0.017311061175315945
758,-0.009909097536148045,0.01587337033215201,-0.014398522071802896,-0.008228359403427426,-0.01511835522615678
759,-0.008673732446806156,0.012592621531367323,-0.017845994627657406,-0.008508123698323947,-0.014291517458386428
760,-0.007316941291907025,0.01129834530630976,-0.02010943274043299,-0.008034225781727484,-0.012938145027715064
761,-0.007015208457840129,0.00968786380753025,-0.021395753032370287,-0.006546632348867685,-0.010967739229249774
762,-0.007389275099225317,0.006085760748732542,-0.021845985151794513,-0.003589168570262335,-0.00888323249412271
763,-0.007447223180767308,0.0018722172603371898,-0.021297938855155418,0.0003805398693330951,-0.007564712929440319
764,-0.006909329171505253,-4.3824285363482314e-05,-0.021090075633724767,0.002509590774091033,-0.007680500619035547
765,-0.007081991568263771,-0.0021258339233028844,-0.023434412715780808,0.000502671053919359,-0.00829346808743241
766,-0.008579022455562975,-0.004827756835468799,-0.028253430667403732,-0.005182779430156908,-0.007946634589635201
767,-0.009792775348396088,-0.005402380044458393,-0.03280079489761593,-0.01127296418147351,-0.005855776815260267
768,-0.009976023775494279,-0.006801638398921641,-0.035351476319568205,-0.014609123333850085,-0.002662790613516299
769,-0.010460053108283775,-0.008204364755322982,-0.03743083710230535,-0.017088025289428734,-0.0003520284168348936
770,-0.012197650915718306,-0.009091829801221031,-0.039316987899325265,-0.021112385253737674,0.0008756849877330521
771,-0.01431610407837937,-0.009200105151147372,-0.03992375330583366,-0.025946083057805852,0.001952344833179095
772,-0.013962789214043439,-0.008570226622948467,-0.037968301448461715,-0.027449099200843277,0.0021432554237500816
773,-0.009487912145839371,-0.007176126470031505,-0.03318327763209837,-0.025056730967230028,0.0013362061292745671
774,-0.0028519858210778416,-0.005194683488269196,-0.026454828465695843,-0.019999463779193864,0.0012188121382275268
775,0.004084902268209107,-0.0028472138043623024,-0.019762834342487472,-0.012965570843084008,0.003232532878948316
776,0.01028414099433285,-0.0005501838152649294,-0.014622005137678624,-0.007021957214206008,0.007212885188601474
777,0.014038346312518308,-0.00019321869289343828,-0.010364943544310633,-0.003215400527192121,0.011444287044260823
778,0.014623895164987365,-0.0029452634723091736,-0.006463860542529751,-0.0002557215654173595,0.014334314789114372
779,0.011778888228583811,-0.008484293138164919,-0.004842713083723502,0.0016797069036139567,0.014955479558571998
780,0.005409333492180621,-0.016010351313353263,-0.00816281331685073,-3.9710977076104335e-05,0.013138992844556151
781,-0.002898133476469377,-0.02392806358688734,-0.01600469662352109,-0.005374021925736021,0.01023340697115432
782,-0.010801248407768934,-0.031068782001820873,-0.024995070872968504,-0.01184635946337452,0.007976228396092907
783,-0.01578812975994906,-0.036565592495550775,-0.030822125035911314,-0.015258263065096186,0.007860767379251688
784,-0.016131034974483534,-0.03935887451920191,-0.03052432558467085,-0.01144568864468773,0.010858168004158276
785,-0.013000265262661062,-0.0402862830892679,-0.025884775746976316,-0.002570679762342994,0.015476517039076794
786,-0.009488067818093816,-0.042294733086049426,-0.02103397380448423,0.006355960321401761,0.01842665390398155
787,-0.00733688935005001,-0.04646708001850156,-0.017741210153891324,0.013034613702330214,0.01952742432716861
788,-0.006065060677422382,-0.044989041127689734,-0.016625035818998192,0.014022543056449673,0.021060016763921566
789,-0.005789600044561771,-0.042395637942802954,-0.018312782421124142,0.011565085870876776,0.02178118992684197
790,-0.007119261881850167,-0.042731717463366015,-0.022332209223631133,0.0072850495896685415,0.02005183864173092
791,-0.007876181673900627,-0.040386491548794964,-0.02578081489927931,0.001910137588487664,0.01926165728013899
792,-0.005955985263657892,-0.03510653402000727,-0.02601160772499984,-0.0007265163491964883,0.022399253485985645
793,-0.0023743787382261277,-0.026748555301227696,-0.024066170703832178,-0.0010616158517603202,0.026727307638062178
794,0.0009143303649070063,-0.018063338261168602,-0.022403854551121448,-0.0009197571772090893,0.028453721814062718
795,0.0023649695311418473,-0.013074176594654928,-0.02245308741407819,-0.002042600286192493,0.027725818478764194
796,0.001635909198166767,-0.014699522597211771,-0.023695991830633825,-0.003289277078229972,0.026577340459429652
797,-0.00037822079548461315,-0.018627650391536087,-0.025182816193617577,-0.003989480936281729,0.02684467257281446
798,-0.002593587360888861,-0.02099301890217561,-0.025932245307486796,-0.0035596959934714317,0.02975893724704553
799,-0.004368093520174385,-0.022255991266927726,-0.025753955621465017,-0.0023487637585785093,0.03338295755182507
800,-0.0059013674645596315,-0.021143596280703086,-0.025896745532051558,-0.003483439434265014,0.034230864417083826
801,-0.007257212834473913,-0.018500454569591145,-0.02600290214334141,-0.005731329883928158,0.032234638766269814
802,-0.0075454222620069825,-0.015111921827209258,-0.024427383169802266,-0.006115531463106486,0.029158069180364354
803,-0.006756970837927357,-0.011193420884972001,-0.021042670792554886,-0.00497264199378715,0.02493382669293819
804,-0.006607878165285059,-0.011310596252608877,-0.01602961616244698,-0.002154525521159799,0.018349696799417028
805,-0.008488987375017394,-0.01451059735525874,-0.013371023461639311,-0.00015406002637465493,0.009277107726986707
806,-0.011266313434432108,-0.017382084923528385,-0.014018615347469548,0.001769241306651153,-6.746018455095641e-05
807,-0.013640321629182474,-0.019063222655201037,-0.01491172608799293,0.005706731214167633,-0.007664286610739277
808,-0.01625376943916917,-0.01839493817766967,-0.01635773686533374,0.008034457119918084,-0.013257035502505638
809,-0.018133566272328285,-0.015583027982998125,-0.017667572586684326,0.007801808655255201,-0.014747255213643503
810,-0.01762789071013109,-0.011663791270713295,-0.017164557476835908,0.0073279402175151455,-0.011050007220743318
811,-0.016531416778421612,-0.009557076653696081,-0.016136446610976535,0.006903748609941549,-0.006663789619402831
812,-0.016930801434396067,-0.009114583602089558,-0.016181863958108313,0.004931219770640465,-0.004828939036600415
813,-0.018422607951150218,-0.009532275689298741,-0.014291721890203066,0.00325755935200239,-0.004434440130436463
814,-0.021183734866895558,-0.010713867109457825,-0.009903025856100358,0.0023563751582801338,-0.005210304116901791
815,-0.025238968014648724,-0.01209738165722373,-0.005900097833642542,0.0006984760918671786,-0.00738076658569353
816,-0.028614052354470697,-0.013080406053110989,-0.002185315344436634,-0.0001587414233901372,-0.009832644207670096
817,-0.030715517457784614,-0.011875829403131215,0.0015455203776081308,-0.00022133290549721115,-0.012274097612754836
818,-0.03243839798331018,-0.009409681727172358,0.005017920728028891,-0.000922024877136423,-0.01571775124097228
819,-0.03373833531133361,-0.008012767859432675,0.00866803541500049,-0.0022404868481564495,-0.020615652123770336
820,-0.03377421144028495,-0.007127998119152155,0.008895524267948532,-0.0045011264199398635,-0.02512097025900876
821,-0.031680483603608846,-0.004988323798049035,0.00780663448266125,-0.004715400251204743,-0.02686714113595255
822,-0.027275872301871104,-0.0018043601440042023,0.008315767064606221,-0.0010329879906511297,-0.025409585365913784
823,-0.020966529813611343,0.001693256988156822,0.010513604853933963,0.004515440803127922,-0.021301836213132294
824,-0.01569906086878187,0.0039767477765474514,0.01419041711959545,0.008599860164326156,-0.017244548450768164
825,-0.014850570359314296,0.0033395799313836543,0.014600997920112045,0.007025227877934979,-0.016147347970652978
826,-0.017948390449401455,0.000834277592384103,0.009671017530638863,0.00025765275517829943,-0.01742313289337762
827,-0.02264156006232172,-0.0008578152812386925,0.00149277364144026,-0.007255075324666503,-0.018691734843122122
828,-0.027002890353625623,0.0005215320023449547,-0.004635956599969354,-0.011131567340517132,-0.018540170572796145
829,-0.03041397073296839,0.004875950663771348,-0.006779540342031501,-0.010790975157679003,-0.018055365965150734
830,-0.033625194448174356,0.009605373543842546,-0.006482207143314253,-0.00876706454520192,-0.019146824392026814
831,-0.03721866653666132,0.011653040554493477,-0.005402857547094903,-0.007233849621974334,-0.022696468146415617
832,-0.04014355433089877,0.0101524052362186,-0.00506028127835008,-0.007123644501985668,-0.027840112446237304
833,-0.041070700195104934,0.007096592559409742,-0.0026178371976873366,-0.005724318800079643,-0.03192279131929989
834,-0.03851692265415285,0.0053097951640302486,0.0017418139035925426,-0.00229770948075657,-0.03167591169765232
835,-0.032967600745189715,0.006007016886950366,0.005178687881055214,0.00278544126883186,-0.02824834670063298
836,-0.026265083554566027,0.00841001566161851,0.006921163641467926,0.007641496660791008,-0.0246183834072937
837,-0.020973355019394298,0.012094667623183127,0.006845339142677106,0.010452699390539078,-0.021801983003752894
838,-0.018288289969042998,0.01745638104253133,0.00513646230945541,0.010813335025304448,-0.01860944606238869
839,-0.018164388020282637,0.023405887919759907,0.0019328158961500125,0.009239841509060053,-0.014814659077667667
840,-0.020246669853492088,0.027636790535542972,-0.0025973855223584284,0.006816319033268193,-0.012440589322826275
841,-0.022996949288408,0.028893420498008533,-0.006280067098200369,0.0045458266619927265,-0.012723290591924613
842,-0.02519594039294186,0.02753598387854168,-0.007915222391470295,0.0023110012902336527,-0.014810675720449726
843,-0.026877314351166734,0.024922317738379846,-0.007944154590462405,-0.0007312312813836144,-0.01737367566312374
844,-0.02879801590560003,0.0222047892478296,-0.00719970209517683,-0.004545212883238428,-0.020537656457776936
845,-0.030751794414174468,0.020249504719109558,-0.006005961919800806,-0.007686030587098322,-0.024127996801153972
846,-0.03207170883927693,0.01933953020759844,-0.0056562871105191445,-0.009461444652803122,-0.027428750565490805
847,-0.033045142160467354,0.018590812981339966,-0.007370458589610196,-0.010785473782134581,-0.0304474223519364
848,-0.033694425022635976,0.017755392996119446,-0.009929282313219243,-0.011937252816503334,-0.03277235080559791
849,-0.03366019205746859,0.017920024498707388,-0.01177194786934275,-0.012182498399980035,-0.03326721113228407
850,-0.032505182761424015,0.019835144254749117,-0.011881425733104193,-0.01080853972981379,-0.030741972064999935
851,-0.029870313030976564,0.02225361391976123,-0.009574075686788357,-0.007292313893685734,-0.02663112436011703
852,-0.023932069490151496,0.023840811955509227,-0.0033883933300797695,-0.00037665961938351605,-0.023589730734589812
853,-0.016294348398639923,0.0255689473359021,0.005200305925282321,0.006893984297521391,-0.020286192917197746
854,-0.010131820172014699,0.027854936720523776,0.012695810705754288,0.011181790772529775,-0.01428610273711012
855,-0.006469190114713005,0.02929574029947493,0.01681321202326505,0.012573831256621771,-0.006685453411961001
856,-0.004636496446983001,0.02940046206433297,0.017229376893788423,0.012047359144254415,-0.0012815337426904682
857,-0.0024467127570791157,0.029236457070888615,0.015771486280513464,0.011441374918710676,-0.0005214488207948228
858,0.00028875805262930815,0.02914282882805684,0.013390104968593938,0.011534993952817176,-0.003255643003893275
859,0.0014511110489924932,0.026828517973788175,0.00970709414301197,0.010952347669272595,-0.008139882151236956
860,-0.00038151730011246217,0.02116369111249032,0.0049273072241897845,0.006986209674969126,-0.013115441924090093
861,-0.0027830769806461465,0.014911469197235473,0.0019394868653725718,0.0015847965946368047,-0.01565988267971783
862,-0.0034002660307482645,0.010363121317073825,0.0022642561906734333,-0.0017905575238900276,-0.01597271830151982
863,-0.0020476176684569307,0.00731286768448009,0.0042875582235482445,-0.002964577048217697,-0.01555262176169636
864,0.0007266161405568277,0.004961256890573966,0.006798605245393395,-0.0018160793486545498,-0.015664777452210607
865,0.0036597956697159303,0.0032422950007074745,0.009615634004404303,0.0019301686327570559,-0.016106364611171493
866,0.006173933204235366,0.0016695732207915087,0.012082812546030398,0.007032959822790787,-0.016605105694570292
867,0.008088933926833646,-0.0010666762504983067,0.012247765027805129,0.010490718223723699,-0.018196890325721953
868,0.005878979007738891,-0.004759507441082744,0.0070493977775506035,0.007379630532568301,-0.020488140995112793
869,0.0026385089856412456,-0.008096545678252874,0.00036952619549501597,0.0018860637663826254,-0.022112120950837602
870,0.0003067925335765486,-0.010980875094888461,-0.005967186669840902,-0.0035486636481846085,-0.02334079006415719
871,-0.0022733220891966686,-0.013455089094894858,-0.013526613681671556,-0.01108040173678335,-0.02440468907609075
872,-0.002384144208624009,-0.014431119083639891,-0.01970227870147964,-0.017902062897797652,-0.02436356534386228
873,-1.2091845835816569e-05,-0.01330318829495123,-0.022974178563689218,-0.02201296604279814,-0.02277290311790105
874,0.0020988633505376023,-0.012216204369095948,-0.02454379898682063,-0.024612768482961317,-0.021223302428136807
875,0.0006111589454150795,-0.014100452638816947,-0.027799371803304843,-0.029296895017763485,-0.022149449917528704
876,-0.0027939429164879795,-0.01812379524589508,-0.032316306771280535,-0.03507348774083627,-0.024901362448676242
877,-0.006694822092328123,-0.020881268077470292,-0.036447737906286984,-0.04053850680374009,-0.026086733619543227
878,-0.00920065128703656,-0.019861120647365713,-0.038457524751835045,-0.04366036766732678,-0.023622542736733636
879,-0.00790823059714655,-0.01581837361919529,-0.03734549468079952,-0.043073898048465314,-0.019326898258298406
880,-0.005160301182445828,-0.01147001351289895,-0.03549269745989353,-0.042587709734038144,-0.015394462517774201
881,-0.002286690923930461,-0.006894270347326688,-0.0331851285018773,-0.04283265006888392,-0.009533199840385052
882,-3.6076474368792516e-05,-0.0007201735983665571,-0.029300303847556657,-0.04245590391505791,0.001801773181422095
883,0.00022614046112591268,0.00612945493778124,-0.023566679185076354,-0.04175100472862965,0.017237102099679335
884,-0.0003732917857786298,0.010891290757517833,-0.012283095325128536,-0.03407371810582688,0.028852098209834857
885,0.0014116176486606172,0.011696905374306038,-0.000894958099305784,-0.021190137376480383,0.02806657105422404
886,0.005325178075040847,0.008934993236795887,0.004355886668759448,-0.009264477530134731,0.014441737356113567
887,0.008113961227751569,0.005272482963633087,0.0031940043408384606,-0.0020816999053174614,-0.003165393462285202
888,0.00827937941736276,0.0031141836725289106,-0.0046646858457338155,-0.0029612098953440105,-0.01627859865489403
889,0.004737019473141361,0.001429005298722579,-0.014740881014956504,-0.007858496882578059,-0.0240524866357036
890,-0.00142116601266438,-0.0007008306631165953,-0.021610919054595026,-0.011897366973821648,-0.027880075930873598
891,-0.006440132146884197,-0.001813678429193534,-0.023073615361062495,-0.012382735833223621,-0.027984255127523578
892,-0.00896561060761591,-0.0017020341126314023,-0.02295394533678483,-0.011828141155251303,-0.026806150456059302
893,-0.010566090436011609,-0.0012792559977736731,-0.022823195931046553,-0.01093728174801124,-0.02673386098770533
894,-0.012787688537492332,-0.0008001535374008166,-0.02287396255878678,-0.010091527173185077,-0.027440999475590207
895,-0.015585063847035232,-0.0005847665395459918,-0.024126829230739617,-0.009880922310916465,-0.028513454137841617
896,-0.017378077368477282,-0.0010822911343242696,-0.024703872741507916,-0.007391497384744096,-0.030541074811145087
897,-0.016223290555548695,-0.0017471485003231028,-0.024830503449064564,-0.003530596150787501,-0.034701024086131425
898,-0.012322986020768933,-0.0005043684391749826,-0.024898769906814697,0.0007175232191801022,-0.039882728639048216
899,-0.007122185800221132,0.004223848991483738,-0.024154382256999427,0.005386846453287108,-0.04327219602594352
900,-0.0018819222840210429,0.009368026320212898,-0.02352648356979711,0.004623059807863421,-0.04231491530139359
901,0.0009527555389886879,0.013220477418306079,-0.021418129052172035,0.0027873065439080625,-0.036678367539511716
902,0.0016313326391562454,0.015450214858111601,-0.016697707668053154,0.003940659107210112,-0.027064561691175073
903,0.0024687755730974192,0.01597048245948437,-0.011108861187183084,0.0057360008240013765,-0.016062616374284223
904,0.0029776909230475315,0.015651467578161497,-0.0063578091284633275,0.008700812096530883,-0.008405294171787508
905,0.0025727501306854346,0.013399990934611259,-0.003641193270315389,0.009809049228777126,-0.006746858892987618
906,0.0015646667408538452,0.009468473212964843,-0.0024864878698363587,0.007478169340782958,-0.010089320514285158
907,0.0004124953141620567,0.006136106675942025,-0.00221430936447751,0.002618935777328362,-0.014909794064174753
908,-0.0013849718012240164,0.0052519943239000355,-0.0014931731082616598,-0.001726341646962189,-0.01768406997034614
909,-0.004261140923874429,0.0056515763650617,0.00014500323819928597,-0.0061962720388348885,-0.016574440026908163
910,-0.007320435013277188,0.005808608495977902,0.002432095681111226,-0.01038866568398994,-0.012374347945459371
911,-0.008404097876239558,0.006154848291123199,0.005986011743212466,-0.011300514464405196,-0.006757819698416217
912,-0.006054367967136941,0.00739608461905158,0.01201670036528317,-0.009052742374755491,5.7868168516386896e-05
913,-0.0015917800756007324,0.008756904080824206,0.020068766955720484,-0.003711025551416739,0.006089689280374561
914,0.0025542932261752448,0.008616489834307496,0.02774892697326226,0.002201283970045316,0.008998733645965065
915,0.004929528711771974,0.0075947435175348615,0.03471838097319524,0.0053705163743315906,0.010173074300965156
916,0.00647040989070683,0.007283634119030725,0.03736862808349335,0.009306021776453503,0.00831090175300735
917,0.007679601528292088,0.008032187271112181,0.03739125537427167,0.012093279533007506,0.005748042465707498
918,0.008572754733956597,0.009786020198316543,0.03505817704135696,0.011960385367693128,0.0041903777578816415
919,0.0077899320960180835,0.011299823117445816,0.027660386215238177,0.009370753642674373,0.0031757386226992494
920,0.0033222650532928697,0.011172343197745793,0.01874213380646671,0.0017186890383679037,0.0050728181730711145
921,-0.002801355690254914,0.009170879457868129,0.010069903121879017,-0.007558412963901213,0.008089274441994351
922,-0.007080636551283658,0.0073869832871643944,0.0024763748845251046,-0.013140093437587553,0.010791295511098946
923,-0.008781990090358197,0.007290990810462247,-0.002850110697130669,-0.013612787095833613,0.013252745147774676
924,-0.009736934800271326,0.007292342932603723,-0.004611448748559318,-0.011734226664087778,0.014382545749520768
925,-0.01021874812042757,0.005871271257967002,-0.005387581433124287,-0.008524584027076648,0.011169787029650494
926,-0.010031815468024837,0.0031478527266694516,-0.006798332320400747,-0.006264231569010272,0.004258152605764247
927,-0.010495395780074478,-0.0012317882582284572,-0.008322530017278746,-0.007056756062478787,-0.003056459073062349
928,-0.01122789650054728,-0.00757109417560087,-0.01101950676687662,-0.0078997492939202,-0.009479365358447588
929,-0.011039171742988447,-0.013473355143171025,-0.013402335634061706,-0.007563308665228714,-0.013060085736474276
930,-0.01041563933876061,-0.017725614279856892,-0.015173808294557951,-0.006906318022774923,-0.014139581225729479
931,-0.010815651322601798,-0.023007877760531724,-0.018973482432741152,-0.007156130855542319,-0.015976757203409814
932,-0.004323667267864208,-0.02039774635767319,-0.013594234843089088,-0.0024465017998266505,-0.011641411975263704
933,0.004767686862250217,-0.013736808578956093,-0.004960782932700275,0.0032148184242386567,-0.005945428995003122
934,0.01018091718131815,-0.009318886394241995,0.0008752878465966791,0.0068119279720968975,-0.004607033648612377
935,0.013588590128342402,-0.005097599636915954,0.006815525192131018,0.011015671955167337,-0.004545509401895404
936,0.013309959806413904,-0.004919256635856037,0.007076176712051228,0.012074411067080041,-0.006985191833059497
937,0.014116927803688976,-0.005087013003351627,0.007290333771534457,0.012500534176746934,-0.007838353116127681
938,0.018933708588611042,-0.001853378774142835,0.012731273358094892,0.015387722214593249,-0.004634506679868631
939,0.02385885046035695,0.002512916539063678,0.019532743820249047,0.018422175858783793,-0.000940040311051414
940,0.02340712463734661,0.0014872497799877052,0.018761112274871948,0.016713314308861957,-0.003005924761884704
941,0.02230791511505989,1.1089729711647212e-05,0.015198995686422577,0.013548372826820806,-0.005390380026633387
942,0.024858449626488643,0.0030178188963206035,0.015088318290460522,0.013345656067195741,-0.0016921440474973672
943,0.029205286699018573,0.0073386685577891304,0.017787657773870424,0.016507966994827396,0.006048821252629684
944,0.03345704260533155,0.01118073557939933,0.02338247438364317,0.02229857807453304,0.01412829295609013
945,0.031620173207157876,0.007980930421238137,0.023645718641186815,0.02420581748394292,0.01424566159059704
946,0.024884016165026893,-0.0021025259249819296,0.016178788951827495,0.020756780165710136,0.005300562633396719
947,0.021608073801372682,-0.01095875992250511,0.008664212349219162,0.01820609253301902,-0.005512045195950133
948,0.011913224532681201,-0.02317237135079695,-0.005226100188618433,0.007367928524998293,-0.01993354088506713
949,0.0005286947135626231,-0.034162090950184985,-0.0187192031218348,-0.004266378539881082,-0.03292035307058005
950,-0.009537141929786032,-0.041735786577067044,-0.02881730742068594,-0.013104577814675309,-0.04178444382635922
951,-0.02210737618073904,-0.048727689166390566,-0.038921769642968916,-0.024726981453986663,-0.0483403525015421
952,-0.027774965769727343,-0.04896859134285233,-0.03977734861937284,-0.029826738098737236,-0.04904169043896592
953,-0.028413387841059474,-0.04397572358716346,-0.0340430475071518,-0.029664549567293738,-0.04615313376787641
954,-0.02820836630249962,-0.03644977557844232,-0.0282012456109013,-0.02890505068572884,-0.0412944679657587
955,-0.027634398548632148,-0.027198082490916865,-0.023509248526208348,-0.028460900882031112,-0.033961805217571486
956,-0.02294745426669264,-0.01468842248278606,-0.01516441341248677,-0.02326661721976545,-0.021961099221538768
957,-0.01834759845416538,-0.0020221919848236,-0.007464556286273828,-0.016495073234922223,-0.007012634178077661
958,-0.015731996589684508,0.009634343966615742,-0.00418540254936112,-0.011499138854473213,0.008874000918396055
959,-0.013624252249374373,0.020324107099276716,-0.0038568286796485177,-0.008865679811756509,0.02371677568975948
960,-0.016516547779655222,0.024213794956951334,-0.008903789709392368,-0.013248289209377234,0.03226407001430639
961,-0.024120540434546228,0.024617074434378584,-0.016968432579516357,-0.022417090792559293,0.034387586746988184
962,-0.03039378658038882,0.02518593672107785,-0.02325386580000155,-0.030378614852828268,0.03404188124480715
963,-0.03470577686055092,0.02664882155477566,-0.02644910135034448,-0.03635544589162112,0.03219082894222249
964,-0.03525199346743863,0.02268235191601501,-0.024949365689124064,-0.0376995095387237,0.024338351005598072
965,-0.036312862470817116,0.014889232909319294,-0.02328688912891518,-0.03952457573760311,0.012914116923788008
966,-0.0387240099698953,0.0061970842560730545,-0.023474057987848945,-0.043441953927346594,0.002382444947086688
967,-0.03999747251728593,-0.004690204379179141,-0.024039392179381867,-0.04561411412233106,-0.007883042983661633
968,-0.041418832821643665,-0.014157802003871012,-0.025504619494777524,-0.046454493044075715,-0.01616029594090592
969,-0.04132716656428654,-0.02122062481486315,-0.025944971318821754,-0.04472651564209607,-0.021449757075096866
970,-0.03835968451188333,-0.025672232245663694,-0.023461461704439048,-0.039650815198890264,-0.023672194621618847
971,-0.03325455432239795,-0.026775025972675996,-0.017875553329276272,-0.03198538708767158,-0.022386314550240566
972,-0.02965982266146028,-0.024826465566228008,-0.012389303848943982,-0.02575581998723972,-0.018057772776917072
973,-0.026898337052224906,-0.022909047630904268,-0.007286065694504326,-0.021246187705141664,-0.013434776661916337
974,-0.023186147156702735,-0.021988551272050773,-0.0017036422732050224,-0.01745114515643382,-0.0095695527700783
975,-0.019434795638232513,-0.02109117752773359,0.003373340814951467,-0.014478722304043047,-0.006122715123442488
976,-0.015351923936727465,-0.02034793707337879,0.00802911954999449,-0.010204764670029511,-0.0034740181254381596
977,-0.01168805361898333,-0.018293260718909493,0.011075235927360115,-0.005479509740574415,-0.0008527176874941848
978,-0.008266525566373719,-0.015081111014259877,0.011899420762660765,-0.001705154075679016,0.0017296868986892164
979,-0.003881798874504662,-0.012172576833574063,0.012169651385822624,0.0017788804003234392,0.004136175933536937
980,0.0013589913991862085,-0.00346149577498546,0.01388339248454131,0.005788495765050286,0.011277522181054647
981,0.006063192116506953,0.007017237391066264,0.017367183571848348,0.009791521272382966,0.02017196912224155
982,0.010152535075169949,0.01564870152093764,0.02218804598109854,0.013595138378473384,0.027354172024496467
983,0.013715371799477329,0.022895836117835643,0.02664075180813846,0.016999878034886475,0.03250497180518615
984,0.012122271642302423,0.02104070763753129,0.025174484261837795,0.015133210870043053,0.029719339946266157
985,0.0011386367843026796,0.008050086802029031,0.014052650616741557,0.0035917936466825402,0.01691452424989761
986,-0.015387178342256438,-0.009689919920757196,-0.002260548598440658,-0.01337787570067227,-0.000333669859120162
987,-0.029966912958362346,-0.02443742034085591,-0.016681620705389862,-0.02795525244454977,-0.014662744200627787
988,-0.0389212633615435,-0.034321201457773995,-0.02617656576796304,-0.036756321237144854,-0.023778253864409807
989,-0.04309010339778471,-0.038264434815841956,-0.03133138324040979,-0.04050253568445471,-0.027504329290968493
990,-0.04436333423117561,-0.03773650404384814,-0.03366706225752322,-0.04086100226177295,-0.027947417756283146
991,-0.04309134613977125,-0.03530689746409644,-0.03374498799344747,-0.03910325555858913,-0.026849113742845244
992,-0.03876650897744396,-0.030146170554428156,-0.03117761507533889,-0.035368382105354985,-0.022980810739737102
993,-0.03189233955055028,-0.02298669076644805,-0.02587393631192895,-0.029598384628835357,-0.016418564964139286
994,-0.024462141439886828,-0.015232916211193081,-0.01884745781066435,-0.022914184639849743,-0.008674814903073274
995,-0.018013741095897835,-0.008118620194645538,-0.011715523793190432,-0.01650424218878676,-0.0018875311365579692
996,-0.012165014166050914,-0.0032842227786820948,-0.005531863429838494,-0.010591966449486984,0.00257948937887638
997,-0.00699138198865305,-0.00019550158315882838,-0.0009888036290329927,-0.005729287356171908,0.005382208682135485
998,-0.0036562505431252277,0.0012378311702485843,0.001375268469177711,-0.0028143956671931023,0.006161244519504914
999,-0.0018475365648200348,0.0015223834744732291,0.0021242296749481135,-0.0015384941305433915,0.0053593028355850645
