,AF3,AF4,Fp1,AF7,AF8
0,0.00176532702239444,-0.004276799247110127,-0.030514091638338996,-0.019927343200123543,-0.038481338772486696
1,0.0011239508352892896,-0.0014181229266782165,-0.0259777963234464,-0.014004754964226634,-0.03698627903179219
2,3.8862257825258994e-05,-0.0006752370166428567,-0.023141421548009418,-0.008457860483871633,-0.03651640524893229
3,-7.729093015162552e-05,-0.0020334988875754232,-0.019575475000785787,-0.002061926138618732,-0.034676153142896154
4,0.0011597747981512804,-0.004145568435939104,-0.014117361205157738,0.001988858922402997,-0.029221868419964693
5,0.0029034296762990267,-0.006174840980865921,-0.007934162145717754,0.0033940574477952174,-0.02048774562647511
6,0.004433542871493304,-0.007585243103395464,-0.0021321408433878503,0.00309688269379091,-0.010310538013393794
7,0.005292492512420001,-0.008845079683184908,0.0029064534420825154,0.001525911609013818,-0.0021746054474211813
8,0.0054216818618036105,-0.010518856553465135,0.006840695954740049,0.0010104985505234709,0.0009173832844891879
9,0.005538976822849048,-0.011629929734140265,0.009702809217344848,0.0011534542252581278,-0.00019937589833976744
10,0.006348121135082032,-0.01106649611528298,0.01243004134591894,0.0013237428164281008,-0.0019243967851463337
11,0.007708226935558147,-0.00907246488008207,0.015573618260252742,0.001899409505004833,-0.0017891376791565486
12,0.009144832025442322,-0.006673981660641595,0.018556522425013978,0.0038868131839313678,-0.0002549382622515095
13,0.010730110995206493,-0.004638908392451496,0.021689217620191333,0.006902617057884271,0.0015447670883300538
14,0.012012371845473019,-0.003195304058816343,0.02579944262204809,0.009666591685510848,0.003986035170266466
15,0.012112767316251617,-0.00201704274295993,0.0302941326429692,0.010580698123007201,0.008107785848646338
16,0.011309323245554921,-0.0004890673367563528,0.03425731546016896,0.00832705801216314,0.014169179654807572
17,0.010223371954560388,0.001193972057868874,0.037507969986952994,0.004101862457093351,0.0213717353367038
18,0.009114948511348829,0.0022195607994551212,0.04032982257790475,-0.0004673990985446594,0.028558317245757865
19,0.00794158512412735,0.002036083323986383,0.04279445950403291,-0.0045438327326091325,0.03473281053185329
20,0.00636578500397063,0.0006369989980985234,0.04066560420085654,-0.0051232423558965475,0.03480291656160752
21,0.004316964593870244,-0.0011793018869357835,0.036101972673759954,-0.00472159639552534,0.03145124618816672
22,0.0017717862374143408,-0.0027137164099039737,0.031295052056597925,-0.00573938543827954,0.028203938362547892
23,-0.0010053036692912376,-0.003740330121453288,0.0259060129426194,-0.006815406590075018,0.02525410011266717
24,-0.0031803188661086463,-0.003957658035372701,0.022743290267007,-0.007864815792183242,0.02567116453152498
25,-0.004309217020040326,-0.0033399737308136813,0.020393680594581562,-0.0073773046274164785,0.027483405722025307
26,-0.0041395750495928476,-0.0018373941475735526,0.017549704006023827,-0.004739630566792276,0.027535178116157098
27,-0.002502379105054007,0.00032976613433995946,0.015148816467059286,-0.0009612082646975979,0.024687795818451104
28,-0.00040840684097377786,0.0019024493443751157,0.014482689500609673,0.0015185373354553336,0.019770196097306382
29,0.0004386812962012852,0.0020067232203976786,0.013244397477277446,0.0022959594383794714,0.011721201492303216
30,-0.00041046778597535216,0.0015136732018817196,0.010550045116948155,0.001699631518731753,0.0018016857818754046
31,-0.0015806247046549762,0.002318736405970069,0.0077371921268012175,0.0006719870403514604,-0.005578280615367851
32,-0.0019691237226270703,0.0051677495666876795,0.003025798135779484,0.0007641908906304042,-0.00979089804502908
33,-0.0016878869188272172,0.009306219355219096,-0.0036967542970605585,0.0007491098626391405,-0.011538157185546717
34,-0.0006398412890458205,0.013976347631263833,-0.010311851931745487,0.0004249894819143394,-0.011841237909073344
35,0.0004711852046953588,0.017825847429482605,-0.016168622366292115,-0.00011880903118763805,-0.012966784863132783
36,0.00016320536622446368,0.01934048827773639,-0.01615027045320221,-0.0018051095300986304,-0.009202616144147928
37,-0.001502589536865466,0.018180035122913718,-0.014863174393280734,-0.0042511748198803,-0.0046839965034906955
38,-0.0028724799223616574,0.015032881914592993,-0.014126339337522402,-0.005045429277075366,-0.0024611917006017964
39,-0.0025350073019265993,0.011307369393345038,-0.01039102501085415,-0.0030269756997160424,-0.0003145755441236612
40,-0.0009664235982904443,0.008216063099612855,-0.007248319485789026,-0.00018946371346134703,-0.0023454755216036865
41,0.0006075615254888041,0.006226370376948559,-0.004205896715757398,0.0019533318764751425,-0.005777965430259328
42,0.0018276961124242845,0.005242872376418426,-0.00012141231023433754,0.003860114308812409,-0.006456327764913913
43,0.0030585942543354316,0.005348769515085013,0.004519465759930916,0.006344800964916429,-0.0037678253814435016
44,0.004622966115501958,0.006976524916445523,0.007156687169698226,0.008655202021330837,-0.001064852233390692
45,0.006065465527585573,0.009828671558755768,0.00902518516732418,0.009319467747537214,0.0018906635811171374
46,0.006832443709294588,0.012929367963520493,0.010306784082256461,0.008194996394061784,0.003611571767038653
47,0.006820493721533858,0.0159593867066616,0.009910699911696583,0.005873649377864525,0.002680095432470887
48,0.006073570162364168,0.018713151493945635,0.01019616898095138,0.002953007304541293,0.0037276738293400206
49,0.004874404530187628,0.020221611040030014,0.009898898754665847,0.00044249683682844835,0.006363918378100843
50,0.0032147556708436906,0.01970699278681389,0.0075855045463974966,-0.001223358761627887,0.007951860233500075
51,0.001094445464420169,0.017567835781339806,0.004197749868247219,-0.002457447995757621,0.008176745402894736
52,-0.00043016171382803843,0.015418965833753143,0.0005913201519644695,-0.002299230321966628,0.005669422506402277
53,-0.0006540095283321304,0.014850259522593423,-0.0016066228170199843,-0.0007994878966421461,0.001831093650787774
54,-0.0002230163183569426,0.01620690312511253,-0.0024674634498849895,0.0007093430143062143,-0.0018689658213427614
55,-0.0004618700970906187,0.017883481769786318,-0.003912390253989621,0.0009177073834800157,-0.005042254559912637
56,-0.0025274598249189523,0.01793468133912411,-0.006754022570580799,-0.0013652835854507301,-0.006387432449347612
57,-0.005920398884577052,0.016584622593405686,-0.010099772705651482,-0.005033779529546151,-0.006254034014568919
58,-0.009117675883277561,0.014706746218964244,-0.012687461622962672,-0.007985450192661342,-0.005925718170233058
59,-0.011275932349784844,0.012353235855540058,-0.013866090745014907,-0.00932232262548177,-0.006115283795761758
60,-0.012127406762799359,0.009994934405123812,-0.01273599665225387,-0.008837801861170686,-0.005335351824528844
61,-0.011606273965339664,0.008232427279348222,-0.009676640579571264,-0.006108414131854036,-0.0037064960476491443
62,-0.010621544648301371,0.006719589964565313,-0.005906878052311251,-0.0024606462966270835,-0.002453315497360481
63,-0.010464871785356726,0.005182825118345037,-0.0024181720825032006,4.735736131620849e-05,-0.0019911770175334545
64,-0.011118815284523216,0.004090041352860023,-0.00018764565209385446,0.0015203452163832635,-0.002543241431536033
65,-0.012123175012044988,0.0034891780338375997,0.0007241223197545447,0.002261513218716848,-0.002780732428091545
66,-0.012961862191056628,0.00337762508915472,0.0011819308987871147,0.0024918385243522284,-0.0012299580181630528
67,-0.01331659074075708,0.004173317631216143,0.0023388234557873153,0.0024091718937869306,0.0021180527577324116
68,-0.013840760702281891,0.005721084152548679,0.0016314544875514815,0.0006890110511694946,0.004519674000112411
69,-0.014773308453465075,0.007510595565218283,0.0012977015572130583,-0.0008431627841849111,0.006085963873064882
70,-0.015847058049414685,0.008544455930181098,0.00290926422345804,-0.0007293530690246168,0.006309901864645937
71,-0.016960892116048055,0.007862464888489205,0.004614105777677176,0.00015602525410994935,0.0038310220755324842
72,-0.01784887529225073,0.005781893460722306,0.00670552547989309,0.001638839880260107,0.0007556482405768964
73,-0.017898559716006474,0.003436375529297644,0.007823474992228893,0.002876764122584118,-0.0014413456007223888
74,-0.016637472548298157,0.001930907457037132,0.007583913261419283,0.0038338714780715936,-0.0017869397615272024
75,-0.015004450451057581,0.0010182123964792593,0.006438970659049119,0.004552468908704429,-0.0004492977902201349
76,-0.014331450694550973,-0.0001425247135266658,0.0052453701603753285,0.004695756110465309,0.0013322801714092784
77,-0.014644206903529926,-0.00109689369802827,0.003527658487010442,0.0034062619642528805,0.0018422063155125869
78,-0.015354843412605202,-0.0012938377726393134,0.0012092480767001664,0.000852747291636094,0.0006585817352999539
79,-0.015688294346731448,-0.0011735789993516058,-0.0006395603610009027,-0.0014731212645447403,-0.001139659210886877
80,-0.015237261980794132,-0.001416125196041948,-0.0021449325518895818,-0.003081602209086136,-0.0030543516529590894
81,-0.014170804126503376,-0.0016611816685145157,-0.003063520334094514,-0.004002563825863068,-0.0042147660267533886
82,-0.012716815873987828,-0.0012193183842160054,-0.0035259817191119875,-0.004483906480644428,-0.00422690062484452
83,-0.011750037795584515,-0.0011461326233353222,-0.004251542244110478,-0.00481798137607463,-0.004949430296294961
84,-0.01203490000707918,-0.0025800114389218157,-0.0033186587631615183,-0.004247755611651007,-0.005580310208756961
85,-0.013107213304346988,-0.004127942165275312,-0.0015969379915511863,-0.002964621258722425,-0.004431521545394795
86,-0.013775536428022534,-0.00339848014486784,6.388893449744326e-05,-0.001363527863181681,-0.00037138375496593285
87,-0.01329944627052621,-0.0007792434994965899,0.0016811136578878823,0.0009752221034947009,0.004330923721297457
88,-0.011820963746699114,0.0013352687965053874,0.001829836093676008,0.0039465939063100175,0.005928551854127023
89,-0.009849944055785617,0.002108560375664871,0.0017652516685083433,0.007088897501914445,0.0064688367192601605
90,-0.007779026190609946,0.0019414788651177688,0.002368336257375644,0.009455733323646827,0.008343692562652596
91,-0.006222995243395546,0.0006165947133839171,0.00262326372678438,0.009609488237548121,0.010242732900194784
92,-0.006518994364767173,-0.002810755489736179,0.0009793965404891528,0.0064907778120622105,0.008932808701988211
93,-0.008890580168228364,-0.0075829872143052595,-0.0018261888698876605,0.0008825670756619782,0.004409781917325654
94,-0.011801817463867291,-0.010936445363109762,-0.0046397714891328315,-0.00538228192788378,-0.0007085669958696545
95,-0.013677327281031684,-0.01129340744834755,-0.006604032138953968,-0.0101787756939028,-0.004179229179348351
96,-0.013799016864038583,-0.00915831390312673,-0.0066838269601580454,-0.011715531036069392,-0.004510468195634724
97,-0.012888759313818911,-0.005904518244307104,-0.005882111425436981,-0.01051450761451945,-0.0026201192203589535
98,-0.01189725747520171,-0.0024993247456353953,-0.004590285977912144,-0.008200295118028531,0.00013509569177429804
99,-0.011020066247708469,0.0006253330353356371,-0.0023793285725706597,-0.005717846154133292,0.003013760979028408
100,-0.010184377666964973,0.0032477687100425446,-1.8634206858739127e-05,-0.0033340006974788843,0.0041075030988112025
101,-0.008939978399160026,0.005229275034572457,0.002430384096966311,-0.0003097253715468832,0.003239438104653985
102,-0.0075097005812662316,0.006090654677658909,0.004941780583766788,0.0035618142586607477,0.0008899474655428127
103,-0.007005885402880113,0.0057317329165292264,0.006564930128898733,0.006762566585018346,-0.0014229483966684028
104,-0.008032420891042214,0.004418989206932317,0.0062327001111339275,0.007815323195622012,-0.002131925619047568
105,-0.00993498346661193,0.0025775006507815644,0.00397254510334654,0.0071393081920434484,-0.003032250923248706
106,-0.01137743860906754,0.0014716829183437285,0.001379540402069855,0.006203984712463511,-0.005105187439337648
107,-0.012019692981570696,0.0015448654974507003,-0.000584027544456963,0.005251058494901941,-0.007652133337931792
108,-0.012255562517553654,0.0019320018358998904,-0.001265939181607872,0.003944759824707465,-0.009289473267001174
109,-0.011862791944551731,0.0022780068187280285,-0.000172698083231319,0.0029888549309756555,-0.009229542902592997
110,-0.010558161223968994,0.0026325350119488764,0.0018838977495672753,0.002883703851736559,-0.007310942705284406
111,-0.009212342765339679,0.0027907430463397463,0.00323353328557329,0.0025266674800342123,-0.0037439440083069787
112,-0.009227636852170235,0.0023582028004536246,0.0025726670825330722,0.0007830885775727379,-0.00018508472170360515
113,-0.010415829290822503,0.0012947090334116005,0.000465004130363282,-0.0014977543590631202,0.002063800422999004
114,-0.011616200773922612,-0.0001624629926472927,-0.0012213500037090133,-0.0025323177798076395,0.00266419561183979
115,-0.012383708304043835,-0.0014158728321538158,-0.001465566720568766,-0.0020839985517301417,0.002524738698904485
116,-0.012301017674521797,-0.0012039274428609563,-0.0021324706042367024,-0.0009284672620197972,0.003118715636367752
117,-0.011244848688293396,0.0007099520518357344,-0.0029562022715513073,0.0005129231769698272,0.0035202812633392784
118,-0.010012717533053826,0.0027643139991394973,-0.0035764888706251753,0.002747573900531881,0.002320342085100249
119,-0.00952755517290362,0.003520099221264529,-0.004627806264512237,0.005556822855451774,0.00045542821461276085
120,-0.009915235598807746,0.0033438673359738468,-0.005225109725054173,0.007896906364701183,-0.00040302560143981527
121,-0.010318092453845393,0.003314201467542064,-0.004786659400478305,0.010572496922211195,0.00033847386022104755
122,-0.00968688594930936,0.003820282441480476,-0.0024150785248918468,0.014741508482273121,0.0022587347962694836
123,-0.007448592350969093,0.004829066604420891,0.0016360199749443165,0.020113747944659775,0.004452779918889369
124,-0.0040156149586540076,0.005839174180489956,0.006086056094836426,0.025626060536725975,0.005629238925853773
125,-0.0006579334247160884,0.00614174806754719,0.00883354237545782,0.030309095400305696,0.0053528613689712845
126,0.00144500474491316,0.0057607022070659195,0.008662242026185442,0.033055791050736034,0.004210497119361041
127,0.0025666673226064163,0.005676212924731,0.006416611055903402,0.034544678294668035,0.0030534564804833874
128,0.0034227054477804857,0.006237748056995014,0.003937486762314158,0.04013475452575677,0.002797657861088522
129,0.003466032262149991,0.006560229058408768,0.0007648540779811019,0.04345746086341747,0.0013556966776410886
130,0.00280423075678612,0.006288718710887185,-0.0024780928586862878,0.04655637847703011,0.0001619624952272999
131,0.00215907011024999,0.005703817967921376,-0.005629172882142392,0.04907681857377073,-0.0006530276493348312
132,0.0013915030710913386,0.004920802114670278,-0.005478400704231374,0.04786896236056426,-0.0006310690097811214
133,0.0003391591792086641,0.004005016291356414,-0.0027314621434745352,0.04544894005172913,-9.5795092880106e-05
134,-0.0010194893749416005,0.0032826895011818795,0.0013478261914894546,0.04327056937312213,0.001439145712691487
135,-0.0024927062451192993,0.003031389994691275,0.006703069994663481,0.03961414087421124,0.004903743570643649
136,-0.0033190884491326182,0.003126080781723271,0.011181221733615448,0.03611101266883116,0.009338165776741049
137,-0.00319973889726349,0.0034636537136560775,0.014948784878987185,0.0318161848761083,0.014438587522714548
138,-0.002532159850382508,0.003923680755988723,0.019017059579307653,0.026455718057628193,0.019500631048378552
139,-0.001463017419345818,0.004257445040785959,0.023631615570176637,0.022982273473867266,0.022599340859815187
140,3.2728495284109084e-05,0.004720354529513485,0.02708968930659738,0.024130848420938662,0.022891555116978966
141,0.0015659388914870751,0.005657883446822161,0.02894777024192786,0.026977668509119528,0.022494833047342823
142,0.002278200775229303,0.006380832633523937,0.029380337924678604,0.028206856552097318,0.02326534995837408
143,0.0016500680055516765,0.006431913346807473,0.028704332110875207,0.02747914248953758,0.025628202287072965
144,4.0382746252782985e-05,0.00611497876375397,0.028337001169146066,0.02449093270562955,0.029421869620668027
145,-0.0010907931516147373,0.005716388948783595,0.028675116008779655,0.021135147638792883,0.03324763673722535
146,-0.0006123608681512402,0.005459212134659061,0.030570863406767852,0.018918743119158535,0.036145272304996146
147,0.00046523650730532676,0.0052774218389227065,0.034705905370018365,0.017147722031718,0.03835331680226958
148,0.0008217303677330564,0.005761838408920904,0.036691188209808205,0.01725254211470001,0.03824498591935339
149,0.0006162893389236621,0.007391228172844514,0.03833761772540946,0.018672598931572124,0.03737333700779644
150,0.0003030217846287035,0.00844806591632823,0.040768714049325895,0.020444213593256513,0.0350767888356638
151,0.00015814077370226572,0.0075670469538098315,0.0423642231335083,0.022939826359132394,0.030309095858115778
152,6.746234503487533e-05,0.005468786942013337,0.045045985287843544,0.024765788174679584,0.026572355123925164
153,-0.0001603525269325357,0.003244641415870484,0.04715137454674392,0.025413280135246394,0.024862242852090648
154,0.00015460789185525934,0.002013841245340931,0.04746953666892013,0.025693547814909148,0.02469235768496108
155,0.0009576736109272105,0.0017945052262696754,0.046027454766614496,0.025494449518657085,0.02521097023000671
156,0.0014585433142407158,0.0014552522847424408,0.04425737810089228,0.024169764198948167,0.02562952495705611
157,0.00149239553868906,0.00050214500221466,0.04218015870637761,0.022601621412882498,0.025199946419064007
158,0.001238856033145143,-0.0005169184809939827,0.0403248294760679,0.02077105319974382,0.024693131337605912
159,0.0013397178627648733,-0.00040972879639067784,0.039275619838544995,0.018590145126385012,0.025506586487915615
160,0.002080365210481504,0.0014025058675004348,0.03718925363240176,0.01693858594311471,0.027204069298920018
161,0.0029742544966999953,0.004194467660834509,0.03497949032142021,0.015773220832151845,0.02815928209027374
162,0.004422326315898066,0.006820667351556084,0.033771999442478946,0.015271029410516742,0.02651884286663037
163,0.0065130782552417065,0.008059238794306492,0.032426825748764196,0.0149159785208066,0.021859956313538237
164,0.007871195009614444,0.007454378872614059,0.03195276870955703,0.013358915227169197,0.014936983268060882
165,0.008192309940493967,0.006190558579404842,0.03141000270197595,0.011060850407556357,0.008983383237582842
166,0.008624121365274559,0.005223020539803723,0.030276470306377392,0.009898762705080852,0.005162341018516045
167,0.009857268823323266,0.004195496497913858,0.029266313876393387,0.010587373810835821,0.0014500209700151717
168,0.011792522159688984,0.0028569473246850183,0.027960265306812837,0.012525433112578244,-0.0021607625109846765
169,0.014078863386869239,0.001867947738002085,0.027627032272218986,0.014805802933566136,-0.004614823437839901
170,0.016054974481168983,0.0019353712157357914,0.028555071522769447,0.01612273418267472,-0.004650475664787327
171,0.01709616994267944,0.002692744683515234,0.02956637929319549,0.015778868169473333,-0.0030873156581621795
172,0.016635137348808754,0.003219352816867519,0.0289147029252001,0.013715709427357444,-0.001353515671686126
173,0.015023796303160095,0.003256796780982744,0.027378940230660828,0.010261371104206978,-0.0006997957317577578
174,0.01375705799714211,0.00286490313591376,0.02517516649915889,0.006437937775104135,-0.0017859985155097408
175,0.01309672329875459,0.0021240088807129237,0.020655904808001363,0.00253048717544781,-0.00411133990637808
176,0.012734649618168671,0.0017900975248287686,0.01517039359453683,-0.0008488794154413227,-0.006903781689903478
177,0.01315356965132651,0.002134653351135758,0.010583605088162135,-0.0022498314877183673,-0.00912932866541717
178,0.014006647842024952,0.002428383678289462,0.006669066274071068,-0.0021756206843919954,-0.011130955073717851
179,0.014133603438262308,0.002371527307295283,0.0026685785746196687,-0.002666079039537001,-0.013380117179210088
180,0.01338796538359016,0.0022561263045542423,-0.0008739979497562715,-0.004684193395732502,-0.013954093734627759
181,0.012570370994295962,0.0025615563332976915,-0.002944845795524489,-0.00741248001822872,-0.013388367883464779
182,0.011968678708143023,0.0036045123472914524,-0.003403479009961795,-0.009428289464881827,-0.01269122683415834
183,0.011247643612200577,0.004896527331152845,-0.0033171664263470673,-0.010649050729682153,-0.01252137233142375
184,0.010668273875440516,0.0055858708924956015,-0.003602644053107476,-0.011851004709540624,-0.014548702288584929
185,0.010905420046689597,0.005503388191979698,-0.003873648092816459,-0.01312557242227583,-0.01741727452358415
186,0.011606253484625151,0.004616444097741946,-0.0042421951743763795,-0.0148492976609112,-0.018993004561366187
187,0.011997261433820275,0.003068279015109721,-0.004751212594516644,-0.01711274135962995,-0.01887318244574325
188,0.012483434056257616,0.0018203802509040958,-0.004225354579776485,-0.018253917686144712,-0.018278592757543167
189,0.013462215819477182,0.0011817141209165775,-0.00276740419836818,-0.01806867098498741,-0.017973343078166882
190,0.014275648391013668,0.0005327052222397782,-0.0018407384747683002,-0.018633383783362337,-0.019000010725549802
191,0.014648453765726786,-0.0004489288539538686,-0.002041062440050941,-0.020564165065842625,-0.02150608969422789
192,0.01492465911783678,-0.0022615245488670035,-0.003381346555343654,-0.0229628400794992,-0.024350647782883907
193,0.015617237143750684,-0.004981321564556796,-0.00572104223937635,-0.024381789340540153,-0.027411558792808332
194,0.01652064691832207,-0.007614221839052769,-0.009088940006126167,-0.024224370934401843,-0.02972892723650268
195,0.016310979860942616,-0.009783817533186738,-0.01357609041897088,-0.02449754759315355,-0.03067893096122893
196,0.015024767900438175,-0.0113466442122874,-0.014997776834746623,-0.02336763703541588,-0.0271888135809482
197,0.013976153508248514,-0.011937628374097968,-0.013071577582387896,-0.02080287310925153,-0.022734490329461173
198,0.013340191436675707,-0.011927421862450605,-0.009328194379226174,-0.017254482917001625,-0.020004715231002692
199,0.012451209081897278,-0.01159431081165154,-0.004699451232918775,-0.013038211065579291,-0.01707850875502965
200,0.010656589004052761,-0.010964556921571715,-0.0024484580172620617,-0.011505701179080584,-0.014810538555360431
201,0.0081376319883051,-0.010237031191099387,-0.0025741158487383098,-0.012235956453526065,-0.01195975512971199
202,0.006073030234149729,-0.009076246660227808,-0.003557642715357919,-0.013249420879445162,-0.008056907221535101
203,0.004792603239401553,-0.007356727348759129,-0.003887422439177209,-0.013782777072124157,-0.004204278863946147
204,0.0036882316975698336,-0.005643578969794473,-0.0033214878538235385,-0.013963689607911686,-0.002106640083114776
205,0.0026338794868069858,-0.0040331204971011305,-0.002714104066333742,-0.012740245099634416,-0.00031825419058369197
206,0.0018950411764981692,-0.002364836360566776,-0.004054471063804993,-0.010932251966813649,0.001762490104849746
207,0.0017212944550053489,-0.0011707057348201043,-0.005764434908180098,-0.009108114134689068,0.0029311021943603517
208,0.002234077622634996,-0.0012019858970079762,-0.0032702759832124403,-0.0048635987064208136,0.0041227854983330765
209,0.00318178807668015,-0.0023993608455239518,0.0021503039672553137,0.0015642207260701446,0.00518000734280184
210,0.0038753198887031917,-0.0043117081668345185,0.0064341313610312536,0.008070134266885515,0.0059844785465856705
211,0.003910692823293273,-0.006381953714461717,0.008364545949593327,0.013477968897937235,0.007116186458511592
212,0.00374886071172174,-0.007566943219201699,0.006715074085833913,0.01403281912673218,0.003866995293391326
213,0.004363945793909184,-0.007393161561260441,0.004283710433609621,0.011905073213997109,-4.488646483011994e-05
214,0.006567299695625337,-0.006344842651579616,0.0024253571439979567,0.009343865816374444,-0.002087151005511518
215,0.010333924842776478,-0.004695621885360803,7.656244246163465e-05,0.006429613816504052,-0.004216333356211624
216,0.014866115924618945,-0.002585086549747587,-0.0011896941962434764,0.005743054776069006,-0.0035544592100327215
217,0.018863651008915405,-0.0005402276983383158,-0.0018923571279588,0.005338704289867977,-0.0016931499737356161
218,0.0212517924294539,0.0009732230445395745,-0.002905246267831057,0.0026356404264458724,-0.0005719827620824414
219,0.02205796121543393,0.0017588184677266208,-0.0031780341255126603,-0.0014787506878792013,0.00023845799949017316
220,0.021777644254718193,0.0017144710425845478,-0.0014328660894390934,-0.004013255965477743,0.002343945409313942
221,0.021164613884746213,0.0008944645715801403,0.00020775358364234658,-0.005574072562024895,0.0036117576624550684
222,0.02125680748510526,-3.466853309417828e-05,0.0001009600090507775,-0.00630965732271438,0.0037947459276164532
223,0.022214655303487135,-0.00026988172116991006,-0.00046176706160599773,-0.00468305161661567,0.005000266174662296
224,0.022933100785238657,3.6663297332978305e-05,6.938722235577154e-05,-0.002187333238649895,0.0060836922151485725
225,0.0222841730159887,0.0002686401054994919,0.0024451114693339227,-4.2880479639700884e-05,0.007091934448863254
226,0.021222992048512412,0.0005190510325316639,0.005775303794986757,0.002308429891611965,0.00792780922640593
227,0.021357169884771345,0.0014264075135215905,0.008527752021182571,0.004588426293849459,0.008118886231917937
228,0.021921364389783374,0.0030296354570020397,0.007935613134677425,0.005937855234512986,0.006624258418766829
229,0.021636608933500955,0.004299129183575121,0.0040551076618743145,0.004397932799505964,0.0028539822716565424
230,0.020997722591486075,0.004718230290530879,-0.0009050161868097585,0.0011380749871640413,-0.002572862510173016
231,0.020846281817782704,0.005197031118177901,-0.0050628695129038255,-0.0009037505493313477,-0.0072956100661879944
232,0.02073391974129625,0.0063839763297061525,-0.006837785231523027,-0.0016454751925849506,-0.0090021206962091
233,0.02048412804748484,0.008643992663843487,-0.006534020469022778,-0.0014220961793669407,-0.008177589065215674
234,0.020957783646708715,0.012266338713772048,-0.0051124041656808025,-0.0006610254070931546,-0.00644730061018507
235,0.0217856743667531,0.01638093846908829,-0.003716072010135886,-0.0001091143130439443,-0.005759699029155591
236,0.021587784442108113,0.019838216653893594,-0.0028496685200873465,-0.0009091106844395223,-0.006281930049342361
237,0.020269842851884323,0.0221284482190839,-0.002099150944889168,-0.0019283697343394322,-0.006499314470826512
238,0.01890890289213057,0.023133408140011375,-0.0006113345604965736,-0.002082490559651865,-0.005833845141961202
239,0.017801033015618375,0.02328254489972317,0.0014100418884363515,-0.002347525599887144,-0.00481708553601275
240,0.01607168127017278,0.023197967774804498,0.0023100480147456703,-0.0035005911482434565,-0.003605958055676735
241,0.013548209232247213,0.023373544741843038,0.001740585668490913,-0.0052505390494301495,-0.0014369232759201933
242,0.011561197294773605,0.02418162476448498,0.0014799413554440768,-0.0049319247671146425,0.002192481442914124
243,0.011489867818508349,0.025386203819433125,0.0035470253812204334,3.1478836087604927e-06,0.006946703581932974
244,0.013274758325058658,0.026285931341142665,0.005346842982774316,0.003303397087144766,0.013213926806782633
245,0.01535294242520142,0.025856529933300117,0.0064884409489100875,0.0054865821101578996,0.01716674265487913
246,0.01613887089808269,0.023089107608003,0.0057945138072436645,0.0067790603562839094,0.015370166442372001
247,0.01570590067807183,0.018450423154712087,0.0020875672076462906,0.0050224986646656014,0.009663166420864816
248,0.015182966397166708,0.01372871313933574,-0.0010613104998944685,0.004565244923910712,0.0036217425990757554
249,0.014450665288071192,0.009389696917952363,-0.0032658981045111633,0.003836415567164176,-0.0006558561077113956
250,0.012987205419799938,0.004944907265227398,-0.005321631351540548,0.000554190505279102,-0.004662372158636588
251,0.011482326253616962,0.0009577377804543324,-0.006789931810894479,-0.0035529761565673192,-0.00945757438808459
252,0.01023654140322303,-0.002315875960403507,-0.007163481190919736,-0.005335009063154352,-0.014884817458495852
253,0.009221831065750653,-0.004863579549713656,-0.007503576735527313,-0.006352261234034611,-0.018984636562011336
254,0.009067083752658004,-0.0056993443786005115,-0.006955433361227113,-0.0066350280410937875,-0.019305993760177654
255,0.009835287445871727,-0.004521498421818533,-0.004340076192104956,-0.004867116306295569,-0.015513866477232564
256,0.010467797311818653,-0.002716391853738776,-0.003744314055802156,-0.0059181214962381904,-0.011044259281884064
257,0.010215192698223557,-0.0015879037059885832,-0.002890246344231797,-0.006784012624412416,-0.005050368060714533
258,0.009591095807043166,-0.0010584447811582407,-0.0024493563350159735,-0.006758312964154354,0.0006790180800565513
259,0.00891000642973253,-0.00042397900064244606,-0.0022604363146068247,-0.005875993592680979,0.006753518331554596
260,0.00791215310855368,0.0004464468570170891,-0.0014095009406807006,-0.004075306215135327,0.010359634505144329
261,0.0075049462120643975,0.0008618132524188546,0.0001425273282895723,-0.0018193242740673023,0.010854330108020342
262,0.008968187251525388,0.0004948803374778713,0.00288986179875029,0.0015087180531196632,0.009166655828914561
263,0.01179085613611526,-0.0005272893522088713,0.006706162293688213,0.005811178491178876,0.0064470609279597395
264,0.014385552004593582,-0.002546062020468245,0.009177326231584914,0.008920660680688886,0.004321546314691102
265,0.015794825195230046,-0.005474814608289459,0.009638856011120748,0.010615279988510955,0.0021807992981971018
266,0.016409453263854585,-0.008331465110146935,0.008699787896998924,0.011431376130336237,0.0004246782111781694
267,0.016945154963258376,-0.010618220913936606,0.00649704446472267,0.01089589077439314,0.0003445489890898432
268,0.016932704941176727,-0.012423381903676992,0.003042446809386255,0.00807483066219756,0.0025586762235478913
269,0.01629620699361239,-0.013229913924543408,0.00018438662196688523,0.004857251342915653,0.0052821110649105265
270,0.01593073944284173,-0.012294936421400433,-0.0006033249489844058,0.0030943301647720577,0.00690475809404037
271,0.015243067495674544,-0.010107730513173955,-0.00022276453351234877,0.0017587425428201328,0.0075582713890447505
272,0.012732395513590386,-0.008087398156758989,-0.00024401453726042815,-0.0008551023777254447,0.007399199716598515
273,0.008798331585272552,-0.007257620157734135,-0.0017841575879680176,-0.00510162991117324,0.006681201963578527
274,0.005160147832751684,-0.007782899320544611,-0.004777392030911062,-0.009897833994213921,0.004916502418644872
275,0.002847497593212026,-0.009074011658145344,-0.008277818317576824,-0.014787570973417912,0.0017082042635204028
276,0.002579568016729895,-0.010423303661734395,-0.008646347219448356,-0.014168886518437996,-0.0014812712732036933
277,0.004365277722241603,-0.011438466964993808,-0.006629193446255402,-0.008875497021830976,-0.0051007041768193085
278,0.006702455800455622,-0.011988589504138123,-0.0043183566164958975,-0.002769080305833878,-0.008731572011636797
279,0.008307402365921975,-0.012107244069105022,-0.002229199865534061,0.0030128207639576257,-0.011380131683190907
280,0.009466954732957005,-0.011779177481819274,-0.0016340005227989,0.006055790902234645,-0.013563150612702388
281,0.011432427855011505,-0.011208559436606418,-0.0012131851017433248,0.008527973922784343,-0.01419327620672412
282,0.014402862765146594,-0.011186694263270095,-0.0004322246835751216,0.011873962873043487,-0.013316583381131888
283,0.016852805859715166,-0.012079539642945726,-0.00029539075039614635,0.013842282491926459,-0.012819247348602108
284,0.01744743780176573,-0.013219789056400711,-0.0019887193771094282,0.011204405091673315,-0.014131039741802232
285,0.01658801113449163,-0.013737096964122519,-0.0039474180349257605,0.0067434766875911,-0.01618103078430443
286,0.015419095808763623,-0.013259222677566428,-0.004667412877745922,0.00396031296587884,-0.017954029928224743
287,0.014106626143099031,-0.012115605831692008,-0.005209734729571086,0.0022165032499256066,-0.019538056407484163
288,0.012308855750309194,-0.011178913024021337,-0.006390443623863859,0.0012710811890409913,-0.020675338795228922
289,0.010312829988036403,-0.01091604898136808,-0.00870635122192779,0.000520274111463779,-0.021574454760290157
290,0.009195986259767594,-0.010485987175038017,-0.01116713442392605,0.00034976334883749546,-0.021690615349349202
291,0.009439996779680307,-0.008957134386495893,-0.01283550154160508,0.0011341695673169317,-0.02047017135194954
292,0.009947953174717908,-0.006865706251479965,-0.01176313626644779,0.0028877888523972705,-0.015137693119836156
293,0.010015806876188041,-0.005267597542710607,-0.0100169594920213,0.004007686451914798,-0.009544309806555781
294,0.010147605131267598,-0.0044953913599043,-0.007762029399296627,0.005314807436580116,-0.005012454139164725
295,0.010528083798258744,-0.004990238571607488,-0.00402118540591582,0.008260025578351706,0.0003149702666355047
296,0.010838095977958595,-0.007247328877732259,-0.0015236900577889703,0.011281331390823672,0.0031619872030357508
297,0.010899673039047701,-0.010578084032067281,0.0006968643366760506,0.014527414883700823,0.004106316422724634
298,0.010605607320078259,-0.013555116788463266,0.004389354731653022,0.018473935297132458,0.0051149027600079
299,0.009866465464771464,-0.015168065836192804,0.009212190546934824,0.02249580041583074,0.00709013677885036
300,0.009159172810580195,-0.015221922639028131,0.013670646668746827,0.026215406350842536,0.009715196251016973
301,0.009019552483445726,-0.014239035927004942,0.018535707394141468,0.030083296789724774,0.014589664092200074
302,0.009073994859891224,-0.012868544684335046,0.0237951462930843,0.03319460217992878,0.021449451584113065
303,0.008543171299601764,-0.01115085636651828,0.0285407573774388,0.03459893136658713,0.028638627402003396
304,0.007310849736230901,-0.009025374397836936,0.03387444829614412,0.0354956287237596,0.03633863460595537
305,0.006124014014459521,-0.006842450380882467,0.039502396909639984,0.037130626801517436,0.04218945557316017
306,0.005548855010994953,-0.004701715058796729,0.04444678475805337,0.0397933663666191,0.044849564873589945
307,0.00552318678594832,-0.00269017660603547,0.04848641337711188,0.0434000131856885,0.0456573100109003
308,0.005797518627714394,-0.0015358482473029403,0.04836111993865238,0.044622662914284864,0.040494092867879125
309,0.006117239445540455,-0.0017618476947497109,0.04484927366161626,0.04408672382457547,0.03304859595376406
310,0.0065998839734903595,-0.0024909739877863974,0.04047581629990661,0.043200181874375236,0.026775557150320706
311,0.007501042980508514,-0.0024146438284104507,0.037309549772595825,0.042137278747943145,0.020759811675843964
312,0.008751624009523812,-0.0011876905597061839,0.037357048364027305,0.04267293049061259,0.017533688231580268
313,0.009860279507105824,0.0009416961613442758,0.03793397343224148,0.04350629440766716,0.015537864767371616
314,0.010302035162821636,0.0033844582009217414,0.03707450942918802,0.043596457594512236,0.01311375335227078
315,0.010130344862545501,0.0052666430655676395,0.03560494795967315,0.043299737964650246,0.010323875061257837
316,0.008755110256362216,0.006000605225429789,0.03516846146938545,0.042486998257403256,0.009353023099816556
317,0.005191805590964651,0.0058382575918609235,0.03486302691452345,0.03982956882541371,0.009042288902546686
318,0.00019350651841072852,0.005765196905127405,0.03510241938698627,0.03704925985342718,0.009238714887780294
319,-0.004836060902696859,0.0064728700646621866,0.03673804053924254,0.03592578521697296,0.010647082232619114
320,-0.009745095344377742,0.00784637372200744,0.03715899509042948,0.0370109806484562,0.009396333637429404
321,-0.014591276181394905,0.009549146044360152,0.03566797128392662,0.03344661227662147,0.00631303131420735
322,-0.018850065260913755,0.010495933132858432,0.03326049467393144,0.028831146301847976,0.0013436246570499698
323,-0.02161053633133096,0.009440781393322216,0.030582090306288025,0.02536154687718155,-0.005480458841078013
324,-0.02214424642686726,0.006959441455959814,0.028492669943199975,0.024903065758778573,-0.0064468820501925525
325,-0.021247172975647016,0.004198881355033604,0.02787499665521263,0.02675712144450879,-0.004172662091924348
326,-0.020510233039650275,0.0014035081363358212,0.028403168889848843,0.02899324195812091,-0.002981328590339882
327,-0.020842820382542388,-0.0013395470726499698,0.028956041580856906,0.03019208140278689,-0.0016501427583077498
328,-0.021736323026529787,-0.003562312391950135,0.029280183809582642,0.030199816185910812,-0.0014032645747560828
329,-0.02171702541868611,-0.004395141968187433,0.029669114527974383,0.030147664053787916,0.0016602155019457216
330,-0.02019080140453722,-0.0032966419918185755,0.030354017438320356,0.031235748349598677,0.009833826246938057
331,-0.018311358323010063,-0.0015302639248533523,0.03068668826875369,0.03312103015045714,0.01969854845328067
332,-0.01758601544559073,-0.0008250461652267242,0.029783488926983268,0.03416670654819556,0.025359813823629253
333,-0.017718654721076692,-0.0009724214166682694,0.028451643039562453,0.03418052238920981,0.028862726636474736
334,-0.017589157335390727,-0.0012623444744407286,0.02771318509892449,0.034541988243042214,0.03244464105166328
335,-0.017418680267147553,-0.0019504222844025749,0.026796381727967555,0.035307926092942615,0.03461782283941668
336,-0.017825148046401167,-0.003080939788388954,0.02517841439802556,0.035497062773043986,0.03746910621540787
337,-0.018439463869344055,-0.0038539769323354526,0.02433739807649116,0.03523820243834765,0.04216821701502979
338,-0.018941065793873762,-0.003907713540370533,0.025237447103605253,0.03531967957627674,0.04862604252684657
339,-0.019588173383218714,-0.003776063474119671,0.02723390148315386,0.03600558102699806,0.055969171648773235
340,-0.020221635765331033,-0.0036728650252408402,0.029612185082581167,0.03677768272079982,0.054752714881527456
341,-0.020436294985057817,-0.0034688287312331654,0.0317950100046051,0.036936566245028585,0.04903756802021749
342,-0.01968646014681812,-0.0029372270440309782,0.03379117721054367,0.03729570578226985,0.04335247781067041
343,-0.0176844948485589,-0.0019043659423721169,0.03570137205863563,0.038859589825215264,0.036329558356166275
344,-0.015577606583203589,-0.0010754654777755904,0.0363044464379786,0.04057363465960171,0.031963703224982105
345,-0.014848567586788174,-0.0014424113034141545,0.034244694863549995,0.041144141410994456,0.027367886030526558
346,-0.015451955825949949,-0.003005646767812928,0.03018848090919765,0.04095186963677001,0.02017136568366043
347,-0.016656059428043928,-0.0049353052603392416,0.02625904733927461,0.04068356683522122,0.012254037099164072
348,-0.018109911579882898,-0.006358984486253799,0.02342645479079167,0.040099556732235565,0.00838173664922076
349,-0.018820849213635166,-0.006563896492118271,0.021495521145901406,0.03970171938506865,0.0064599428354454695
350,-0.018332500089203414,-0.00554575889372723,0.020284056347312486,0.04014783456832636,0.0043598926467124455
351,-0.017612433789273633,-0.004248621410764383,0.01977039879507775,0.04067953906943421,0.0029285189865339016
352,-0.017738957772180874,-0.003732521693834488,0.019367704581867307,0.040008007005619406,-0.00035686437889610967
353,-0.019437458426775068,-0.003696809353543499,0.018059820005818062,0.03739298760855097,-0.0038266884369793715
354,-0.022095464118487337,-0.0029240724485810527,0.016191263069635385,0.033528720234623874,-0.00577314744970841
355,-0.024207169178160494,-0.0019825582518746016,0.014845653206141346,0.030195500511889135,-0.008238689895974784
356,-0.025047771213321857,-0.0023814181274982296,0.01450029474708533,0.028640173711865145,-0.004798459433833719
357,-0.024770591287623354,-0.003962039165557645,0.0153665082687138,0.028660130567773667,-0.000151125746108909
358,-0.02417404397288897,-0.00601151389421759,0.01704890809026219,0.02895062726408897,0.0019412774744351899
359,-0.024085124155214455,-0.008419135624940574,0.018359046489187552,0.028231067352797692,0.0037765638552163514
360,-0.024443536963280815,-0.010508908741594502,0.018857452916498117,0.026673766066034738,0.0022396382009155923
361,-0.024997360340127547,-0.011491829283040182,0.018825852644117326,0.025061816778336556,0.0013992215901388312
362,-0.025843988858268847,-0.011886953504943116,0.018295193822295296,0.023465774759571904,0.004047193090178747
363,-0.02660555561212318,-0.012361174842392669,0.01773820874817906,0.022341122108149154,0.009057318254785401
364,-0.026646643769845168,-0.012246338578616553,0.017872407476079256,0.022393160784346947,0.012723080683423883
365,-0.026027251220804227,-0.010823097022079274,0.01862002705732454,0.022914983656126982,0.01704004609772535
366,-0.025441435043264907,-0.00861991031695657,0.01928177535426072,0.022450343340878136,0.022809253598939646
367,-0.025327097507132412,-0.006606230520523852,0.019585438791749087,0.020977499334039713,0.027925945028075563
368,-0.025574536123746053,-0.005597165754182539,0.019664976027786843,0.019496277029393716,0.03426139024670463
369,-0.02589778989501627,-0.005784532278447902,0.019525584892878766,0.018439507077566534,0.040206217059827146
370,-0.026008817122957068,-0.0065863215652530475,0.019056088980063633,0.01793897758505926,0.044513080203615725
371,-0.025626691287792647,-0.007285763603776564,0.018285794548137817,0.018254811073400254,0.04833789220910991
372,-0.025078549976771246,-0.0074216870319824095,0.01731891423632733,0.019053989369059124,0.04685928175835917
373,-0.02542549479414171,-0.007172162104098013,0.015947035358889514,0.019638378622008342,0.04346374659527174
374,-0.02657225054027118,-0.006935761762615454,0.01498198965816484,0.020568959600556463,0.04038898566998988
375,-0.02712781513919069,-0.007026457102917836,0.015932000780233296,0.022597779511634417,0.03527345024175025
376,-0.026531756619882812,-0.007758940024997882,0.018486067448027728,0.024871171846144662,0.03041206719759177
377,-0.025228590229003683,-0.00916145829919055,0.02121555017704723,0.026571149086267207,0.02458172756298595
378,-0.02349378485745557,-0.010453600180902026,0.02327288688749427,0.027977183083186887,0.017884229036533496
379,-0.02131287736938944,-0.010144226238684259,0.024470645426910173,0.029445386107876746,0.013373391991716473
380,-0.019140859990243023,-0.00812118817635636,0.02509599386862924,0.03122075063167374,0.013959418234140045
381,-0.017906849957365346,-0.006246185981567696,0.025186435159766676,0.0332723424830546,0.01541225556125287
382,-0.018328094074621125,-0.005425420358281817,0.024347403869579894,0.03387859205407706,0.015827896149180596
383,-0.02033402765566137,-0.004644384911355757,0.022556651359712784,0.030862501842788114,0.017766864916099762
384,-0.022361254021021758,-0.0032461077080221143,0.020745765462346896,0.02597285233948556,0.01943278336685369
385,-0.022574035280907484,-0.0017475712311311015,0.019857907659232645,0.023667425357377033,0.02034830477109591
386,-0.021069770362013174,-0.0006283933765970353,0.019619482424747658,0.025182934198300616,0.020546808688159623
387,-0.01927494849823389,8.661358920102894e-05,0.019652980158199447,0.028070671804698882,0.019687941959105285
388,-0.018067830162354227,0.00026264865337859996,0.02021966968415382,0.030391280767714492,0.018916276899833856
389,-0.01714930327606804,-0.0002765024274436084,0.021126840222725013,0.03215952335021807,0.01713720441969576
390,-0.01621581134900092,-0.001812220985671943,0.021198356613108302,0.03351909785664759,0.01415128266173419
391,-0.01571927544617354,-0.0043512981617137,0.019520035967572347,0.033952722490047285,0.011613635878593074
392,-0.015657660065658826,-0.006972694738006138,0.016800268974820644,0.0335751407737162,0.010180841720982051
393,-0.014954702990193093,-0.008461795388972144,0.014848236183073384,0.03406288695440017,0.010586345595681475
394,-0.012914834863375137,-0.00844576053839249,0.015063189162764983,0.03667996037515647,0.013177399707153484
395,-0.010751703051609161,-0.0078078462777195845,0.0167575054908508,0.03937306016743474,0.017674106764139007
396,-0.009906904359852382,-0.007276084189930269,0.018149714240074163,0.0395537233155982,0.022123711937324438
397,-0.009710507380425535,-0.006341112457334071,0.019176663608700295,0.03832596103895633,0.025329948925530324
398,-0.008897994427492083,-0.004421036419177931,0.020546329540706506,0.037457441317005465,0.02651653033397684
399,-0.007853417150281452,-0.0020249869074671434,0.022377088251863717,0.036589164499609354,0.02543502712762421
400,-0.007441688456259304,0.0001333529321636,0.024931791202502492,0.0355769311943113,0.02427850240628636
401,-0.007672490381509672,0.0018092663749941452,0.027368902503363397,0.03463880043240133,0.024744091352714
402,-0.0075833744809273755,0.0028060026183114174,0.02793247381989675,0.03376753502061399,0.026677330047078177
403,-0.005799390769119725,0.0031152234563170526,0.026846472348332005,0.03380822371659688,0.02948888188675727
404,-0.0022129054004844584,0.0029224041508315508,0.026194856270673493,0.03561401682621037,0.03290046720737272
405,0.002170951380890095,0.002692054380090508,0.02745298878698803,0.038990360306813604,0.036154546662482114
406,0.006222408597730461,0.0028504311896032693,0.030191194251030264,0.042579498729851596,0.03765239628014243
407,0.008870573632081434,0.00311123769951508,0.03261258578156509,0.04468820125795244,0.03629416507013234
408,0.00913154117051022,0.002782680390392095,0.03268661335856479,0.04421698874417701,0.032484343854900066
409,0.006894839704740848,0.0018949781543222675,0.0300557232777165,0.041483121139927345,0.0278450104603758
410,0.0035641862360551967,0.0007687577825944909,0.026756050018018923,0.03843081376434309,0.023700533857108137
411,0.00039879390141100166,-0.0012976352314347866,0.02447179812984555,0.03625445552828812,0.0196584498708662
412,-0.0021651221335487344,-0.003829285177709495,0.02333332668071611,0.03457191300098494,0.016272975044701075
413,-0.0037155551230535163,-0.004766910438406871,0.02306815685592365,0.033102833294723515,0.0159252672274815
414,-0.004202390104155445,-0.003706817221875819,0.02321770282936511,0.03213888000930049,0.01824203009380777
415,-0.0038390166517298,-0.0019288732876519793,0.023556859592309767,0.03220760401435997,0.0204436126361353
416,-0.0027429342910143344,-0.000384165382565573,0.024644869080989035,0.033844666162747936,0.021624441074064343
417,-0.0012511053064333086,0.001293859976928354,0.027084237002254014,0.03695605641629985,0.022830176012554663
418,0.00023303873984290293,0.0036250562071112537,0.03034620281980736,0.04037268137474163,0.02441963812060965
419,0.001284408524706691,0.005712948640022677,0.032861022165241775,0.042508895018449296,0.025245886391384597
420,0.0016999170264486092,0.006623134891188144,0.033568260366263605,0.04277413413798208,0.02508070725931022
421,0.0016976856979353284,0.006310361534652233,0.0328711140329969,0.04175813231804481,0.025390317830333124
422,0.0016173590645013895,0.005011306091728738,0.03194284954946671,0.040357298385245655,0.026767871595093244
423,0.00215226039127494,0.003738785683553658,0.03176862488198371,0.039446490394102744,0.028493162644555335
424,0.0035271267489022824,0.0033400587081027036,0.03269025165488155,0.039101890269477406,0.02994627089412312
425,0.005234374467181704,0.0034791291981332404,0.034784612002496704,0.039052736234508875,0.030725912695141258
426,0.006921480571466135,0.0038380779709826025,0.03782016208048768,0.039492439581613276,0.030705201912802915
427,0.007894386335078605,0.004279482491621855,0.04008359228256187,0.03968629281481819,0.030243374007726774
428,0.00752144342805972,0.004465218743042321,0.03993295850880417,0.03892584990984454,0.029771642720975048
429,0.006194210231483724,0.004378256701178413,0.0383564350610059,0.03819987920165036,0.029786035410985654
430,0.004402983418631597,0.004273598960163105,0.0370181670514338,0.03807995194219685,0.030359636139714152
431,0.0024953611603884393,0.004339096310271494,0.03583477162427786,0.03773145409593246,0.030808599429104883
432,0.001046988851015275,0.004544585820842393,0.03393906124364958,0.03681218612965098,0.030904372764326046
433,0.00011670424631485329,0.004915580467906701,0.031144464624172696,0.03597930051765448,0.031164860628517987
434,-0.0008245765511214323,0.0054321654539552745,0.027753466716968198,0.035664606969583026,0.0314799972752948
435,-0.00241163018822531,0.00576221480281573,0.023743270496054954,0.03484766669848861,0.031076945068475616
436,-0.005156541203134447,0.005562286316655556,0.019367010850532888,0.03149509355544862,0.029450697146084018
437,-0.008412426847632487,0.00489346572024583,0.015987139860480167,0.02564203407220508,0.02649566212603767
438,-0.010412091165605956,0.004409141781058899,0.014945135420938612,0.02059885930522072,0.022766435825823928
439,-0.010415150539615912,0.004555830491704295,0.01595008198820864,0.018745994284065638,0.01918807666301751
440,-0.00918595258097646,0.005286148437302141,0.017913199519951527,0.01894473787878129,0.016422341212644794
441,-0.007808507269834099,0.00615218975789826,0.02038733616031117,0.0195142163191613,0.014771220407045137
442,-0.006662596505323183,0.006775954875973606,0.022740484532399546,0.020068185075530005,0.01435793343634145
443,-0.00535548394723491,0.007129007573427212,0.02380663845244813,0.02056554177033648,0.014784916196819145
444,-0.0038744024885156167,0.007195555313135665,0.02345838686133326,0.020766204225304844,0.01546146189889662
445,-0.0029561226114694396,0.006994993298786047,0.02242399753209779,0.02037136298633131,0.016149047223832185
446,-0.0026857584829802664,0.007207376059301453,0.021469141457642952,0.019899546203249692,0.017045924355237548
447,-0.00216809304292597,0.009096694163744402,0.02132744063530869,0.02045984118777007,0.01884579849432115
448,-0.0011527978307224553,0.01205763644924747,0.02167697389548832,0.022127795436416697,0.02107031079199343
449,0.0002582043991933026,0.01407663055128234,0.021836385113943868,0.024505120545021936,0.02250968941442171
450,0.0025358297239605004,0.014827001745031695,0.022160990467865887,0.027391204657964224,0.023837568917172383
451,0.005630488055586974,0.014938022094303265,0.023196475602139163,0.02975182079904294,0.025460404561686
452,0.008395495862508146,0.014513497541508708,0.02467743841282505,0.030363797207197327,0.025634065332381203
453,0.01003297961138775,0.013894319930497164,0.02643280339349326,0.029465059239117054,0.02370941785623713
454,0.010359656253195234,0.01318400658345871,0.028909744368937625,0.02801209892108507,0.020750778262107774
455,0.00888706579956312,0.011693008060221558,0.03134762262963914,0.026100316822755425,0.01738370813517004
456,0.005782402968531231,0.009525198468868842,0.03189387233271445,0.023478405487080058,0.013793409384832804
457,0.002817774818974483,0.007945947651289803,0.030251299357452303,0.020645721699863066,0.010289966269406566
458,0.0018512657843645051,0.007595674052917572,0.02731173253378938,0.01827297486312302,0.007256096339446862
459,0.0029371143177955245,0.008026135487415894,0.02410809459365051,0.01695360051161089,0.004999543961201346
460,0.004922697529670681,0.009111520672837327,0.022078751391638472,0.017438126211231614,0.003822740453703076
461,0.006767227607176094,0.010962796425629683,0.021433091007033545,0.019331278073146725,0.004110734912160187
462,0.008087967148001989,0.01259725189537522,0.021074591742467466,0.021564063883609052,0.005417251977762036
463,0.00909405787530285,0.012773981527084623,0.020205970465638327,0.023669052090686885,0.006585564471909694
464,0.009548699113558162,0.01115168759069044,0.0182439206988533,0.024887785800972777,0.007078973378318525
465,0.009029891216279964,0.008240270499137654,0.015238986583440499,0.02468967992646786,0.006879831989446832
466,0.007928747706494701,0.005419906019855521,0.012182927460129769,0.02356823598079949,0.006177400109736552
467,0.0071756286965230995,0.004284620136604092,0.01025386526639551,0.022463384598136623,0.0058614282590178715
468,0.007370063481552388,0.004989746431218316,0.010332151515568233,0.022550693243739303,0.00656701931970414
469,0.008353905844594903,0.005854220610446087,0.012304788312028,0.02422708980878165,0.007313845186057912
470,0.009865574659638096,0.005859522700294884,0.015235343500322207,0.02641840425519684,0.007340280406859413
471,0.011641922419158679,0.005649586755077288,0.018440321610516033,0.027752780579851435,0.007233100196465998
472,0.012985338804936561,0.005633849626070447,0.021486841723802032,0.028003031455226587,0.00752977386935476
473,0.012964904721245233,0.005175602871908056,0.023560984643917683,0.027252344568490988,0.008406594715011505
474,0.011496888995782556,0.0038565717122588986,0.0240945062859555,0.024915127787709167,0.009820118097520376
475,0.00934652394473026,0.0025435050466872367,0.023403266644793825,0.020974114044150595,0.011314184901694642
476,0.006814508058939535,0.002595056551525546,0.022140030891073224,0.016505914580023,0.01232363234678671
477,0.00432494808117744,0.004358844655909389,0.021212329065100566,0.013313536059821971,0.012518624434310418
478,0.002506650354133775,0.00650152037408016,0.021397689863420125,0.012372052090408397,0.011709396278019642
479,0.0013142619877948014,0.0074985154939562725,0.022870897496773807,0.012600663023805,0.01003823973633598
480,0.0006419999490582127,0.007096123500316778,0.025209329618548475,0.012564061184923831,0.008417348891269433
481,0.0003813684088843311,0.005604362001561119,0.02709753260949175,0.011493357623628736,0.007790508492422116
482,0.0002506157512419026,0.0033765695600084145,0.027526877746057794,0.009452976985495975,0.008024505309149605
483,-0.00011402216965921478,0.0010863978983324126,0.02676776173693872,0.0070705283331296154,0.008679715607669305
484,-0.0010588627171584924,-0.0007319066040499743,0.025313137912555295,0.004869508333273987,0.009470839744965848
485,-0.0022396335134418346,-0.0023131135405893392,0.023485891177156132,0.0033659334272996533,0.009708363809440181
486,-0.002509120945376347,-0.003645898179928854,0.022242389240265944,0.003085679197701771,0.009649733591080695
487,-0.0011227637465133515,-0.0038805465966976474,0.022654572971069042,0.00455506376836489,0.010623389987658393
488,0.0008305494942203188,-0.003098244114756396,0.02448072340642996,0.007239073948426896,0.012472763514997603
489,0.002057727646447167,-0.0018128675557555038,0.027095631721539566,0.00985433618631986,0.01439819084884029
490,0.002769692503025587,0.00018305102178271023,0.030113503058524612,0.011818054264369719,0.016398281798488634
491,0.003009745881028951,0.001992519732922393,0.03253102012883163,0.012523024968738661,0.017925485324269155
492,0.0023981253001334763,0.002448317781727815,0.033571444091398395,0.011009629075485448,0.018611262932060457
493,0.0009927824939274029,0.001684132569871303,0.03265079962202101,0.00723756071098619,0.018500776377297846
494,-0.0007189906806017835,0.0002188325839559919,0.029191343576864374,0.002753684361014318,0.017099339080262028
495,-0.0015946150645019938,-0.0008306008320286669,0.02462638157730632,-0.00022110455903140593,0.01476901349229001
496,-0.0009758429169001276,-0.000231467254877595,0.021343098546665232,-0.000806359301118249,0.012981820943171362
497,-8.474959999815166e-05,0.0015772355985652895,0.01945825862293178,-0.0006786451778268354,0.012479970708846402
498,-0.0004048468651106236,0.0031788147108959015,0.017901054719008627,-0.0015516274730104022,0.012927196125713943
499,-0.00148123769874461,0.00399236873905196,0.01682658447656629,-0.002279937628595401,0.013527091316073724
500,-0.001762029716147035,0.00418426204894765,0.017065723225915885,-0.0008201660547703937,0.013152921725736058
501,-0.0007037772716955222,0.00392223858606511,0.018674292452199186,0.002559535785201923,0.01148176454420067
502,0.0006745566378263317,0.0033776748390894266,0.020530094680538492,0.005296763076638423,0.009804977277255846
503,0.0014797593149820723,0.0031694087866736913,0.021481246785791646,0.005786330144408242,0.0091758288142429
504,0.001916630416011752,0.003844842934570245,0.02115717406311281,0.0049405375168566955,0.00911387699307217
505,0.001970486650703554,0.004805533562298695,0.019452146926416426,0.0035548515206273233,0.008900026660146465
506,0.0017813861012303256,0.005519384193439052,0.017374065487880633,0.0022001130088029645,0.009493372208712238
507,0.0019316149880575946,0.006079459301804619,0.016709547114952726,0.001851187552276935,0.012289172758049464
508,0.002163368601689354,0.005912822009523659,0.017731600479729423,0.0024091614077276628,0.016141412022993858
509,0.002077634794679238,0.0046190148419503006,0.01936596792225402,0.003049920659055443,0.01888885324336628
510,0.0016563947546018296,0.0023493212299111428,0.020138625100650176,0.00278544257221159,0.020017795667459627
511,0.0008772012373451398,-0.0007261343573939254,0.019021161586606734,0.0011734447735148568,0.02032825594821541
512,-0.0007321029103519166,-0.0039206360568191075,0.015956809087377337,-0.0018867606557999709,0.020752245527788732
513,-0.003477918192116805,-0.006389661473894456,0.011652966527267062,-0.006023924857076686,0.021100540143508983
514,-0.005972785675729491,-0.007739938299789412,0.007909785089835385,-0.009112548352745392,0.020333205755936837
515,-0.006455864308187627,-0.008053143095091697,0.006697079934197413,-0.009291155782824743,0.018277051443226326
516,-0.005076820223195675,-0.007729832581361797,0.008301993857737366,-0.0073232712718597,0.01577949786347415
517,-0.0036366569000672163,-0.007550829906298439,0.010844226203250054,-0.005754206417580881,0.012999011737609702
518,-0.003013375656672584,-0.00798891300014866,0.01268584399294703,-0.00586733606408059,0.009257172712167156
519,-0.0022796923326151757,-0.008328641168523986,0.014313862039737177,-0.006515385325375607,0.0059170692029704396
520,-0.001369149443130225,-0.008075607266913145,0.015954648067485807,-0.006954062334877208,0.005786611200598823
521,-0.0013807120975933914,-0.007576186308277491,0.0163723200830161,-0.008021939636483495,0.008774773798971354
522,-0.002087815856194298,-0.006534134179749282,0.015037074879701292,-0.00973121767614866,0.012094390826452568
523,-0.002720524259207597,-0.004557883079218353,0.012508426347890102,-0.011265277283368761,0.013321111784970358
524,-0.0035507093509279473,-0.002014238353680227,0.009433388302933138,-0.012802317302924205,0.011929512269173395
525,-0.004661548831292319,0.0011962894984658425,0.006622195669378642,-0.015040726531066854,0.009601261158879512
526,-0.005608689717647931,0.005268088634734238,0.00482577706121377,-0.018107433956944464,0.008201604399314987
527,-0.006126561059041401,0.00928175715367647,0.004339931514018542,-0.02114288534359827,0.008279324711433212
528,-0.006382183554198887,0.011878479125925443,0.004700812082318842,-0.023346344781846363,0.009739642644212839
529,-0.006537674487687277,0.012777532772804254,0.0051384408200776145,-0.024564322916693714,0.012233615584644322
530,-0.005982161324598972,0.013011887952588485,0.0056232154708782,-0.02449321580918528,0.015258768096246295
531,-0.004667819825212833,0.012989923997275978,0.005925623847015315,-0.023078600174404214,0.017574497016675406
532,-0.0038352632724270854,0.012352589975000172,0.004925370119339331,-0.021072983842336745,0.01788107267281401
533,-0.0039040400316041595,0.011690910200571822,0.0028990606905046758,-0.018899167531148835,0.01676725976729939
534,-0.003722722603802279,0.012003556821957135,0.001717275779151198,-0.016172424209769637,0.01609528126639809
535,-0.002510397149219542,0.013587280020762472,0.0017365485501071513,-0.013125046380182716,0.01675351467861805
536,-0.0009710890296633245,0.01560403207315792,0.0018468085510422974,-0.010627569053730546,0.017823404456819136
537,-7.980068569051755e-05,0.016347474151801576,0.0011292662824768315,-0.009374547949241495,0.017904511438648903
538,-0.00027585863962511066,0.014453055853862163,-0.0012629451013731012,-0.009927642472858501,0.01607140488527242
539,-0.001573720715019414,0.010116552069338224,-0.005201321700655763,-0.012116816278309087,0.012503139687066085
540,-0.0026654235116689404,0.0054877561996218615,-0.008705981266309568,-0.014321549951980057,0.00966408864065082
541,-0.0024298049880015545,0.0025712476418000346,-0.009932889505526593,-0.015377627124506816,0.00992414225862665
542,-0.0020469706799958634,0.0012005266534903024,-0.009144279740063228,-0.016068740703918845,0.012584781587351433
543,-0.0022656625639927096,-1.7490679262978696e-05,-0.00784308356616623,-0.016239005461812287,0.015179349810113164
544,-0.002255270922804595,-0.001960280247579233,-0.006976238242945118,-0.014773634950275553,0.015677840167222984
545,-0.0018791289567911982,-0.004410045203635187,-0.006523640021674452,-0.012541067743930694,0.013490471469916936
546,-0.0017272948748575823,-0.00651805418823295,-0.006537811199025834,-0.01141986200709876,0.0094293399646175
547,-0.0017406209888162962,-0.007451591309742118,-0.0070726837406856645,-0.011772430853892684,0.005358929363497011
548,-0.0010694054621807024,-0.006858790417360648,-0.0072013706130986165,-0.011963339958720818,0.0036320842006877635
549,0.0008835057114139458,-0.005112101914634476,-0.005700814534000776,-0.01022942563572731,0.0053512445578035965
550,0.0040817668531816075,-0.0028519321254465487,-0.0021969012303295695,-0.006385368708431592,0.00926399062515701
551,0.007402134267024515,-0.00048039729762227977,0.002386397213260023,-0.002037669594480108,0.013289359332036937
552,0.00866227893473986,0.001256676621636464,0.005982929480248212,0.00046891594684171867,0.016073849677981224
553,0.007361077839610398,0.001654328275702672,0.007380465903990539,0.000779066038091874,0.01730091240253302
554,0.005126641822902797,0.0008494856237666417,0.006973330044082969,0.00022586315246518962,0.01716166539854828
555,0.003143557458578635,-0.00039786576078752875,0.0054053732209594415,-0.0010077727836031113,0.01576643288907269
556,0.0016260315844023841,-0.0007822506854007052,0.0034411241764662247,-0.003065184285007154,0.013972426702782332
557,0.0002613633612465299,0.00028790073987317727,0.0014571370065635126,-0.005537407567450049,0.0129150870614842
558,-0.0009257273198246171,0.0020665780386855915,-0.0005882395681116113,-0.007687641775243469,0.012795452161326232
559,-0.001194982583213901,0.00374048706034358,-0.0024084155393010102,-0.008101418143513853,0.013154600311173504
560,-0.0008455135888159409,0.004865748822634304,-0.00399084591888032,-0.006656881820977493,0.012938980350616615
561,-0.0010336535707996715,0.005308202549262216,-0.005480995395436446,-0.005353719251118134,0.011166255138754924
562,-0.0013996376435249037,0.005599087423124661,-0.00642280938324991,-0.005171561257243843,0.008655390632011574
563,-0.0008743771946046249,0.00592065715526095,-0.00622004652116045,-0.00529320972227817,0.007096513297122655
564,0.0006537943601068655,0.005687039482061449,-0.004811616060609387,-0.004924251908239999,0.00664023750795491
565,0.0022315945625538797,0.004396852974242583,-0.003145259701938017,-0.0037691283405321065,0.006007290596246223
566,0.0027454403297696023,0.0020103292182125903,-0.00249773081742752,-0.00213429913340139,0.004670735756135397
567,0.0027453352100055613,-0.0002692127531058451,-0.002994451630086848,-0.0005345981506632784,0.003979070702401598
568,0.002947751927545503,-0.0015442551172762744,-0.004112175945973964,0.0005954490540756827,0.004647933834806653
569,0.0029868284597376433,-0.002385785212184871,-0.00520908306167942,0.0010252322334406325,0.005650552601329617
570,0.0029757419729542736,-0.0033752125626628653,-0.005529235073394217,0.0008925876188352889,0.006360821052030212
571,0.003285896894856374,-0.00470120888445743,-0.00495656631936877,0.0002698761076513099,0.0071632844619456
572,0.0037903026203947856,-0.005860916985360658,-0.003984745780728176,-0.0008850396932912309,0.008755567548266665
573,0.004122534271050952,-0.006438075433384376,-0.003489060792073351,-0.002506106925855362,0.010437508825116924
574,0.004345422767193395,-0.006691072394652552,-0.00421543573448359,-0.004091158213111318,0.010273929713884493
575,0.00440065622312634,-0.006751963981885542,-0.005649134014525806,-0.005107077956520873,0.00770755688511709
576,0.0034363659776812084,-0.006604842425438587,-0.006797096966155099,-0.0060680820239790685,0.003991571304217349
577,0.0015886507513815495,-0.0063825098112495135,-0.007468436021963014,-0.007262303628877448,0.0004360880120697429
578,0.0004209809217362112,-0.006402712117409901,-0.007483065569443747,-0.007538112376513031,-0.0022931446737214896
579,0.0003667983730501329,-0.006855251151161703,-0.0072627295697888766,-0.00691702729074511,-0.004055371955484391
580,0.00027636240381686113,-0.007975893207710812,-0.008154105298473397,-0.0070525738578802784,-0.005879404633699542
581,-0.00020847945680827073,-0.009780948656211465,-0.00994705033851276,-0.00771501628137563,-0.00844084522931513
582,-0.000320335939349001,-0.011453429780749034,-0.01102743447749637,-0.0075303395924753175,-0.010593531981129363
583,0.00029128688295532304,-0.01205004103029168,-0.01096021129701193,-0.007084936386748646,-0.011169323445754832
584,0.001230729301811948,-0.011633034901891798,-0.010504935869398784,-0.007154344908062224,-0.010645540297149226
585,0.001705820448186786,-0.011082855916205905,-0.010385252943469057,-0.007162150468409994,-0.010017962565208266
586,0.0007300616694220164,-0.01087791246751012,-0.011269270252709606,-0.007620192154090745,-0.009564506367971591
587,-0.001461958969647844,-0.010394971962766066,-0.012804274331862632,-0.009387509452800445,-0.008720098860572251
588,-0.003015694188184927,-0.008851196400319155,-0.013334590068502223,-0.011002486782032438,-0.00614779030130771
589,-0.0029623081000743423,-0.0067453202824628595,-0.012067255866633686,-0.010447938873161462,-0.001917922216001193
590,-0.0025223605148849398,-0.005702109501440808,-0.010409868525523013,-0.008637621137539847,0.001502409421992845
591,-0.0029547575679372967,-0.006413432507547619,-0.010237466434604534,-0.008105994777066496,0.0024393407636861897
592,-0.003582404481641584,-0.007419136707728783,-0.011383995455473642,-0.008795500876640409,0.0019721972670208097
593,-0.003602788454769322,-0.007413926101517305,-0.012926548736165958,-0.009234405927003858,0.001416030057575793
594,-0.0035656043416617037,-0.007053765723146367,-0.014796305171452076,-0.00953214197846038,0.00032519560473039317
595,-0.0036828216680873742,-0.00739485275920755,-0.016574310688136508,-0.00991719166622564,-0.0014539553072345783
596,-0.0033475604731331965,-0.008428307137885036,-0.01744168415308047,-0.00954571429621814,-0.0023687860186219793
597,-0.0023218921043449965,-0.009646305758781058,-0.0169969311643882,-0.0078436114777371,-0.0015010614333735115
598,-0.0008539412751011676,-0.010694332395926614,-0.015264037245515697,-0.005229794097953473,0.00010493197253516457
599,0.0004902977522981273,-0.01150323830806592,-0.012400842808486799,-0.0028872688214692465,0.0009056615535175859
600,0.001088230223783918,-0.012387721219545166,-0.008681048140181715,-0.0016243373357036153,0.00046451671934747015
601,0.0013025409877312415,-0.013421742218079446,-0.004723028184196174,-0.0009768200160102309,-0.0008950789220779925
602,0.002071281884433733,-0.01371745577114353,-0.0011100252262929583,-0.00020355966486161893,-0.002704949549539619
603,0.0035746490201278088,-0.01225116246502721,0.0014708549353365389,0.0008519551629705421,-0.0042697022404753066
604,0.005343335860661353,-0.009610280165539982,0.0026186240722814937,0.002085546991910107,-0.005926072532995322
605,0.006472440795973036,-0.007610842386569878,0.002858574722588282,0.00294597315108338,-0.00838152893654151
606,0.006011799796512571,-0.007107172881442607,0.0025950116793873297,0.0023522876587000435,-0.010892181293755477
607,0.00409443831052995,-0.007608955603097843,0.0014955602231658605,-0.00013038824287813988,-0.012058614547928158
608,0.0017368896490952063,-0.008790328384112112,-0.0007592682189359743,-0.0033684301935928205,-0.01174009004838813
609,-0.0001906147193185006,-0.010876196472508603,-0.0032651713946654577,-0.005592355769492984,-0.011145023539778634
610,-0.001474218669935957,-0.013828461493046474,-0.005075759289330453,-0.006679911484186125,-0.010985178326210614
611,-0.002089161962725812,-0.016710885528902975,-0.006470508834828667,-0.007760410638831118,-0.010952282474744536
612,-0.0013402260851839314,-0.017915941743613502,-0.0068232375531814965,-0.00797409397961808,-0.01061799934825506
613,0.000700289721334804,-0.016972976228903952,-0.0053575970877108,-0.005986503046339889,-0.009918524544811486
614,0.002607213362922795,-0.01501460690001542,-0.0034951534825947406,-0.003166954667193451,-0.009288638607993204
615,0.00338255628651077,-0.013252992219850799,-0.0031240529309115397,-0.001602032702639266,-0.009450267001783476
616,0.0027083123767890353,-0.012286524872647232,-0.004860917738966348,-0.0021385598741078186,-0.010344636824126646
617,0.00069381505339107,-0.012348401759679918,-0.008522108589907793,-0.004910792466820716,-0.01127447113944605
618,-0.0017091863450363054,-0.013177296821799597,-0.013174642745272613,-0.009032900411377312,-0.012100907989644989
619,-0.0030630209237594848,-0.013612416396592782,-0.01729631447509604,-0.0123021519870835,-0.01278607386300215
620,-0.0030520775980363846,-0.013027695005634537,-0.02020711829990113,-0.0138266544379652,-0.013184160103093315
621,-0.002770471021548751,-0.012163987954800183,-0.021526742417773897,-0.014757517873383554,-0.013478988058840709
622,-0.0031523353975827432,-0.011159005577169643,-0.020682083466999245,-0.016434839755818068,-0.013634254958912748
623,-0.004464294102152985,-0.009445177880774284,-0.01888903763772548,-0.020118614146203095,-0.014078750773055877
624,-0.006177910139908829,-0.007558779383968549,-0.018091498882311197,-0.025066226729715327,-0.01596607614091352
625,-0.0072177114330311595,-0.006663817458046994,-0.018724543748848764,-0.028714334666267646,-0.019221498748100314
626,-0.0073690646390203425,-0.007192602186031954,-0.020485143655554316,-0.03050737537223776,-0.02273908265289492
627,-0.006508913531664416,-0.008338687787457237,-0.02225542763904728,-0.030703447069431112,-0.025727520189778277
628,-0.004078484765756289,-0.00891878651599678,-0.019869110245229877,-0.02658187782667269,-0.025261417542374365
629,-0.00114262055518409,-0.008932575647638892,-0.015183326636830585,-0.020345582177938675,-0.02341212931807899
630,0.0007547904605055104,-0.008980232510567291,-0.010934464908643525,-0.0153898877268545,-0.022651041075233167
631,0.0015477149610987535,-0.009167874346807176,-0.007119961792995372,-0.012115873053312182,-0.022320676708642403
632,0.0018863117529099595,-0.009112547407783752,-0.004737993208942826,-0.010466217948534882,-0.022411035722397898
633,0.0024988182944107053,-0.008162653313128987,-0.0025743307166656943,-0.007911526108563058,-0.0204294428205
634,0.0038620315390600693,-0.006334712412300434,-0.00035834505218230534,-0.003539807386171584,-0.015174989890984354
635,0.005950131633137233,-0.004342688339008837,0.0010177457655567922,0.0009143986628805911,-0.00864452211963442
636,0.007976020574067466,-0.002619367288845636,9.360565689844121e-06,0.002656687560596913,-0.0038263711778913218
637,0.009127895455072697,-0.0013159137789317276,-0.002006227396560511,0.0020996016865580136,-0.0008477958388698299
638,0.009503808316356601,-0.00012496429556762865,-0.003176355953159624,0.0012685772535040705,0.000514799524267922
639,0.009016077359766684,0.00133974513474511,-0.004126815070929089,0.0006092240006861311,7.839051806026568e-06
640,0.006909944051328633,0.002071054811876594,-0.003456925053237779,0.004444320766259203,-0.00044836870997648075
641,0.003763696848693036,0.0010855330138389756,-0.003483696067250868,0.004325262587927533,-0.0031640474633720184
642,0.0012793219929626983,-0.0007531867207301148,-0.0007284398783160601,0.004745025132046372,-0.0037274097917061903
643,-0.0004580677672262234,-0.002171653323859344,0.00409319071785768,0.004823769228562429,0.0003457634183900181
644,-0.002459533227704049,-0.002511557341991154,0.005087481077243449,0.000877374541502975,0.0061240730973259865
645,-0.0043816822111664685,-0.001804885408617235,0.003131260087308791,-0.004050109222687199,0.01158955118329383
646,-0.005179263826666092,-0.0010340761255924263,0.002421118839794917,-0.005668053036244293,0.015419324343186644
647,-0.004873958422687094,-0.0012216564378850327,0.003512072128673316,-0.004312927164553717,0.01581467181203705
648,-0.003932309521422531,-0.002133520235229528,0.0051264582286803285,-0.0013772861322746434,0.012813303008205606
649,-0.002259310684425165,-0.0027081898284062695,0.004403412651280283,0.0002916443838504791,0.006895896139130143
650,0.00026100655235734095,-0.0022977827912943395,0.0014120156227631327,-0.0005090966872509601,0.00036962053808985043
651,0.002931756084729181,-0.0012898243794456335,-0.0022242624528273354,-0.002942308926755105,-0.004167851330393302
652,0.004768145765642797,-0.0011336961603466847,-0.004405603910692449,-0.004225409971375705,-0.006204339188310358
653,0.005684723173877326,-0.003113250183747223,-0.005045311330956548,-0.0038506655754030747,-0.0081510533994207
654,0.006457466244800532,-0.0068293804312471885,-0.004487153553773865,-0.002484205780797826,-0.010788744729177041
655,0.007527935747678359,-0.010697801228703998,-0.0027174114458457543,7.376112611008597e-05,-0.012563927610963642
656,0.008421428247360311,-0.013401943525032,-0.0009564737978252989,0.0031766481561431724,-0.01268098839572222
657,0.008804656800364758,-0.014479988931843622,0.0008935690390403981,0.006986277261851704,-0.0105232469438047
658,0.008888986621198223,-0.014272933123530472,0.002989982593323664,0.01062371577799363,-0.006311537265069551
659,0.00853995752179115,-0.012719458151432312,0.0047733402109426705,0.011868955792309779,-0.0006361319370927827
660,0.007654886786656109,-0.009410462312330777,0.004712817020456044,0.008451324938336014,0.0038124563540493754
661,0.006574435519729228,-0.005446941583131753,0.004140440208313784,0.0028172297162954393,0.0077242858055433065
662,0.005647850502719935,-0.002670902507840991,0.003541380395912712,-0.002122408204852543,0.010360153963482137
663,0.005187604129132811,-0.0020709826537152554,0.002068068353023317,-0.00579801950508656,0.009817964665947882
664,0.0052874558827526565,-0.0033199106519670816,0.0011706293877883365,-0.007616999897243916,0.008700747031692149
665,0.005493622825724447,-0.005193276790821347,0.00022957669496299164,-0.00911306637250305,0.007323951468751028
666,0.0051802693029755,-0.006841041649997393,-0.00235589866685708,-0.011118959675224417,0.004368284754297896
667,0.004452824647155305,-0.007494547607054228,-0.006012919247580743,-0.012166662871088169,0.0008290638543841111
668,0.0038360571715386677,-0.006513163663257258,-0.008117383218991307,-0.010190731659567513,0.0006419417336476922
669,0.003431228171527505,-0.004949857783990669,-0.007919492545820755,-0.005586684756312735,0.002803224250061831
670,0.003453713247907207,-0.004658876716947442,-0.0055174514896236026,0.0007520569162038661,0.0034188991072213104
671,0.004190932603776403,-0.006031121996615687,-0.0009988361207013156,0.007728473006007649,0.0020759210539990245
672,0.005081903523936077,-0.008307184225763832,0.003923130498577924,0.012689671105317702,-0.00018177051585711954
673,0.00512915317410573,-0.01032025071165066,0.007969796350886337,0.014234970115735412,-0.0007986410564289722
674,0.0037773348374388577,-0.011118082262897885,0.010166961998708108,0.011926611968341399,0.0014141683146244152
675,0.0013160894225316426,-0.010841686702306662,0.00980711197118349,0.006559915278531633,0.004724828796992154
676,-0.0012191018568713566,-0.010143566358298219,0.005841436649757694,-0.0005480248246855718,0.0046604501028258225
677,-0.00237683425067418,-0.009145980680131706,0.001664857339371013,-0.005672499952813051,0.0018004982193501639
678,-0.0014206815238873302,-0.007541270168590708,-0.00010964771156553105,-0.006277431358056619,-0.0019012672797159625
679,0.0004290141823773995,-0.00527273792867663,-0.0005571151753310274,-0.004195309988295047,-0.005432318817666111
680,0.001752791088580343,-0.0024888211486441478,-0.0008650444441717703,-0.0019743509344474696,-0.006236040337581065
681,0.0025127150466428363,0.0005219117229682953,-0.003001288725218309,-0.0012394149845799264,-0.005362082734136376
682,0.0029771403251504145,0.003115273320536383,-0.006561863717131495,-0.0016920992783359089,-0.005037594826348581
683,0.0032977060398388645,0.00463716969954654,-0.00950741418468866,-0.00239755389048372,-0.005724326021847507
684,0.003837111176303436,0.004881082195828098,-0.0098222569828121,-0.0024738875100197627,-0.005705024917119026
685,0.004711899467849322,0.003729771128983937,-0.008090622149181152,-0.0019519409122883795,-0.005363514371276407
686,0.005306029615532084,0.0013268874843196535,-0.005538224823991452,-0.0008854650188080825,-0.006111124156590917
687,0.0053943841930825095,-0.0008781820098229479,-0.0025448905085701536,0.0008174111706571515,-0.007710445125250732
688,0.005537573119599563,-0.0014408595528399963,-0.000822836356434474,0.0018001428135343243,-0.009774845957240421
689,0.005753369411434456,-0.0007795709217557228,-0.0013665391339773311,0.0014027763105436842,-0.011305195632736721
690,0.005660870467057462,0.0003367488742426497,-0.003102938009674126,0.0007039186981421994,-0.011439687289474388
691,0.0051980495154404,0.0019604181247774547,-0.004125250296576267,0.00013323744018973386,-0.009452581892023419
692,0.004094828205465318,0.003587160615745098,-0.0016645015221084854,1.5680181647454605e-05,-0.0041178329872814555
693,0.0023287755366508474,0.004503173463960892,0.0014262704283636686,-0.0011874895657169406,0.0017715986327464651
694,0.0008076734766290256,0.005096515449399987,0.0037170803434176665,-0.002287826020765252,0.006676298063731754
695,-0.00045193741935706586,0.005932776402874512,0.006571398684004567,-0.0010767099617586208,0.01163964977610196
696,-0.0022648373531850095,0.007288682909518075,0.008576150858878109,0.001292875553123324,0.016382772592496455
697,-0.003927173009631617,0.009185253741564538,0.010241604365311243,0.004710452159548422,0.02110684890430526
698,-0.0045033294028979255,0.010651229057581726,0.011745171600008422,0.008229745770433445,0.025540978374318773
699,-0.004213603654795763,0.010550167503506402,0.012089962041064137,0.009726180626214862,0.028978624762928704
700,-0.002675123554858428,0.009433627494613284,0.011391999400459553,0.009596178484363683,0.030138651632367622
701,0.000269584723242662,0.008232158877877965,0.012097785688219129,0.010774583475210344,0.02822227707076566
702,0.0031696950569039648,0.00668144694322846,0.013766154749319021,0.013104556575654932,0.022501939161406657
703,0.004740440404719117,0.005264290656423941,0.013834355876207308,0.013712979648104612,0.015085963083459495
704,0.004691439254791973,0.005243869501375347,0.011986323727484333,0.011310134497142198,0.010891080641607858
705,0.0035686229440517964,0.006792203036140948,0.00907581373248423,0.007301796154181362,0.012398751300635913
706,0.002325522034403252,0.008676341751388473,0.005692038388314948,0.0039032304478198985,0.015685065082402118
707,0.0015045564713473021,0.009584923620724696,0.0028622718026869018,0.0028602404404753433,0.01569315479569714
708,0.0011722985384294638,0.009554958888026023,0.0025240341707342324,0.0044538157533451726,0.014328483987761362
709,0.001200332738939995,0.009514602604550317,0.004627647216318521,0.007731324546630295,0.01326079212805303
710,0.0012892083663814987,0.010106260917874284,0.007813426535679539,0.011481345563295348,0.013368271282770542
711,0.0008960991415218934,0.010957688199281532,0.010766734279239425,0.013963404522606214,0.01455545629542789
712,0.00020034805157649556,0.011697366137402014,0.012202446069083973,0.014165739272887824,0.013851734184563546
713,-0.00024667331626130197,0.012378095322244145,0.0119872824365285,0.012565732841895771,0.011971385540991768
714,-0.0006613160084096336,0.012441003189140602,0.009595620436037108,0.010031436353826934,0.010018999605556826
715,-0.0008361058787187576,0.011557354386840153,0.005708963450518964,0.00862788996580939,0.007832191178769788
716,-0.00047387859600134496,0.010542669961627846,0.002352867715448808,0.008811372550739029,0.0052255464369046776
717,-0.000440737982248864,0.010215710054570303,0.0005758566109817051,0.008262708488280923,0.0036265844985188343
718,-0.0008911680514924667,0.010243553815379851,4.71165722790184e-05,0.00614074060788475,0.002623329926024319
719,-0.000914538319733696,0.009894554612020856,0.00034259915056365585,0.0035221388470979575,0.0010437400833246554
720,-0.0004567111881668222,0.008866300235197874,0.0005699461427149286,0.0002783358679616759,0.00014696653054003804
721,-9.436333106053244e-05,0.007028345281835288,-0.0004692615109804456,-0.0037887861373469564,-5.076489797814915e-05
722,-0.0002482919561448928,0.004503943558746163,-0.0026151423206867293,-0.008067735502886487,-0.0006341442528365528
723,-0.0009205744426360046,0.0018479728369257872,-0.0051435876853609,-0.012468090899225683,-0.002504560797885927
724,-0.0015635398094403887,-0.00021603362323833136,-0.006143828334324609,-0.013462948687255012,-0.003908507706839853
725,-0.0014897938374858186,-0.0008469459005746969,-0.0063577851887091814,-0.011656926135507324,-0.005013853667253504
726,-0.0005578200971241527,0.00012547579160862145,-0.005812863351741321,-0.00802077412414016,-0.005377970792371938
727,0.0005277116919882186,0.0015887599162509778,-0.0035094287097962367,-0.0022986446757718854,-0.003881139181513474
728,0.0008868458894981512,0.002337462619607428,-0.0015440116740392195,0.0014993798977501692,-0.003174327364444426
729,0.0006040691144060225,0.0022248875824222793,-0.0004808696250592197,0.0027123849121883023,-0.0043084692893968655
730,0.0007157811210928457,0.0023985900325996026,0.0005420590110295598,0.0034711239182829735,-0.005915878498973325
731,0.0015453081787091785,0.004017550111968552,0.0018080404482760835,0.00451540726142832,-0.006136850258383752
732,0.002495676619301167,0.0067938378344852375,0.002408964321776896,0.004835504221098157,-0.0051980905539774245
733,0.0033126457258110813,0.009592047620364096,0.0025678961206902873,0.0057019261879515,-0.0029763877855712487
734,0.004105673260841365,0.011338742044667042,0.0024076110710679758,0.0066604773751753315,-0.0005163491498848512
735,0.004402662811703944,0.011563013840817815,0.0017398115445171692,0.005584843441517049,0.00028743425999271945
736,0.0038684401018808288,0.010897251180844895,0.0012668838326014631,0.0035971992315027373,3.304720609020534e-05
737,0.0033810213749837486,0.010466285061726711,0.0002488784645495784,0.001625848287640291,-0.0008699539898655816
738,0.0035039265611089433,0.011399647757228579,-0.0016475417946667063,-0.00010166458956590512,-0.001120258140366577
739,0.0041760677213608256,0.014409422921699465,-0.003158324784265081,-0.0013149316469865835,0.0005798164275200099
740,0.0057656425234719425,0.018560101648566835,-0.0035503813436648973,-0.00204052195678996,0.0021850415305723694
741,0.008155858132587438,0.021977092638680817,-0.0023555112199394727,-0.0011356484595104834,0.0029061498116350675
742,0.010555614754953754,0.024047934770847924,-0.00033019669428908076,0.0003675112511072453,0.003416415492073326
743,0.012820309644266482,0.025520891566668674,0.0010125144939949536,0.0005815720294605955,0.003794180823230286
744,0.014541533083336153,0.026995444004318327,0.001354243068737601,-0.00014665586844382652,0.003904830929866564
745,0.014678144506717623,0.02839038053172126,0.0010807958798647141,-0.0017964377264553923,0.0030618565234612287
746,0.013989101738280822,0.029615522787238235,0.0010902657398966702,-0.0039078470289776335,0.0016163467165015545
747,0.014149078939857092,0.030294243627029673,0.0015920264699093073,-0.005545254477604387,0.0007302976184420954
748,0.0150723996716144,0.029158502332875594,0.0016429672052851378,-0.006503238221648494,0.0007397947408412927
749,0.015736955624999473,0.02577210057487277,0.0008145854863862497,-0.007369743104523439,0.0005236271005774897
750,0.015862504853180547,0.02162788657568262,0.00030005070476011003,-0.007555138409042739,9.078238178094418e-05
751,0.015811309899872096,0.01832443040099311,0.0006763956074671197,-0.005552855113900084,-0.00014545853010890632
752,0.01611401172416507,0.01657634750695183,0.0010941160187386105,-0.0016068586472122236,-0.0006759019630415634
753,0.016862152202544955,0.016391497761769604,0.0011692175151656063,0.0023570539437368326,-0.0014253476838825883
754,0.017643934294746325,0.017244090373299263,0.0008446202051169571,0.00463562902290137,-0.0015634807152781881
755,0.018270800804036952,0.018480478830574586,7.334089530504616e-05,0.005258190301008977,-0.0002941621612903596
756,0.018580524848415148,0.019524797860273044,-0.00030690272501207756,0.004843113529203917,0.0017830047499985172
757,0.01824196274263504,0.020140048535316327,-0.00021453411698005144,0.003888719621209468,0.003412536273340273
758,0.016990008060543824,0.019840850963495322,-0.0005683186703028113,0.002556830690550546,0.004011844716489965
759,0.015283552410839226,0.018011661719185952,-0.0018703956105943853,0.0011447051070398952,0.0032363410313457344
760,0.013934346875104022,0.014754836180516269,-0.003507574690457385,4.874747721284988e-05,0.001251846044120379
761,0.013382188110224198,0.011252033843117074,-0.0038338434230691903,-0.0008631207633121818,-0.0011619917718140352
762,0.013969610082465478,0.009423745879706114,-0.0022534190885090595,-0.0012996339646788356,-0.003195207229984659
763,0.015274192840069112,0.009912996202309232,-0.00024354184560833133,-0.0011007703993724445,-0.004530087149920261
764,0.0166454429725625,0.01168715542758554,0.0007492680125392593,-0.0003300094479848274,-0.00554257586648109
765,0.018120710250777373,0.013629772323313714,0.001394266714866273,0.0015114385381994107,-0.006149577102216836
766,0.019209722263470903,0.015058966115020155,0.001954008340911337,0.0035795351551540936,-0.0060558126207741056
767,0.01924018891503167,0.01572233913723568,0.0015226399773432954,0.004257032860649281,-0.005361580089768807
768,0.018501510322791556,0.015684350132737473,0.0008603825070549763,0.004829977117234372,-0.0037718525281018826
769,0.017505765838362324,0.015401341600008143,-0.00048706900621406693,0.004832611932469,-0.001169353382372061
770,0.01628705772659359,0.01541971398014939,-0.0014571293244359667,0.004446728106445347,0.0021552753018450038
771,0.014793031728972499,0.015332045299419875,-0.0018759440902230528,0.003222554154022604,0.0046595465375240544
772,0.0131839564109426,0.01426507719086899,0.0004102976177316584,0.002611910530079208,0.004363601009635746
773,0.011636464162442248,0.012626936581186327,0.004212194859788275,0.0030876908569454392,0.0021146985357002293
774,0.010328390667074165,0.011748401411747957,0.007920080061016702,0.004012646601436324,0.0007038927096220384
775,0.009354155868028279,0.011709393053425516,0.011289544670332262,0.005039366173544654,0.0009075739598458423
776,0.008779233769599949,0.011703965349811829,0.013359205829484414,0.006398286660106991,0.0012734286428379505
777,0.008590149731946092,0.01155923585802243,0.015700510077970662,0.008790090075501494,0.0005798376266356273
778,0.00855587266744324,0.01146521475870478,0.019616641906960518,0.012095523267760953,-0.0005177621336372214
779,0.008379174986341479,0.01131972652787693,0.024830527853571045,0.01586863452132319,-0.0006928343123550117
780,0.007780306346029937,0.010506294160490856,0.029605163946219547,0.01941797354842415,0.0004677718106453991
781,0.0066599455360028415,0.008835921429893732,0.033505056266999775,0.022938363623873893,0.0018637623804188355
782,0.005401489279470336,0.007320763972002589,0.03756308497944423,0.02743592755264347,0.003146189087336042
783,0.004356231815500631,0.0067505803792985266,0.04253130167024238,0.032799479285995956,0.004786145256711204
784,0.0030526204360613227,0.00691728555223426,0.04788931727939692,0.037378068104290785,0.006221672213031864
785,0.001389610036587532,0.007370334799033001,0.05172913353844287,0.04017218698771231,0.006663607340781374
786,0.0002807593515708668,0.007427921593738197,0.054241798667070386,0.042667836957517025,0.005658829808489752
787,-2.872187357570276e-05,0.006319242688507462,0.0567604913759725,0.04553474988841783,0.0034201909875123926
788,0.0002744270298880155,0.00399058504422494,0.05294148386005798,0.04417585670519119,0.0009759793845218773
789,0.0014860660654538618,0.0017148833252024853,0.04740195589495851,0.042441782254795946,-0.000507300145226543
790,0.003328487627686031,0.0008891496549328526,0.04384959902905399,0.042810443499906994,-0.00010887839013910505
791,0.005046056000636655,0.0010484683028314998,0.03894832386810913,0.04233079213399339,0.0015874763946234535
792,0.006049827986408031,0.0005306649490254181,0.03504176113833569,0.04204536854615583,0.0027514201613550084
793,0.006180496413283149,-0.0011064004029299253,0.03064540334075601,0.04080304378337458,0.002702650434014954
794,0.005825947496102063,-0.002781852392588591,0.024594741524433257,0.03812874630828475,0.002669368794585551
795,0.004906493800496791,-0.003673789626969993,0.018669074182073163,0.034584272462413156,0.0037284121875947526
796,0.003195687632952256,-0.004001138246243246,0.016503265115846058,0.03174990365848952,0.004987962978611793
797,0.0014741026477485266,-0.004119724376063028,0.015430089932728533,0.02897682025118301,0.00517440176637677
798,0.00118027985468514,-0.003530014650020514,0.014294485451669857,0.026714385876329173,0.005242329036790746
799,0.002769084331641583,-0.0020057031488839357,0.015193256647846213,0.026525224312760068,0.007115813019926347
800,0.004582137605825865,-0.0006455474643785881,0.015173490349187973,0.025628970321176198,0.010712937082737094
801,0.00478030617974792,-0.0002908427945794569,0.013547013453558607,0.02236112278338772,0.014558042622921662
802,0.003599641996253783,-0.0005508258138528716,0.010914672556838359,0.017705335339262707,0.01786942478413605
803,0.002278633645969043,-0.0008259386913378148,0.007305386733865108,0.013248157961517473,0.021190186761320312
804,0.0017239823590988108,-0.0011864679103883323,0.006994207575213183,0.012841415805287073,0.02177699730696535
805,0.002077331656106743,-0.002286797863499837,0.008531018573342344,0.01515167812555702,0.020642974066129628
806,0.002054270584547621,-0.004238767231508939,0.009659730084333257,0.016664723847708736,0.01905818289575061
807,0.0008775640436063125,-0.006481513974927447,0.010905738196579928,0.016767154605613212,0.016861941218032202
808,-0.00013366048892061714,-0.008593499327135387,0.010830189572080118,0.016140665832529044,0.016178104812298713
809,4.48783862449008e-05,-0.01010993550647468,0.010349838697046207,0.016341296209026034,0.01587284711680827
810,0.0006486877389610258,-0.010781012826680394,0.010046760890100573,0.017040047220335964,0.013851967095995787
811,0.00011614791170079315,-0.011224040633277909,0.008498493341770462,0.016972328714623446,0.009321696154566171
812,-0.0019142219767092157,-0.011574460080505108,0.003444263114374928,0.014459557235779932,0.004753907708105689
813,-0.003979771847826092,-0.010810390325511775,-0.0027214259158219495,0.0104433950168135,0.0016203219906630053
814,-0.004553037896780129,-0.00860587570011222,-0.00713284056995364,0.0066571554604326535,0.00016195612449308798
815,-0.003271397585147536,-0.005702037313157686,-0.009049450957450977,0.005095531889037974,-5.0320557807184224e-05
816,-0.0014019416276429399,-0.0029131686243094646,-0.007748152114239651,0.007011668120274347,-0.0014504424155276625
817,-0.0004277789388242784,-0.0006695198540953852,-0.005367158254180108,0.009370691881118408,-0.004012306965433865
818,-0.00040882042135256385,0.0005840986112915657,-0.0036265172624750344,0.010279447125126037,-0.006792846689426893
819,-0.0010958982711317424,-4.622749929837008e-06,-0.0026662421353708353,0.010534275958966464,-0.01036798599490683
820,-0.00279415974116662,-0.00252908672440203,-0.0025974638003681385,0.010125101715457796,-0.013072907794458757
821,-0.00489835610020016,-0.005280305761820665,-0.0031288071667843697,0.008826955484154108,-0.014932620292093085
822,-0.006074982315106167,-0.006173235294922397,-0.0033519062658548494,0.00708898978279687,-0.01481148293355423
823,-0.006525776004224146,-0.005130585231959467,-0.003032360892317282,0.004633390452609683,-0.011634101842780827
824,-0.006968990699893791,-0.003696193961241239,-0.002571369126193508,0.002238731743221178,-0.008359353986984015
825,-0.006649485464502076,-0.0019016578086290877,-0.001266830619491933,0.0025313423262432527,-0.005461824104888155
826,-0.005128925245684362,0.0012527806107444361,0.0014209789802715677,0.005351273496628258,-0.0022220893252499056
827,-0.0035911449437116536,0.00474080765821744,0.004223548257170281,0.007497626948697009,-0.00043427821049936676
828,-0.0032481125889878577,0.006786744203560166,0.005335472902723857,0.006949215062626234,-0.0028891375915592625
829,-0.004097708935317667,0.007557610246097997,0.004539583471822077,0.00414328866245166,-0.0076308954003643185
830,-0.005270642319997041,0.008103078486004053,0.0025127672727609613,0.00047042516457681074,-0.010839187211668292
831,-0.006315317115236036,0.007790304560663816,-0.0005066096917922953,-0.003189170844044982,-0.011744756787926918
832,-0.007220611079348943,0.005541152299328609,-0.0036615421807344303,-0.006503023702515138,-0.01179040330284618
833,-0.007576262904996352,0.0021640941349951783,-0.005842180591579044,-0.0092819963632369,-0.012941629944357018
834,-0.007311905548093796,-0.0003566518447170383,-0.006871470032963551,-0.011318466709891731,-0.014263873002189563
835,-0.0068865689462645,-0.0007852750514425174,-0.006913053750052166,-0.012224455479801243,-0.013779948060081317
836,-0.006480046149834651,0.00019463960000549798,-0.006197220444255745,-0.011659544703620097,-0.012001430285239279
837,-0.00620421599685678,0.0010597809008697117,-0.005516801888334996,-0.01029942571503527,-0.010746569033332976
838,-0.006014004944578841,0.001155818540122703,-0.005353345560004691,-0.00937106371984836,-0.010878960570972243
839,-0.005839526836500016,0.0003970741020809441,-0.005491167125494906,-0.00928659007744871,-0.012625378917169552
840,-0.006435116603125374,-0.0014709989686642313,-0.006328061243825339,-0.010481918238446622,-0.01584483971239484
841,-0.008100204335388599,-0.003683682119058926,-0.0077933620220015905,-0.012649052398780508,-0.019229026260214235
842,-0.00931880387223401,-0.0047660755296115775,-0.008149325049744825,-0.013856070967896636,-0.021579731696335622
843,-0.00909623373144045,-0.005123991473129496,-0.007230270349816778,-0.01417041889051355,-0.02317655903892522
844,-0.007978519511543007,-0.005884822495144513,-0.007040029543927705,-0.01505041698903697,-0.024125372871849134
845,-0.0068370719434673365,-0.0068030514243790745,-0.008297446682229322,-0.016219947310567265,-0.023895139785981966
846,-0.006567164682525707,-0.007657523943068661,-0.010848871963630685,-0.016986385112292196,-0.022932763180005207
847,-0.007193003158178731,-0.008679019710686506,-0.014697610328487713,-0.01722728542589801,-0.02197548594120857
848,-0.008041539163541927,-0.009622815265501006,-0.018800252232447846,-0.017077137837804818,-0.02052091093077985
849,-0.009173529942418835,-0.010651030206023945,-0.022156825378869326,-0.01715770328971412,-0.01839974052202624
850,-0.010680023630432555,-0.012461511523510991,-0.024658512009185295,-0.017940693748556266,-0.016991876419704042
851,-0.011687674143772411,-0.014779609776136154,-0.026063612942077423,-0.018667485057614615,-0.017572414885923072
852,-0.011952461341785021,-0.016519985208835172,-0.02657010607480982,-0.018873513183109685,-0.020219512738195812
853,-0.012674423185822407,-0.01747313328278824,-0.027228578989230683,-0.019809064083972008,-0.023998367282532643
854,-0.014656326695793033,-0.018133721434188177,-0.028482107947438867,-0.022395408562257364,-0.027420579309656305
855,-0.016909152087743254,-0.018525124010341926,-0.029304778931209783,-0.024954646217014362,-0.029151594348056916
856,-0.017795598565320776,-0.01857627542858921,-0.028722021462506214,-0.025055057801766013,-0.029075155133733342
857,-0.017245082321257,-0.01817204168742839,-0.027447193833033297,-0.023392204864185487,-0.027586763644895165
858,-0.016375662407563992,-0.01675525877815397,-0.026695009235158152,-0.02259278653450138,-0.02471949983453805
859,-0.01567268856125976,-0.014409929755352886,-0.026991808434582414,-0.0232800624238441,-0.02184472842102125
860,-0.015191626491945356,-0.012492756435741463,-0.028510828455454176,-0.024517693029394817,-0.020780031570586367
861,-0.01492382736702882,-0.011664479004639634,-0.030783501904285335,-0.025685855539086522,-0.02079453418437244
862,-0.01457334938984897,-0.011303709036427086,-0.03249015899392522,-0.026294322740004008,-0.02025932485788247
863,-0.01405000927850758,-0.01127270033054329,-0.032564354471086,-0.025982894226463334,-0.019409119527775947
864,-0.013666526485706576,-0.011887001763726857,-0.031407148349662344,-0.025148627258567705,-0.019530457629323074
865,-0.013403260784482686,-0.01282371253760643,-0.030069672919907323,-0.02449895653164268,-0.02118620360503788
866,-0.013462572712102322,-0.013996940298328259,-0.029449650969766053,-0.02479142677522519,-0.023808081647336384
867,-0.014037000612004096,-0.015680039085444103,-0.02958021179863715,-0.025962062373225448,-0.026149722930642386
868,-0.014251026726504367,-0.017283188846405534,-0.02963887290104254,-0.026647114601079186,-0.027178528291922535
869,-0.01412714384984964,-0.018691276634899327,-0.029993277554845408,-0.026527852477514987,-0.02732787242102078
870,-0.014426113012121596,-0.020389127830483106,-0.03116164325898353,-0.026530046477748953,-0.027405968671111468
871,-0.01460102472863618,-0.021948691823727013,-0.032351417902441885,-0.026845951149347114,-0.027472706151468157
872,-0.014189344984109795,-0.022908231945382884,-0.03317403276000943,-0.027493517757780302,-0.028073443533130737
873,-0.013339201888810116,-0.0230419452126919,-0.03337808417130901,-0.02801971217267093,-0.029615212924271685
874,-0.012794633523492992,-0.022763321860049236,-0.03297759156919852,-0.028100402095451896,-0.0317939415961954
875,-0.013662893263357302,-0.02306980614992779,-0.03325449359689084,-0.029060126495124478,-0.034147875532688755
876,-0.014948212600065746,-0.023407564280233176,-0.034295396764344815,-0.03075123925424523,-0.035450706367878566
877,-0.014969570255388056,-0.022828460829116767,-0.034871565229993816,-0.031732289112511546,-0.03468999281662878
878,-0.01424758912868011,-0.022084130111719474,-0.034984378142759856,-0.03273635062187669,-0.032894836534274656
879,-0.01379310440064491,-0.021656728122060473,-0.03495593413481522,-0.03461357425994766,-0.03171514395164177
880,-0.01349743392488057,-0.020517548457243424,-0.03381891008274613,-0.0357781798014218,-0.03126976263608648
881,-0.013422014119037604,-0.01825231905747823,-0.031012909306528735,-0.03534481920410001,-0.031185682695743778
882,-0.013492356185398723,-0.015536987899392611,-0.027479894366324194,-0.034244131558103914,-0.031167305851136272
883,-0.013088705619412553,-0.013356453250288381,-0.024577514303138887,-0.03294886314612597,-0.03116023155895448
884,-0.011928163007149965,-0.012334978125543124,-0.02296755439086416,-0.03172036618270977,-0.031779371108961244
885,-0.010086616666389742,-0.01188536751034688,-0.022064954533907694,-0.030665141275912845,-0.03272019141595056
886,-0.008293882490252287,-0.01118204864288565,-0.021294692420211935,-0.029543115367602898,-0.032636750888530144
887,-0.007401933652698788,-0.010350706147865018,-0.0211356303606127,-0.02884283129960839,-0.030811421117526938
888,-0.007500948819788939,-0.009889411969288072,-0.02190724040132366,-0.029909437617994437,-0.02789215722681385
889,-0.00820946010430064,-0.010153837746946654,-0.022852143563144686,-0.032953185637894074,-0.02589891469634938
890,-0.009391546879741442,-0.011597927194440584,-0.023726646757395532,-0.03645843449487715,-0.02696585353217416
891,-0.010911522614651524,-0.0135231149785932,-0.02535888068820656,-0.03915056344981765,-0.030353655457539618
892,-0.012344938021540254,-0.014497363202991345,-0.028089749107415036,-0.040732506489849094,-0.03310737666249768
893,-0.01310489633209743,-0.014274951577355793,-0.030809684235986665,-0.040541483432715526,-0.033893245364711444
894,-0.012189904223786182,-0.013174323202336939,-0.031318511678091895,-0.037531338330920136,-0.033043845865974135
895,-0.009738004253447124,-0.011671311738204872,-0.02944222200849054,-0.03282068647009639,-0.03138019667148315
896,-0.007518754383646576,-0.010411915423565014,-0.02783530890444503,-0.02900455150781081,-0.02971798748564991
897,-0.006138820668975158,-0.009654274663961397,-0.02787920963453934,-0.02659607621932863,-0.02830782641556091
898,-0.004869319358337329,-0.009264020539558973,-0.028594605981789055,-0.024793936029820142,-0.026852169563219275
899,-0.003953365077017942,-0.008796274496489382,-0.029053598149248638,-0.024015346432937193,-0.0243871734542074
900,-0.004147617039169105,-0.00796631968222835,-0.02872638028376214,-0.024706596430388333,-0.020717300616810277
901,-0.0051567220689790125,-0.007025918593954443,-0.02689952522855952,-0.025669502848966397,-0.017239782214895003
902,-0.005702073209416242,-0.006261553260866925,-0.023359418839401177,-0.025100684382846322,-0.014968314302145817
903,-0.004841498461454199,-0.005469099240074179,-0.018747021250909948,-0.02244353751681015,-0.013615028956350419
904,-0.003350504823199198,-0.00478300608460827,-0.014291601761051664,-0.019235959866679763,-0.013374461307996932
905,-0.002704580197467697,-0.004845370573220728,-0.011362971984333862,-0.01742995368746823,-0.015082144471972975
906,-0.0030440253865926556,-0.005154799572736305,-0.00981834358693582,-0.017138151211107736,-0.01769659830098008
907,-0.0037755446978335644,-0.004989748149682563,-0.008226389605552335,-0.017520128269072253,-0.01923016954552047
908,-0.004392597702303299,-0.004678847751293312,-0.006339328471551528,-0.01789034847336769,-0.019080450780943635
909,-0.004190841998561966,-0.004210029722475215,-0.004510713299936016,-0.017252870738349337,-0.017283585093130382
910,-0.0032846284906717623,-0.0032018195849238466,-0.002848276669630392,-0.01555110781278671,-0.014430529013624755
911,-0.003051807563451683,-0.002000222483022456,-0.0023175255311996975,-0.014892917802214266,-0.011912578963085134
912,-0.004356434053631822,-0.000986004578003225,-0.0037014185092859608,-0.01713774668650904,-0.010666382427480334
913,-0.005856862393904269,0.0006901121025985712,-0.005860897485631595,-0.020938274716416634,-0.010210631914074427
914,-0.005617699742857138,0.003715322099000136,-0.007191556208053926,-0.023445358853947166,-0.009371734748216705
915,-0.003841627013428775,0.007049965205581028,-0.0075524279774572805,-0.023700274672940207,-0.007525682376950655
916,-0.0017525726682621704,0.009621908058884026,-0.007336065653544299,-0.022138425740287862,-0.004602667876792227
917,-0.00028180492126121963,0.010791930220827708,-0.007317220371420061,-0.01989697606758415,-0.0019708412383006705
918,4.34691163186312e-05,0.010128811641307843,-0.008543232333666198,-0.018483798468821373,-0.0015866069810313772
919,-0.00014322630326050147,0.009008588143520353,-0.010565963339730597,-0.018381299091817398,-0.0025933149122022692
920,-0.00044008550935977945,0.008799993254951082,-0.012456308826719758,-0.019517621942842255,-0.0030487340592172045
921,-0.000519789709492757,0.009351689530735247,-0.013525890916858819,-0.020486204299731647,-0.0026585999206118417
922,0.00044517515705857553,0.010560086779812721,-0.012901818401085627,-0.01943057414131503,-0.0019078451139325707
923,0.001934076818052617,0.011876419104942845,-0.011320065711633664,-0.01739490604952219,-0.0016143068144613153
924,0.0029860063357701892,0.011905751862736293,-0.01052300780760816,-0.015911109710221322,-0.0021093845547730827
925,0.003000649402183857,0.009728286254891149,-0.010781137284835306,-0.014794594275414854,-0.0027499182413425
926,0.0017339155895743676,0.006627245827893694,-0.01066411735585565,-0.013825927739241456,-0.0022415815471213962
927,0.0001484656124582531,0.00517215796942174,-0.008902311283221036,-0.012530668561387464,0.0003028413353198395
928,-0.0008864669021391001,0.005793637607795682,-0.00640124801805802,-0.010499869160607704,0.0035512984622094383
929,-0.0011004133663080771,0.007283893935141621,-0.004628264172891704,-0.007863649723964503,0.005594084490728693
930,-0.0003224667154664002,0.008829921210857506,-0.00333760149268637,-0.004880278203145908,0.006409514390895898
931,0.0009479903865791287,0.010022583815055034,-0.0017532703521444199,-0.0023159413139861433,0.006563371040882876
932,0.0015610066580691287,0.01139073067815097,-0.00028253428989007926,-0.0016232474143843673,0.006451138794689557
933,0.0009085951503893765,0.013681954415991996,-3.5796465951623735e-05,-0.0036631036226204556,0.006295266780317384
934,-0.00022995658443360236,0.016075663638989005,-0.0010354111768920862,-0.007021653880227475,0.005814097218230305
935,-0.0009306582312624264,0.017139282085750204,-0.002075989203407348,-0.009108809324337198,0.005722930624148221
936,-0.001135603098898955,0.016602812078898684,-0.002092227558873332,-0.008079101103152101,0.007409725773949571
937,-0.0012036960089376486,0.015282876788936604,-0.0010647771638507063,-0.0044603996515019785,0.01108244367710557
938,-0.0012537725025139137,0.014064136461404437,0.0003251157704720835,-0.000618480584216235,0.015547299719433774
939,-0.000965397084988782,0.013285625073032931,0.00174447266789428,0.0024534900824097127,0.018968632011388174
940,-8.600736128127202e-05,0.012989324053924596,0.003337550266194944,0.005199084935134162,0.020308988827357537
941,0.0007988534751236684,0.012756208537954632,0.004624998698990249,0.006955689159877111,0.019454082166004638
942,0.0009495190169369682,0.012293658589339607,0.004852720022528893,0.006665759037212821,0.017007460623410853
943,0.0006346658271033707,0.011872137733150007,0.004360336834531992,0.005028512360536744,0.01427471956508665
944,0.00012791166852100136,0.011070062561743263,0.003442452977846727,0.0033593786518064453,0.01189374027812978
945,-0.0002760778920813057,0.009544285902469949,0.002027418024227374,0.0026499947925655923,0.010068703849774634
946,-0.00010055314603333424,0.007745326479673006,0.0006287608201352787,0.00329948679088063,0.00905806216012402
947,7.059833147718772e-05,0.005857624409339595,-0.0001712326146669631,0.004348227853046922,0.008462836177770286
948,-0.00013085009054774797,0.004147026966643025,3.909374981457597e-05,0.005221991356333659,0.007638026998204808
949,8.240528685711057e-05,0.002893368283847303,0.0010415810751916727,0.006627456614706804,0.006129461534572075
950,0.0010275576566362516,0.0019238315730068967,0.00198157061276328,0.00866953097570086,0.0041398971040889215
951,0.0020990454615080066,0.0012224778666978806,0.002644892231146085,0.010331554471822713,0.002726120473705842
952,0.002668372056854043,0.0009749830309397836,0.003382378850467535,0.010751735145745194,0.0025298904565991503
953,0.0031555037464390395,0.0014254702041382357,0.004888427727956461,0.010717707573057074,0.003466911552075147
954,0.004450217593860021,0.0028202481364186893,0.00787686666587651,0.011541457933909269,0.00570294194971994
955,0.0059683182339382084,0.004589329056860939,0.011381601366104999,0.013130786854992041,0.009049679023749712
956,0.006309084677272609,0.005498482918015942,0.013709953530602252,0.014563101899053675,0.01253989322366737
957,0.004795099503020118,0.0049102006662099015,0.014294969252900885,0.014534297345422274,0.014913851092464143
958,0.0017388804640966924,0.0035106706751772483,0.013403144839994338,0.012567788769153572,0.015293931335964597
959,-0.0012492288041669037,0.002930361656179306,0.011834054318780195,0.010041028884652121,0.014538216027261243
960,-0.0025856523600595476,0.0032454163109916978,0.008844337954806623,0.007322867336052804,0.012735803802589846
961,-0.0032220601036027237,0.003486140647764741,0.005393690306826088,0.005150650534465968,0.012094716694422702
962,-0.003738737515187919,0.002664990683991792,0.0018557407997689603,0.003151777663213755,0.012092569612803751
963,-0.003833381105424844,0.0010912081093564826,0.00023911718900150404,0.002749480041663191,0.012396131961322207
964,-0.0036478882733658497,-0.0008006862393276339,0.00039141679899394783,0.0036181760611844437,0.011543455947999113
965,-0.0037020392691737474,-0.0022101158357899523,0.0009141307727808012,0.004099034511933365,0.010075450113935715
966,-0.0036676763416740444,-0.0024371313183343154,0.0010401191731952107,0.003577619805061301,0.00935603823240356
967,-0.003143934855229679,-0.0018084571733105721,0.0007320645287903173,0.0019319916017150282,0.008964789630644567
968,-0.0025112284201723317,-0.0010861969153261254,0.0005728039026289513,-0.0003901950962523189,0.007970257288185813
969,-0.0024061465396643653,-0.0009780493928730585,0.0008806882812976657,-0.0017818123574458694,0.0061696344612400655
970,-0.0030974184875368974,-0.0017533574410715487,0.0010348507014146045,-0.001498197007530524,0.0037789171684394244
971,-0.003957414703623484,-0.002795050324751632,0.001126550369210992,8.041990049247478e-05,0.0013203833074582022
972,-0.0041083121140301155,-0.003102128998970913,0.0016434083657048968,0.0018462261643311896,6.756738710087297e-05
973,-0.0034552644350658297,-0.002461404636611163,0.0021145436202473496,0.002370334742492608,0.0002559211505543659
974,-0.0026325924043420785,-0.0018400194617127572,0.002339713064058045,0.0016060905723141406,-0.00020048115438534418
975,-0.0019689269520918426,-0.0016841587379770116,0.0024658501856059225,0.0005966312763715898,-0.0022064041968662255
976,-0.0008993208785486392,-0.0012386355935224578,0.002235925643754078,0.0004039654797888442,-0.004228170077816261
977,0.0008504926822721824,-0.0003314516256547401,0.0016177331028116642,0.0012093022031942646,-0.005371031631601282
978,0.0032465396149237275,0.0005429699482427179,0.001150071503335622,0.002704239979315865,-0.005868553607564161
979,0.006226909682946741,0.0012207250015693705,0.00109150858174074,0.0047922628915752,-0.00589062569394973
980,0.009064486406031079,0.0015815380652765675,0.001264236437323367,0.006828048585430056,-0.005626722984915867
981,0.010940370668134164,0.0013780347610955212,0.0015494370946449955,0.008168517130038865,-0.005417406394467231
982,0.011471987280127768,0.0006141361257402046,0.0015503777558633937,0.008575615145870174,-0.005663716602962707
983,0.011223000782209079,-0.00016356276820115155,0.0010850909944550334,0.008439147476289816,-0.006572065094095091
984,0.010946425003067686,-0.0005079601237268395,0.0006441970866193155,0.008431089837087019,-0.007841409132678005
985,0.010585692601570629,-0.0003666878836436684,0.0004741024783309675,0.008413861252139472,-0.008633309785038967
986,0.010096293608096198,0.0002522536236334735,0.00020873951915209132,0.008114172780424813,-0.008323835450854173
987,0.009472595847364245,0.0011515857322563373,-0.0003492807925304958,0.0074975859622345604,-0.006949331387098753
988,0.008621761636474877,0.0024260298279434054,-0.0007776398186673778,0.006716722928549136,-0.0046570512270317525
989,0.0076293217127268624,0.004075344952447537,-0.0006069864060022016,0.00608417941317812,-0.002389005966998006
990,0.006655197566496495,0.005204897532406188,0.00010066244721366023,0.005729334510879062,-0.0018856997705879726
991,0.005959331122738722,0.005089066994129157,0.0010955226711070716,0.005742370113272321,-0.0035670412109667683
992,0.005585646276311805,0.003924519603321751,0.002264181928344121,0.005973444897905093,-0.006146147082737681
993,0.005160187973507981,0.002368782222290291,0.0032333853439531464,0.005916052313089698,-0.008172924650221293
994,0.004508548241949788,0.0011125826480485144,0.0034770633350862234,0.005322656717675542,-0.008756053888257533
995,0.003955196455976627,0.0005781567957730365,0.003066532008192561,0.004550127155502317,-0.007540676295943125
996,0.0035696544713166144,0.0005521590564841073,0.0025854910601387387,0.0039011764178020513,-0.005191970938928984
997,0.0030973563916609852,0.0005233070224338368,0.0023536068339632334,0.003205963489160403,-0.002746596467781657
998,0.002639578679736196,0.0004088266505721643,0.0022975880992807804,0.0027138448659925897,-0.0006795719258577422
999,0.0023790294298855707,0.00024987081270551434,0.002193411221822883,0.0030299229603662353,0.0003434537803152108
