,AF3,AF4,Fp1,AF7,AF8
0,-0.0038633331588600025,-0.008679372409183707,0.01829115606824911,0.014413961385636352,0.014676167693657188
1,-0.004757705476714313,-0.008434799695977642,0.015463088872641135,0.010829327118814768,0.014073714756695402
2,-0.004914154325578506,-0.00809158139961845,0.014817356952317078,0.00970636230449427,0.01306933259565131
3,-0.003473701416848359,-0.007075069159908592,0.01727044204581177,0.011168089966568533,0.013149215262719623
4,-0.0012980666515191826,-0.0057024551273652,0.020990567372019174,0.012936136404557928,0.014335465435919282
5,0.0005419308151644048,-0.0048506376535165825,0.02429285914225205,0.013527812583453036,0.015337520022075888
6,0.0025183877750945332,-0.004357357894569182,0.027144177578871484,0.013615994107082871,0.016172318190039184
7,0.0043128086266784335,-0.004062529277684417,0.028773887083792044,0.01157710874164293,0.017125191249551506
8,0.004771605849069677,-0.00425531098716077,0.028404251558164027,0.005249525593482084,0.01764277343277578
9,0.004748670655396197,-0.005239945404072018,0.026530868834640772,-0.0005755678259512332,0.016750517532814264
10,0.00588129195897341,-0.006997871482726734,0.023368263500664937,-0.00037663346675043135,0.014297530462315022
11,0.007682316767785884,-0.009023390088916934,0.019268020934806358,0.0036668273344774584,0.011582213410432031
12,0.00878030677364165,-0.011062227016490764,0.015909881827145672,0.007085392126484874,0.009491617177583317
13,0.009277106942233567,-0.013086283901557428,0.014994925246428108,0.008775106625429735,0.0076472107613920455
14,0.009711715619508832,-0.015015917365608882,0.01589038796202058,0.009607120696745242,0.005462081493630209
15,0.009980138470529625,-0.01669124869282912,0.016404487575813875,0.009537339923634917,0.0032891924479478813
16,0.009872588377296272,-0.017733705966122462,0.0152495546679838,0.0071032730011570885,0.0017566043892976112
17,0.009131447228784142,-0.017987083537850716,0.01246981161000994,0.001876114671187046,0.0003209194772146677
18,0.007897367569836753,-0.017471879284567837,0.00944877099397835,-0.004059535440443937,-0.0012533239970518402
19,0.0065523931744291075,-0.01656770717235195,0.007826025524701845,-0.008843709036266531,-0.0024398330178455594
20,0.005885179394023167,-0.01574995089825693,0.008604545532427088,-0.011639600020812635,-0.0029509679250393803
21,0.006885750149561934,-0.01488242998342163,0.011395305587117106,-0.011791514779706164,-0.0024679978655325297
22,0.009115826847928601,-0.01370072173096221,0.01400597519942221,-0.010202298264504566,-0.0008672817904211628
23,0.011277099063611249,-0.012431511227798217,0.015102418949640555,-0.008391368260677996,0.0015080796544647843
24,0.012350002940496164,-0.012121575456818258,0.014682758307496638,-0.0074258811691758405,0.003629666448924463
25,0.012183877954070105,-0.01330935967823697,0.013180027433198557,-0.007454847198663911,0.004905357055378616
26,0.011636838522038529,-0.014794871672514894,0.0117699976429603,-0.007585476801603559,0.005994842897344239
27,0.011448288816908838,-0.015216908186080126,0.011470003611653063,-0.007303052716718409,0.006924091304701582
28,0.010828797941002808,-0.014316990982213834,0.01180027893339561,-0.008866083011593046,0.007374908606701544
29,0.008553319890634483,-0.012371598141286954,0.011401467694907462,-0.015113982640129257,0.008075486695664873
30,0.006699375220150244,-0.01062117314880845,0.010846726915438405,-0.020724416880728014,0.00837848749924985
31,0.007977901030697959,-0.010273636749613521,0.01178540151935881,-0.019114051433834232,0.007197160007120891
32,0.010688665874909716,-0.010512971552210464,0.013540210070019465,-0.014345999548351241,0.005736242558785229
33,0.01246500606928184,-0.010244609941262977,0.0142650016675119,-0.01183131116909012,0.004841172930541428
34,0.013455745148281899,-0.009729592272349282,0.01380467248960838,-0.011286721406382592,0.0038663563221548037
35,0.014017689447437252,-0.009699362460618999,0.012817405444004146,-0.011295095037023362,0.0021561619690787077
36,0.01326896376861244,-0.010741123021931347,0.010881503718623854,-0.011680235736524297,-0.00048208792072130575
37,0.010951131261950218,-0.012522983073391628,0.0078221752761182,-0.012506846796571054,-0.0033625098764020456
38,0.008680198060823171,-0.013814738934678718,0.005131255890732412,-0.013418956817837675,-0.005559095686783572
39,0.007657241715535103,-0.01405929377759801,0.00438046645212644,-0.013880297788702773,-0.007099448145351169
40,0.007627760660379187,-0.013560623668080451,0.005312041502902163,-0.013414146722164236,-0.008436486453623687
41,0.007900423762353422,-0.012419208808910667,0.006789754876581752,-0.012573674368541414,-0.009193803835344402
42,0.008449730171226615,-0.0107014020012461,0.00820076134105763,-0.011734645681890976,-0.00888783927167365
43,0.009538527515016257,-0.0093682990476436,0.008521845137682693,-0.010545794211586062,-0.008304523137168332
44,0.01077291133800483,-0.009168388761017738,0.007092618886858728,-0.008878555058513997,-0.008480099237847594
45,0.011628208150028019,-0.009613198716162426,0.004627152248599162,-0.006991320371846004,-0.009623958980466476
46,0.011609488871057654,-0.010076487787886118,0.0017852411396665642,-0.006004674629346504,-0.01123609977204995
47,0.010901678553284258,-0.010126805610694794,-0.0008653965093920269,-0.006210388510291634,-0.012152579145888511
48,0.010632614029148406,-0.00968794455801403,-0.0025958121868359936,-0.0059292784145171,-0.012215212221465075
49,0.010679453284142347,-0.009695466278720796,-0.003627941434837929,-0.004872267674767235,-0.012981038337046478
50,0.009773216414756446,-0.010828173296078165,-0.0049131129865154135,-0.00523774159157738,-0.015004494530655485
51,0.008252715793815401,-0.012311813985562131,-0.006648276812944137,-0.007905362452941878,-0.017064225947094433
52,0.007396199874383617,-0.013504417115070944,-0.008366169183918097,-0.01124585045679417,-0.01834758861478563
53,0.007474332076943033,-0.014614261457011743,-0.009591315797435796,-0.013318770873623887,-0.019045758979417713
54,0.00820545106523744,-0.015698046507655276,-0.009962588239611752,-0.013416927642493245,-0.01946445774600633
55,0.009251598736524664,-0.01648228903251952,-0.009844689895103193,-0.012568312708133928,-0.019565015530943853
56,0.010629190635247207,-0.01616181466435616,-0.010351971725023477,-0.012735308302164322,-0.018437020763749593
57,0.011509932549409093,-0.014987008173915899,-0.01289652847374614,-0.016418640152598758,-0.015643486619988142
58,0.011053409852924384,-0.014704408210977942,-0.017111218939397373,-0.021844831406477278,-0.012983035332101822
59,0.01077833908790093,-0.015719000947931456,-0.020578686491951246,-0.02252960977978655,-0.01191400057413787
60,0.01188046139444455,-0.016641242475435566,-0.021986239437506282,-0.017862787221067825,-0.011396320222127812
61,0.014005245621070765,-0.016176980528043537,-0.021894938128789135,-0.011816271490963304,-0.010389276440390675
62,0.015580344406080148,-0.014835485185715975,-0.02228644692503039,-0.006960726536663059,-0.009717644462703696
63,0.014144095863309059,-0.0129721338543898,-0.024475280457285538,-0.007154110772091685,-0.009264647233280545
64,0.010198647216509838,-0.01015783510328339,-0.027194627932576213,-0.012038126903145152,-0.00822814175437415
65,0.007912397400028456,-0.00781902921022089,-0.028992572424572274,-0.014264029904496394,-0.008294449070349149
66,0.009097413364922754,-0.007139024918074817,-0.030095946098990262,-0.01253470071356351,-0.01041100489339758
67,0.011461313391435623,-0.007464516289326252,-0.03089215991961533,-0.011840643368047339,-0.013002658940107225
68,0.013649086154246776,-0.00793499674377645,-0.03067299990086485,-0.011675459414922176,-0.014751950347262975
69,0.015722308340648746,-0.00807174747901248,-0.029454234499205333,-0.00956391761236717,-0.015394027807315365
70,0.017033013443298935,-0.007538863823894786,-0.028932320818242267,-0.007351497510931092,-0.015324288952092232
71,0.01744380628888374,-0.006175039416229554,-0.029819532946515306,-0.0066631562687706185,-0.01480287068306537
72,0.017658009439802277,-0.004841766608630251,-0.0309606451588601,-0.006439810938292842,-0.014038071456128048
73,0.017505184015568564,-0.004684894525242433,-0.031576812678171466,-0.006310240273549351,-0.013372163170236252
74,0.016584191166400624,-0.005174118674573074,-0.03153607760312868,-0.007004141190482104,-0.012281623830638789
75,0.015342557683950929,-0.005390816134822111,-0.030962857462729164,-0.008473809456022828,-0.010639981154243335
76,0.013883205913749235,-0.005443442362444816,-0.03065325396374491,-0.010704364248254787,-0.008901860533333191
77,0.011993177605764339,-0.00534140783357085,-0.03116641184332599,-0.014075850096011302,-0.006735264256793879
78,0.010194573697605394,-0.005318572708312215,-0.03210996860579693,-0.017448848376038377,-0.004946641345420798
79,0.008855763379022356,-0.006132601148275474,-0.03279460339218561,-0.01926614809706976,-0.005194632516653258
80,0.007368109836916532,-0.007709776609614884,-0.03314653100362934,-0.020264026146241686,-0.007145997302784842
81,0.005214007258460899,-0.009128357479652943,-0.033570023319837106,-0.021857815435857693,-0.009155657409629878
82,0.0026426810874037566,-0.010132780225684788,-0.03430428169853596,-0.023766799504873145,-0.01072610915378129
83,0.00075336909972569,-0.010779068337251362,-0.03486702807948454,-0.02478059087804481,-0.012177856339745444
84,0.0007675198198683346,-0.010609529185950213,-0.03470859284941043,-0.024125763122588382,-0.013427443326839112
85,0.0021475479283346423,-0.009780102307715262,-0.03467414716087685,-0.02241979664257701,-0.014515786406172924
86,0.0035769050538282227,-0.008741115529250476,-0.03513605099027453,-0.020850160667740824,-0.015119499063526543
87,0.005226802504578555,-0.007085217989304566,-0.03446739401501174,-0.01927252135430336,-0.014234787124365104
88,0.007406140918533761,-0.00489734548275234,-0.03240678584192508,-0.01740218834015293,-0.012252232418458738
89,0.009044964140728537,-0.003261079031840986,-0.031067231672769736,-0.01647414368060118,-0.01051865439967611
90,0.009032620751524901,-0.0026862517150585954,-0.03154141681372404,-0.017383595789773377,-0.009389540016215265
91,0.007844739901143767,-0.0026871987743792513,-0.03223557710614075,-0.018848063697304338,-0.008824930898949765
92,0.006838885085195271,-0.002177453694809093,-0.030665532157453834,-0.019221115652834405,-0.008027688356995348
93,0.006828565172718466,-0.00017447324532237325,-0.026393001992786838,-0.01846730290439253,-0.005513087385212679
94,0.0078069892296503875,0.0029329418684715595,-0.02159358879295678,-0.01750130902960929,-0.0016200097055052085
95,0.009313990849710713,0.005891298125645196,-0.018668883214815694,-0.016720101736794928,0.0016625942282880127
96,0.010775761591431931,0.00792597395980198,-0.017842643931436076,-0.015733870045571318,0.0033002661600926124
97,0.011599585110807333,0.008728249810858364,-0.01717141156385723,-0.014498373768296803,0.00366412053580048
98,0.011774055934571294,0.008536604668773902,-0.015809850422545138,-0.013190877371070504,0.0033236828116041013
99,0.011998460655334045,0.008048418310786608,-0.01534802032906134,-0.011341467221973005,0.002630491408671643
100,0.012729109203568442,0.007735645717350613,-0.01604952148505501,-0.008689836692581396,0.0019441166665434303
101,0.013512010558420431,0.00783962401668332,-0.016246556336346304,-0.006303654625012354,0.0016469539739351296
102,0.01363206232473874,0.008567263034916063,-0.015620810198806791,-0.005580783576275081,0.0018885272962365569
103,0.013451299806063431,0.009586539474755747,-0.01518586485910358,-0.0059256588635263,0.0021876263119699063
104,0.013888275510133979,0.010116125536659516,-0.015576229665484345,-0.005706848356206922,0.0019132805088233167
105,0.015148657167083926,0.010171717383721555,-0.01645777312482256,-0.004522237591742846,0.0014377076629526024
106,0.016911535085857375,0.010540935997537708,-0.016617757404400073,-0.002409657523114182,0.001573512816075252
107,0.01797143293308521,0.011348135806917728,-0.01601280601933539,-0.0007266062329394915,0.002290938580778834
108,0.017202461291820754,0.012053781632347032,-0.01602540095234489,-0.0016545152383004849,0.0028830556910731213
109,0.015287375764066413,0.012158335767894183,-0.016745893096551643,-0.004388598940023406,0.0024661887015830193
110,0.013404147645739956,0.0116245410562399,-0.017440220657669123,-0.006865771852425719,0.001150970308886737
111,0.011949105776534175,0.010677478038385453,-0.018112463017327874,-0.009025369122686257,-0.00033187709471716305
112,0.011014507581159863,0.009309720672762888,-0.018753496767858303,-0.011096110900834651,-0.0019190715948181445
113,0.010403162697295616,0.007442172017880497,-0.01949306270057067,-0.012627536173596212,-0.0033128379927383805
114,0.009780808525582139,0.005254288864848884,-0.020335364954676076,-0.013355016566931454,-0.003958581206777422
115,0.008993924059158014,0.0031892626841788364,-0.02051291219533605,-0.0134852849445341,-0.0038394115278111767
116,0.008119512801544212,0.0017733882147749902,-0.019747431520240534,-0.013677684157429381,-0.0030622997891165886
117,0.007937611138533375,0.001695723674027367,-0.01796504859399551,-0.013876693193411605,-0.0016447807454771613
118,0.008760744385458475,0.0030924312915105445,-0.01481757759837587,-0.013627447622171107,0.00018695478761971565
119,0.009779465925991274,0.005485225733716221,-0.010610531672801527,-0.01304452135925688,0.0023708152777328004
120,0.010547997396342356,0.00860406209064946,-0.006151163082584867,-0.012313762219358749,0.005086829560979295
121,0.011302353576730048,0.012224559084296486,-0.002459699900823888,-0.011340204484129885,0.008089795080792259
122,0.011959282383550165,0.015563985621282904,-0.0009287295252935171,-0.010353117978118411,0.010501619964555122
123,0.011496143734272518,0.01731446383902814,-0.0024138889589196584,-0.010544293253453284,0.011272993596063046
124,0.00968524266151305,0.01721373310287409,-0.005226480372835586,-0.011825241740104322,0.010480121986543321
125,0.008016796062776495,0.017110326917141372,-0.006378132502974872,-0.012023438751229111,0.00959175472292109
126,0.006926990756798424,0.01816720983903599,-0.005840647287350703,-0.010920689970931322,0.009041042616209097
127,0.005416943098018641,0.01899602357408795,-0.006111297136534033,-0.010758989553890229,0.007705533744218123
128,0.0036278180039471105,0.01828697056294619,-0.007961071137145927,-0.01219646441818502,0.005343810400863258
129,0.0027941240607603727,0.016084237895017076,-0.009778815923631879,-0.013594594660632854,0.0026515454041055975
130,0.003423797455215595,0.01296551702084422,-0.010256245295067377,-0.013464869263471414,-0.00016701401790222267
131,0.005032006701213203,0.010083507210788942,-0.009320944407642978,-0.011874125839446298,-0.0024049143243440744
132,0.007243914006752656,0.008876093557221004,-0.007396437363755833,-0.009579437174861455,-0.0026830547885704705
133,0.009546084791182696,0.009406664022138194,-0.005696628567874064,-0.007473133661530825,-0.001407794102256881
134,0.010514454800000453,0.010001854757460314,-0.005435335588640092,-0.006954599432888974,-0.000823811311426364
135,0.009519717713640267,0.009349457580665346,-0.006288183790327424,-0.008505233630825525,-0.0020626077875386425
136,0.007984521217838157,0.00787476572797848,-0.007071227709575607,-0.010670902260814831,-0.0037110456127663447
137,0.007210834862361616,0.006435087778323289,-0.007142704539099853,-0.01175266699911572,-0.0044340653513140265
138,0.007493660659826346,0.005777491603052333,-0.006104007382502514,-0.011302383468796265,-0.004364697184701284
139,0.008620030134928406,0.006654419681236131,-0.0038700515466619416,-0.010200018009163498,-0.003939469300699492
140,0.009553044760819753,0.008193301830268097,-0.0015028462580916578,-0.009562677406193746,-0.004270929223459834
141,0.010070268878665696,0.009169255001105816,0.0005019524399821342,-0.009254608474597123,-0.005711299536662334
142,0.010774974488184083,0.009744493030049503,0.002671076518484476,-0.008628497866331053,-0.007128655257418741
143,0.011245161846786157,0.010033211636247891,0.0046861431321815,-0.007893847594024244,-0.008167150008895447
144,0.011105987660623283,0.009964995995904904,0.005899115006651051,-0.007438826327537917,-0.009055635516064224
145,0.010627197342188687,0.009670441373182945,0.006306947674404588,-0.007438966762976757,-0.00963591834922773
146,0.009702736334484941,0.00912124816749278,0.006195278497318042,-0.008110593745001025,-0.010050854335417529
147,0.008302489059074675,0.00844717613099455,0.0057545797401270075,-0.00897140351661915,-0.010715004445243797
148,0.006882185648073626,0.007847446720414535,0.004949897276778223,-0.009275911722894565,-0.011580712090140971
149,0.006126101733134776,0.007803761715243546,0.0041373866013477084,-0.008660727401220213,-0.01164643278813417
150,0.006616261982160923,0.008736260551168206,0.004041849328368823,-0.006899606252472074,-0.010338017788458786
151,0.008223916725033831,0.009811944308291918,0.00498911058493375,-0.004554717401085845,-0.00884745953762705
152,0.00980377199060286,0.009895862464656796,0.006459270091668119,-0.0027693398516350407,-0.008598147512335426
153,0.010369330705109796,0.00912760639018241,0.0072113508425038645,-0.0019442999801058077,-0.009951129845629203
154,0.01040203234832009,0.00845564805909565,0.00624427033414804,-0.0018487009418749736,-0.012176020671148782
155,0.010728346151553924,0.00826005272889042,0.003554075203433775,-0.002354034780448232,-0.01397683136689234
156,0.011261392251393118,0.008018517840704825,0.00033407360166238587,-0.003134723336721373,-0.014833021976195222
157,0.01147043537154756,0.007469925534307934,-0.0017009600262773517,-0.0037119318535953605,-0.015387162365733956
158,0.011370118899992983,0.007333519253233595,-0.0016008349841930838,-0.0036326024693894943,-0.01613475880243715
159,0.011613606461870077,0.008233607081836746,0.00011674135667767797,-0.002865301702138818,-0.016716230866349845
160,0.01260432929088803,0.009727070987405812,0.002227777098967796,-0.002413462604397579,-0.016577664327326172
161,0.013999483265893467,0.010672288837507996,0.0040096698873296754,-0.002719308814812312,-0.015639169201911093
162,0.015208482068309121,0.010464684669316974,0.004985445386282936,-0.003187578870951912,-0.014221187922491529
163,0.015809882361413632,0.009450271302856441,0.00463468889789493,-0.004018980332979473,-0.013096763022064759
164,0.015705623849536415,0.008020309803441476,0.003309891804080046,-0.005538362665748365,-0.013283393988673954
165,0.015668889098145667,0.006531276276112175,0.002388575542477496,-0.007198730725987043,-0.014303155332000474
166,0.01670162134488844,0.00556021468300602,0.0030579043545669424,-0.008036965694603201,-0.014667191075148694
167,0.018421557621774904,0.005241117354790381,0.004940977969093169,-0.007755939602873155,-0.014220663925013956
168,0.01947676788612577,0.005588560516587837,0.006267495998408879,-0.007589281288663353,-0.013490810843065786
169,0.019401751111884087,0.007164462333466384,0.006428986824840048,-0.008328523074107096,-0.01256037055512331
170,0.018848816797788576,0.010081562167616579,0.006933763766336968,-0.009567180923782805,-0.011364116658672494
171,0.018740242425520255,0.01332527618296359,0.008752714179412507,-0.010773958425898702,-0.009770861506490362
172,0.019454230476746312,0.016023543568439075,0.01068526419972356,-0.010995347554840397,-0.007763427774585105
173,0.02008662109104623,0.017938534123723787,0.010652613734875164,-0.009878730291880987,-0.005756430625517685
174,0.01944225887207714,0.018254663244872536,0.008039724495237906,-0.007968315686861894,-0.005100417518949693
175,0.017858773948302348,0.01618043399246739,0.004637803305429771,-0.005142906309986512,-0.007145344200245228
176,0.01623584396692706,0.012314195570289933,0.0025637698768329314,-0.001746149497548364,-0.01121691598512515
177,0.014662445110581897,0.00817356092957317,0.0023339252885695703,0.0008267761486015052,-0.015170547740164618
178,0.013054370341911491,0.005241029304109177,0.0033846493747620456,0.0019780448392959123,-0.017308370330643152
179,0.010881538156328856,0.00398226511457867,0.004509156785745294,0.0016285075169068278,-0.017521054448751038
180,0.008001677163172233,0.004207541465875822,0.0044603206990890465,-7.186784106664827e-05,-0.016469748039951746
181,0.005535130421189625,0.005678549889953777,0.003016969035219666,-0.002164644922995156,-0.014729876069962239
182,0.004224119781438909,0.007759946004643152,0.0008821562669371042,-0.004233763944779955,-0.012941571472424944
183,0.003936643858628207,0.00994958684576163,-0.0009778499377749042,-0.006538493652416095,-0.01120879886245959
184,0.0043249198344166365,0.011885932087751102,-0.0022394929599509187,-0.008606690401630349,-0.00973604203915434
185,0.005160660052624918,0.013163805155503893,-0.003178542441003506,-0.009619978798205777,-0.00898864606822104
186,0.006189016893512525,0.013537983133304217,-0.0038065059262627214,-0.009651655187571434,-0.008979837697384788
187,0.006927515354905804,0.013055689508435837,-0.003990209752685878,-0.00968555019739115,-0.009664831268009549
188,0.00694730083092599,0.013109472968424898,-0.0038924645700714605,-0.010208473433954177,-0.010888099093986909
189,0.006204731395144082,0.016077746689761686,-0.0038389444210699297,-0.010881509699613767,-0.011886678506708865
190,0.0051957282219273005,0.02150573434548561,-0.0038925830353483165,-0.011358830350733883,-0.01154221754659632
191,0.004631388951540043,0.02499669705271881,-0.0035694366258887792,-0.011053955546805942,-0.009815144673344788
192,0.004315983806064285,0.023364298565676313,-0.002976322354180261,-0.01009794361968867,-0.008346919685281467
193,0.0032283848501681277,0.018146682790327447,-0.0032378539457220165,-0.009610424570297198,-0.008364783307203683
194,0.00127037499894508,0.013518638562176773,-0.004541913187592952,-0.009639108477968132,-0.008361484343076193
195,-0.0009755630785366047,0.011486075744362601,-0.0064844451040707305,-0.0100035553722486,-0.007065936056844778
196,-0.003119413616742332,0.010588428385894267,-0.009300360927224608,-0.011497763203619591,-0.006372728584596267
197,-0.0046972717064082715,0.0104521012681495,-0.01263188261922779,-0.013915397045370948,-0.006839093017532239
198,-0.0061429210040559405,0.013220450525928575,-0.014465700787221493,-0.016089974732560394,-0.007183793978372367
199,-0.008476348644926104,0.020151626892450175,-0.013011266983977829,-0.01789847979132432,-0.007280124705634307
200,-0.01034806342114181,0.029613581620216226,-0.009237965065168092,-0.019249468286936668,-0.005021330450859391
201,-0.009104929738597178,0.038654881701835134,-0.005837167082036099,-0.019434682979965652,0.0017310758701180597
202,-0.005485980785678533,0.04322989063040632,-0.005754852609658433,-0.018752380240108207,0.00922167519131055
203,-0.0022622780223738904,0.03943980415933946,-0.009964273510964648,-0.01750697784368698,0.011968590908299282
204,-0.0006600194478100624,0.028344782869903776,-0.015807037464366572,-0.015516459838858783,0.008491298730899056
205,-0.00030860334628374247,0.015876806455668212,-0.019605753702636893,-0.012785584932723788,0.00045509374144575733
206,0.0007052523134066539,0.00860320188365654,-0.019260361048988674,-0.008426744399102097,-0.00840737358089419
207,0.0038799715323195112,0.0078668688573771,-0.015442112329847539,-0.0022930045496178993,-0.013813298320368293
208,0.008307743159441498,0.009056338054264285,-0.010842639670859864,0.003566467223304001,-0.014666285317073105
209,0.011730419999823527,0.008460907840990064,-0.0078032747470332935,0.006928652127255965,-0.01326495448205184
210,0.013011300778954755,0.007048502143773727,-0.006212337545979394,0.007648397579511907,-0.011199311880236217
211,0.012594874405931645,0.007199837898014782,-0.004385860188291494,0.007316101327657906,-0.008672363192743532
212,0.011180533276706435,0.00938600068168925,-0.0017559547798958472,0.007115910913537179,-0.006075790442755491
213,0.009431170359603698,0.012505247280387412,0.0010107125762666741,0.006964153723583473,-0.003699650368718115
214,0.007560546486959939,0.014777992712167346,0.002961843556214676,0.006118514151888298,-0.0014945686571517628
215,0.005807238087909302,0.015281722963274548,0.0032956860221238973,0.00463220785515855,0.0005177135069809038
216,0.004822642473982081,0.014542091456916822,0.0017987789140658107,0.0031875086847935235,0.0012577056162038347
217,0.004490092715157052,0.013712135155545313,-0.0005625312566672553,0.0019098646261958762,-2.531450243871244e-05
218,0.004142160112262249,0.013837798188778058,-0.002070071316279008,0.0010222513825560446,-0.0018490915448090917
219,0.004001686592740081,0.015184462697906072,-0.0011538305878704782,0.001544657646849934,-0.002582957149164202
220,0.004093711469186519,0.01697648771463741,0.0020992620772327954,0.0033179192086184614,-0.001958818819013881
221,0.0037948210957391816,0.01825898987961602,0.005970056297557687,0.004720708648139501,0.0001823760459467319
222,0.003237243206083367,0.018673355750862246,0.009457296934232879,0.005223909324827059,0.0034617754154313615
223,0.002323919393346188,0.017852019966581006,0.011720637674209094,0.005141288738777084,0.006088445073735465
224,0.0008873119682588829,0.01585894357062607,0.011849538192075309,0.00458434214215648,0.006723875015021797
225,-4.9392371793145876e-05,0.013965286508447661,0.01068200468509009,0.004245483017682014,0.006003000103204193
226,-3.3249673977108586e-05,0.013287849413852698,0.009695869729562963,0.004775502771737552,0.005179419090293551
227,-0.00026014400636921795,0.013577786155831391,0.008747052123619507,0.005232246754606514,0.004210037538523077
228,-0.0011578375613302081,0.01433875717282621,0.007244683964932395,0.00465460133077823,0.002963938955411835
229,-0.00139339848481428,0.01564676528519645,0.006593514199907387,0.004356043587781817,0.0027986962120843638
230,-0.0005408465645379819,0.016816410499375767,0.008190626444269943,0.005747207757678133,0.004222066425197071
231,0.00044368948769506975,0.016718660996245516,0.010939592448146945,0.007806181552231614,0.006277255191002851
232,0.0011730080822351097,0.015152963230367446,0.01324172817617604,0.009083516887654049,0.00786340300552029
233,0.001764533682662006,0.012343575231687984,0.014524112425487816,0.00977307033060333,0.007614436027559703
234,0.002345481026675281,0.009639240385491125,0.014498877109206176,0.010444952470264963,0.006162550133219165
235,0.0026923834667029623,0.00894111136571933,0.01299791717170793,0.010418743585001725,0.005131889863073721
236,0.002372719895047077,0.010619333107439524,0.011164067992078286,0.009434410786988048,0.004306243267580466
237,0.0018221475125678648,0.013952821709140022,0.0107623049102887,0.009093519110406113,0.003692854592404952
238,0.0014901590047483723,0.0172277564522741,0.011145241946876428,0.00994814938951863,0.0034061155903215906
239,0.0011727980687489636,0.01881425575341155,0.010472165481533922,0.01056796682203902,0.003247611214814035
240,0.0011987131503592718,0.01900901564259612,0.0090862453670476,0.010780463567285301,0.003997674038473341
241,0.001787474446524504,0.018349834764775735,0.0081893890768229,0.01152273561291083,0.005245364467090569
242,0.002151279757166581,0.016900606374986527,0.007691228313505141,0.012179670769808899,0.0055559467500931594
243,0.0017650128198320367,0.015738770875861417,0.007420729386256074,0.01166087561268369,0.005294910480967029
244,0.0008700746225089915,0.01535909225536525,0.007695906151753874,0.010325474068750817,0.004845269243564118
245,-0.00030912197764690504,0.014462234660623342,0.00794878777241417,0.00886883549255336,0.0033657453326740236
246,-0.0015334572490352265,0.012187531902808881,0.007525681385145505,0.007507205649401835,0.0008312500145346417
247,-0.0021934993141895236,0.009231230198474754,0.006986862787146204,0.006786852513263334,-0.001703888395060375
248,-0.0022535304274188565,0.00626883611076233,0.006635406907892428,0.007007665717041818,-0.0037139060443184234
249,-0.002618966300813287,0.0029963688539762505,0.005799411910668635,0.007298486296250264,-0.005972846673781601
250,-0.0039344251802034946,-0.0006185049170891284,0.004183219490689024,0.006497137892725716,-0.009155843634938737
251,-0.005774325171951629,-0.003538085923577657,0.002169942205453744,0.004732570522215641,-0.012692794051885763
252,-0.0068286169702066486,-0.004887112472965628,0.000426911457637266,0.0037425824323654606,-0.015651047734336006
253,-0.006524749639026477,-0.0049989674933082,-0.00033912576828897336,0.004148272338553067,-0.017472789279929617
254,-0.0054787045448906075,-0.0042747025279874186,-1.173417144702922e-05,0.004234165289871124,-0.01742143945009734
255,-0.0041780558736818005,-0.0028940363202102776,0.00046117086351297093,0.0030248970949671287,-0.015483717455372952
256,-0.0028984933919593346,-0.0017346916146163754,-0.0002520950694865277,0.0013305184372154528,-0.012926709694134762
257,-0.0019914949493696267,-0.001275445185744347,-0.0019724508348903163,-0.00011293628287412895,-0.010375418796336992
258,-0.0021777545545877785,-0.0016733366615349615,-0.003777576906106493,-0.0017239498435302244,-0.008854647229695742
259,-0.0038038211830284272,-0.0031933996469249866,-0.005695716391060176,-0.003990218480499269,-0.010155800561825605
260,-0.00580054765396108,-0.004897815420469044,-0.007480637534439346,-0.006561193990346682,-0.013477873295371003
261,-0.006725820803187377,-0.0054372604028239645,-0.00837784102034696,-0.008858602933636064,-0.01606898111384786
262,-0.006183959483110533,-0.0046753297008826165,-0.008431472836611569,-0.01038215886060901,-0.01648074655027858
263,-0.004565752627603784,-0.0034228832798282806,-0.00808086509347802,-0.010841381711034215,-0.014999505068135783
264,-0.002081395308742069,-0.0025135429973541213,-0.0074839655659896176,-0.01000012841418544,-0.012971736948313639
265,0.0007552118850492097,-0.0026318674296357753,-0.0068702214080446945,-0.008120371823595065,-0.012002582260952542
266,0.003174428990541819,-0.0037602707311012312,-0.005903737053200324,-0.005882337946304297,-0.0121392794235404
267,0.0050008666131789205,-0.0051355963499076255,-0.004094159767388797,-0.003597983542182115,-0.012172099742883961
268,0.006269755883489541,-0.006403875165229006,-0.002212734205851519,-0.0015388971100062808,-0.011555572758036717
269,0.007083441001841359,-0.00756704826189535,-0.0015989029566822724,-0.00013748412404950472,-0.010510490280387539
270,0.007766709103027465,-0.0085957723559795,-0.0024019713852814887,0.00024788271421102165,-0.009636437090882301
271,0.00832184132199291,-0.009827316748474825,-0.0030339202342109326,3.602598705559746e-05,-0.009638399339436391
272,0.008548222521343737,-0.01178647837539664,-0.002218498760608819,0.0002028659563879947,-0.01083538571991368
273,0.008890298930545893,-0.01424971787076298,-0.0005205541953079074,0.0010366399534879485,-0.012737431936496403
274,0.010080175271826197,-0.015910784027965055,0.0010372300095290346,0.0021659836145470164,-0.013854877020188002
275,0.011633692600432094,-0.01610508501999107,0.0018645137148884463,0.0027495593299924096,-0.013528702764514957
276,0.012222837894234196,-0.015719778215633712,0.001650458881767883,0.0021718631697204816,-0.012790246911342914
277,0.011458350760663042,-0.015336369306990822,0.0006763792133022936,0.0009632356109699584,-0.01232080019110565
278,0.00956978526314508,-0.015012567690807464,-0.0006238776308666751,-0.00022965875999360295,-0.012521874615070372
279,0.006672241708496306,-0.014768467585392542,-0.0020590818239080754,-0.0015156888788644051,-0.01344009417637193
280,0.0032993592984987734,-0.014351723424657821,-0.0035021436477497983,-0.003271616705992242,-0.014067307801889107
281,0.0004906115576776575,-0.013942141019951221,-0.005168310724822962,-0.005385690072563756,-0.013912587356465844
282,-0.000744922893610877,-0.013809347595349823,-0.006950032339281001,-0.006973682430373555,-0.013009555293024708
283,-0.0003001506761705715,-0.014037211574525985,-0.007872490567610134,-0.007269705691186206,-0.011707973290937057
284,0.0009313119657981643,-0.014796512409520575,-0.0074376188972820195,-0.006208869846579208,-0.010951918999971413
285,0.0019244337947892575,-0.015982072159312497,-0.00597105900422698,-0.004067195479149636,-0.011212391653747019
286,0.001623079939076604,-0.01745797365439348,-0.0043022700777966124,-0.0023328865229447077,-0.01226271990974985
287,-0.00011537229837867971,-0.0190054855943694,-0.0033385903068095064,-0.0021928994175251784,-0.013568083795067472
288,-0.0016130272305851334,-0.019763478309691232,-0.0026934313263428833,-0.002178868841214956,-0.014372425733261628
289,-0.001541957160756056,-0.019184197278517844,-0.0016816450547569033,-0.0012752952925024642,-0.014268436728065223
290,-0.0006615632234153493,-0.01831943077750845,-0.0007375405475704529,-0.0005781430538916478,-0.014400920128931006
291,-0.0005514192849739931,-0.018674564950595586,-0.00041539978919163234,-0.0009535473961651723,-0.016449053501619935
292,-0.0021000622980040817,-0.020283619209064088,-0.001131540458241133,-0.002633842238555464,-0.02017048168998681
293,-0.0048404144805168,-0.022109487695325603,-0.0029305427884051523,-0.005372817212648882,-0.023813902034047266
294,-0.007321875554244037,-0.02314405941697467,-0.004616238064955452,-0.0077954347159547846,-0.025613421736667537
295,-0.00890332638446439,-0.023185267236330735,-0.00555058239497148,-0.008835769618146461,-0.025005680988899874
296,-0.010069755371103805,-0.023065486349377187,-0.00640076274834626,-0.00874518271466208,-0.023049173512948076
297,-0.011152547655560787,-0.02341433184945539,-0.0071099149198690075,-0.007914113853555572,-0.02087771837612945
298,-0.012576196194881355,-0.02461056522894384,-0.007370343433531823,-0.006980432937916645,-0.019551958748053978
299,-0.014788497271051923,-0.026997282047498735,-0.007404804328071878,-0.006796960985167242,-0.020084984451655158
300,-0.017159041753331803,-0.029827835453616114,-0.007279127632607287,-0.007430741671654667,-0.021986652431690908
301,-0.018914890673563393,-0.03156531040853517,-0.007277981814103862,-0.008909703132571407,-0.02373475402548793
302,-0.02018515407546046,-0.03190763433278398,-0.008033303163415198,-0.011411319703934695,-0.025015914917591767
303,-0.020966105368752,-0.032139879671820394,-0.009592399528963808,-0.013939101963963444,-0.027004123923902928
304,-0.02128998168228213,-0.03306610006844967,-0.0112742193068075,-0.015451532922248863,-0.029740099304525765
305,-0.021872267953662546,-0.03408462762855573,-0.01212328737974079,-0.016101906101103708,-0.031450618625998586
306,-0.0232173329588812,-0.034880187318480256,-0.011636008205990887,-0.01622076063061634,-0.03162979577852795
307,-0.025285136901736446,-0.03592142065975579,-0.010527172240814491,-0.016024537472996307,-0.03127488813100527
308,-0.027410033123097845,-0.036436425144692856,-0.009741034788946848,-0.015384136452266073,-0.030121643120936945
309,-0.028669143431359657,-0.03504913067642457,-0.009652013995886761,-0.0140547890201188,-0.027444270822847325
310,-0.028944009957478603,-0.03177765704323929,-0.010356841154632097,-0.012841014276940376,-0.023481947014950082
311,-0.028741047337827976,-0.027717271224622742,-0.011074114693097376,-0.01243215283183813,-0.01916125297930689
312,-0.02811709821101552,-0.024093474476288727,-0.01027841621580668,-0.011821333113551913,-0.015902207090992434
313,-0.027288570335195387,-0.021834793488887286,-0.00808726232596815,-0.010834380966939025,-0.01469132318929722
314,-0.02722892099736702,-0.02144828304843877,-0.0064795221239730555,-0.011148120308132671,-0.015500105805079944
315,-0.028444776215280933,-0.022704778121234177,-0.007010512268488466,-0.013068291316949383,-0.01760480114473461
316,-0.03068880398725462,-0.024458144630780707,-0.010379047466265235,-0.015544200143620608,-0.019893290234692145
317,-0.033122692017051196,-0.0251370121888538,-0.015799105073725513,-0.017626488335136692,-0.021335201935054445
318,-0.03486930279098849,-0.024388569615163405,-0.021257190505521953,-0.018481458441699284,-0.02214288290172134
319,-0.036271039387548394,-0.023584612096396514,-0.025840896993811886,-0.01839605675900505,-0.02375028450803665
320,-0.037942425923115246,-0.023613876412966157,-0.029064601970195253,-0.018188241832969583,-0.026361934174355194
321,-0.03928649206393552,-0.023899365237258937,-0.029751669500260185,-0.01761021141902353,-0.02838324907884325
322,-0.03968712296647115,-0.024035414779058767,-0.027977876493273008,-0.016498243137612806,-0.028935997457717657
323,-0.040017038163621454,-0.02481867818851765,-0.025904890530078856,-0.01603740073074715,-0.028639741579671668
324,-0.041335269888794816,-0.026631694155629833,-0.025030294095360194,-0.017041798501727944,-0.028211400544226065
325,-0.04355231333081156,-0.02872046930199259,-0.024782732905564864,-0.019112840309757104,-0.028132429125546306
326,-0.045926290598154874,-0.03033136786169846,-0.02455684828681604,-0.02123628116179632,-0.028703814237481275
327,-0.04779130457698487,-0.031120269627723973,-0.024555643545438426,-0.022151705232142275,-0.029397460918759756
328,-0.04901412971946963,-0.03147923879524754,-0.02506499486114329,-0.02117326133435401,-0.029507536994276426
329,-0.049283765656358065,-0.03190653825633263,-0.025847937713880983,-0.017752278452406487,-0.02914528205130277
330,-0.0480461142317408,-0.03233551668972398,-0.026398970103697125,-0.012244131652224122,-0.028380670756716003
331,-0.045630455135425664,-0.03265584931648267,-0.026333565181961876,-0.006662397302698326,-0.02659332945556961
332,-0.04279396583424245,-0.03271205709682073,-0.024965972928876527,-0.002102178743381797,-0.02354971131576327
333,-0.04021213166180241,-0.0324365945883964,-0.02209590088456249,0.0012972583748241788,-0.02025847513890867
334,-0.038761186153365684,-0.031877474836268765,-0.01887940506733616,0.0028858071661744034,-0.01784795295217793
335,-0.03850799485647258,-0.03086499745197283,-0.0165794779018928,0.0030667190783019195,-0.01659642714553416
336,-0.03885747251902468,-0.02973763260381,-0.015361658143381156,0.002972335995864893,-0.01643819253655085
337,-0.03945238598311658,-0.02900047708883409,-0.014604496573721577,0.0028669563074687457,-0.016645006801197272
338,-0.03970929849831946,-0.0283070784773548,-0.014206441857848346,0.002732175798140594,-0.015855753102028126
339,-0.03939079293848884,-0.027213242016687754,-0.014680518799463133,0.0026613204525433184,-0.01371040643396657
340,-0.03882846395429472,-0.025721375637302594,-0.016069505182475706,0.002452126936788801,-0.01112223313998021
341,-0.03820332227331375,-0.024413868383832873,-0.01804508037508802,0.0017983412611848396,-0.0095616653226186
342,-0.037374990140479125,-0.02389060324479478,-0.02006824005811109,0.0011203625883659106,-0.00979069866179585
343,-0.035976401923433814,-0.02342177483384551,-0.021704802238972365,0.0011613086070685445,-0.010441995918523673
344,-0.03406850153145851,-0.022362745331749603,-0.02274366473233903,0.0022619725237336906,-0.010160414770524463
345,-0.031817367780769636,-0.021175001270709655,-0.02246598143738358,0.004522705084630554,-0.009317796193550006
346,-0.028923950681716708,-0.019900298842356504,-0.020477252494784284,0.007616639228391143,-0.008351617240082765
347,-0.025500811060780174,-0.018288907016134146,-0.017529795744157844,0.010831376082362112,-0.0070209201855552725
348,-0.022723467081036182,-0.016791117766492773,-0.014790268972380387,0.013331833062097967,-0.005591837741018541
349,-0.021379388083884402,-0.01607291828709516,-0.012759995106072747,0.015120584127054634,-0.004824628115509965
350,-0.02087165266116323,-0.016286921876971557,-0.011068461922414051,0.016910229004643364,-0.00481244429192372
351,-0.02108450325709615,-0.017154917579459757,-0.00975874837040599,0.018179966050209207,-0.004981160804883835
352,-0.02220482839557696,-0.017835164165805082,-0.00894925517585515,0.018420404517555316,-0.0041197926025184385
353,-0.023402625741976688,-0.017339482018788925,-0.00830680909736207,0.01815475137816565,-0.0016251136076648263
354,-0.024175992089481207,-0.015461104668026835,-0.008236801909625686,0.017122820308774312,0.0016570772683939937
355,-0.024521693227134003,-0.012699155979672366,-0.008865575206889846,0.015639104894233372,0.004951451743504264
356,-0.024016671266194823,-0.009431767026575189,-0.008842303715537618,0.015457506979569352,0.008187973758413614
357,-0.022827188530313517,-0.005650300839812518,-0.0076704887189718,0.016465494965181012,0.011381684971692903
358,-0.02225183890921122,-0.0020738568204534077,-0.00690867313998826,0.016535721301492223,0.013725750003808438
359,-0.022650604966354782,0.0004890797556235664,-0.007260676895737634,0.014983239964434578,0.01441558843639893
360,-0.0227290750744103,0.0024072919693542126,-0.007435237111014394,0.012868258933605648,0.013977034398020467
361,-0.021246602639815367,0.003923286059185008,-0.006166347602187272,0.011712662664387028,0.013109591314926214
362,-0.01867674435866332,0.0044925294631092,-0.003986569704801232,0.011998138019359336,0.011919172747507364
363,-0.017022837859278647,0.003412368413124836,-0.0034850011785125035,0.011851104416100433,0.010259471691635432
364,-0.016537937612611867,0.0011045526019946043,-0.005642868330297606,0.010356437893541532,0.008307785157720021
365,-0.015754727152208905,-0.0008278119092786077,-0.008018210680759245,0.00868854504589723,0.006518859042886111
366,-0.014965087363493848,-0.0017272440501965025,-0.009114513998241223,0.0071788476037442745,0.004638300289358918
367,-0.014911632971505408,-0.0016902081089470702,-0.009635101226239638,0.006171432981527908,0.0026047100600570124
368,-0.014862856907950124,-0.000299796384608642,-0.009968116361964747,0.006276575851402337,0.0016417476386721705
369,-0.014629466038643825,0.002386589674617441,-0.010014079839288734,0.006529113597855723,0.002565746934549321
370,-0.014781600979860894,0.005314622511738368,-0.009839298861319097,0.005545157903351927,0.004677543198555653
371,-0.015391984620648707,0.007810031210145614,-0.009672464349838943,0.003064863537289849,0.007421161552135907
372,-0.016395639881096564,0.00984902533675349,-0.00938932222719506,-3.785514547732728e-06,0.010387002805920496
373,-0.01772200899720729,0.011229991938157224,-0.008387136723244213,-0.0021498213302182205,0.012634356109408154
374,-0.018953707618157317,0.012220539349880374,-0.006061234168984344,-0.002483948409451229,0.014578514132185588
375,-0.01909578032706747,0.013737062242304154,-0.0024474097527583598,-0.0008832176519974632,0.017209553841188274
376,-0.017390570642777315,0.015965740666280738,0.0014722196250067615,0.002318063771133026,0.01975491357740617
377,-0.014485647959108526,0.018048526020587676,0.00471126210391795,0.006288702545407825,0.020972904648605527
378,-0.011753167206965242,0.019309589505823753,0.006808594649409173,0.009926077156475366,0.02036054776449253
379,-0.009810325110800154,0.02031675977585321,0.00791891147025478,0.012085821244420737,0.018698430733379866
380,-0.008521306654809182,0.021099585271491868,0.008410789582528649,0.012544970633770672,0.01715119800136791
381,-0.007596006291163747,0.02035293979777767,0.007985956024673646,0.011892909184190512,0.015792304026529327
382,-0.006555926634692773,0.018135458903319114,0.006487604837142442,0.010509737145304432,0.015048800528997689
383,-0.005313235726333673,0.015829569377950582,0.004495876274749572,0.008734065099203808,0.015447657257605316
384,-0.00447978638478008,0.014213397272123675,0.002246065971693591,0.00687846169057211,0.016215073789917794
385,-0.004285904716223523,0.013174769910019146,-4.951859306546974e-05,0.005623432062190967,0.0161335347170115
386,-0.004352109914987952,0.012330149589473044,-0.0015463015946499045,0.005823810093410664,0.015246739968911965
387,-0.004643500112600063,0.011866220432458935,-0.0018314415523764205,0.007140715735576449,0.01493372737898394
388,-0.005401672699828732,0.012252991671905026,-0.0012423161778256546,0.008333901329179577,0.01617265503758027
389,-0.006504744601389783,0.013511455870327786,-8.317950828335454e-05,0.00852358525075631,0.018812809716300193
390,-0.007487941957723355,0.015153716054044268,0.0019440349753558578,0.008243463247987082,0.02189602258446046
391,-0.008331735581375541,0.015819855590636287,0.004789299077661183,0.008514482847248652,0.02395202372601816
392,-0.00924504769042876,0.014646453382296467,0.007344915508686753,0.00905405355288868,0.024128935495288165
393,-0.0093315141649948,0.01279537501765099,0.009072207160648112,0.009820303657561879,0.02322630575925369
394,-0.00754745040044359,0.011482494432015128,0.01062611708956528,0.011299583944137995,0.0226553402577732
395,-0.004579947100570412,0.010428620412299862,0.012224970722275078,0.012587371320207048,0.022716566786266254
396,-0.002258243213579198,0.009035266201630136,0.0131504222803722,0.01273852484980212,0.022872134356931466
397,-0.0014122521197080463,0.007655796780150267,0.013511662217088024,0.012412842636734644,0.022704843549513777
398,-0.001610117260501365,0.007027747708796892,0.013671480366275973,0.011984483633282726,0.02185588573284124
399,-0.002454109785339077,0.007100956834693088,0.012993559778639108,0.011029960015800182,0.020232556868319183
400,-0.003435871689217569,0.007693697342979014,0.01206546407815709,0.010457399730350375,0.01920711832500564
401,-0.00419628228764184,0.009171802369041452,0.012241561570873735,0.01104200053269154,0.021640403111387988
402,-0.00480046799660213,0.01125772880551075,0.014153130313605848,0.012809040889415759,0.028237902679387902
403,-0.004974396755100966,0.012541220863650194,0.017886101491994967,0.016182418641596752,0.035417534622027264
404,-0.003951718305087159,0.011994299490268012,0.021591297498555678,0.020245553943855174,0.03841977019563714
405,-0.0009855357277343008,0.010027053875988632,0.022040166081896205,0.022830816021863116,0.03420616442185428
406,0.0033687005595433505,0.007603708298388021,0.01740580361725279,0.022618839739300324,0.023101313175721398
407,0.008194483495167796,0.00595703624530409,0.009857502219088448,0.021184274818660937,0.009969373435283703
408,0.012822982410982144,0.005810793143556814,0.003895978973238898,0.021080907465271283,0.000237552442838925
409,0.01592065738607795,0.006190230700852115,0.0016936317237904609,0.02227480107716921,-0.0043370160306665856
410,0.01741081735643633,0.006446109523412394,0.0032795118429193937,0.024089626075072992,-0.004113050771742065
411,0.01778110674827982,0.006622612045346019,0.007333737613380301,0.02527790421665045,-0.0007703426846023933
412,0.01719132778548903,0.00663504942204435,0.011055369240490859,0.02410074936667164,0.003209929723912508
413,0.016884455654655524,0.00697934632701854,0.012571170382705861,0.021502458375226578,0.006596555486204368
414,0.017318413799513325,0.008112488387887983,0.011997375257997779,0.019079564763455258,0.009545081912144787
415,0.017920966580297345,0.009928863716927479,0.010869409679401365,0.017251206165720144,0.012631016190751883
416,0.018522089665389287,0.011723958094330505,0.010557312632711075,0.016065743742942104,0.015508060458079823
417,0.01921528305860478,0.012865433419054073,0.010831873902889132,0.015136457618625776,0.01724541081444465
418,0.020342500434441888,0.013374460656747113,0.011173261500376884,0.014543440591650861,0.017860468587298454
419,0.02198500160293383,0.013728110884415452,0.012338467356228584,0.014874507877593328,0.018338243505409937
420,0.023658996289390957,0.014559737642168537,0.015333497865899586,0.016311366634989402,0.019682196296676707
421,0.02500971786818168,0.015719388870626756,0.019854499620988033,0.01892917261215177,0.021714688692561875
422,0.02583610340806284,0.016456961739642187,0.024764204480506355,0.02255835726770962,0.023484731352291482
423,0.025763990715193773,0.016945416109215256,0.029376985688723253,0.026236117424439306,0.024891018340027944
424,0.024935405068851967,0.01797910797158384,0.03355481436829915,0.028910285588522676,0.02645384808900051
425,0.023780202648499994,0.018893103992024988,0.03634226006955675,0.029947392491494938,0.027717668630185023
426,0.022414028228358984,0.01824028747941679,0.03633892853077639,0.029067769739778294,0.02743815142669422
427,0.021238945591928498,0.016049472902856687,0.03388413209680507,0.02677602294168783,0.025472984816723707
428,0.020550322544997186,0.013564205299624994,0.03088413496955728,0.024061278086782344,0.023093980697693202
429,0.019867817203850995,0.012061587136752108,0.028425676363669654,0.021107251351854747,0.02221778065955641
430,0.018998816124709102,0.011897825408829651,0.026096904102052464,0.01791532066779789,0.023687674799809395
431,0.018480749193755256,0.012616128152139895,0.024328157049937724,0.01547041212986252,0.02642352028020817
432,0.018418491714585795,0.013919326518736955,0.02430238305941976,0.01424244097418556,0.029282058170138302
433,0.018330727845377596,0.015370485302250249,0.02569189100308492,0.013544455235982359,0.031333407287180835
434,0.01802681501428211,0.016041557771220946,0.02698942104857047,0.012809092966920458,0.03147474693726783
435,0.017742917199803657,0.015582078323375182,0.02712606431271111,0.011977047592018012,0.029817281609136916
436,0.018100399023099043,0.015060799627533013,0.026217146073572933,0.011748012778225339,0.027847508792214017
437,0.019408699132903478,0.015423284604211761,0.024679989484045418,0.012667556972481132,0.026651604060267925
438,0.02106827606374098,0.01632472454625604,0.023368413453414307,0.014766498072273426,0.026529862839750736
439,0.02210376619249261,0.017224622192212907,0.02359911142865158,0.01765436770055339,0.027704798002870942
440,0.02199201891118112,0.017687148844498353,0.02560026542622639,0.020103862058848808,0.029877960708386504
441,0.02125087689298053,0.017306752184703116,0.028495244162542243,0.021681886710983887,0.03206812496813096
442,0.02068365368905695,0.016202290885897776,0.03067360099030226,0.022687430849149308,0.03320717390857783
443,0.020543828645730927,0.01485663571950198,0.030618095796228453,0.023052443675493632,0.03294111169218049
444,0.02054630472873917,0.013552079458741241,0.028957939041407248,0.022833523362544645,0.03182349176697646
445,0.02026262270533271,0.012372485439760382,0.027755577484045432,0.022267472308584293,0.030735156337981455
446,0.019600789707569732,0.011554977317478059,0.027456087482697802,0.021576518472934934,0.03033918728255693
447,0.018811381254804947,0.011521391691517354,0.02722142853201624,0.020722185447158488,0.03089707052641406
448,0.018055102102246028,0.012305973864791328,0.027082917860968673,0.019503545125284037,0.03229967555945983
449,0.01723322033677645,0.013170438008975176,0.027561207982728212,0.01833840549274222,0.033844401121357476
450,0.016200540357659613,0.013379969348015204,0.028194279212648114,0.01763040708903522,0.034528186049174465
451,0.014882721578251679,0.012472541226243432,0.027846771012106926,0.016858639359911165,0.03326331720895613
452,0.013387377755563912,0.011049227994575198,0.02651303739544048,0.015213123495255918,0.03068368865300849
453,0.012365828752270451,0.011134436857042797,0.025448267836584774,0.012938214976398561,0.029583776792234038
454,0.012425946353896026,0.01284456981533065,0.025795064007057035,0.01140247186275825,0.02999144851495822
455,0.013128328228769828,0.01403097322008953,0.027704457531491505,0.011566221704443344,0.02951497756838876
456,0.013708005865135297,0.013887426939555338,0.029800222557453168,0.013052816870019222,0.028080688085914306
457,0.014212727507955292,0.01337106025373709,0.030714837161434208,0.014715005333272657,0.02709350698683759
458,0.01492596843069891,0.013420561337129029,0.0306902499049294,0.016031510808354747,0.026829962987108106
459,0.015379760668241623,0.014032619120385717,0.029794374753954418,0.016615281859114896,0.026282964930959798
460,0.015464253965487717,0.015000558949529732,0.02753998829527252,0.016146849716904332,0.02502769353321134
461,0.01566908664607112,0.016088118996465648,0.023894560943146754,0.015245621528964347,0.023249561548244486
462,0.015312857576026222,0.0160325160089811,0.018676498211134953,0.013688231403857451,0.02047387581110273
463,0.013630955631475471,0.013867703815019953,0.01269060500594312,0.010813102748626928,0.01684120154982206
464,0.011444538178175888,0.010361543753705706,0.008184041138404074,0.007599045376968919,0.013761977384447373
465,0.00953997390940401,0.006900266029816264,0.005988377794277756,0.004606710623580173,0.012432145936512533
466,0.007884562133112416,0.004511521180589783,0.00511368401177879,0.0012842107239291556,0.012836007240483715
467,0.006818929275685771,0.0036640861175557577,0.004875947037239511,-0.0015090361077273566,0.013985989606294507
468,0.006728800070099057,0.0036653711803561724,0.0048345900047817286,-0.0028239741875946836,0.014233887382356009
469,0.00724336816618382,0.0033534629499421156,0.00437519202941027,-0.003357133490283186,0.012487440885878272
470,0.008179503550182038,0.0027760924462696263,0.004124537255211424,-0.003230226243882971,0.009817925713368009
471,0.010213205384528933,0.0028257991721988567,0.005762703174963046,-0.0011536199530211737,0.008090712921794816
472,0.013307975602555444,0.0036205181423371226,0.008976215830220426,0.002855642838197852,0.007587861930532066
473,0.016197607982506218,0.004642852945893819,0.011719201045427577,0.006463381906432293,0.007836204012969899
474,0.018233596856613906,0.005982039103459437,0.01360790754188432,0.008118318410144086,0.009271154183225785
475,0.019459608455309873,0.007738730454512538,0.015144968961135822,0.00822827142043306,0.011817830809027709
476,0.019558572305037516,0.008896718098263992,0.015461502856353265,0.007071535092718497,0.013809362745586997
477,0.018559054008042575,0.008835788711878326,0.014447683378901843,0.005007099186842485,0.014459330458919575
478,0.01731016083477263,0.008574688613374045,0.01430936314527988,0.0034365732446385165,0.015120741419268086
479,0.016089594451667164,0.00872722414732399,0.01600369685564101,0.0024905301215163043,0.0165377083340182
480,0.014602011790670135,0.008955000707595872,0.017914401057891372,0.0012953852034788822,0.018106646785641195
481,0.013336410935184163,0.009083370233569647,0.019145274921282103,0.001012257499572874,0.01933144813204351
482,0.012989888312815803,0.009067176700257541,0.020315761128021633,0.002713575128675883,0.019952467221514773
483,0.013786353877591575,0.009316399110193918,0.021826679818371983,0.005354560224915627,0.020394775402556967
484,0.015746121052934953,0.010006220279662246,0.023442680361615353,0.008102151155245924,0.020846091574517046
485,0.018219053348782734,0.009986332154246139,0.02457377831050194,0.010824973016185594,0.02002458282093249
486,0.020189086351723506,0.008431811243197924,0.024887628285046946,0.01331355067396374,0.01736464450314609
487,0.021528233079972592,0.005938009145097195,0.024855429878377015,0.015833767346584017,0.01378334335328098
488,0.02209148558718123,0.0031680497581324935,0.024429613516452925,0.017854018068913836,0.009873018879284042
489,0.021165147895393834,0.0007570113794732222,0.022905045457715247,0.017632666448911184,0.006350331811899943
490,0.019349009113427,-0.0004785202438189649,0.020800206264528963,0.015540890227628536,0.004095969242699175
491,0.018080601511434452,-0.00020512181860942263,0.0191588935216557,0.013606352777741974,0.0033138067360221164
492,0.01753517800865117,0.0009954130404229813,0.017747104966399252,0.012758771422313115,0.0035908009025585486
493,0.01684252779151189,0.0018332727692777604,0.01565023139753691,0.012739935843945251,0.00425738397009932
494,0.015621537006415828,0.0016775262722212097,0.012903155237406474,0.012626339773326507,0.005418001786559283
495,0.014367257595102925,0.001172501538447252,0.010520277771854488,0.012133157858954583,0.007185208574886924
496,0.013112771841087912,0.0007507250757659572,0.008844461645587394,0.011235298662989645,0.008352154384928416
497,0.01140830652713468,0.00028596222575383675,0.00751389138139638,0.009376069068818053,0.008872425983223286
498,0.009686292919519075,-8.129506039140564e-05,0.006651704444116445,0.006832441023792327,0.010354008549906705
499,0.00867240023205901,-0.0007172131560108202,0.006405437329612239,0.004443594177809374,0.012158948985412435
500,0.008318919818676523,-0.001902971974415902,0.006663871141963332,0.0022214636294909025,0.01252322768483669
501,0.008559887102444182,-0.0027354967614263937,0.0073942887632161775,0.00022541911501825957,0.011741935502980146
502,0.009617574244588622,-0.002607243053296155,0.008124030513305907,-0.0008446105662268329,0.010448320394639464
503,0.010993610748805034,-0.0019339346975139969,0.008106023004107536,-0.0010568522338442363,0.008791643697369065
504,0.011734509112891001,-0.001349968203418085,0.007558315240161699,-0.001189600105136758,0.007589998268848156
505,0.011995344253350994,-0.0010561321059185378,0.007896922420742454,-0.0009854348626921045,0.007692776821461825
506,0.012661534092337839,-0.000861080389411403,0.009485485874655383,0.0003986751327292817,0.008848861350939324
507,0.013783832062492419,-0.0007875566613088483,0.01101711096450582,0.002706420386099812,0.010240095243950247
508,0.014902192667383312,-0.0007914653538665492,0.0119525134784257,0.004847283372138948,0.011685206769685163
509,0.01547057564525038,-0.0007794483421495579,0.012029293429079524,0.0052418398865574966,0.01317243492116152
510,0.014873644580574491,-0.001048547430190931,0.010932607520540786,0.0029382280853817184,0.01477657034898308
511,0.013191351070698713,-0.0016294582557871448,0.00983481859377877,-0.0008969945260123458,0.01690004329109859
512,0.011302427013462735,-0.002260650232972772,0.009567450511732902,-0.004284534140654391,0.018881767351050478
513,0.009748530554561182,-0.002675649530975345,0.009253907903283967,-0.006485919939533954,0.019870860184419144
514,0.008097929249562439,-0.0022946481344434297,0.008361882947399948,-0.008189646600707345,0.020652983138614345
515,0.005675940082392689,-0.0014759387505986318,0.007388540338068255,-0.010005225227919067,0.021072496717047976
516,0.0026201132837084637,-0.0016513072253378162,0.006754387561671856,-0.011807977427696204,0.019578424997257017
517,-9.132414838181829e-05,-0.003202814978989171,0.006163973408881259,-0.013275337411368835,0.01646652875163172
518,-0.0015521990323814636,-0.004810550500640008,0.005003636135880626,-0.013959234382995185,0.013565063712366864
519,-0.0015218726594481353,-0.005034497970418247,0.003708785790666334,-0.013678300412632969,0.012188775067970727
520,-0.0005671659738184993,-0.004159526860843839,0.003257305779989871,-0.012826086051893705,0.01203912081789262
521,0.0004796021771381469,-0.003335561408158056,0.0038576352513011256,-0.011736788679856168,0.011880273258742536
522,0.001299108512455918,-0.0025929638706120835,0.004954352815673976,-0.01087819646091341,0.011608067274658969
523,0.0014008301175716458,-0.0018408122111037211,0.005455922534276803,-0.011422343211270832,0.01152478766534198
524,0.00020182874434493782,-0.0014839450748453061,0.005088503150325791,-0.013465747230983571,0.011269700505885561
525,-0.0013434588995832047,-0.001216220120904204,0.004692509624319233,-0.015386806175471664,0.011059571831774065
526,-0.0013600277118609337,-0.0008341323243716218,0.004584475919169718,-0.016064451432188473,0.011093616606391677
527,0.0008415498471711325,-0.00042160560445639246,0.0046989207890106525,-0.015341887155556008,0.011226140897585685
528,0.003937117447925785,-2.9070706627199528e-05,0.00530214606978907,-0.013735335892984174,0.011754304595981011
529,0.006253043486582289,0.00011207472452603209,0.0071710412498062195,-0.011670761990399889,0.0129305336626427
530,0.007144592463653512,-6.943323628599148e-05,0.010192418180991017,-0.009336880947724786,0.014125554088897166
531,0.006820054958642092,-0.00035385720933419983,0.01262272800139569,-0.0074938286704922755,0.014627460861680871
532,0.006399768333911608,-0.0005921455477862569,0.013837812286591655,-0.005906076193720884,0.01460542570982644
533,0.006930603291798317,-0.0011722530012188827,0.014890455785790088,-0.0037934505757908047,0.014067541283050846
534,0.00841442120169234,-0.0022396251174702773,0.01675763966879199,-0.0014430316864552201,0.013063259835859918
535,0.009966972630858228,-0.0031485449378849594,0.01958643427457834,0.0007974570902707742,0.012264109573566467
536,0.010485558771343231,-0.0034233454384617864,0.022361278537681415,0.002680140883966598,0.012096070092898308
537,0.009591807418100113,-0.003575806440537078,0.023966405777048137,0.004185489312944415,0.012370855491395438
538,0.00837279525799033,-0.0038517550783194023,0.024908611649248204,0.006416896988839023,0.012889189811875595
539,0.007975302123617066,-0.0036493500770769013,0.025389430392968683,0.009403256367868554,0.013774609685976382
540,0.007458957857855956,-0.0030117590094257394,0.023924205109748735,0.010655105024647355,0.014877624431259655
541,0.006115537271754483,-0.0025515069624195462,0.020833243571304574,0.009499223270213035,0.015597778107153931
542,0.004977708301966083,-0.0025627938759612305,0.017778166730463233,0.007868427770215534,0.015776326545560104
543,0.00423227517650119,-0.0030924063747834354,0.014564099975318295,0.006136949964213847,0.015643342600563298
544,0.003660862560583005,-0.0034717826569030776,0.010974644963610492,0.0039651419762435965,0.015647332552437977
545,0.0032874846305790757,-0.002905818839508431,0.007780307794413622,0.0017769470059152623,0.016451813037918057
546,0.002085381326138059,-0.002160279246349307,0.00515954490560669,-0.00044333375424160143,0.017684199783875153
547,-0.00025326107434571314,-0.002214473924952042,0.00344626568483758,-0.0023862904154284994,0.019008442556554015
548,-0.0021221241371654678,-0.0022676993455533526,0.0034697290082271576,-0.003012449269393609,0.02146289821892737
549,-0.0022226861839054228,-0.0012689264165144862,0.0049713131885178756,-0.0020442911317601646,0.025100249669801476
550,-0.0014966588929232673,1.6139306031878857e-05,0.006461018800991011,-0.000593858912448643,0.028279842254556913
551,-0.0014909080283844708,0.0001927672441545727,0.0071366915959224855,0.0005908017227775861,0.03026618132250184
552,-0.002063503494598824,-0.0008817142624910544,0.007481645010191856,0.001940666022797108,0.031603976765411074
553,-0.0026537266791889186,-0.0026419020753528514,0.007254748694187189,0.0031205037002444624,0.032322556825375506
554,-0.0035946178174719495,-0.004793499170244012,0.0052815899204924285,0.00296548706582983,0.03143357510308235
555,-0.0049235471461876,-0.006775225790235818,0.0019097089886995643,0.0017878842642172314,0.0282730761965713
556,-0.005464307565891179,-0.007574286724909853,-0.0006735481756002184,0.0016812930248030285,0.02423789169998048
557,-0.004354617774728113,-0.006872466183753911,-0.0008826345220154261,0.003542582132132,0.021883585378562994
558,-0.002236107581879349,-0.005468410871764597,0.0009549012405691512,0.006181393145788549,0.021797670809939457
559,-0.00044341673972426765,-0.004578781361792513,0.0031683370901507326,0.008327119843579533,0.021816407289458693
560,4.159788453869956e-05,-0.004822374743234512,0.003970332029371799,0.009136330932102978,0.020066927307992827
561,-0.0005316034121821943,-0.005937145982885408,0.0030913105368174294,0.00892962379706749,0.01711839519660384
562,-0.0016291719166787331,-0.007251747720198646,0.0017216048546009096,0.00835600939712794,0.014618743434604547
563,-0.003346438341274635,-0.00837905266085308,0.0006913823442780781,0.006948301120655968,0.013433293639710903
564,-0.005570107609306554,-0.009538675240823025,-0.00011820887651645393,0.004714734546892504,0.013150599261002241
565,-0.007718761652911429,-0.009947465540732076,-0.0007618371627151419,0.002282303871301657,0.013553056375654808
566,-0.008994532575701653,-0.00812607832554787,-0.0007784582885167361,3.012779130691267e-05,0.01507058171318745
567,-0.009114941287663677,-0.004672570415290613,-8.084654731176613e-05,-0.0017349208510225205,0.017374189961939655
568,-0.00853827454204973,-0.001517462765831381,0.0008440430747043803,-0.0027685258196508892,0.019769116908440253
569,-0.007531180164532827,0.00021048206850485737,0.0021326623683330615,-0.002508229123873193,0.021760783764788374
570,-0.006493549620708897,7.075266796705876e-05,0.004030542706089782,-0.0011864872214867575,0.02272598052676595
571,-0.006192824573744691,-0.001645947013837196,0.005670983767458382,-0.0007022390036795091,0.02233786712071792
572,-0.006455156418228074,-0.0037963677387798725,0.006331937734883437,-0.0018863489988675357,0.02071091653899718
573,-0.006326582362399537,-0.005298767112899472,0.0061285015321449424,-0.00327902483676848,0.018580195373047965
574,-0.005713735011322542,-0.006248755568285368,0.005250240240861421,-0.0036676489105392954,0.01677186362935945
575,-0.005706525150316928,-0.007256567218883007,0.003924294361216707,-0.003357695619108784,0.015659060930042164
576,-0.006474737137729273,-0.0074978333766973345,0.003154809165522739,-0.0025755606472640863,0.016282370231034127
577,-0.007125513268318368,-0.006684896281584767,0.003908453514717605,-0.001453392513005479,0.01819419210110952
578,-0.007740686632481097,-0.005946119172634827,0.005512156453968894,-0.001292975530547278,0.019328377262564995
579,-0.008676735506711091,-0.005430818924109846,0.006763835173367277,-0.002608276952491952,0.01946468254633444
580,-0.009822225429634042,-0.005039104431543854,0.0074102701763161145,-0.00438344830299921,0.019322941183315994
581,-0.010945576402109044,-0.005106350275236579,0.007878851887269687,-0.005867573384268593,0.019206367962930054
582,-0.011353704845821044,-0.005217389320730654,0.00830625255202421,-0.0064539399981273175,0.01960697851713112
583,-0.010542254718754638,-0.00470623666355767,0.008197225040230682,-0.005794409150445977,0.020452564267580773
584,-0.009198954456859514,-0.004180608804467057,0.007456987194266817,-0.004418737110989995,0.02024514547543607
585,-0.008448934743414722,-0.004392659637388198,0.0065536181799194,-0.0036563452468163352,0.018124930152738344
586,-0.008242949967423207,-0.004603265083966738,0.0059267887956159625,-0.0043803980011606755,0.015092179949357682
587,-0.007772121166345833,-0.004050739748441115,0.005903091681003864,-0.005745238679752581,0.01198613494320835
588,-0.006953725570086159,-0.0033180985508742787,0.006000668388724453,-0.006913101549450244,0.008736732689841594
589,-0.0062300851744202254,-0.0030385607235746855,0.004877635654012123,-0.008248419417287869,0.005750764177174063
590,-0.005681534375546834,-0.002859473470234751,0.002170529548109939,-0.009444628457606165,0.004113809601768438
591,-0.005547394367692807,-0.0026454820121099747,-0.0006559974780107395,-0.009512061017099253,0.004331597878812075
592,-0.006075522637713756,-0.002877897937454146,-0.0015028208364468196,-0.007960880813993048,0.0055807692668949985
593,-0.006491177290414227,-0.003731002296122031,-7.055988959151738e-05,-0.004759945487180258,0.0060453384708815125
594,-0.006734336447075341,-0.004668502130986941,0.001131502496453377,-0.0019362814048930058,0.005195451928848282
595,-0.007492190460095269,-0.004540887214587548,0.0006146640136282755,-0.0016845901064859847,0.005070320519821565
596,-0.008503172537935269,-0.003286705401507705,-0.0008615693437787406,-0.0033407358496382556,0.006832020103466426
597,-0.009748404021958364,-0.0025438599489481448,-0.0026109195787781332,-0.0053790600025777095,0.008861720800951978
598,-0.01161214153337493,-0.003538744083957922,-0.003635971014522236,-0.006836229835727343,0.009510556258379871
599,-0.013570562856081363,-0.005724795479642821,-0.0028591191976912655,-0.007215716489285848,0.008800287707382998
600,-0.014589844821956792,-0.007602789346413661,-0.00037287471158167274,-0.006429035036828233,0.007840892317700266
601,-0.0146216857574393,-0.008569996167708066,0.002663806580836446,-0.005206337598933548,0.007394389751922249
602,-0.014247082339971158,-0.008950176340511004,0.005346016943701732,-0.004540762079649168,0.007330487967220475
603,-0.013068846635740533,-0.00872871559653794,0.007960994259047526,-0.0038147070714909174,0.0077047845616147565
604,-0.010678838893446861,-0.008111273260713833,0.01075927797384991,-0.001714074904296408,0.008291922013265594
605,-0.007846596363191528,-0.00805275950375262,0.012735367807832264,0.0016725584719288478,0.007730195374403424
606,-0.005737294090313497,-0.008699262477189574,0.012763543067605883,0.004708856935061746,0.0058856771458887834
607,-0.005242428948194648,-0.00891263421611917,0.011299204591256466,0.0061303577843033604,0.004804471098427591
608,-0.0065043650496832,-0.00807244987819329,0.009573825081931475,0.00633240413238642,0.005397919400006494
609,-0.009126766962624586,-0.006963617761932082,0.007742476331963197,0.005683668735451814,0.006256303016889685
610,-0.012275013628665215,-0.006298803445869256,0.005653984565784663,0.004120735307339169,0.0063072614946868945
611,-0.015087750623228171,-0.0057460051548184074,0.0035096966924849215,0.0012051244493917139,0.006557974330813877
612,-0.017240332629061546,-0.005073023009940283,0.0014190078318126705,-0.0031843836149426682,0.008127520617892096
613,-0.01834892297258405,-0.004857840689431602,-0.0004884524392778464,-0.007134897549740882,0.009636142201200178
614,-0.018017942296428238,-0.0051897056428412075,-0.0022270512533947347,-0.009113162039574135,0.0096226002734839
615,-0.01580046627807245,-0.005107330634102972,-0.003247900732226785,-0.008752385433159988,0.00874591417537822
616,-0.011956245370662788,-0.0043789212652676915,-0.0021832126734133103,-0.005818943865438966,0.0076118861766625474
617,-0.00840380390286697,-0.0042641012194438305,0.00108059038077193,-0.0021017246304431097,0.006004983378694349
618,-0.006138500627546636,-0.005587694567068266,0.005193338159971114,0.000983705799088568,0.003748084311219608
619,-0.0042937704668139075,-0.0072431281071740124,0.00944658085334776,0.004047464063016545,0.0016620523369586637
620,-0.0027340790629104537,-0.007823982324024472,0.01332659688370693,0.005776623805071859,0.0011309095270201621
621,-0.0014605160393093754,-0.007230966603653532,0.016245504133173737,0.005303992732338202,0.00205316239204511
622,0.00022625619349556686,-0.006071641787782642,0.018667390871424692,0.004974807954911786,0.0031032038760695573
623,0.0021236370364969455,-0.004986122606497102,0.021210260723678234,0.006374160379396243,0.0034327959315353677
624,0.0033676236441887654,-0.004197592067213085,0.02329581051692954,0.008712939243931652,0.003134306577201364
625,0.003327575363909111,-0.0037393872351748937,0.02317718369429955,0.009726566988644568,0.0022361797844060284
626,0.0019250035915853998,-0.0033915738379653596,0.020217438888200476,0.007663555288228934,0.0008911343520692635
627,-0.0005181527817339672,-0.002891478252911453,0.016130082767094198,0.0036683072325524924,-0.0001521728946647709
628,-0.0032187720749043513,-0.003031037888558802,0.012509520150045085,0.0007645018589004282,-0.0011604706630331447
629,-0.005100677754601034,-0.004121250027989081,0.009508743590200895,-0.0001559533862260014,-0.0026911482302482224
630,-0.006016801640067678,-0.004933009864187191,0.007198031498302062,-0.0008497540561655266,-0.0038618851054848156
631,-0.006481020509548354,-0.005011562116475496,0.006335561695061696,-0.0017948172276151077,-0.004334564620233681
632,-0.006922237380843919,-0.005037350809795358,0.007146321322810005,-0.002479052267503436,-0.005159748807641838
633,-0.00694705889920248,-0.004822334169302759,0.009330892478109417,-0.002611727449160434,-0.006163020314593883
634,-0.006088517917177055,-0.00435865337391719,0.012581211204035995,-0.0020650001241174394,-0.006655049738595225
635,-0.005105867790925281,-0.005127029946468793,0.015326068532562992,-0.0015562492751322167,-0.007738250674833589
636,-0.004649166738901159,-0.007523472120143267,0.015525684638143125,-0.0016640736115551586,-0.010171928533996616
637,-0.004381605150464268,-0.009744118035411458,0.013043552277138078,-0.0025790500907175076,-0.012458920220171667
638,-0.003548037503698325,-0.010459132235496946,0.009771552525902253,-0.0035283069521469175,-0.01352356376340959
639,-0.00223192045633926,-0.010234606132681094,0.006758133612666639,-0.0039821703911517145,-0.014554012695281468
640,-0.001352646467734052,-0.009953126191593331,0.003342763000379763,-0.005619061476405477,-0.01642682924242788
641,-0.0010140869849033956,-0.01000249231543627,-0.0002135724898350668,-0.008738171977965782,-0.018921084045010708
642,-0.0010472147333879349,-0.010763127378293014,-0.0030958530619651136,-0.011676754459103933,-0.02177140445290858
643,-0.0019197814223081984,-0.012038709444087052,-0.005528937499363898,-0.01444127169530749,-0.024014867804997144
644,-0.0036447015145161946,-0.01310950395406464,-0.005842913557018523,-0.015115078044064282,-0.021768190371833158
645,-0.005707795330156741,-0.013860649850323627,-0.005857586701793017,-0.015359928438120089,-0.01836363951473713
646,-0.007703629916820387,-0.014434928992641271,-0.007143429843351307,-0.01647517840420403,-0.015989636858636337
647,-0.009257285215803004,-0.014798768907643907,-0.008372280982730186,-0.016620501385412233,-0.012492363253955825
648,-0.009935503674853787,-0.014901051914498697,-0.008604858143701483,-0.015547008860866515,-0.008589814535735497
649,-0.009633972706401794,-0.014281666277237636,-0.005516446123869371,-0.012558840541857554,-0.002215692365580294
650,-0.009372070143581443,-0.013372053477002795,0.0007491718789884609,-0.008647644017111971,0.00684861884830427
651,-0.009943539936122526,-0.013234287948503499,0.00726242713109972,-0.005101419926369181,0.015124515751201658
652,-0.010106433662777702,-0.013686855591471576,0.011253999600352452,-0.0020210128646472093,0.018304188654581416
653,-0.008316993813470622,-0.014694821282955031,0.012401713645111693,0.0022908855533829526,0.015137186304920069
654,-0.005173712094829635,-0.016764957381059088,0.009699421477264178,0.006828887246311502,0.006417263125883817
655,-0.0022440686901050656,-0.01924061409438596,0.0037194589308117676,0.009685549202428317,-0.00443726056605717
656,-0.00017858727979712123,-0.02091055485169321,-0.0008558907547745379,0.012172514728443213,-0.01173425526408351
657,0.0004945440087031174,-0.02155494153152072,-0.0021576604111831522,0.013704281527358154,-0.013282411487756902
658,-0.0007270570026585776,-0.021409956229911133,-0.001385009503804793,0.012446294847718442,-0.009375976899515023
659,-0.003083356309556801,-0.020187459453726245,0.000679412128597519,0.009137932301856137,-0.0014386876817021098
660,-0.005038608389605793,-0.017605186474768664,0.002311396018590125,0.0041244466349525995,0.002464954733602888
661,-0.005484281250415518,-0.013951698779748152,0.0038577521230512965,0.0006079426752381959,0.00419484325864452
662,-0.004431426920653025,-0.009811386866077371,0.004197335999439159,-0.0009415668052233482,0.005599414049088533
663,-0.0033101424591863832,-0.005896486658109707,0.001233292348682991,-0.0035189123742654263,0.0043107304809564565
664,-0.00318307285147272,-0.002624829959349258,-0.0032899074776852988,-0.006616414295316761,0.0039031367532897008
665,-0.003914194491830491,-0.00020808668467161821,-0.0075930692581246935,-0.009599382209421943,0.003337927625690663
666,-0.0046860709678825125,0.001264195245909937,-0.010625255342898831,-0.011883016837575226,0.0009566758879706853
667,-0.004275787966413034,0.0021557833411322068,-0.011195846788613541,-0.012457064547975825,-0.0020456745609679357
668,-0.0023404203423495386,0.0027970200594519025,-0.008484183203976058,-0.010371719569906379,-0.002735445486324497
669,0.0006692251032295993,0.0035528711586058,-0.004321048274251511,-0.0069980053000879994,-0.0031647324263864933
670,0.0037785867975892737,0.004628276024787655,-0.000737900238368747,-0.0035271372850984883,-0.004378097614510579
671,0.00618105360018293,0.005824934084304278,0.0021377651094793763,0.00019794314706542295,-0.004594239604386533
672,0.008244424091207068,0.007031822042277431,0.004989327918257028,0.004052073724783339,-0.0049517851468077
673,0.010058205407766705,0.00819213076670314,0.008329371116122752,0.007594722849400412,-0.004523355479683939
674,0.01131394947137157,0.009611939116899391,0.01063363896276853,0.009461378223059575,-0.0027456866394527336
675,0.012363694577218518,0.011740355225935535,0.010664615051681252,0.009797969942696548,-0.0009185374061308476
676,0.013197680546230321,0.01404451841130454,0.0061222722778725,0.006136146441843949,0.0013772540599914292
677,0.013309028488829831,0.015571279353607257,0.000623394207822869,0.0014269217186944918,0.0026644377004535137
678,0.012876838989591287,0.016067640292387872,-0.0031343904534412606,-0.0008788134381541201,0.0019090193850124957
679,0.012372990512801172,0.01622862932292217,-0.00620816029139124,-0.0021315963141561546,0.0007243450515884953
680,0.012120109496780712,0.016940096958411175,-0.0071134888059182205,-0.002100020921925086,0.0008307885333954401
681,0.012812738469287875,0.01786794031162834,-0.006644796840577234,-0.001255971472561806,0.0024845922182331628
682,0.014381264070192102,0.01822126979032713,-0.006085333183641424,-0.0005681838088879302,0.004205203867082517
683,0.015637360687371954,0.017615769337865676,-0.005813272954443568,-0.0014042471423004186,0.004906515956705386
684,0.016412778339979988,0.016026246478919485,-0.004445478542423043,-0.0022093083864959348,0.003489798499489303
685,0.01777759998919963,0.014558768582592077,-0.0016720458419742508,-0.0013945575218902372,0.0014824713108126943
686,0.019688616649858853,0.014090624566585557,0.0018015703019035338,0.0008571089845525265,0.0003867124729606881
687,0.020731883756575878,0.013970950159908919,0.004153300444079793,0.002731693581468024,-0.00045888892081233444
688,0.020455196202967693,0.013536108940618028,0.0032223051367498328,0.002100639236181479,-0.0010316159114809255
689,0.020085944334434547,0.01323494048439931,0.0006081180193873913,0.00041510513011343856,-0.0016103909071566614
690,0.02126640769703082,0.013973553512451928,-0.0016102816318033118,-0.00032405537394715147,-0.002825120592351302
691,0.023799891079860695,0.015452015437731554,-0.0036574250295978443,-0.00040781265952528277,-0.0051253900960678824
692,0.025773105892244408,0.016694307505731674,-0.006496531121236944,-0.0016194496274135955,-0.007588699561904934
693,0.026472731606300908,0.017993782215259733,-0.008250195306490899,-0.0036355495787362287,-0.007434459534885901
694,0.026464205649734764,0.01976709545277222,-0.006263971839130062,-0.004869575489608721,-0.002970848081171548
695,0.026167816873924745,0.02176198905099625,-0.0009156052556336441,-0.0054592064065530745,0.0039596145806364775
696,0.025969011402683415,0.024397518921354885,0.0055046392529798935,-0.006801299732333301,0.010113207964094829
697,0.025746865878420684,0.026959379146588126,0.010170946681448032,-0.010370323594706386,0.012842558737378603
698,0.025222217706250747,0.02744969455014293,0.011494930125536477,-0.015624205766876401,0.010289291150598004
699,0.025471120120190278,0.026253792271492545,0.01022175285664816,-0.01955270954842885,0.003910563209621333
700,0.027265579260888274,0.02510609284375863,0.007748198204515063,-0.02037496148059149,-0.0020945321388809637
701,0.029645147493176635,0.024388132925353842,0.004921281089425719,-0.01966584234988481,-0.005272750956047204
702,0.03169362424863296,0.02366841946837436,0.0026612731389774403,-0.018962945829243127,-0.005955781818097518
703,0.03313290828053557,0.022623898899872978,0.0015020193462552019,-0.018771619729911086,-0.005059343301130781
704,0.03345124062168379,0.021134754583578174,-0.0027227048876468972,-0.020087243451959537,-0.0039891571642138406
705,0.032237374303273045,0.019564133279960646,-0.0030052162315082087,-0.022567403726087565,-0.0012578017223478215
706,0.029997899324340726,0.018529045380300747,-0.003508351347850249,-0.026630903136864958,0.002834523022912087
707,0.027612756087664815,0.017941063538770136,-0.004287444480830718,-0.03145980656258701,0.007518756860074635
708,0.02568455757308139,0.01748891167833681,-0.002887242382862064,-0.029204038979328172,0.009665539767896808
709,0.02477049797511049,0.016625437650068763,-0.0023594692752122695,-0.023625478369409002,0.007936051403591033
710,0.02529735275755759,0.014600623961265177,-0.004214476987141848,-0.018082182338383886,0.0017858526831286937
711,0.02679222669934191,0.01191328870075518,-0.005958040883885251,-0.010837580685090347,-0.006825122344895671
712,0.027441177778029503,0.009089818031884727,-0.0077430479746757415,-0.006277371532700144,-0.013730461784536005
713,0.025939071538230395,0.005735148488448805,-0.0076371175911828055,-0.002146448218163046,-0.018391091109332153
714,0.023160340266273265,0.002255706286610256,-0.004316611769028923,0.0049458166325474446,-0.021774174252440253
715,0.020424262450626875,-0.0005392184117658711,0.000583616649714295,0.013670313599900584,-0.02441219162763364
716,0.018372951913600565,-0.0025235976977190265,0.0037582252706331184,0.01978691538428949,-0.026481898950671767
717,0.016861566990479786,-0.003668832118508595,0.005379397455989999,0.024970714059139774,-0.0282728681242443
718,0.014908930878806707,-0.0038326231101294727,0.005915119725151227,0.02915278000323296,-0.029044808558892184
719,0.012382738420257073,-0.002957589527680738,0.0050914768615628525,0.030256187958698742,-0.028492781578575405
720,0.010418695966250176,-0.001049497980741453,0.005111174353073135,0.03208601932363254,-0.027607754181098496
721,0.009968692398836762,0.0017419592518053736,0.007077475556883014,0.03623578329097463,-0.02649578138796165
722,0.010633718769166151,0.005018634670911008,0.00966096634770737,0.041447709862411884,-0.02567957181219012
723,0.01122952336493161,0.008078187763348267,0.010885887337882979,0.04634301840822591,-0.026123854693231773
724,0.010672841512194877,0.009304395725407822,0.011631194814584541,0.04458104548662039,-0.023181524247615486
725,0.008309961526743287,0.007497540658829306,0.011932228283870767,0.039442406582175425,-0.020348764269540794
726,0.005108921804974974,0.004236661084794576,0.012142075419859406,0.03437133541930392,-0.01865575245043599
727,0.0024918386069642524,0.001625700788529193,0.013138147711180052,0.02907619306447805,-0.015131594907612792
728,0.00023028991828399922,-0.0005753914314562568,0.013595587789791403,0.026798385710388537,-0.013825101374196253
729,-0.0022864516065097813,-0.0031686631542940965,0.01326118339865129,0.025436525125366042,-0.013914027482752653
730,-0.004513293191281073,-0.005707569114177553,0.013039943369380073,0.02279937362829262,-0.012448750316864722
731,-0.005811884158083393,-0.00770983619874911,0.013480577593142935,0.019351233234064884,-0.009501798196969927
732,-0.006186606277247451,-0.008922495444480856,0.01434513217372637,0.01742059377702028,-0.008039425608055345
733,-0.006155236108211846,-0.00904560921184022,0.015319147955980703,0.015258635625221827,-0.0060469079357344194
734,-0.006492866212294056,-0.008278331921250126,0.015937944271060014,0.011689550527446031,-0.002146186567942827
735,-0.007181321130636723,-0.006894749431632202,0.016901125673562372,0.007964118640659159,0.0024170015901780724
736,-0.007784858494903878,-0.005445672428544566,0.019850461289844117,0.0035821479619686123,0.008696022894163664
737,-0.007903478179425159,-0.00419508056203763,0.024652194187089953,-4.89704074377132e-05,0.015121622926355598
738,-0.007320980234945629,-0.0023338421877755664,0.029727490233740998,-0.0029561696800893085,0.020976343376811486
739,-0.006903738666693184,0.000317071557396793,0.03383541975776248,-0.007285551793060087,0.027001521577650525
740,-0.007865358927880407,0.0025320769574978847,0.03553802377837331,-0.009010283711973899,0.02941647113071111
741,-0.010498793989154995,0.0028858836318612327,0.03479448441829656,-0.010577592826539119,0.02807401782745631
742,-0.013811549007478354,0.0011418024281596093,0.0320933181771421,-0.012877045525375842,0.023462396014751242
743,-0.016308294964689826,-0.0012347354177726655,0.028770898687453184,-0.013184672408296743,0.016744692927231936
744,-0.017414518153420742,-0.002415005822737887,0.027164112154373705,-0.013819580764719178,0.013474179339287809
745,-0.017666826628012455,-0.0020585245814941045,0.02797789481824954,-0.013054697770540549,0.014563191608991012
746,-0.01802862927385533,-0.001536395109968629,0.030312581015077496,-0.009796645831720623,0.01678088393050646
747,-0.01864145388559451,-0.0022089867167219136,0.032571785774294655,-0.00596910371224867,0.017751373783437815
748,-0.018782728448153835,-0.003984274557479128,0.03355350824777212,-0.004710009101361323,0.018269313267523377
749,-0.018410385210635826,-0.006049860925653822,0.032891886360068213,-0.004576121549481626,0.018058242416799125
750,-0.018284198975226897,-0.008094332224652277,0.03181558025303754,-0.004303002808841121,0.017523065112144246
751,-0.018956777314634934,-0.009734557110634688,0.03160654245386427,-0.004496433708018133,0.018634589511060614
752,-0.019978078841484868,-0.00986344532183326,0.032599174308033,-0.0034603121732397733,0.021794440936776002
753,-0.020374604745900478,-0.008390044281799442,0.03534555671257705,-0.0015968762142621142,0.026412860744483936
754,-0.0201768534954482,-0.006929475901856687,0.039192586238143284,0.0005014672361827959,0.02999028169840075
755,-0.019796038785895417,-0.006371879188214469,0.041947381822311516,0.002974535071970184,0.031134802481188245
756,-0.019089909664807832,-0.006591878577549379,0.04200956441426572,0.004085267799713104,0.02831601563260847
757,-0.017739427668003335,-0.007292996420951245,0.040508821139566574,0.004634695260317126,0.023846259080188545
758,-0.015775258367990534,-0.0076064718157425396,0.03892871589562447,0.004907685448698755,0.019861947337032382
759,-0.01366316992460695,-0.006982118611888457,0.03769301374717181,0.004300037343403962,0.016617909416294308
760,-0.011548087860253032,-0.005621095646278272,0.037572600955647,0.004880428204472697,0.01597515264739444
761,-0.010298001491075499,-0.004208605057300991,0.03854264299810793,0.006379405364451335,0.016373885233440164
762,-0.011258575325518784,-0.0034107960216762227,0.039798862276587084,0.006256440412965727,0.015549152651656292
763,-0.014195218605503145,-0.0032159148024016597,0.04063071061062364,0.0038104328162662433,0.013298218660040216
764,-0.0172708546323484,-0.0032139639219658416,0.04059969769660835,0.0016100850529563741,0.01092642880266249
765,-0.018572112593177016,-0.003206687482942318,0.03999326081379842,0.0015937294340526594,0.008301033072282209
766,-0.018415580274644454,-0.003521454350349874,0.03933312471363089,0.003033723253391621,0.005435511538313703
767,-0.0181910157393373,-0.004109944188077833,0.03901577844645253,0.00410502771458784,0.003475616312880984
768,-0.018037880037069774,-0.004683191328386636,0.041867222599944916,0.004445992183256565,0.0011925056434085228
769,-0.017584697428792324,-0.005102510450110108,0.04134135055093263,0.0034934373292999955,-0.000823543559749918
770,-0.016725720667538527,-0.004579968721914315,0.04033622224239425,0.001982962788458518,-0.0028566059730258573
771,-0.015873146185855818,-0.002952660115904812,0.03994393646969441,5.09676632610743e-05,-0.0048865220359430635
772,-0.015490420898782716,-0.0013449216556363803,0.04056597513928264,-0.0019645900563603773,-0.00402230512812005
773,-0.01587242585754296,-0.0006251223937449886,0.041420224419263185,-0.0036970650639454395,-0.0035434284737315184
774,-0.016893337421954063,-0.0008548487703340454,0.0413129517383844,-0.005249234701369613,-0.0049196059087227165
775,-0.017335899913731925,-0.001312206581005981,0.03987974840479617,-0.006028277759071529,-0.005264473540826345
776,-0.016228177117885764,-0.0011421820260226903,0.0374684847016929,-0.00515401951800713,-0.005456588795214576
777,-0.014377919258566968,-0.0008000940919933382,0.03422896068857521,-0.003893039019056941,-0.004760094823671997
778,-0.013066260149236376,-0.00100543324522675,0.030661254023485657,-0.0035052979495090023,-0.0026930028501124014
779,-0.012096836675706562,-0.0010564868796376528,0.02837554879016521,-0.002992463287078859,0.0005327993653772975
780,-0.011096203815932262,-0.0006796348116296229,0.028351325959431472,-0.001532456171840632,0.0026676276239710446
781,-0.010687837521449672,-0.001055234741719408,0.030000009560936604,-9.074947233862878e-05,0.003470514305453759
782,-0.011070558347162003,-0.0026118516324648415,0.03229712709968947,0.0006960780392875813,0.003406668359744489
783,-0.011884292473684385,-0.004495918790312705,0.034087712571318186,0.001002623609206733,0.0027652766850351325
784,-0.013252650072322061,-0.006241394759128347,0.03409100031912185,0.0007591717354753793,0.0033946374375040038
785,-0.014962294139328508,-0.007819730843456087,0.03217880309471709,0.0005424243885134057,0.0049194340967604906
786,-0.01596964127545757,-0.00845920650219245,0.03000209470158493,0.0011536761062862207,0.0074754071616212935
787,-0.01608996418221747,-0.007393015837227487,0.028996806210138653,0.0017091247509010996,0.011986701114625919
788,-0.01566741475602834,-0.004757233453836798,0.029767327657392168,0.002918081934911259,0.014437664937298339
789,-0.01464022022538633,-0.0012218188003351998,0.0322905012095474,0.005254557584429977,0.01585877782959091
790,-0.01320853270203216,0.0025007094618651297,0.03502067976353988,0.008084933002291735,0.017242732991141443
791,-0.011637599738290866,0.006178476502779368,0.03600201666485474,0.010694684507020184,0.017049681870327186
792,-0.010141656337239648,0.00981177795989444,0.035058649546724066,0.012703841847222485,0.017319311526348503
793,-0.00923061908987106,0.012700240583901005,0.03320192840357567,0.01526258132289882,0.01698846391803946
794,-0.009251085702371254,0.013605547738462221,0.030965032004692115,0.01861592631677122,0.01434126590530888
795,-0.009679058826159893,0.012539030892177679,0.02910050614183721,0.022513979040974404,0.01018817692175848
796,-0.01004817291178848,0.010702249840542495,0.028152272468404495,0.026130234243233307,0.007664003662515929
797,-0.010390859845404181,0.009266974102239462,0.02780741680254892,0.028748133926011502,0.006383325356395247
798,-0.010385087965202976,0.008998825221385913,0.027934289688539102,0.030623590254817038,0.005829577875654104
799,-0.009877260567031356,0.00964531401617281,0.02818432128351661,0.03268042902645421,0.0060982766820074485
800,-0.009393353668511446,0.010177862444197718,0.027927018757945878,0.035829504911864436,0.004363306897029781
801,-0.009412668798203454,0.009749289821355768,0.02710135903243389,0.03974674437702974,0.0003056706447427132
802,-0.009821299376696945,0.008564797799996991,0.02626540963533244,0.04379692861013608,-0.00470894686859535
803,-0.010295843063416795,0.007582700103302716,0.02556753017297935,0.04743280225943987,-0.00981419370518034
804,-0.010322149275528238,0.007159998241553062,0.024530212350917156,0.04659291872475728,-0.009755699926043715
805,-0.009262493618073261,0.006876066315442882,0.023581926785968575,0.04432840984754292,-0.007675173937455996
806,-0.006857242234836933,0.006364144657432588,0.023806556246220627,0.04413429621980147,-0.006364320781827652
807,-0.0034279713946913206,0.0057598564009469595,0.025157573429058253,0.04519014867500663,-0.0038605198490724094
808,-0.00030001878370732005,0.005660312173964714,0.026508142381101055,0.046995480272682244,-0.0017439980779942958
809,0.001149112103808379,0.0061146090470210555,0.02700084331809419,0.046147028578447186,0.0023771712431643914
810,0.001618973304914059,0.006385886462114759,0.026918693916140504,0.043135269886137965,0.009404135880108272
811,0.0026157338481323238,0.005955287776345634,0.027113842507479037,0.041374295168612636,0.017020828413853707
812,0.0037575394493870222,0.00443186178688995,0.0278556151785879,0.04258928551063091,0.021177751433858485
813,0.004283658350114002,0.0018375451096731966,0.02865136282506907,0.0439737147009175,0.023807096110789308
814,0.0049061201008680985,-0.000715378646718987,0.02874812363501283,0.0436911232515375,0.026718154604985833
815,0.006184452899395665,-0.002098005276580327,0.028023973289309324,0.04219862600725738,0.02917958499979295
816,0.00761065218072581,-0.0023002475526504784,0.027458808513698734,0.03896020610703993,0.033526060477130616
817,0.008838659075494436,-0.0016727367303911345,0.028045571374969717,0.03541638589041805,0.03845347727682072
818,0.009834452680788214,-0.00021866156871756638,0.029547149701239808,0.03250577230867982,0.042705727928368346
819,0.010436059374513817,0.0018962664938317825,0.03120756479279465,0.029524683693062687,0.047052973384783967
820,0.011060290040732517,0.004066789633960965,0.03292379872889984,0.02876855161595026,0.04669532332719459
821,0.012319787332899571,0.005917466539325258,0.034628562184634004,0.029576871212890148,0.045058133997332994
822,0.013658994075590902,0.007294544930161536,0.03555854682393492,0.02973999201990213,0.04515368645709548
823,0.0138433256492795,0.007412701859914425,0.03504581851051334,0.028704589822573106,0.04386745238390743
824,0.012172517184989278,0.005365285317825087,0.03316758615747916,0.025982196869286406,0.041343299922357336
825,0.009351093322754819,0.0016108636147923003,0.030506505364132637,0.02310332526167709,0.03599953813033662
826,0.007012854787538558,-0.002090373821237032,0.027717702816190654,0.02105220663862142,0.028879479190031237
827,0.005831712728343148,-0.0043846724089764925,0.025180457908033818,0.019338537073181217,0.023569476635379002
828,0.005474590983518969,-0.004938104046917185,0.02285404144916927,0.01652237077623967,0.023313395619878084
829,0.005499900825466536,-0.004302775175810519,0.020625750900787138,0.012904070841208284,0.02455723804956011
830,0.005226891745746423,-0.004083579504486394,0.01868375604569499,0.008849270653433718,0.024466935489313578
831,0.004544133750866313,-0.00503149629789711,0.017730416551790328,0.005138654518774514,0.02400008354641919
832,0.004177142454766111,-0.0057354549225597734,0.018366510102570177,0.003800873948093296,0.022504096745430305
833,0.004044125818320666,-0.005485585520293203,0.019401355026455427,0.0036357166990030666,0.02070011332278641
834,0.003595774634167633,-0.004989266603465012,0.019160510116505707,0.002916938494356319,0.018936098626477813
835,0.003080761108012101,-0.004323549278521113,0.018257122381940275,0.0018221943430501413,0.016340259191020164
836,0.0026904895104940176,-0.0036377064846736017,0.01790805857068737,0.0005444297649724728,0.01480391513751988
837,0.0019615256246629143,-0.0034522869599698993,0.01735994563033462,-0.001820381178997326,0.013663214664596466
838,0.0006996359170227763,-0.003902688062207163,0.015061169378108561,-0.005614152498357686,0.012530202119345211
839,-0.0004983286236891963,-0.005242418274806943,0.01098223674618605,-0.009111854938685741,0.011843000571917445
840,-0.0006634796773401087,-0.00690833968265642,0.007155914925620382,-0.010636676667321992,0.01086912943292609
841,0.00020692360105234166,-0.007746942338613941,0.005418641865413183,-0.010339663724681399,0.010510945117601216
842,0.000929251255988369,-0.008247050904373398,0.0056857280305091205,-0.009582000978616417,0.010754345327302992
843,0.0009046564182629232,-0.009235563497853318,0.006891336541371316,-0.009565726103926076,0.010338688173254037
844,0.00033990632753948594,-0.010393362163147651,0.007737918440073114,-0.010273885319939977,0.008209327044028396
845,-0.0006714693626964482,-0.01137611628353465,0.007342302815569077,-0.01089916560943713,0.005405704987053455
846,-0.0016717328029971453,-0.011889815171546504,0.005650235922524177,-0.011233910792187997,0.0030294091478481307
847,-0.0021445994092891348,-0.012095835182231444,0.002829862932811233,-0.011747140960325243,0.0015592305200617803
848,-0.0024138239786934616,-0.01279412434529068,-0.0005046708372744354,-0.01271752057755798,0.0012045866675776803
849,-0.0025742733372272016,-0.013842658549960075,-0.0029457527973821345,-0.013482451153098662,0.0007455219897556186
850,-0.0023252344954700194,-0.014257554066143015,-0.003607217878167006,-0.013117378022649402,-4.564641419950572e-06
851,-0.0015606943422964913,-0.013527397460136883,-0.0028452620629764364,-0.011486062366143624,9.613185158673791e-06
852,-0.0005970303146002005,-0.012253674220660322,-0.0019395184324998134,-0.009509549814633204,0.0008561719249411692
853,-0.00016951281072367152,-0.011334717842927292,-0.0019992877285034735,-0.008660504666243617,0.0014878218702028675
854,-0.00011394543828740609,-0.010612609887426114,-0.0023441854044896756,-0.008865577614640113,0.0018353240880821296
855,2.6599753509861746e-05,-0.009875613690709922,-0.0017718812070873912,-0.00892316166449312,0.0023369561906308135
856,-1.478006038419311e-05,-0.009247815517220849,-0.0004286549889962116,-0.008714723054391811,0.0026612578431785493
857,-0.0002507788986283564,-0.008564679293264715,0.000548225561962678,-0.00883217071154626,0.002174918770700191
858,-0.00045554541756473644,-0.00806631847594011,0.000236632839781322,-0.00951791244037154,0.0005548021596733811
859,-0.00069704365403063,-0.008132734084693142,-0.00098711185865407,-0.010750748939568507,-0.0009549790998501057
860,-0.0009251076255419446,-0.008803445968915694,-0.0018222798410493998,-0.011852780702818432,-0.0016083686374351316
861,-0.0008237261147325352,-0.009859253617778181,-0.001425473140863366,-0.011651010179238046,-0.002561871649269815
862,-0.0006340575461706641,-0.01086583416492545,-0.0002692964903085593,-0.010780605410159416,-0.003965283339858713
863,-0.0007275363935566588,-0.011398990204740807,0.0008932826860565956,-0.011137895164103365,-0.004753989035158964
864,-0.0011259603240712684,-0.011564025110160891,0.0012576801243765275,-0.013635569071806733,-0.00523002780986697
865,-0.0021068200649058803,-0.012041020211981609,-0.00014245467184277561,-0.01778575302987796,-0.0070018009001350965
866,-0.0033629996358306275,-0.0124510128132638,-0.002074254689818089,-0.021809520976163985,-0.00950872179876475
867,-0.004407112368622518,-0.011587109475183268,-0.002575607960709949,-0.024807997566675836,-0.009806709213811285
868,-0.005801336576585224,-0.009953015242751613,-0.002522447130459883,-0.02577857814612333,-0.007534058368839327
869,-0.008023632295128761,-0.009415044034518127,-0.0036972432605222936,-0.026904896603601302,-0.005896199157138566
870,-0.010433470305109183,-0.010951847725589266,-0.005785680524344113,-0.02801115596254357,-0.006850590808467507
871,-0.012005555060817168,-0.013781219278575407,-0.007295215015907021,-0.026520481953755726,-0.008406350236889525
872,-0.012395864001686633,-0.015968638472655335,-0.007626546644388741,-0.023821326715611622,-0.007962204364718442
873,-0.011924336123630974,-0.016508032800822088,-0.007511784529254947,-0.0214062571345865,-0.006087638370635069
874,-0.010917757774100464,-0.015849461116411598,-0.007928645960010633,-0.019403427092110036,-0.004620337795805625
875,-0.009627078897938627,-0.014450664886750744,-0.009265107554041968,-0.01713486213779032,-0.00444116579648213
876,-0.008256471228385326,-0.012792491827362763,-0.01101839529106435,-0.015042505000643068,-0.005906872391599261
877,-0.006610462266100521,-0.010860820712532068,-0.011544569344930733,-0.012157829137185022,-0.007668237749315262
878,-0.004719626185483426,-0.008251379403822062,-0.010130268390156872,-0.008098018423459709,-0.007673453067509912
879,-0.0037302758198931975,-0.006128096899079895,-0.008399785983582802,-0.0045949679277148,-0.006345927324470008
880,-0.004412807527063482,-0.005843114711571444,-0.007872112275130558,-0.00182334150177108,-0.005112403677202612
881,-0.005510887683127468,-0.006376590892309917,-0.008393387972227233,0.0009260439056680266,-0.0035689234621216342
882,-0.005802475589191834,-0.005810246059252828,-0.009230793936263897,0.004473481441394476,-0.0006856167582065737
883,-0.005740143756571277,-0.004045553129605796,-0.00969306115591159,0.009114207295166541,0.0026756719078161375
884,-0.005450955571059029,-0.0019112199311573784,-0.008952980697668927,0.01000244781045023,0.005214317542707932
885,-0.004453776756256861,0.0004065029585187654,-0.007109818557423943,0.009056539313537323,0.0071656826763416065
886,-0.00331219086530894,0.0022750813248065926,-0.0056256784807241595,0.007437631316042733,0.008523311958034751
887,-0.0027043960357215815,0.002959342073662279,-0.005292832478685184,0.0042634234217343225,0.008858333792470934
888,-0.0022713522093537014,0.002951318513721753,-0.005180260429827347,0.003657442581077331,0.008508871010488077
889,-0.0016419984802070753,0.0031805857859153845,-0.0042868666363173125,0.0046075669304835015,0.008136567395078464
890,-0.0010450356294179378,0.0036360530456480138,-0.003244057175155865,0.004449222264368854,0.007609373105163948
891,-0.00047600499375600753,0.0037776718352970514,-0.0032579847059652114,0.0032707527700340236,0.006259982949042321
892,0.00046863474655174355,0.0036318174156933164,-0.0042603707216897916,0.0034494581484156186,0.004272329813103873
893,0.0014671828879678603,0.003131722858066936,-0.005465591523268743,0.0035332792050882167,0.0023425459760394855
894,0.0020515876121392144,0.0021201933826069763,-0.005981640739588177,0.002686300672487952,0.0011013689395232612
895,0.002768800002395936,0.0011583644364500066,-0.005311279137000432,0.0021599416522511887,0.000577984594203361
896,0.0036186652387993823,0.0009751255561454168,-0.003962396436217794,0.0001422636262855696,0.000849035172564239
897,0.0037923090275077077,0.0022009101905156284,-0.0022086430957787948,-0.0024194696836268162,0.003083917064476976
898,0.003142648453283746,0.004901545700736525,-0.00013551402553174858,-0.004607525925274419,0.007166314262364786
899,0.0018836509281558098,0.007686836909214864,0.001321101469936463,-0.006358208139284341,0.011191978921797028
900,0.0006046828501341746,0.009296208556433741,0.0015532485606296533,-0.0063344555265350275,0.014107850859065223
901,7.796541763836801e-05,0.009696730657208594,0.0004965318060449051,-0.0060742397866576136,0.01536638226069276
902,-0.00015896584531444464,0.008994186110196985,-0.0023798026726862664,-0.007486574337268813,0.014616582579413444
903,-0.0007956054489945851,0.007674575678915024,-0.006745372344813049,-0.010049954448828505,0.012985300451593138
904,-0.0009882938669501958,0.00665713306253636,-0.01073718797486364,-0.012412776938604318,0.011629853405605245
905,6.167778636401936e-05,0.0067012591449381615,-0.013038992399128884,-0.012636139286454294,0.0105238123141129
906,0.0020796587653270407,0.008259258474133259,-0.013819166163745627,-0.010659120796919146,0.009776694779750328
907,0.004217140522167556,0.010271128687195775,-0.013944356703936601,-0.007704225642507117,0.009011633023244977
908,0.005400598483085089,0.011021938399654483,-0.014001401756184433,-0.005558205459566015,0.007257862920946635
909,0.0056703364732750144,0.010834482398938059,-0.013731206780312337,-0.004045339919684773,0.005118836423492417
910,0.005299446951245049,0.010872622473177669,-0.013225192729200946,-0.0038694947782046884,0.0034846401409388797
911,0.004075330106070132,0.01102565407140911,-0.013111597360804167,-0.005771817011990099,0.0018566438041127426
912,0.0028191284817235956,0.010652551317549467,-0.013321889603486674,-0.007199196653388092,0.0001293838983506845
913,0.0025354071193462503,0.009875710038523947,-0.013160317010456878,-0.007180967005662071,-0.00014880137492041652
914,0.0030152195257156576,0.009340624629388622,-0.011895356606127982,-0.0067468286189882945,0.002002922497067103
915,0.003444163530234386,0.00952546975665646,-0.0098814403173679,-0.006793698392107109,0.005311244376192922
916,0.0032645517660299874,0.010553243280659196,-0.008586626672518916,-0.009241076940085653,0.00791259439962338
917,0.002563420216947768,0.01167373111081996,-0.008832078209122783,-0.0130990655693216,0.00872137277578481
918,0.0021409306056600816,0.012345821382886495,-0.010139215534838115,-0.016878432985230975,0.008367665406994674
919,0.0029109013400842095,0.013225858432933498,-0.011202460867118772,-0.019336477670731093,0.008720520336812814
920,0.004902498635896806,0.014673524783758485,-0.0109857956360388,-0.01922682991642425,0.01019270858520687
921,0.007233811174433905,0.016433540233471308,-0.010375478782968267,-0.018708478067381244,0.01179975601414181
922,0.009243222633611,0.018453713252176634,-0.010772200893314328,-0.01929677082299805,0.012990039668348365
923,0.010300632606679634,0.019990913218741288,-0.012053118979454835,-0.020342086417787834,0.013060312063431155
924,0.009397537769608652,0.019797289299791833,-0.013451720698991079,-0.021922464959766946,0.011601008402503696
925,0.0068007236394604445,0.01786187439677125,-0.01405207213267332,-0.02511572164410048,0.00951076976852332
926,0.004338440448426079,0.01576104462361385,-0.013100590133299964,-0.029179788523490267,0.008363594052210958
927,0.003101221031469889,0.01557284212146028,-0.010695981931327923,-0.03271747829441905,0.010481388293111583
928,0.0024604549644744508,0.017817032946163026,-0.007534744487405166,-0.035470311764806604,0.017357837454055582
929,0.0010913011307631003,0.020664876137312743,-0.003661349397693566,-0.03700531265507423,0.027317261549764132
930,-0.000994241613143415,0.021970570151673186,0.002796951596144361,-0.03550877343431224,0.03700400485315488
931,-0.00213392389744397,0.021005167811058132,0.01294253220941281,-0.029498000735850346,0.04298512514946158
932,-0.0011195766423528358,0.018560843451371406,0.023150281613068792,-0.01963830426530215,0.04168928126439927
933,0.001635390417571058,0.016034642871414834,0.027489317625200158,-0.011846371689724315,0.031836551782879384
934,0.004256513359656821,0.013935596527719512,0.023577264805552636,-0.00999515494438122,0.01667391654872429
935,0.005317931459225029,0.012220233147538895,0.014576753000622538,-0.01238305650969657,0.0019101605983536474
936,0.004894387754080268,0.010946661541714052,0.005437826905810221,-0.016319103536741677,-0.008674244498670236
937,0.0034876087670246848,0.009801799599705997,-0.0014750512702771292,-0.01922584841797631,-0.015093548347887864
938,0.0017208660962684701,0.008436220144301294,-0.006313686619663061,-0.01967852841368363,-0.01894577499213625
939,0.0002385435249321455,0.00668966789796051,-0.009684829446255825,-0.01770356538903375,-0.021415935662418874
940,-0.0007910374235928588,0.00440554281879581,-0.011859741084696703,-0.0144868609169418,-0.02326581404772298
941,-0.0010102387241968116,0.001960490744317471,-0.012737538567075303,-0.009736615836848518,-0.02470837001106636
942,0.0002685918498882966,0.0005064401630666332,-0.0121948735468435,-0.003558269597926841,-0.024674611787801014
943,0.002224095785620436,0.00046658058950059035,-0.011190093451970803,0.0018212333432263367,-0.022290533906382973
944,0.0029990566808707525,0.0006975077601253256,-0.010972007530531779,0.004967290066001668,-0.019033346893904485
945,0.0021372430184324115,9.83701691602226e-05,-0.011153360433289178,0.006000638629349252,-0.01724543850275749
946,0.0008058517736242049,-0.0015226877064043994,-0.010797586947929679,0.0061229389245173104,-0.018172751339278568
947,0.0002648183002447806,-0.0036476120228206978,-0.010168894717810226,0.0065212085567401944,-0.021195963055703988
948,0.00044927073347106176,-0.005494381381252477,-0.009852248237830822,0.007130296863610627,-0.024223664679957003
949,0.00047156874155415565,-0.006908704320075169,-0.009616972784030882,0.008506919645767457,-0.026153889037011418
950,-0.00018462730754559788,-0.00821675448686708,-0.009527988961698033,0.01091158612440548,-0.027540244824137687
951,-0.0012765564154329039,-0.009334998785714584,-0.010111177420246328,0.013213860523823869,-0.028356356880096748
952,-0.0022353334702057796,-0.01024133204842083,-0.010869708427222836,0.014870632411146004,-0.0284601416802738
953,-0.002831150116041876,-0.011367843239368014,-0.01123888407307356,0.01634167307122327,-0.029286109877538845
954,-0.0029799824735042713,-0.012808031771619443,-0.011803409482308874,0.017935756704510798,-0.03209668524964358
955,-0.002512804744315989,-0.014273754328071535,-0.013074845679656933,0.019288846579727948,-0.03632948712470693
956,-0.0019407154052676501,-0.01572234116275038,-0.015444637414542661,0.019272207056518033,-0.040374768679999076
957,-0.0022081031937088522,-0.016968554031972005,-0.019028791848558217,0.016675396053576565,-0.042078629171275306
958,-0.0028087072630265477,-0.01679502319378111,-0.021871591080847932,0.012964708193721735,-0.03963189056554863
959,-0.00241770580941377,-0.01466096170053617,-0.021633619912386128,0.011749806146604,-0.03388419573624758
960,-0.000741657170205801,-0.010801877272307372,-0.016898110913715503,0.01374223071051742,-0.025031045910307255
961,0.0008374133548654433,-0.008321708035057577,-0.012553617414872906,0.018916580950860903,-0.0192854993471424
962,0.0016283312823827552,-0.0066278594158392665,-0.008996370909766354,0.023629587935368485,-0.015774726703295158
963,0.0018803434914542165,-0.00560152302278671,-0.007669289703466945,0.02637915400294651,-0.015404670781258106
964,0.002289504967551627,-0.005018022097367803,-0.008671286031464229,0.027246364980676983,-0.017788158597079957
965,0.003561271250297408,-0.005182232002942297,-0.010143601221873692,0.027647461106567,-0.021594701831621013
966,0.005983127650513865,-0.006096275477647335,-0.00964730621780478,0.028893221336646333,-0.024739952606171983
967,0.009064512397764277,-0.006722899641876125,-0.006403323078650985,0.031381801158147295,-0.02499892248985101
968,0.011448062364163143,-0.006818182851845319,-0.002325043176774777,0.03379040580731642,-0.02252164888715373
969,0.012243229287564217,-0.007098343990469478,0.0002155045972421449,0.03458457404379342,-0.019552285289937882
970,0.012109276309179393,-0.007368590236734915,0.0011853033711355838,0.03435446500120649,-0.01731782036523941
971,0.011931158940646112,-0.006754368156542026,0.0017826703414559925,0.03376771704630388,-0.01539630520538259
972,0.011720311797280534,-0.005145301595816556,0.0020622565997975417,0.03220560603551748,-0.013324386946167482
973,0.010908183380838073,-0.0037023649644982925,0.0014958629803573723,0.029570728166307257,-0.011912022913432891
974,0.008964758353019197,-0.003025290728884151,0.0006257869731979815,0.026349169267077362,-0.010956257052505436
975,0.006376635668924179,-0.002003027377776753,0.0005921501226624719,0.02297226717377033,-0.008321311902936784
976,0.003995186299489255,-0.00035332849061671807,0.001281920599111775,0.019961668878873993,-0.004320379872986868
977,0.002011536951306614,0.0007717734647192811,0.0015539903212644576,0.01753136827212226,-0.001724663321466441
978,0.0007541031729906798,0.0011718624146274592,0.001393160332799137,0.01568042291516692,-0.0013346570815874837
979,0.0002374814799937549,0.001291606728019856,0.0014206686390331213,0.013990081186356756,-0.0018834227723638411
980,-0.00027398614133949674,0.0009845307706142475,0.0010084870944287545,0.011588010446762189,-0.0021896050295013504
981,-0.0008129634848674495,0.0005714602486316846,-0.00040231361692836544,0.008842668458624924,-0.0016550051326166683
982,-0.0008472347595603943,0.0011348621552179135,-0.001642261088873372,0.007163203659503667,-0.00019392815425962054
983,-0.0006094952245010214,0.0027957093057848453,-0.0014429031062879601,0.006527956844833026,0.0017306935759026935
984,-0.00023578007847128705,0.004533166854428413,0.0001783581901479806,0.006472777408720864,0.0032781707568489858
985,0.0005065214863596251,0.005534599889635551,0.0023176296485400197,0.007254399404334386,0.0036250476011126854
986,0.001280428694584493,0.005861557777050769,0.003947077923606182,0.008294786052000848,0.0029007336143204608
987,0.00179662169828223,0.006163090045129419,0.004619626891028963,0.008637846296583655,0.0021993335231510255
988,0.0022367970345258423,0.0067122155496010085,0.004436185766769902,0.008479835868739008,0.00207325946395335
989,0.002600098319740139,0.007003213020595106,0.003962347814614919,0.00844007440963847,0.002202932508085214
990,0.0025245241490569315,0.006562245524681737,0.003845727655362305,0.008377907252927396,0.0024448896540026866
991,0.001777764573105503,0.005457382759843455,0.003834558601028618,0.00772198566699808,0.0029711918403544273
992,0.0007062462377005164,0.004051505640094626,0.0033997551354950843,0.00638676498896538,0.0037231297569199117
993,4.460765829317533e-06,0.0028637970155552875,0.0028992375331055014,0.005193118733008968,0.0044023732445195845
994,-0.0003150331900629454,0.0020992662677794655,0.0026913115301130516,0.004518692236523004,0.004514571242952259
995,-0.0007670162087781001,0.0015137855010267567,0.0025068603319381966,0.0037911883588027905,0.0036341620164239627
996,-0.0012540118414215312,0.0009189560248343862,0.0020366065676870227,0.002982715156584472,0.0019851762452768287
997,-0.0013247233198923603,0.00037830612515245363,0.0013798349791660103,0.002539890089255776,0.0004637656396589836
998,-0.001014256366023224,0.00015066422332738987,0.0009332400107037521,0.0023127637762320567,1.5666157500146712e-06
999,-0.0006466040580464167,0.0002641523390565172,0.0008029135643222547,0.00202468485686157,0.0005977157892391576
