,AF3,AF4,Fp1,AF7,AF8
0,-0.012885556791140696,-0.0013021602422854477,-0.02206949606779249,-0.023599045329473836,-0.0202652355917491
1,-0.011153907535813322,-0.003097656569098418,-0.01596653984594447,-0.016849088170798346,-0.018302430454757858
2,-0.009609545195581673,-0.003930660087124129,-0.011455091365483337,-0.013477704372383572,-0.01595826297244205
3,-0.008085372697579753,-0.0028621605283777087,-0.008970679898284848,-0.012664120849956764,-0.01314135988586013
4,-0.006045857130757371,-0.0003281802716473175,-0.010595711417931785,-0.016201484624314574,-0.014145616970878919
5,-0.0037738094486847035,0.0025733365569029134,-0.013243264429453195,-0.0191628784820454,-0.01673182088991779
6,-0.002046061630080192,0.005018060890984337,-0.014616827910674306,-0.01892016743853238,-0.017950863718359595
7,-0.0009953192490472643,0.006988416192657062,-0.015193087533863076,-0.01788215800989969,-0.017880341277117844
8,-0.0006525255609029131,0.008978224222322943,-0.013456322394244095,-0.015427191694368897,-0.014559993858622913
9,-0.0006381308652625712,0.011321005102552404,-0.01068054331694767,-0.012961712046580842,-0.009815645277236554
10,0.00022225547033453936,0.013555842452585402,-0.008083449443887364,-0.010330399855957765,-0.0065768472554599815
11,0.001785089199617181,0.014980988882294105,-0.005991585432520879,-0.007316982860162564,-0.0056280514942813826
12,0.0022573845962312344,0.016055421772849923,-0.003908330650705693,-0.004494643583423635,-0.003924246048724951
13,0.0006247273511817839,0.017258462938309144,-0.002872819374519545,-0.0045452001315146795,-0.0007245508640891123
14,-0.0024480589675221452,0.018380463560211627,-0.002005117754771455,-0.006896203012408694,0.003505282597185976
15,-0.005654233738097397,0.019372370608020984,0.0009715895108005087,-0.008486326288230428,0.00874280693672412
16,-0.007960797947833916,0.019643001579445738,0.005004725510334692,-0.008828748060218954,0.012087756519984056
17,-0.008496912903706393,0.018622965905357516,0.007882715372272094,-0.0066842478706008596,0.012058818329213206
18,-0.006878430063492621,0.017139036297664667,0.007719215965177982,-0.0023430166451805534,0.00930885696682229
19,-0.004356561018852823,0.016001259758530187,0.005158328215202388,0.0019591782495272246,0.0052322450501057815
20,-0.0023764122728714056,0.015364881474228164,0.002391380513099591,0.004987525144412216,0.000631061982685429
21,-0.0005618723434230635,0.015447388689880685,0.0013640491718811421,0.00777570237159174,-0.0024436001307276338
22,0.0018267905230960357,0.016237741555214208,0.0018290556395896375,0.011305298168757421,-0.0036609933970312633
23,0.004182180980529493,0.017203426538146535,0.0019936705602298464,0.014305021055758862,-0.004727822261668762
24,0.005351942525419467,0.017785548434894913,0.001157404042865811,0.014749413403865213,-0.006206041392162778
25,0.0043960083128327335,0.01795644113320752,-0.000804103930224333,0.011588826112195236,-0.008267269485794707
26,0.0009485318491299464,0.01784683031288744,-0.0035171968628245993,0.005670141084066573,-0.009274850747283984
27,-0.0033333582073464306,0.017791837985165558,-0.00559426679176769,-0.00017746004203450218,-0.007224142350860624
28,-0.006086151193875095,0.01841441502371407,-0.005736037238400691,-0.003731352296089867,-0.0020833023612247246
29,-0.006917443401603483,0.019834648296977654,-0.003867792723305995,-0.004886697778623555,0.004070128953320617
30,-0.00718504373024313,0.020880469440990822,-0.001234739766660231,-0.004875520529760789,0.008553831208993435
31,-0.008462408455146139,0.02019207956517569,-0.0001221720446295633,-0.00549449340264377,0.00949413323075948
32,-0.011040598158384771,0.018186172821681355,-0.0015109200218503432,-0.007707965863140659,0.007812234167855365
33,-0.01393561841583436,0.016201942473694747,-0.0040325541700508855,-0.01097323736467284,0.006443926924661346
34,-0.016098040186077585,0.014865081474892074,-0.005366918668766491,-0.01328621871598118,0.006538276044440321
35,-0.0170549381118783,0.01363282487074273,-0.003966135737783686,-0.012626359991132362,0.0067403288101091485
36,-0.016535486740517167,0.011663387383302115,-0.0008510807169309543,-0.008606491951053933,0.004672717649463529
37,-0.01459921947731395,0.009276049032469017,0.0023910571965029158,-0.002163480573371209,0.0006571589129400092
38,-0.011787088178412885,0.007287053453553004,0.004644932361318698,0.0046451244168369465,-0.0038580342714156814
39,-0.008593950871142736,0.005777264286152654,0.005725774555623991,0.010204335791070843,-0.009211462174597637
40,-0.0056686901603821005,0.004529660063724952,0.006375480859853913,0.014002111891868646,-0.015709756925002597
41,-0.003368733936744731,0.004018620833858147,0.006464786367784959,0.015506842500459568,-0.0229239995037336
42,-0.002059920526138627,0.004324651804984911,0.004971499845176187,0.013814038260524561,-0.029797651569070372
43,-0.0021894673502715336,0.004578600678575944,0.0017908744856550867,0.008722906220177757,-0.03516477545386813
44,-0.002954128657474431,0.004953571738015755,-0.00046819477762932114,0.003084701106620553,-0.03811124475061116
45,-0.003187096574064513,0.006571194036107777,-0.0005683878761311215,-0.00010454095127453652,-0.038541252259476334
46,-0.0028631923118209914,0.009555496635994924,-0.00022956953964054942,-0.0005968688216115752,-0.0373768471069794
47,-0.002809159889922063,0.01264111406637461,-0.0003793860754173239,0.0003347153487139445,-0.03661094525347226
48,-0.003304488312242997,0.01432080669914406,-0.0004070686184595642,0.0014201466621133632,-0.037944244460711915
49,-0.003625151983800826,0.013748431767869456,-9.080710041628225e-05,0.0020021924893513896,-0.04163987824702748
50,-0.0030062979037216264,0.011528071610229252,-0.0004030396464482692,0.001286183493981066,-0.046944004068073884
51,-0.001363027814824912,0.009452303617749205,-0.0020961327440814424,-0.0013253433297434759,-0.05224934395465183
52,0.0008815142206594987,0.00887288212371731,-0.004774736692845685,-0.005688729352688181,-0.05047113173263102
53,0.002889103644226361,0.009930184920930726,-0.007476062227600333,-0.010538676730866229,-0.04345621671586262
54,0.003521695531406459,0.01156044823971816,-0.00962382898799893,-0.014937548123953454,-0.03512946048919024
55,0.002376330781724739,0.012513940739195402,-0.01125918825632803,-0.018513272452608247,-0.026437699952817858
56,0.00043394355967317624,0.012429898815498091,-0.01229861773637825,-0.020466315716878125,-0.02184020664484093
57,-0.0007706412440422897,0.011377409251209013,-0.012071968625963271,-0.020113762364567942,-0.021287999984290394
58,-0.00021202490055003098,0.009474924361105518,-0.010274535782322384,-0.017641993474968434,-0.023469303655486495
59,0.001705552443798098,0.007116894217126167,-0.007984827500433693,-0.014460776610247689,-0.027417273710725883
60,0.0035092675994852734,0.004802084781052385,-0.006716238387299701,-0.01175792845535644,-0.032977989959061156
61,0.00455916484042995,0.002801221007010929,-0.007372435337150524,-0.01054470087495102,-0.037032509476046756
62,0.004903561727523392,0.0012240824617390932,-0.010472421626071371,-0.012308750718337811,-0.0381325861845797
63,0.004775074139829041,0.0002957423301647145,-0.015267211194552347,-0.017169810450724254,-0.03788056721041598
64,0.004887757068246249,-1.3032256873846887e-05,-0.020284544771209362,-0.023611411554397384,-0.037055152096069154
65,0.005223690484589356,-0.0003155230139810007,-0.02469402689949886,-0.02943431576377413,-0.03810587606248656
66,0.0050270277226470515,-0.0010759425801235276,-0.028798296020066307,-0.033645475345007225,-0.04055334862690816
67,0.004373965055755998,-0.0019443464519740702,-0.031535041661280204,-0.03538986564030373,-0.041338620570455904
68,0.003914947880876926,-0.0020973567668381102,-0.0286903467400032,-0.031772996964420375,-0.04101803843112849
69,0.004012407107915578,-0.0008315629804449013,-0.023306070415958204,-0.027508730097793945,-0.03710667421809989
70,0.004621428330646063,0.00191981342957521,-0.019692895972703038,-0.026036764668994416,-0.02978586653911726
71,0.0047928996131510315,0.0049098816770443855,-0.018386626032935897,-0.02588937424648072,-0.023733666764143013
72,0.004225411546928286,0.00673967002215414,-0.019462204124987753,-0.027091861641970066,-0.01994597430155451
73,0.004102094820151936,0.00723297791560101,-0.019131150856938974,-0.026262631329282405,-0.018208881378224483
74,0.004522970862550516,0.0065014354676691,-0.01581003658369104,-0.02224405108243926,-0.01801835159476916
75,0.0049859133638334805,0.004770118883164682,-0.010800774965086342,-0.016313377087241725,-0.018634409458991107
76,0.006288554721266621,0.002969472313440222,-0.005459477572613205,-0.009648657986770785,-0.018552594614905802
77,0.009034100038893133,0.0021164497090616543,0.001195836029535857,-0.0014342752665698496,-0.018010480054001538
78,0.012334121904909873,0.002501388837033462,0.008560736778368182,0.007346281956415189,-0.01669586473923235
79,0.014844083990857144,0.003462521088049771,0.014624982049643263,0.014784047784902825,-0.014380554249501036
80,0.016220078568271623,0.0041624749436548715,0.019525683307421618,0.021670431403455894,-0.012065901879473432
81,0.01710771862271027,0.004390769978936533,0.023246752537645975,0.028087377128512284,-0.008966481337219001
82,0.017975809064348508,0.004346456533857365,0.026508700300055178,0.033946781295210594,-0.0050664386305535975
83,0.018832371572250213,0.004351751715999982,0.03029633313595084,0.03957893122926753,-0.0005420613954304323
84,0.019781007385679315,0.004658340835360949,0.029403374964821847,0.038654226905377245,0.0021491705806759645
85,0.02147289236244082,0.005343981738652056,0.02767620250567851,0.03697488342635731,0.0042920455524580944
86,0.02383355284713231,0.005803099765717898,0.02742161427547848,0.03799238530784577,0.005932971409170812
87,0.025510192776890823,0.005123763844098211,0.025214829199221127,0.03679583194520628,0.004996100852953772
88,0.025831611746839744,0.003295240968538824,0.02303509755109742,0.03521673040439168,0.0025392514663179714
89,0.0257400658877727,0.0017019716731065935,0.019849479826818894,0.03213960843333929,-0.0017640916794487956
90,0.026424363859397552,0.001804940083206237,0.014623126191011984,0.026907614082419453,-0.006564111971311317
91,0.027463821051555266,0.003055005174157671,0.008784620452801279,0.020999962880236107,-0.009472933231309435
92,0.027784103880943115,0.004235658375777348,0.005862245124849671,0.017238126208094666,-0.009016540204330063
93,0.026991029003038416,0.005155999093990775,0.004775027055071504,0.013093892839450191,-0.006934187639378294
94,0.025079916161798558,0.005753979919426594,0.003955989191508574,0.0073927980543685625,-0.0048550558121455535
95,0.022814725883317302,0.005649503806228106,0.003266751816981316,0.002004134672916588,-0.002983283389896505
96,0.02129928973719705,0.004911316989188777,7.52248967927394e-05,-0.004647736770492401,-0.002184699175835509
97,0.020837971275847578,0.004755911627680207,-0.005160835290324784,-0.011450181327448714,-0.001168617615195538
98,0.021079734185122392,0.006326851085730489,-0.010551948650387456,-0.017139330315551163,0.0008146752266008263
99,0.02133367064626897,0.008787515362562153,-0.015456173613906927,-0.022306264842746847,0.0015372344672338098
100,0.021091374579089866,0.010827022687190355,-0.014222651138890664,-0.019994024326461204,0.002292238487305996
101,0.020644272534848226,0.012399587116377632,-0.010678211711521023,-0.014757059381887897,0.0023211567989647147
102,0.02044883609112286,0.013332558226538702,-0.007995080460131568,-0.010526144247510727,0.0014112764352718077
103,0.02062430468526013,0.013303594862986367,-0.0038410830657681326,-0.004952842991360422,0.0013585238920508977
104,0.02081785431909733,0.012694347076711248,-0.0006392583662515639,-0.0018339472587169108,0.0014093763504464123
105,0.020782954464911137,0.012136386077787671,0.0026314862954345654,0.0005205372659415474,0.0021931491678746687
106,0.0210084317603013,0.012055244535305024,0.006651688095738759,0.00444290998014644,0.00383493827001979
107,0.021637586340568567,0.012204191839912747,0.009308106431209212,0.008417503436635722,0.004966162231164011
108,0.022401272585727917,0.012425276452900976,0.0077017764431859944,0.008286494909475245,0.0042938436472989006
109,0.023224326089005206,0.013123962349230788,0.005051820759211727,0.006892228669954714,0.004096987149881684
110,0.023433788593521656,0.013665613198919997,0.003376859668682134,0.005766916840723626,0.004536472273847531
111,0.022734015765835076,0.012838788095143116,0.001632723922773915,0.003576569563267479,0.002912718399179195
112,0.022229977187465,0.010826533863856307,0.0014343837258064787,0.003596139388093259,-0.0005668017999034988
113,0.022037523606101964,0.008293841677769023,0.0011696004687065792,0.004216926400228581,-0.005182371992944499
114,0.020972859774362206,0.005926233531522327,-0.00037418617547109315,0.0025554026636371626,-0.009659611731919584
115,0.019002639938964814,0.00526874232063951,-0.0016806356972385562,-0.0005813996830448484,-0.011979452459752269
116,0.017012364679827884,0.007056897969067899,-0.002936574448227697,-0.0038159088361637843,-0.009297558124382623
117,0.015706947159788487,0.01022301741824943,-0.003833564060243293,-0.005337350862291025,-0.0029306322728859836
118,0.015599399417640524,0.013218561611485664,-0.003573684437525856,-0.00470093977639463,0.004777455064478514
119,0.016407869918655133,0.014655729203901435,-0.0025695478474018945,-0.003396669461864115,0.01118683177262179
120,0.017277171667221987,0.013964434790049841,-0.0013594054886384857,-0.002520447385983987,0.012392167834493614
121,0.018401822271811207,0.012298320925353913,-8.979204237605349e-06,-0.0016666120568519956,0.009350874133071852
122,0.02055385222360479,0.011280841244595996,0.001718880766636202,-0.00037644249699266566,0.005101722941628127
123,0.02246954727961048,0.01071709216619799,0.002524956295481724,-0.00030297974083191343,0.0009136643161547044
124,0.022315799092499686,0.0096035043993737,0.0010770304053402066,-0.0022747846839987155,-0.0036398408181499537
125,0.020677029933350244,0.008428395037180542,-0.002311205913324224,-0.004640145717207685,-0.007416534396081973
126,0.01902362154181298,0.008127437135613662,-0.005634885297420701,-0.005553650044914898,-0.009206612175817351
127,0.018078766485749888,0.008474835356835237,-0.0067997056697833265,-0.004374182088029232,-0.009332626246419217
128,0.017904792450747973,0.008713295842358321,-0.005871570046415473,-0.0018191880241035972,-0.008244850523160268
129,0.018320461808885673,0.008590269726954043,-0.0033147792098650658,0.0020956227674065147,-0.005745269030217512
130,0.018928799537415903,0.008022650935468742,-0.0008580274861787688,0.00475657324293009,-0.003133852572905046
131,0.019079050554431924,0.006807474795597988,0.0002272918968081564,0.004229787489188136,-0.0014931640276199126
132,0.01877025633157459,0.005496477433673221,-3.398759560089341e-05,0.001942037089300652,-0.001315203043208769
133,0.018246079282930486,0.004597107619441529,-0.0001318181852662663,0.00010991024771673,-0.0007331358053286116
134,0.01759120667705695,0.003987030341267294,0.0007255803757847186,-0.00044732483369871616,0.0007697965699317507
135,0.017173872283956938,0.00406309108539246,0.0021723776284659807,0.0002487697156615437,0.0024035387707161604
136,0.01693549566962353,0.0051039647672275765,0.003329227875132593,0.0008733819679270769,0.0041450099789163775
137,0.01669862586841782,0.006798000798311506,0.003529247426981724,0.0006525610071959325,0.004991629725413987
138,0.016697961026496812,0.008893986598919068,0.00346491143078584,0.0003666093661468338,0.004943869126272572
139,0.016748753711649883,0.010742076350268878,0.0036632140359498114,0.0005101511836390046,0.005040037814661164
140,0.01643860934751998,0.011660125333273152,0.0040752353989747135,0.0007192725400957396,0.005890779908537606
141,0.0158554582299403,0.012104612465977226,0.004503438018229818,0.0009368233671904621,0.0074288429916614
142,0.015438145309574219,0.012771664425671842,0.004538598020923455,0.0013231676129459324,0.009025677593943906
143,0.015406796053057316,0.013536227083436447,0.003910195690239807,0.0018328598867691766,0.009113342639972667
144,0.015442011207020122,0.014186684370217128,0.0026591067898470216,0.0024170780525988676,0.006844983032197967
145,0.015202831161947507,0.014649081638397822,0.001210054265680714,0.002994442204029322,0.0035948852525600713
146,0.014684268826728556,0.014698073869465493,-3.992478477387898e-05,0.0033682383688505907,0.0010371143746159715
147,0.013810666253743947,0.014289726346678126,-0.001209630196117658,0.003294011185912792,-0.0003449204153832438
148,0.012687006448570905,0.013341619151886416,-0.002294468533360087,0.0021653905654598227,-0.0015677729968182526
149,0.011976654081878414,0.012037723993503096,-0.0031784113000478645,0.0008701280977312381,-0.0031414936200785553
150,0.011976231798828995,0.011149452519685564,-0.003558508803477,-0.00037858308856587614,-0.004788456798736653
151,0.012309755260124481,0.011347524421015009,-0.002714817029723937,-0.0014441859988731087,-0.0061308896149672755
152,0.01263237214539298,0.01272011137628741,-0.0005139287138266162,-0.0011251980227039234,-0.006342646854529388
153,0.01253465013327624,0.014319406825953975,0.0017304606575445675,-0.00029272604958773283,-0.0058408696948070195
154,0.011625332363883146,0.014843849561752642,0.0025698366953471187,-0.0001648510979481386,-0.005910782985290429
155,0.009367272861237293,0.013873451411526969,0.0013955394295726913,-0.001532786632969731,-0.006749652946211633
156,0.005813097549388936,0.012232133876272967,-0.0019137452657115625,-0.004527177906342985,-0.007731365125328162
157,0.0025980825938362742,0.011340280128329851,-0.0060509408599670874,-0.007932685947622463,-0.007734983434113213
158,0.0011622395844252324,0.011753923889638487,-0.008991070607420416,-0.010055924228276083,-0.005614685238675567
159,0.0015296738789535012,0.012562674534497309,-0.009482890327920004,-0.010275293088771727,-0.0017941953107865484
160,0.003450227756164174,0.013026430834334253,-0.007058652193436963,-0.008795545997468924,0.0024429859179442336
161,0.006538190204416728,0.013154452190481145,-0.002557535305172131,-0.0055035895726650175,0.005923664155515544
162,0.009578871852621594,0.013011290487053725,0.0019849061232247076,-0.0009497243431127852,0.007413612695082439
163,0.011056140536905148,0.012892922749224791,0.004860093755755039,0.0034704986008905806,0.006437499908984424
164,0.01066010216525735,0.013194506133259657,0.005094621873001005,0.005814744717382973,0.0045104920359017074
165,0.009510235829064505,0.014277623483128162,0.0041100340844346175,0.007041615539561906,0.0031329983480367163
166,0.008569158676347359,0.01577545149897458,0.0034158365709261655,0.007982596737919184,0.0032294781492033177
167,0.008334273390825512,0.016532831993823386,0.003352578134465182,0.008218562488055641,0.004110024156128552
168,0.008555004690080345,0.015783467354944333,0.0038825798321883835,0.007807237003868079,0.0035975192285252517
169,0.008143213546148569,0.013508015006900454,0.003595479139600742,0.00574561326054091,0.0014806666325906629
170,0.006560882724587632,0.009994905489489897,0.0017803343111074742,0.0019499955929567826,-0.0011607425431415575
171,0.004682202978013437,0.006201885142673047,-7.169038783380118e-05,-0.0016521766610637343,-0.0032953718224734124
172,0.003861870493673621,0.00326054644513512,-0.0005257306711410792,-0.002857174296144565,-0.004480517913193072
173,0.004472202647980203,0.0012908845310083596,-0.0007328030661892115,-0.00249225622694116,-0.004864552421078806
174,0.006017504420543416,0.000204661807193919,-0.001308568725853778,-0.001728528094989738,-0.0047745705155964385
175,0.007701553974436016,0.0002553354837665139,-0.0014105970646505553,-0.0004952896260063112,-0.004256159538367607
176,0.008663431229155886,0.0011251003332285816,-0.0010988319007683158,0.0004318568343161749,-0.0033634906667475307
177,0.008465385605378737,0.001999751660653164,-0.00038657823374869775,0.000667624481073519,-0.001998037775866085
178,0.007528101739408279,0.002668329941940835,0.000989776575264443,0.0005473577006794381,0.0007534025011369973
179,0.006702243603445968,0.0032927329830799937,0.002813832393061873,0.0008590735397817824,0.004939785158013681
180,0.0066691856838074,0.003646150868340629,0.003989645642424305,0.004238984371162444,0.007335282926074253
181,0.007375370492050025,0.0034184064712544466,0.004153346264972426,0.008552380613445121,0.007507480683702531
182,0.0075647473817586665,0.002498940149287756,0.002685760117452946,0.010842873099582144,0.0058828281934428074
183,0.006686205002566415,0.0015779771872775127,-0.0002463446059514349,0.011521041757899775,0.002832071188125948
184,0.0058188151345370314,0.0017688430843363768,-0.0024238228860134045,0.011493209290495217,0.0006711408060705032
185,0.005430505263078283,0.0027565548136127787,-0.0032279289471194464,0.012526968825783458,-0.0005820194935538924
186,0.005167307267500971,0.0034080508493427837,-0.0036111512192342795,0.015109573871031923,-0.0018838916488691734
187,0.004586210500676087,0.0031808855974070453,-0.004213612620270365,0.018430239049340623,-0.003912526705752858
188,0.003160132725614302,0.0019708346399097006,-0.005027694655104311,0.02056985837386645,-0.005875440165374818
189,0.0014777408952348003,-0.00010121832307371405,-0.005366121085576765,0.0221346078874633,-0.0072244287232820165
190,0.0007220278596234377,-0.002662475417338647,-0.004347137427647943,0.02436851490504124,-0.0077047674282541
191,0.0012650495145112356,-0.004605582791541471,-0.002371780553392742,0.027246616099331517,-0.006535140190586548
192,0.0029880122235550087,-0.0048723601565270145,-0.0005069094093147659,0.031891398963283926,-0.0038009737721759612
193,0.0050798596457341345,-0.004126868033580238,0.0006613649780964853,0.03703364481092147,0.0005528580977691642
194,0.006812888888216437,-0.0034901171805295427,0.0007214261375722266,0.0419580177873051,0.003942020623384555
195,0.00868555408847291,-0.0027127494367916306,0.0008447892503485614,0.04728706506507165,0.004833677278713357
196,0.010998748707592319,-0.001265906912155419,0.004084314154617212,0.04877438420512129,0.006587322139661957
197,0.012924311129252663,0.00022222317136852572,0.007888041099146325,0.048046951061695646,0.007769772721736298
198,0.013603941062573913,0.0006747858526524269,0.01005214633264928,0.04657497839086052,0.007466736330434801
199,0.012982650361346047,-1.6242432363381003e-05,0.011745294971194078,0.04314976765264803,0.007943707728451653
200,0.011774532265481424,-0.0013043233760293693,0.01290625069576069,0.04074340174606455,0.008669661111764058
201,0.010549652704699963,-0.0029419261718650748,0.014500671641461066,0.038642330834676795,0.010429880602443377
202,0.009118232806573784,-0.004742909008267825,0.016254100248629486,0.0353759274256705,0.013516590278132722
203,0.007773669307142835,-0.005854880292853561,0.017402088325052276,0.031121645326176575,0.017359481743887937
204,0.006962777910076748,-0.005534564798473641,0.017466156027791075,0.02754431918956844,0.020249005703246253
205,0.006195429690124977,-0.004486280208744323,0.017296858689901703,0.02330140131876163,0.022066929583706384
206,0.005546814455675855,-0.0036537709894315473,0.017698225684638046,0.018708985617144975,0.02321979369698246
207,0.005948025967749253,-0.0028003959451137123,0.019208198296515405,0.015703362905569257,0.02504546551698184
208,0.007602203549744633,-0.0017380963638940075,0.02306907291172587,0.013353156678911711,0.02954945168851243
209,0.00965908374495184,-0.0012395033093386327,0.028516187886126275,0.012019597133243895,0.034721014124617686
210,0.011045654374357231,-0.0016956603425816305,0.033920554361006286,0.010870602289768307,0.038547512516191484
211,0.011356879366195937,-0.0022773579953194656,0.038604786087472795,0.007937700271998098,0.04135100535253807
212,0.01059984814952895,-0.0021180619830068153,0.038105563533022246,0.0056077262696222025,0.03793577040174749
213,0.008939827739861772,-0.0008708061505559634,0.03531124751737471,0.0035938420530213125,0.03248723019230313
214,0.006972119992637347,0.0012239188002258255,0.032514386264504626,0.001559275123077075,0.02866917752810506
215,0.005151212556430094,0.0026628613061609107,0.02758134292540853,-0.00012488112301443666,0.024345074796796082
216,0.0034095287087314067,0.002230042109929627,0.022484058782495365,-0.0031872779983415276,0.021930052481236747
217,0.0015714549877404523,0.0004567691632864245,0.016810159601449482,-0.007010141565709181,0.020064976898004547
218,0.00015335750249209355,-0.0018021521116120514,0.010389702643439216,-0.010191704881344844,0.017570743664243077
219,-0.00019102176316648073,-0.00399862341456097,0.004941041058566281,-0.012193479448847334,0.01576170836630305
220,1.2748134986629222e-05,-0.005505825135147012,0.002584428571740151,-0.014458131481662617,0.017040751823232884
221,-9.69241400336336e-05,-0.006440681867720828,0.0009509540343689014,-0.01719822498201741,0.017715686017862546
222,-0.00043788020590109335,-0.007305202867572404,-0.0012862534282184889,-0.020436347497012106,0.015637413950386682
223,-0.0003487451176864855,-0.007429468097092027,-0.0031077975674763674,-0.024827865893983364,0.013424289946744354
224,0.0006258767845653452,-0.006173272297342008,-0.005995007381292337,-0.0291312022055596,0.010759398498670598
225,0.0021840240775827992,-0.004365308935874945,-0.009894847555990183,-0.032182574457048765,0.008117585601099346
226,0.0030531678744235386,-0.0032625313140070924,-0.01460332922853572,-0.03411630205388208,0.004836286235915593
227,0.002346386247633717,-0.002994736296840348,-0.020412689748045273,-0.03598501644487543,-0.0003384497431822794
228,0.0009636386611392044,-0.002467569858467784,-0.023890449316110823,-0.03698676183786062,-0.003346177740298925
229,-0.00013446784890384832,-0.0014204894317645293,-0.025177223987849422,-0.03705911554313054,-0.00517311907659219
230,-0.0011599275112713248,-0.00098993326965301,-0.025436588396130513,-0.036750082276829514,-0.007661356086021863
231,-0.0018147320482550665,-0.0017628131878639664,-0.024430857407346695,-0.035804999442284116,-0.010249217655587768
232,-0.0014881809713392596,-0.0033167662420309856,-0.023984040030915418,-0.03467556968067601,-0.014590726231533223
233,-0.0008032758906461284,-0.005287988467191306,-0.024407363997537977,-0.03397261937214311,-0.01973254898479734
234,-0.0006580866696723038,-0.007123747076826358,-0.02524549705073697,-0.03382617782148383,-0.02326626888321408
235,-0.0011126474864649439,-0.007801172963934655,-0.026600346460207615,-0.033933782960714504,-0.023336871347557825
236,-0.001488796007267503,-0.006877859617797043,-0.02904212608413265,-0.03426119052389563,-0.021503075765943173
237,-0.0010733463742253029,-0.005316559505721621,-0.03097392059119756,-0.03441888843991704,-0.019832078439957008
238,-0.0002247758593258201,-0.004277355548689559,-0.03216930634412372,-0.03449050161562797,-0.020437320781637083
239,0.00015039914934834216,-0.003728837039546411,-0.033817372569115906,-0.034972337536975394,-0.02331152222567146
240,-0.00027654988299360224,-0.0031989123422610792,-0.03538782867427293,-0.03572889241732692,-0.02512009032736362
241,-0.001155055527437541,-0.002444223532505137,-0.03688346015549928,-0.03637805215077266,-0.0251955976101558
242,-0.0015468164355820588,-0.001062302696772638,-0.03771494043010609,-0.036254033733799894,-0.0242267547998053
243,-0.001268895805229271,0.0010090603563052772,-0.03701272030806919,-0.035602004079581015,-0.02240432340493643
244,-0.001229063162093602,0.0029110061381806512,-0.0352754283098863,-0.034232996752837135,-0.020197817309455666
245,-0.0013447815374416114,0.003921082597949128,-0.03365743721517599,-0.03261417983485664,-0.01834484054118817
246,-0.00098577288346938,0.003938308306211702,-0.03268010672724969,-0.03049996169174579,-0.01710344016109743
247,0.00018506283780525226,0.0035245237093093017,-0.031685635362907714,-0.02680694372305105,-0.01576929155619334
248,0.0019867658524720328,0.003258947889595553,-0.029790475754592777,-0.022496050031506294,-0.014210432639731149
249,0.003527517787617316,0.0031904134796092933,-0.027037109975256962,-0.018391937944937646,-0.013243946536853176
250,0.004842843045688826,0.0037207110909115238,-0.024389576224581325,-0.014295600468549925,-0.013437920324283249
251,0.006259090908216488,0.00460377435281348,-0.02287959683069954,-0.009994583329885195,-0.014825477576749437
252,0.006621829529075586,0.004450021580613281,-0.023225748691880342,-0.007216470180341399,-0.01703346875245145
253,0.004699078188497069,0.0026291433605221846,-0.025718682205762792,-0.006345389833795912,-0.020044334994800437
254,0.0014365446812976785,0.0003976180715448162,-0.029523751771977042,-0.006273729654805052,-0.0236299236788369
255,-0.0010341873103789875,-0.0002733287084066341,-0.033288036138120015,-0.0061739252341105316,-0.0265222681153459
256,-0.00197957742307855,0.0009528129160093247,-0.03620661070831298,-0.004293920370307586,-0.027962339210611094
257,-0.0024198325394616995,0.0026206723428794645,-0.03816808998680015,-0.0016863109780984322,-0.028533648166258762
258,-0.0028857601935427368,0.003990443645164658,-0.039023188657760007,0.0012474167767089319,-0.02867309943920628
259,-0.002724788428536172,0.005372023391051391,-0.038407709556250856,0.005000361711982619,-0.028104781408054905
260,-0.0017487995282067753,0.006648862852283877,-0.036772694122515444,0.006264604496703851,-0.027320082043368974
261,-0.0005863557455314531,0.007672331894256837,-0.035142028926950335,0.007237759251892557,-0.027231556341026565
262,0.00014481619849593383,0.008409058284330619,-0.03404835373805886,0.008575819604197505,-0.028217649885614187
263,0.0007653041246009594,0.009248000812460046,-0.03293413215445966,0.008291025897087537,-0.02952279747137392
264,0.0016974806296052858,0.010747598823511275,-0.03130971116833178,0.008515474627650755,-0.029559936990925323
265,0.0027830271131547095,0.012651500697089908,-0.029360258371713244,0.00834473358222182,-0.02779541194458256
266,0.0038990295083950635,0.014379397156651246,-0.027101766170636074,0.007236133426760537,-0.025074577195837902
267,0.004586144953448993,0.015500782737314313,-0.025115045430354747,0.0063428091478129845,-0.023020452267004617
268,0.004164034338446109,0.016353789836769366,-0.02461279128327066,0.007064805948964711,-0.022914173934117394
269,0.0028555380399588174,0.01749319988128599,-0.0262487626416488,0.007431566968859413,-0.024571378913091288
270,0.001647167760777998,0.01830334824925746,-0.02981118445017658,0.006466574034606764,-0.02695261018315121
271,0.0009170662838296728,0.017623720655280048,-0.03384642181736541,0.004942258666295702,-0.02922146606766577
272,0.000746490406043063,0.015443186309234446,-0.036039051815693945,0.002449535557012015,-0.03053352050036794
273,0.0014601461386544742,0.012917019701306464,-0.035629463252728394,0.000405601265364326,-0.03060054069679445
274,0.0027225469054448686,0.010705249302167161,-0.034215859041437785,-0.0003878542784654132,-0.03048063244827484
275,0.0035051527602955493,0.008767048781974375,-0.033496011752751305,-0.001044292095496181,-0.030922083319587252
276,0.003253951807120466,0.007439906580323541,-0.03369843582626193,-0.0010124810932758712,-0.02962495527485108
277,0.0022596758276893915,0.006888398893992693,-0.034561669520963526,-0.00162102712796852,-0.02828250521024028
278,0.0010555177011542518,0.006159742208354929,-0.03628168141956547,-0.003504590775810662,-0.02875767932268281
279,0.0002389824372650705,0.0047622838986580325,-0.03860836365406757,-0.005315922995567648,-0.02911042232204401
280,0.0003416435801660849,0.0034870633191516425,-0.04057181153334111,-0.0066243528371775955,-0.028316266373616797
281,0.0014012866358923599,0.003163143538535704,-0.04144633366636454,-0.006593994598304443,-0.026009102984641957
282,0.0028510216188638066,0.00435368685096246,-0.04121384174269192,-0.00526188436606941,-0.022242372862852515
283,0.003881333774606995,0.006834261923364292,-0.04064915314997507,-0.003901847612540203,-0.01735725841588776
284,0.004105222524158882,0.00940741130296138,-0.04055972813089127,-0.0040084822370912284,-0.013106925548488593
285,0.004104569771835994,0.011390682074675636,-0.040858834309695564,-0.004495053704206111,-0.00873090722067885
286,0.004494021022469347,0.01251607661097765,-0.041175657962529616,-0.004190255943890643,-0.003233086588013386
287,0.004973177468987974,0.011911493421222807,-0.041542541835458933,-0.0033339074585393594,0.0020722557143338584
288,0.005280657742089299,0.00946142878358477,-0.04225658501105093,-0.0018875470106754946,0.006696626590709239
289,0.005497069486839202,0.006550240497411818,-0.04341221023466876,-0.00044119050091190955,0.00999560818334505
290,0.005571811816123466,0.00453700280295474,-0.04480477201717481,-7.547137760619616e-05,0.012039465040817744
291,0.006053536987472453,0.0041123878076594084,-0.045885020538184024,-0.0007616965046970199,0.01415287996394693
292,0.007563700762976816,0.004981843954629989,-0.043369553068108045,-0.0013886326620038603,0.010283135560355691
293,0.009508239971443708,0.006039279157299134,-0.038772230911074484,-0.0004758970401676537,0.0031424516730319176
294,0.011381309504922263,0.006869773582407162,-0.033768333381734884,0.002157965285936218,-0.003778602973082952
295,0.013161173694675204,0.007354656854312334,-0.02811762588863497,0.005385583513538446,-0.011340352480067293
296,0.014385514639781254,0.006921329440118687,-0.023789172584648535,0.00784399341038465,-0.015750375083294344
297,0.015099762888525716,0.0059817176673919795,-0.02018242964251113,0.008625973713204246,-0.017887539934771348
298,0.015523605903069372,0.005691413517385427,-0.016877542856453272,0.007735205416888612,-0.019418859231547105
299,0.014603255269111914,0.0054462282725782785,-0.015025907434865418,0.005043359890484142,-0.021265904391413765
300,0.01199525121053381,0.004167134316503589,-0.015142427130349832,0.0015369756024357782,-0.022295036437339405
301,0.009342967655464846,0.0029447519626683957,-0.014681793807990269,-0.0010404321097230562,-0.02389434298956914
302,0.007089504385445009,0.0025113325423945436,-0.01308742097859848,-0.002428872446873481,-0.026816562662207322
303,0.004408737735493702,0.0019190882510427335,-0.011470448592388249,-0.0034968434328156786,-0.030633056811492566
304,0.0019057582720396948,0.0012855317820400522,-0.008162701239768493,-0.004439570724250322,-0.03615484874559293
305,0.0006641183721205943,0.001766284968946408,-0.0025396722855717518,-0.004879071941455201,-0.0402864681827394
306,0.0006700630679474912,0.0031503473215390857,0.0041513953673894596,-0.00509534368563059,-0.04245686711555598
307,0.001101275903570528,0.0039812159251852155,0.0105249613375142,-0.0053483788521501464,-0.046303269002216124
308,0.0015732507096067627,0.003699896405127018,0.0106184087021881,-0.00456606090983147,-0.04459294258852812
309,0.0021055218492418417,0.0025431505816017165,0.008282864608641147,-0.0028364319043393455,-0.04221462908426032
310,0.0022528371161904368,0.0006072495285856704,0.0070357612053879425,-0.0006943061154197441,-0.04144522870156108
311,0.001531023610887692,-0.0015802753890140414,0.0059143391133416766,0.0014453411293568674,-0.03666665498918833
312,2.244818683898104e-06,-0.003264566779247276,0.0076289253446134705,0.002700326714125493,-0.031805782627682036
313,-0.0014731027083182606,-0.004244075570951364,0.009780765119466812,0.0038109344976905643,-0.026105736527578572
314,-0.002152545335347106,-0.004799799123180031,0.009900937327764916,0.005664952963813259,-0.019741688000277317
315,-0.002274046011424416,-0.004960252576997247,0.008610345623435453,0.007644299958520164,-0.015128479647738157
316,-0.002807423095989782,-0.004694950653403327,0.008438344040166228,0.007756058285900161,-0.015527272089307773
317,-0.004259951506390332,-0.0043889220917792526,0.007310571745045468,0.005331868204030296,-0.016032439083029478
318,-0.0057236588373232086,-0.0043148267001435715,0.004803158307094385,0.002240552691767639,-0.013461786362557588
319,-0.006162037833716582,-0.004507521104319498,0.0028605003440213992,0.00033982253783747696,-0.009741229697033466
320,-0.005688964625016302,-0.005274683356661392,0.0033388539678680554,0.0005303980873708425,-0.0025276172652445934
321,-0.0054857001864877415,-0.007174116603783517,0.0003887289486635041,0.0009635860873436958,0.0036425144261577145
322,-0.006327890063969403,-0.009948850639262149,-0.0022252652990223725,0.0014135450246629863,0.008972419160461743
323,-0.007686044600433489,-0.012893405925460245,-0.004665323459352504,0.0019869072429371656,0.014965323660450005
324,-0.009115159759568076,-0.015849229344474,-0.004496408993486201,0.0016669528431133046,0.014416406746808493
325,-0.01093582312488513,-0.018733436592478662,-0.00401767983943744,6.169552964950498e-05,0.011267086334224706
326,-0.013031570980093193,-0.021587221394874196,-0.004626310752953865,-0.0025049678406523475,0.009076386750928023
327,-0.014829196422622388,-0.024167122241746355,-0.004926803324860763,-0.00543295578760121,0.005604326032278833
328,-0.01641838908619732,-0.02548100395268898,-0.006044684244064097,-0.007675641166181066,0.003990912656807522
329,-0.017952701008380065,-0.02462167147396821,-0.006914187900788852,-0.008702263253825667,0.0026268876636813786
330,-0.0189051870609643,-0.02155854622018775,-0.006169904685557211,-0.007955209014219046,0.0007144519221010649
331,-0.018968621348790505,-0.017607991424262153,-0.004147853525909896,-0.00529997971211661,-1.0322242068032684e-05
332,-0.018834714317062306,-0.014434591609970241,-0.0026810139474269406,-0.0013967019544276755,0.003126253918843189
333,-0.019404986368337238,-0.012789204914698123,-0.001906231530828214,0.0019452493097868256,0.006515228144783499
334,-0.020850655463761796,-0.01270759184218282,-0.0018439009965107256,0.0037182660477340034,0.007757594960013579
335,-0.023000091526846168,-0.013671709155919554,-0.002219708975354464,0.00393806191544228,0.00824244147210149
336,-0.025668659232813643,-0.015025707458246615,-0.001451587246435919,0.002698987819871744,0.006549914264451154
337,-0.02804032726806417,-0.0166912856472707,-3.493378050726845e-05,0.0011681709928384571,0.003939962803292235
338,-0.029184973315357656,-0.018791974900634015,0.0012649234563260356,0.0003696867928569145,0.0019202893671128951
339,-0.02903402640561928,-0.020953205056708474,0.002351232667928381,0.00022999594930461607,0.0001115594428160805
340,-0.02799936971895504,-0.0224890105759558,9.575218228196598e-05,0.0007203318731855372,-0.0014896297861717836
341,-0.026556707841553815,-0.02322256484428724,-0.0034954067675177303,0.0015253721316815958,-0.0030239643854054615
342,-0.02498778412624498,-0.02348337875436992,-0.006105448457752079,0.0026297556814354793,-0.004269159178325896
343,-0.023673870236755833,-0.023904026514850293,-0.008153977764190355,0.003795240009144211,-0.004470793205012638
344,-0.02363430528784311,-0.025483803410660266,-0.009237503522311947,0.0037584150378591665,-0.0038609934726146697
345,-0.025163013517780542,-0.027995372575960374,-0.011633540309410188,0.0020747869861598668,-0.0034118625441411543
346,-0.027284447990809823,-0.030060082913155414,-0.01626843874318327,-0.00026382660291652,-0.003600890253001342
347,-0.029589625996611232,-0.031165634747114587,-0.02231089378168683,-0.0025213891012919945,-0.004574362481314054
348,-0.032227955762273136,-0.03130300371929488,-0.028092119327055836,-0.005006380955191385,-0.005572455558665425
349,-0.034213037753413895,-0.030656008621755184,-0.03338005005145838,-0.00658311735017307,-0.005678183224092164
350,-0.034300570310178156,-0.03002884061288233,-0.03746017347572494,-0.005683310800529764,-0.005455561945582621
351,-0.03315134260050445,-0.029968887737215167,-0.03993290826016627,-0.003062587905600265,-0.005706244076529829
352,-0.03202911527470924,-0.029914753583595823,-0.042527829762760365,-0.00011821387489048862,-0.0059263721945120714
353,-0.031228372869992537,-0.029313795945962267,-0.04546061118588946,0.0020752278121643265,-0.0048106110319892014
354,-0.03085795725031578,-0.02877501476382185,-0.048818643960981796,0.0027038452614514983,-0.0021171360044559924
355,-0.03058186935720288,-0.028500269047739064,-0.052781415659908,0.0023258295353376663,0.001538005568807502
356,-0.029931835966175616,-0.027919306463648617,-0.05175664461464213,0.00045099576840076217,0.005357020281918194
357,-0.029618157385671834,-0.027620625998214215,-0.04933399953917763,-0.00232762238791691,0.007760847859126659
358,-0.030514569575325983,-0.028631520905387873,-0.04920031453436306,-0.006222812930701435,0.007347967901235039
359,-0.03192991806310533,-0.03021877907316673,-0.048671806444174084,-0.01123302510570644,0.0046779008744190255
360,-0.032714911890069934,-0.030779779913864026,-0.04819923105573343,-0.015450281825410328,0.0022807069709185504
361,-0.03307607921485772,-0.030094622339672007,-0.04670651886276262,-0.019430221512286013,0.001944316637753859
362,-0.03382202187651553,-0.029140799021269415,-0.04441171069700024,-0.023852735089976436,0.0025938718794699376
363,-0.034617695931410015,-0.028199392910949424,-0.042689671303094,-0.02770590634045045,0.0023724862551914878
364,-0.034406557824148226,-0.026658888554794466,-0.043470949847337084,-0.02979792508556046,0.0012466964046938087
365,-0.03302656924165319,-0.024281159847036923,-0.04403530743585329,-0.031267271883485576,0.0004187048783874572
366,-0.03093652983693647,-0.021078874452157982,-0.04263399375890155,-0.0327158400287906,0.0009727852985397417
367,-0.029144428720513493,-0.017687369046856225,-0.04103364458069208,-0.03457402683432267,0.002582540083769977
368,-0.028641792655963363,-0.015483370597177856,-0.038817796783595725,-0.0385715046318293,0.003465911510126493
369,-0.028796193493635647,-0.014514979200178576,-0.036594083508455194,-0.0439661681082486,0.0028643988096968592
370,-0.02887424742735927,-0.013841615725505659,-0.03502313768596782,-0.049561924504013366,0.001287231851570508
371,-0.028987399145901968,-0.012957101336585914,-0.0338587168072034,-0.05473908101056525,-0.0010110854148114416
372,-0.029107893851163063,-0.011866487878504363,-0.035155851753881875,-0.05497422259772367,-0.0033172978312800516
373,-0.029483238155614516,-0.011796938262655187,-0.037099016610699385,-0.053275524062032814,-0.005501559035005857
374,-0.030384932977001313,-0.013789108524056097,-0.03791967998792557,-0.051794422193283354,-0.008161142253194224
375,-0.03147914907243792,-0.01646071822031927,-0.038389886142655455,-0.04900412450788497,-0.011187227434688172
376,-0.032357677763618094,-0.01753574857247359,-0.03812617317466056,-0.04798592930834613,-0.014137780399619557
377,-0.03257579851287571,-0.01640554415585476,-0.0378586283764483,-0.047959695688287174,-0.016621547224271324
378,-0.03180130543650622,-0.014361233762818653,-0.037816746917168846,-0.04656307103890695,-0.018753694804379002
379,-0.030098303645261202,-0.012743991522781124,-0.03757463792660515,-0.04388297282205053,-0.021494717060921088
380,-0.027544692711523534,-0.011111173346901496,-0.03598793430601371,-0.04179039730979449,-0.02550101031877782
381,-0.024883801899252465,-0.008571605327157004,-0.03446617627077706,-0.039291326570891155,-0.03000688016400015
382,-0.02335161492563284,-0.005757808300847426,-0.03458831109036234,-0.03650756626206089,-0.03409494299631078
383,-0.022885229428218336,-0.003733230508852631,-0.03553214796478978,-0.03470222158313299,-0.037279269317111785
384,-0.022632320216059244,-0.002991317973008629,-0.03656695059700446,-0.032666994360241584,-0.03943995590956901
385,-0.02223875233429016,-0.0032115000665737694,-0.036302812748545056,-0.030947484394962924,-0.04027983507606668
386,-0.021621424038180685,-0.003369349143615763,-0.034510663601836876,-0.029080789308691585,-0.03988661270330415
387,-0.02117654777434808,-0.003391283244742269,-0.03243927832330797,-0.02631171296486904,-0.03902305743608107
388,-0.021184196054830205,-0.0037033612658253835,-0.030738214328891778,-0.025270677141386713,-0.036418752698458776
389,-0.02126406634751627,-0.0037205538774772633,-0.029056867388298574,-0.025315484112102226,-0.03440302114001336
390,-0.020990574933954655,-0.0028903901228631685,-0.027180556888855407,-0.024893332586671358,-0.03353150419031429
391,-0.02020287184350229,-0.0016619901761633126,-0.025266773016437587,-0.024082608025138154,-0.032323038730400884
392,-0.019577170241238836,-0.0009709072887352931,-0.023495959079054607,-0.02257617171895168,-0.03271191270502923
393,-0.019675234643467623,-0.0012510972173114152,-0.021954733334980832,-0.021145697258683458,-0.033587480539216584
394,-0.01979826741864913,-0.002151519094434003,-0.020239786441338312,-0.019467821704625254,-0.03329448915796313
395,-0.019037056947642166,-0.0027467787103740877,-0.01766161442841635,-0.017007883678797197,-0.03177198077272867
396,-0.017370018116065485,-0.002491803304469315,-0.01418125362157757,-0.013855831259134985,-0.02988302175485
397,-0.01587916602041262,-0.0024003569433390932,-0.011178320302889358,-0.011450509231352048,-0.02690340572089482
398,-0.015590865232919679,-0.003469929111098354,-0.009908681522231686,-0.009838846326150025,-0.02300761829479291
399,-0.016358628280720086,-0.005283630933799843,-0.010283578356490573,-0.008391792201815525,-0.019295544424152274
400,-0.016997064047650022,-0.0066678029824879855,-0.01153394485047625,-0.007359352427978946,-0.01517061696912922
401,-0.01637738134412955,-0.006643332879660233,-0.01276743357721188,-0.00576403763193835,-0.011150978145454862
402,-0.014505731927324957,-0.005236261706269789,-0.01344223082939796,-0.003371043633930623,-0.008275552242436108
403,-0.011945602379042257,-0.0032026708494205074,-0.013387015311464743,-0.0007269140770768565,-0.006797150886983313
404,-0.009515734042071212,-0.0017100416269259925,-0.012830874093165,0.0016220704570123134,-0.0083882427138628
405,-0.008038719943145938,-0.0014183635427229067,-0.011816193133724036,0.0032295880565750604,-0.010858069677707319
406,-0.007880134230399426,-0.0021295556007839985,-0.009969063916045698,0.0038937426134032093,-0.011021744862871925
407,-0.009307538400905278,-0.003672861640319424,-0.007229939534812193,0.003870816077907293,-0.008210425752320666
408,-0.012184230774695753,-0.005639834117329184,-0.0038984536648771486,0.004386395101781232,-0.002805091071900503
409,-0.015410460402132708,-0.007301644769266394,-0.0001121332401443065,0.006067758319389289,0.0023072414940571474
410,-0.01723846182753213,-0.008523645248081734,0.0038979833009910115,0.008479362705458815,0.0036592165547658546
411,-0.016237310866039443,-0.009708378097057827,0.0065962243361477,0.011138362996105936,-0.0012914617881391378
412,-0.012399821974335496,-0.010659162977614729,0.005469479167268556,0.012735500763929387,-0.01129589522797914
413,-0.007356238354453934,-0.011056344768206215,-0.0009238755527775774,0.011669305061889505,-0.0226357951525317
414,-0.0028878560276121546,-0.011506973270582088,-0.010684048409389742,0.008807684217359823,-0.031555612780706704
415,0.00028038000262935685,-0.01272387868412767,-0.018720949628763764,0.006969983772030338,-0.03566768746806309
416,0.002281266552883865,-0.014469102911081427,-0.021373865836693335,0.007698799774612163,-0.035053241316775174
417,0.0034551598916984223,-0.015704471136128807,-0.019636341426248607,0.00998140711585457,-0.030927577157792922
418,0.004306172377331611,-0.015436516539464925,-0.01661802279532251,0.01216317458695896,-0.02517729259173714
419,0.005459532084561706,-0.013997053495905337,-0.014453572646442281,0.014044406261329157,-0.02017632892235615
420,0.006650153797401733,-0.012734472083508449,-0.013520232366317025,0.016090343309935407,-0.01762435920388631
421,0.007093231118803053,-0.012155421724129813,-0.012768124892348739,0.01819647706639557,-0.017337512161294602
422,0.006677764532196827,-0.011688828015340205,-0.011121794606890027,0.02007369561351557,-0.018121174198977085
423,0.005396202574486907,-0.011054002801083073,-0.00898061271083333,0.021192564614663255,-0.01891482646659995
424,0.0032467173412633566,-0.010510690315662569,-0.007965040253303614,0.020997416951537888,-0.019216861144644503
425,0.0011574327095443227,-0.010010954558448703,-0.00894080866576006,0.01995930788787635,-0.019448895786858204
426,0.00013003155153677135,-0.00940290704099407,-0.01121182817095262,0.01879848458366995,-0.02017418151028659
427,0.00022724988537711486,-0.008240419892533353,-0.013270211657379483,0.01803613681274898,-0.020443063819335045
428,0.0015320951197294887,-0.005533198464815047,-0.013295716901915252,0.018796655921641404,-0.018133945944880273
429,0.0037991321040283512,-0.0016805596216872723,-0.010397657775470696,0.02113181391800853,-0.013183643932981057
430,0.006317889012719113,0.0017091541501412396,-0.005607735088811881,0.02384196350395469,-0.007651251992120737
431,0.00902623654241793,0.004087605519839657,-0.001064477417150147,0.026554733296481843,-0.0030974956983180557
432,0.01120396899796179,0.005500783560099187,0.001248252087706711,0.02845314014275282,-0.0005528203895206344
433,0.0117402227406551,0.005929817700582404,0.0009975595205574197,0.02848611179168045,2.9505900412894563e-05
434,0.011222392149932975,0.005946571657732212,-0.00048315393636417316,0.02748793865266318,0.00036520824954791326
435,0.010607982196949549,0.006013575703192902,-0.0020694081582826288,0.02650419818206376,0.0016116832785919417
436,0.010044289093705501,0.0061493242288099765,-0.0028346079090128887,0.025875195631387942,0.004051741833290526
437,0.010003014052172974,0.006876936285089422,-0.0019016179659739787,0.026172467566650173,0.008515099661673088
438,0.010576076778867741,0.008327771104418706,0.0002785440195617687,0.027092016744347986,0.014909976470474784
439,0.011376479909459065,0.010285988623721562,0.002901483741863563,0.028312826678286274,0.02155183705241252
440,0.012605678483949386,0.013065348241672135,0.005780328432851118,0.030335871517651547,0.026172678678927835
441,0.01417795628011615,0.015992658967721174,0.008676739226218066,0.032620498826827805,0.026850698998333974
442,0.01603053620472286,0.017813058407304547,0.011486818040323088,0.034825113592867794,0.02390724778347727
443,0.01824056604769437,0.018173497861502377,0.01379246713800873,0.03732847328600417,0.01942256761990516
444,0.01982130488925151,0.01719200749591057,0.014745645284021128,0.03937507536440705,0.015287502782607173
445,0.020099487717694105,0.01567373057862813,0.014793762950685282,0.040611101329459345,0.012758705387494025
446,0.019980623070430574,0.014984278508217888,0.015434888831287928,0.0420940447244741,0.011997260042839967
447,0.02041905914640143,0.015420056003445,0.017091430501594073,0.04407171313698144,0.011941038282782809
448,0.020983834582630142,0.01578345693422847,0.018611603028939504,0.04225368735936475,0.01076115477081318
449,0.020918914696728734,0.015363819099709195,0.018636090829040292,0.04202464918908697,0.007956006519600026
450,0.02037444183714143,0.014594779637966605,0.016945278408529163,0.04029316249212708,0.004899485671921579
451,0.02000785737207859,0.013890898527636197,0.01458515865290348,0.038491433316212686,0.0025541904850330333
452,0.020133242822771506,0.013590732423701585,0.013061913883170155,0.037808565401627296,0.0016382549978782358
453,0.0202824396851329,0.013812848458995707,0.013101963219520136,0.037858752634397766,0.0026417971107803957
454,0.01987810321290571,0.014169096097320099,0.01402873734177653,0.03785397051652682,0.004993570205979245
455,0.018791150198278334,0.01415205781037838,0.01524698966999689,0.037357108718682176,0.00795885961527437
456,0.01712369375371856,0.013585058554677079,0.016830693734453107,0.036238599740863645,0.011180448779554722
457,0.015319573603372933,0.012856507017162915,0.01834899930630471,0.03497793326818165,0.01448119468687632
458,0.014141527501018561,0.012421943508362775,0.019169267994188437,0.03414448881133851,0.017092591023513223
459,0.013793641355139418,0.012356774155310519,0.018959903610027334,0.03379066257310079,0.017598314650392407
460,0.013486940330113344,0.0125680108109041,0.017715982160766672,0.03334465467528672,0.015597367478219671
461,0.012497795039584548,0.013040533228447074,0.015765532682233657,0.032412958922958195,0.012363945976762636
462,0.011212321579616612,0.013806072291327144,0.013754775770682808,0.03142746057319407,0.009582702315647463
463,0.01021305303433971,0.014434506718293043,0.01252503439768808,0.03120021558710308,0.008007569533090153
464,0.010200086252982014,0.01459334578361075,0.013049850072809783,0.03263237030372908,0.007620316401231255
465,0.012258884584284677,0.01419190177357585,0.01595016983302886,0.03582025971118029,0.008078366892139196
466,0.015636249762739536,0.012480378815910858,0.019849487146405418,0.03916665779131325,0.008492787768046461
467,0.018335947395265402,0.00948854180545746,0.022480038454916158,0.04131464880354577,0.008595175222186629
468,0.01941929630331108,0.006416291668194466,0.0224692638027648,0.04077541189997526,0.008834982735214476
469,0.01903038035296396,0.003904250559552247,0.019340619874923474,0.03810048072878719,0.009108145610954394
470,0.017780719901286376,0.001988100977851075,0.01460852756008197,0.03503241256283547,0.009363327259654095
471,0.01569859091719633,0.0007345505568668996,0.010685815546109253,0.03175534928662096,0.010132000989717813
472,0.012528145299981298,6.951887991028405e-05,0.00831085927940058,0.028301854913491464,0.011998977282125812
473,0.008501324553380386,-0.0007221047493946453,0.0067487503600017745,0.02393370466751538,0.014160929242667757
474,0.00422752529829296,-0.002167967225512485,0.00541166184201159,0.018768189014297516,0.01463270056614427
475,0.00032911940588591706,-0.0040729928539248485,0.004333967095251016,0.014336370053929013,0.012384661498897356
476,-0.0026992568633414527,-0.006062130793427939,0.003842551607417519,0.012276735058849695,0.008283442884115757
477,-0.004496469132152746,-0.00770073234402434,0.003969833886437957,0.011847778713546487,0.004521123423954624
478,-0.004834049062554315,-0.008210406528303488,0.004759455325253263,0.012281512214820012,0.003247225306847304
479,-0.003539609019107774,-0.006716900562081248,0.006918917527924607,0.014404810846370233,0.0052717110739053455
480,-0.001591193456773788,-0.004533435288374761,0.010192397852391028,0.017335345432380144,0.007964007890848088
481,-0.00022205866192199266,-0.004201428959140144,0.01334601308671182,0.019984169961479406,0.0076917306479147435
482,0.00117490123339317,-0.005597453873027504,0.01612401873818462,0.02252324112838805,0.004981220429772565
483,0.0034516905277866107,-0.006618788150126781,0.018224566536072687,0.025051993271190766,0.0025010271720267967
484,0.006072212551086588,-0.0061096236614701155,0.01871810558416902,0.027965857909172182,0.0014060997422890432
485,0.007947522528365822,-0.004648899628873411,0.017842000908389864,0.029849480765346798,0.0016358985611711191
486,0.00813521212186011,-0.0034775974871043107,0.01619098595854394,0.029328389940716286,0.0026933118843081865
487,0.006729611549245791,-0.0032062154459336144,0.013923351667610656,0.02689700839635976,0.0038508543357808904
488,0.004890281065963719,-0.0034694075620374533,0.011920346192658552,0.02387215444678501,0.004696671521383755
489,0.003382275515994242,-0.0034929147254731127,0.010964154213267949,0.02176515859021975,0.005667153154579538
490,0.002362721050119531,-0.0032762039359956964,0.010726312970438858,0.0205230469359369,0.007044064409121562
491,0.00177005114787513,-0.0032294452861614054,0.010793599465758717,0.019614759807891645,0.008545862005592755
492,0.001175385459033839,-0.00337328328706522,0.01101166333866739,0.018009893305380182,0.010175486454347278
493,0.0003861309036814366,-0.00386247019537528,0.011056828022623498,0.016020583012997337,0.011881154340435842
494,-0.00011201589707812425,-0.004605809339367834,0.010997698739578017,0.014837396446143302,0.013453426680042251
495,-0.0004400143809018305,-0.0056508147451390595,0.010797479541438428,0.014371729773310271,0.014344279476953058
496,-0.001636604884821251,-0.007413443535399821,0.010170702363309714,0.014072922447021135,0.014082994888666895
497,-0.0036778609145924385,-0.009412642030576148,0.009879837587742952,0.013533083726303088,0.01343256373538663
498,-0.005110031812431932,-0.010670800082001644,0.011123006255382706,0.013310623916117656,0.013277424634303162
499,-0.005333845602485447,-0.010887007331464372,0.013540723436662447,0.013893088232778286,0.013571512789846375
500,-0.00564003015058226,-0.010802280588143417,0.015209245787389853,0.01421405506299591,0.013699668323522372
501,-0.006783736665844989,-0.011538165635163713,0.014941056578729902,0.013230509185442023,0.013225364192625934
502,-0.007737042487029119,-0.013491146276682475,0.013239963067201078,0.01206159320967876,0.012592765542360442
503,-0.007613665508911587,-0.015869228007011463,0.011232384275207986,0.012322889367710508,0.012324283539142366
504,-0.00665077748257163,-0.017239297013000362,0.009551544582926312,0.013948956766850094,0.012445761670619398
505,-0.0058241764088903004,-0.01698003112406492,0.008262033798436125,0.015508826046743406,0.012927168031989483
506,-0.005739652722187624,-0.0154788014312312,0.007595590168523166,0.01599179276808274,0.01353716533793402
507,-0.005807022294426657,-0.01292686125387442,0.007499326034897762,0.016019212008444708,0.013863752047764908
508,-0.005292741540614073,-0.009861093690718734,0.007423558574462027,0.016364644067519748,0.013267028701351657
509,-0.0042102498392251435,-0.007865358494350761,0.007521854319551085,0.017190195079903395,0.011166099511773915
510,-0.003170844622652496,-0.007954917633889346,0.008310758340686201,0.01821603902550035,0.007919520270296828
511,-0.0031142641663618304,-0.009361845679324495,0.009312235124451547,0.018038690551992045,0.004872230242216406
512,-0.003951823870164198,-0.010373681041118802,0.00974179953337667,0.01635949687824661,0.003790531556722905
513,-0.004497444447334073,-0.010247481873218807,0.009743754143593086,0.015118496965739765,0.005438407576614317
514,-0.0041745686506641615,-0.009622266834121193,0.00997274321064155,0.015622418999535554,0.008636448900911961
515,-0.0030766406655507723,-0.009289056716907497,0.010643129358366208,0.017516723402105985,0.011439277454434571
516,-0.0017493816384921497,-0.00952027528335482,0.010900846297199727,0.019348388969279096,0.012707471369428323
517,-0.0011658805270786637,-0.009986182041753425,0.009536200519022917,0.0193845584460655,0.012518489408704687
518,-0.0012958161542779717,-0.009866859947975303,0.006981266708286138,0.01748395766008254,0.012123599615243258
519,-0.0009300791594763254,-0.00883626126014367,0.005147885104013745,0.015306826799955039,0.012363766658403025
520,4.418040701227168e-05,-0.008070533554882041,0.005200488305501626,0.014113926700253935,0.01200765523439226
521,0.0006005404129533097,-0.008516457746096101,0.006985430563292261,0.01401369305663659,0.01019814437824093
522,0.0006549341325148483,-0.009458543107178499,0.009348784836496428,0.014643867687113577,0.008051811111950455
523,0.0008527084583259743,-0.009849774383119157,0.010884702383556506,0.015214808751251046,0.006932864207052872
524,0.0013708811340479737,-0.00908919418415743,0.011416726013204391,0.015075941623338415,0.007704041614412972
525,0.002207369030004818,-0.007157771958495102,0.012112308294758747,0.014966650832831689,0.01051037295270463
526,0.0033349385552314966,-0.005097394975225198,0.014156448482611814,0.016134949948405114,0.01443066852175892
527,0.004463753787710195,-0.0038207902318072983,0.017305402799960234,0.018130381180748268,0.01851093699921863
528,0.005148939571642427,-0.0031211173231130793,0.019789410829814093,0.019257776224196863,0.022942640153946363
529,0.0050507809341292275,-0.0026285513394061675,0.020200937286527082,0.018887156959413055,0.02845199889690519
530,0.004434720369697895,-0.002325408328344002,0.01902287284734278,0.018194685909044793,0.03425937744287754
531,0.0036779775957546893,-0.002647189373462077,0.017468049959328113,0.0181136857872404,0.03796449086737908
532,0.0033212211882311963,-0.003343862263974209,0.016682528805633028,0.018839961454729742,0.03863792898711261
533,0.004061983196232334,-0.0032586998601906317,0.01763410423438471,0.020341646402887614,0.037046777626628585
534,0.005827391542496471,-0.0022357083572582125,0.02005049091418189,0.021892195001004023,0.03389139121372777
535,0.00806815596051099,-0.0012774487458176158,0.023177932828406782,0.02376943330613583,0.030045862122046123
536,0.010588933336006912,-0.001258164152197491,0.02747125758025739,0.028090534114235174,0.026542984459323196
537,0.013722397480716743,-0.0021565022875087814,0.03399546624100097,0.036720059901879105,0.024401688367525605
538,0.016648708521314975,-0.003543877259794123,0.04174882169060613,0.04762016928430378,0.023777987681866532
539,0.017461681502355622,-0.004570744210302901,0.04722323990804797,0.054718302716318834,0.024115438809449788
540,0.015607560715347378,-0.0041245506935159775,0.046793814561742544,0.05313152804402977,0.025187162159241907
541,0.012050895696559866,-0.0022735884189771277,0.03888701325580888,0.04301508342403026,0.02647755011485985
542,0.008153692642532136,0.0002246198025810784,0.026024624169027386,0.0287481434110617,0.027129122034801292
543,0.004370456391110875,0.0025177641638954784,0.013192646072391416,0.014865300429122206,0.026460693498209127
544,0.0008807614746725489,0.0038028579198225386,0.004693132103727835,0.005059041454181301,0.025105809179367382
545,-0.001634240922731921,0.004036114734226817,0.0028964559291721065,0.0020149216078532268,0.024635303877085925
546,-0.0031218376265794907,0.004099559026433517,0.006582456729973236,0.0045658968490455976,0.025974248776190274
547,-0.003942509461270401,0.004643573616395964,0.011795153270529142,0.008659386512304053,0.02864390981181044
548,-0.004188323734975149,0.005143389860413949,0.015301653742708839,0.0113642379222918,0.03112406008265446
549,-0.0036249663974571517,0.0054235053098397636,0.016795805493679043,0.012452514451123997,0.03287796476169228
550,-0.002319168008149568,0.006029396899957413,0.01744115689624374,0.012767033722668688,0.03415321030522252
551,-0.0009876968506906355,0.007292888452578007,0.017521911768610874,0.012854890147183945,0.0351475961148728
552,-0.00017473986667182766,0.008965466624346281,0.01710360924265674,0.013147724972806266,0.03599219563500403
553,0.0005712910366649504,0.010501321010744127,0.01685429981392881,0.013972446268374251,0.0364645760474295
554,0.0014590035672286852,0.011201122654224812,0.016504673539690064,0.014590098898491683,0.03604996753067514
555,0.0022950231358305285,0.010898031593837825,0.01541870011643548,0.014442396011841266,0.03491863786590937
556,0.0034526018583658407,0.010256209962591295,0.01424946325085199,0.014272209057553128,0.03394965978177995
557,0.004760511605741297,0.00941684101193601,0.013590234258360572,0.014169761051457942,0.03327756716838538
558,0.00614366820367582,0.008946550766733442,0.01370514765408076,0.014483166216179375,0.03322051673598161
559,0.007454190446024273,0.009502297671731389,0.014502659093066542,0.01554918031185019,0.03379687757504723
560,0.007869863497505259,0.010501633942774024,0.014780127504490941,0.015718410739138766,0.03395000941413656
561,0.007606522593181257,0.011710176558194863,0.01349628501866184,0.013479703256835101,0.0338642737289721
562,0.007267023165650509,0.013216387041526475,0.010924179616075936,0.00894871582550018,0.034106190409154594
563,0.006821369979812979,0.014402912637390866,0.008314038735408235,0.003630918077861158,0.033747560130719556
564,0.006360656281789301,0.014892783968383888,0.006678816597085142,-0.0005906715749623992,0.03243710200987106
565,0.005920132996019512,0.0148306912145621,0.006215625181367108,-0.003291801561274358,0.031016620337203923
566,0.005229215666409941,0.014205813879690018,0.0068347220682994534,-0.00479073350484878,0.029978251962710215
567,0.004184234968308713,0.013299880080113837,0.008157048130898861,-0.004891901581424844,0.029772491917871756
568,0.002979965530329886,0.012581452117581944,0.009581878451430265,-0.0037135425746443055,0.030646962845404916
569,0.002005731310502325,0.012095282479763991,0.010439751128049651,-0.0023773933333817183,0.03189393801790438
570,0.0015255605504557702,0.011847432487007984,0.010025350435167595,-0.002157720851644259,0.03249054923350607
571,0.0012423631294169837,0.011610000023864748,0.008397277779038764,-0.003325550027556794,0.0317665842116042
572,0.0008122059559531078,0.010818916198180933,0.00647891223845952,-0.005239734909352805,0.029448467364388865
573,0.0003645646567033661,0.009509315442097295,0.0050177808653992665,-0.006879876379100619,0.026136350269168183
574,0.0002982894241509506,0.008539520452405006,0.004600993866365941,-0.007018838489129432,0.023589372042167125
575,0.0007301623983820703,0.00834075094590963,0.005784730128385185,-0.0055153748408323265,0.023495513528535277
576,0.0010675863782304113,0.008335739952894541,0.008111507116649019,-0.003696772714307205,0.025854794299158986
577,0.0011108563085804048,0.008776196002581184,0.010328870805100357,-0.002565006585651792,0.029656405624504605
578,0.0011299486868225736,0.010438174958243989,0.01162582248927332,-0.0024837895327801747,0.03381285122626192
579,0.0012969381931876094,0.01291336199920228,0.012496750213368364,-0.002981898402014064,0.037389591861497894
580,0.002040680715010022,0.015238355107398079,0.013579931881988548,-0.003091328658257279,0.04022315945395573
581,0.0036688742616683093,0.01682704003534673,0.014479363914346262,-0.0024700093418433887,0.04265905870242134
582,0.005733320718121728,0.01751249423293084,0.0149509856378023,-0.0013609394331223908,0.04485154102249152
583,0.007161072824905712,0.017011038644305164,0.015131835625591287,-0.0003504155859408792,0.045864155551229316
584,0.007503092810568446,0.015693261039932845,0.014920857220991372,0.0006026816614391194,0.044606335552563305
585,0.0072080463251925535,0.014391530265875804,0.01415981492693408,0.0016994407828651095,0.04095325792961436
586,0.006845825280102305,0.012974165595503807,0.012874935821504467,0.0021567331312552576,0.03522067228333753
587,0.006723606388997487,0.010961027911905414,0.01121111626934295,0.0014122242044520435,0.028627943316689244
588,0.0068521186621415,0.008745960679965869,0.009567631913657336,9.211232442477103e-05,0.023530305916986495
589,0.006754381412376644,0.006926347587910342,0.008227871289374123,-0.0015550332350042844,0.02081161735989616
590,0.005882003581238142,0.005241146835139681,0.00718591982931796,-0.003740812578999983,0.018800574431680983
591,0.00454833915433556,0.00395920810557373,0.006580316130510923,-0.00568777903951349,0.0164543139183862
592,0.00333942376823552,0.004222334550585801,0.006255264906060981,-0.0066298328279575805,0.014278428920932146
593,0.00219685852840527,0.005918679401104445,0.0057813161830681005,-0.0067671666118783854,0.012431120655766114
594,0.0008187592767852562,0.0074091355018333655,0.004774258587388581,-0.006723952193733417,0.010742687075002994
595,-0.00027132071908999103,0.007568029778472903,0.0032217214182429775,-0.006895009347800455,0.010102195354527648
596,-0.0005271321539808521,0.0064693747956321625,0.0012241162098606134,-0.007536631196502697,0.011549511298633713
597,-0.000397773294273582,0.004169724214986029,-0.001047396887817345,-0.008201462333602992,0.01380747705365766
598,-0.00016675261838404806,0.0008358561885829453,-0.0024080504210570925,-0.007587649717658579,0.01454752330328278
599,0.00019680486391009282,-0.002906019325859085,-0.00193640549509745,-0.005497537917149284,0.013053553810673
600,0.0008209964683804919,-0.0060515311491051256,0.00017736981805314354,-0.00286243391384445,0.010624785270344371
601,0.0019025371930745361,-0.007416145215949421,0.003171500221418919,-0.0007528452055435294,0.009392849823735573
602,0.0027343760610251313,-0.0072612114445638285,0.005343613359234196,-0.00045143298563466957,0.009850202546851998
603,0.0026888868413695696,-0.006769219781703595,0.005707717155997202,-0.001977551436870058,0.01079254429262425
604,0.0022151990411529055,-0.006149074163135829,0.005111240331822239,-0.0037219411127723326,0.011350915625500894
605,0.001778982147458531,-0.004869565100466741,0.004460668771062681,-0.0049641385649649185,0.011936166874991936
606,0.0014557389201813149,-0.0027713733462570254,0.003742020190046096,-0.0064080947452148885,0.01364179200361873
607,0.0010199478620805862,-0.0006176628232574814,0.002485962342855531,-0.008296357274587812,0.016814676278822466
608,0.0005745143431771481,0.0009071494966587842,0.0013401248149932658,-0.009350763429737657,0.021279591810931
609,0.000552355710349537,0.0018759044635105683,0.0016106205575170819,-0.00849547957710076,0.026428991483504197
610,0.0007827615807657287,0.002210752741685739,0.0028990256200493183,-0.006954232979028325,0.030017931091612337
611,0.0014739317061703778,0.0019475205019709337,0.004214844544457558,-0.006118015701760734,0.030229785652081936
612,0.003192796074026342,0.001686394576591986,0.00525909877290142,-0.005860416378840033,0.027933249126149796
613,0.005693906570983178,0.0017738952762479175,0.005941677334637213,-0.005657166342139447,0.02498917321417543
614,0.008290284042917555,0.0019750033468980146,0.006634318920108236,-0.004920531229538651,0.022166529134594985
615,0.010013857233664077,0.0017987107611968332,0.007515207585403561,-0.0035616161440709224,0.01912172667425955
616,0.010169022295756083,0.0010174905651476737,0.008222984782552007,-0.0023412435919691506,0.015938814041475804
617,0.009184963132561317,4.246592300438732e-06,0.008562195938458726,-0.002065707782229697,0.013494830589444352
618,0.008151523066850212,-0.0002760353767430093,0.008743361196974319,-0.002551456968763627,0.012644305845152491
619,0.007669969546484489,0.0008315551095838086,0.009206758008700756,-0.0030463550442001793,0.013069778812559886
620,0.007737441226291001,0.003044428141050704,0.01061137983307224,-0.003178867642452498,0.013424223737035577
621,0.007966019251034632,0.005753362824376572,0.013122427799584653,-0.003084419566100419,0.013593557205232115
622,0.007804836512669102,0.008590100430295745,0.015446326407053769,-0.0034300059209616536,0.014457422354208264
623,0.00673348168323283,0.010520484404356387,0.01603491988438722,-0.00484611468642522,0.015057586868483196
624,0.004791040727804951,0.010308223619885775,0.015340765728399116,-0.007094719976898461,0.014261416415394492
625,0.0033352309727863565,0.008460460627741322,0.015708487540809453,-0.00860431092686823,0.013617101509017418
626,0.0033398335426746686,0.006287846456253075,0.018492846678499052,-0.00793816480755532,0.014525907457783824
627,0.004513773962462808,0.004929649836480486,0.02265258672425156,-0.005563044433432289,0.016298485991478144
628,0.006160468397715443,0.005259392806279573,0.025974938267957385,-0.002940273841369105,0.0176655256475483
629,0.007420699542869142,0.007093498469422623,0.02680928891530671,-0.001120057684322661,0.01762514309090878
630,0.007634368385643841,0.009037205539682744,0.02544651858452743,-0.00030189476822160355,0.015844250548714977
631,0.006671564480596348,0.009832026332351638,0.023542048894380975,0.0001591854588630165,0.013630450057494938
632,0.005199719554418953,0.009777519640656648,0.02213376148042778,0.0007019430747381809,0.012916195694864548
633,0.004121533842583575,0.010083851115955896,0.021147884800894978,0.0009147742294949872,0.014044385567359825
634,0.003451242270373271,0.011425596459968471,0.019886405529298736,0.0003523525170489378,0.016576491830785
635,0.002348488517169651,0.01317697006184626,0.01730673354571195,-0.001509320381454903,0.0200347791494421
636,0.0004032698409724745,0.0142542695986066,0.01321401089716855,-0.004939923108881914,0.023283971235704023
637,-0.0016822677420693282,0.014811735282906326,0.00889203906793869,-0.008839263068268446,0.025437922715396313
638,-0.003095341158381366,0.015614153236656826,0.005773104472028969,-0.011709350068196435,0.02655044348246488
639,-0.0037702196950915277,0.016291632425258187,0.004280975927929474,-0.012842249725267561,0.02690581809555306
640,-0.004058724935964625,0.01615042526892356,0.004042240375608478,-0.01255012293771201,0.02685908395918234
641,-0.00413955338843734,0.015405300241591995,0.004648844653340291,-0.011687806646984858,0.026876975060959592
642,-0.0036966600650620053,0.014708961339892603,0.006055385599360281,-0.010515778211767,0.02723987826159526
643,-0.0025216565512820523,0.01446878886638437,0.00791236876871134,-0.008951009402610958,0.027917073325929867
644,-0.0014198695925852962,0.014265288088582373,0.00901312948246562,-0.007785138268541271,0.028049668220697602
645,-0.0014663214594596943,0.013368985377351985,0.008645007724918325,-0.008434046126401005,0.02676917391899834
646,-0.0019225057029132664,0.012328991644036062,0.007845596124797492,-0.010370776674389254,0.024756873669847055
647,-0.001181971071566899,0.012547748348099097,0.007790251773768301,-0.011280207836874466,0.02345486798389655
648,0.00014045543146272416,0.01387584783510095,0.007986385619137507,-0.010624319660431317,0.023016940524319775
649,0.0003614736014538628,0.014811127753933031,0.007652753989885214,-0.009577944701179128,0.023107548129383794
650,-0.0005905196179099516,0.014756454956624159,0.007377549917388235,-0.008868182309977596,0.024207162537067745
651,-0.001429572232390838,0.014275870873971723,0.008038385597754785,-0.008332633223135445,0.025816009913118693
652,-0.0011267189435527204,0.01430994479855005,0.009237993634695529,-0.007792188283748588,0.026432636466292663
653,-0.0004225207214130296,0.014981712176043212,0.009546479873032492,-0.008525228727284211,0.02531252393910474
654,-0.0006099230565624597,0.015598624797537387,0.008441354002746504,-0.011476243743594457,0.023175436558385158
655,-0.0012842588505423869,0.01600542443322422,0.007078605976960359,-0.014838663937469071,0.02150080473175001
656,-0.0008852511454256258,0.016843234912953756,0.006892070433800928,-0.015944062009285095,0.021142883774217327
657,0.000959291265955744,0.018418306018267775,0.008232636823372459,-0.013948665327427905,0.0217485506441415
658,0.0027759684848107746,0.01958700988474249,0.010290216682953265,-0.010074679945981208,0.02191144994157252
659,0.003923713506736356,0.019577394339699725,0.012492168254775253,-0.005520808341437173,0.021232639173366517
660,0.0046636004372817485,0.018644236088820786,0.014572217150423955,-0.0014192857883388466,0.020609606093087027
661,0.004571542999962605,0.017062864024154828,0.016148779566073756,0.0004782486118317297,0.020578221157024425
662,0.003679892053843622,0.01600167530070119,0.017285922083630473,-8.400786827593325e-05,0.021696643596187625
663,0.0028836188967317406,0.016903255656447035,0.01851476346363954,-0.0014506866412488785,0.024602849217435194
664,0.002519865800496249,0.019033434559972282,0.019770673537741448,-0.0024225096051200675,0.028106019834398262
665,0.002087879618630045,0.019924211054537178,0.019937891860239764,-0.0032446580226383,0.029319442073503094
666,0.0015155229443231672,0.018445526627564993,0.01875875761288818,-0.004420529265813811,0.027346705413435476
667,0.00075137065622787,0.015020584199514289,0.016852023132449153,-0.006335752582253431,0.023506976083619756
668,0.00020484272367856792,0.011188445961101677,0.014865704270899458,-0.008193777733569111,0.019575691474185856
669,0.0005748510985580509,0.00852934719620813,0.013393950543024698,-0.008763713055831143,0.017477955246670306
670,0.0007217797874567264,0.006582742365220353,0.012064965539521223,-0.008891488704575441,0.017070309507069586
671,-0.00043617288456847996,0.004567805287489836,0.010556848888660736,-0.009455662279662392,0.016339504195658727
672,-0.0023881495241428155,0.002762274568674671,0.009589521854314621,-0.010024941551144365,0.014633180599331904
673,-0.0042167418849970795,0.0018218490625397825,0.010002622993091893,-0.009948632811739005,0.013216675481864244
674,-0.004932514950589868,0.0021170758408654293,0.011855993971922999,-0.008573420178640736,0.01312043217401602
675,-0.004458110351689373,0.0028810617083896107,0.014255995359536288,-0.00627454457728832,0.013722166851052002
676,-0.003557702405290257,0.003310173744712968,0.016643242626225737,-0.004147161580164858,0.014625661192886587
677,-0.0023632308959756695,0.004144983302228747,0.019356467947284253,-0.002341263305899824,0.01700588124847638
678,-0.0012929938664903533,0.005916273638391878,0.02175281881342937,-0.001192519162982101,0.020601666302222335
679,-0.0012857113310084983,0.0076286774664983455,0.022268574676095953,-0.001642793140495096,0.023389643860820604
680,-0.001983961034056785,0.008552815999054357,0.020550817662298944,-0.0032726485033480125,0.024559674668921453
681,-0.0024199862321113413,0.008782199438294646,0.017537178002920744,-0.0049494756635766355,0.024161036518815706
682,-0.0020186099642467894,0.008689681049062984,0.014542253154729476,-0.005694600065939638,0.022194191498735198
683,-0.0006117282923983001,0.008604054467969292,0.012531068160421922,-0.004975218289919061,0.01932120910541852
684,0.001064903612571226,0.00848446426719839,0.011168511951352654,-0.004005520881482073,0.016779717401534996
685,0.002001350772489222,0.007984346143328803,0.00893625558536128,-0.004661198641878209,0.015305097378247987
686,0.0018561831136686172,0.006419144021952221,0.005001371832202613,-0.007048035990508625,0.014619415859129384
687,0.0009168989159094822,0.003438316110676036,0.0004239951278461302,-0.009860586573833059,0.013770337286073213
688,-0.0004919521022354411,7.207139576393822e-05,-0.003325098093121901,-0.012544904520309331,0.012035720953557429
689,-0.0022023460413458994,-0.0016864693902655485,-0.005507507179156586,-0.01540679113421883,0.010838808825171069
690,-0.004143527557743785,-0.0010336631448125619,-0.005603096709294703,-0.01844258226978336,0.012918540412341152
691,-0.006307353485869803,0.0011968105233125784,-0.003104720888267532,-0.020779131263607618,0.01937852961446242
692,-0.008179040975540246,0.003949230389793334,0.002290695140539643,-0.020685073283434385,0.029046230861216327
693,-0.008503634294318465,0.005706547077243276,0.009697658860467076,-0.01674536069983331,0.03751178092999303
694,-0.006227492101992621,0.005239468246151428,0.016316137917872373,-0.00956971148721821,0.03894072591293064
695,-0.0018827763665533815,0.0034084779675255437,0.019136711175949207,-0.002124016406035169,0.03251497993299825
696,0.002433234640675976,0.0015710662182416696,0.016709183814139536,0.001955383726189103,0.02250640010257844
697,0.004913669250760104,-0.00017058698857310014,0.009098633561901801,0.0009609175915313363,0.0121911574238053
698,0.005885902734328639,-0.0017260545448106,-0.0011196774155161023,-0.003074246605074267,0.0029909870696492287
699,0.007202245563034358,-0.002639653317720725,-0.009085006204297159,-0.006261344246521468,-0.0040703516220609685
700,0.009750242498468344,-0.0028537056023639393,-0.011779285601853233,-0.006721911961011363,-0.009252268374870636
701,0.012720535704251398,-0.0028796933879161003,-0.010259944607968642,-0.004816116254344716,-0.013279390683032964
702,0.014984088739316214,-0.0036398175647640424,-0.007414855034761723,-0.0017104967387437688,-0.01657709278826804
703,0.016261880216637197,-0.005391582978178554,-0.005234353892232832,0.0012753082225569615,-0.01980617261621933
704,0.017126329660595505,-0.007205342290774169,-0.0039494864740666,0.004180891538863955,-0.022733885777357014
705,0.017584094634504447,-0.00827629013452385,-0.0035168602102013525,0.0070601302457817035,-0.023705224417702807
706,0.01735837696729982,-0.008639588457133831,-0.004026301230935048,0.008785123311064662,-0.022137818626978487
707,0.017317931076135315,-0.008316927654554974,-0.004698615271073027,0.00985568636662822,-0.019332183342596697
708,0.01766871306326745,-0.007452371138488411,-0.0051716205089680925,0.011455240210566344,-0.016912438479864792
709,0.01728261320929489,-0.006821522420520557,-0.006211774401913791,0.012787094131555132,-0.016509711399854684
710,0.0158773375337184,-0.00657404312135415,-0.008684322418257534,0.012718911979455447,-0.01859440740152795
711,0.014237939635896856,-0.0062066902449246335,-0.012371782983649571,0.011784075947695953,-0.022069486241226653
712,0.013249966304379768,-0.005670125065706988,-0.01582570467219127,0.011291371992599131,-0.025843585159383932
713,0.013493486558905084,-0.005030191102201637,-0.01760122833890587,0.011963817185458381,-0.02957453093354515
714,0.01496244877130064,-0.004430299854614712,-0.017144776412998882,0.013915954066558349,-0.03391688168212277
715,0.017524262281953796,-0.004029198892873717,-0.015217992443329845,0.01677896079297316,-0.03922547367508989
716,0.020968039912142685,-0.0036727216209936843,-0.013399670712875162,0.01987084847487414,-0.04405100381367234
717,0.02459795831657609,-0.003368096819488058,-0.012686660133185737,0.022499081406102902,-0.04681685356264744
718,0.027476616300471116,-0.0034491484999265264,-0.013115284873351729,0.023814672342835713,-0.04790282261656509
719,0.02910348469178694,-0.004155440540269721,-0.014173558903252767,0.02348558832819603,-0.04832563106430359
720,0.02969080320648826,-0.005181146817223769,-0.01492911851179548,0.022736158838134863,-0.04756555521480963
721,0.029494983975379654,-0.005350709731209071,-0.01414055725982526,0.02313583116707137,-0.04404807036788701
722,0.028309441212834283,-0.004047448982384476,-0.011259917427594399,0.024452646980645563,-0.037905259488851
723,0.026569897890086118,-0.0019680483334721297,-0.007274213298186537,0.02562543504882179,-0.03143482856587698
724,0.025625501190540384,0.000534961092461066,-0.0037468913746955147,0.026676203920414206,-0.026063700706671303
725,0.02559355821534338,0.002890017019324451,-0.001860392119119602,0.027643352890732012,-0.02228990532287568
726,0.025281673694184638,0.003736149621126295,-0.0021487881913722653,0.02773844509064211,-0.020818881065755034
727,0.02392732085965626,0.0027912425531287136,-0.0040732887792917435,0.02624518336424775,-0.021248440887868897
728,0.02207263647027957,0.0013364389754598062,-0.006166351750651588,0.023798078909682007,-0.02197908566666807
729,0.020993397141119648,0.0010209501542897362,-0.006785944630329865,0.022331124228150645,-0.02105113280136599
730,0.021060988713923236,0.0023549855532335713,-0.005176168969575189,0.022770966710053322,-0.017657057401621257
731,0.021606531884920267,0.004423672431489484,-0.0022886061179238425,0.023967314459184357,-0.013394486216144875
732,0.02228753661931839,0.006287239271492045,2.708405545335723e-05,0.02484149002063832,-0.0104135418366297
733,0.023499233808467163,0.008011062744457172,0.0006467148190347976,0.025408821400934666,-0.008945837140835545
734,0.025409965367384275,0.010063685368895865,-8.47424120813412e-07,0.02591357378025725,-0.007348113330222761
735,0.02743397743006226,0.011902904285977123,-0.000513138940481001,0.02672138920458829,-0.004353170211352204
736,0.028884294241749302,0.012574454201378092,0.0002388338690079676,0.02809697243551127,-0.0006136171692755014
737,0.029491569144839493,0.011977559665779316,0.0023102228384215863,0.029903877254607886,0.0024139723619259266
738,0.029344390530863407,0.010560037766347978,0.004642290705748399,0.0315545875724507,0.003999544277406245
739,0.0286719092926933,0.008933591304856853,0.006081412590946959,0.0322536410483674,0.004199319333864011
740,0.027365559982791006,0.007472303914291384,0.006577664871779611,0.0316020537151148,0.0033505674299632296
741,0.0252840801360934,0.006175156859915198,0.006858411527993767,0.02959864618128731,0.0023226661088277937
742,0.02272898211318088,0.004956498604233026,0.0072790087832220315,0.02644192896703957,0.0024451782543721268
743,0.020113780853275916,0.004005299703673085,0.008112560983891466,0.022878581058873866,0.00429313924664329
744,0.01800459209183684,0.004064841092468964,0.009858006769099125,0.019966025982178705,0.007728942276899101
745,0.016967081606563104,0.005774800815169148,0.01221520230816925,0.018333367732779923,0.012260307093992864
746,0.016534467607767313,0.008304872966465494,0.013891480950974661,0.017560049607235225,0.016637664146826048
747,0.015844520237713062,0.010056620307317073,0.014261895910404361,0.01705858781528525,0.019817242373888374
748,0.015232740644112638,0.011160695615858753,0.014324680861251118,0.01717616589735917,0.021761682938480475
749,0.015589730712582728,0.013054882195767298,0.015368330832705203,0.018361209052955095,0.022589317689196368
750,0.016870352382392855,0.01628281641241482,0.01756808046783919,0.020292616159088187,0.02196317406749892
751,0.017354710149117703,0.019531795391584734,0.019280030435850342,0.020860900323526846,0.018839798471118222
752,0.016097426063222838,0.02126384194986277,0.018991322008122414,0.018516511305410887,0.013299780043566418
753,0.014630560267963185,0.021610190448211983,0.017315158541592927,0.015093717319521457,0.0076823166614742
754,0.013934558835459833,0.020900307089314688,0.015366511859472406,0.01264047984918545,0.0036026382218583243
755,0.013767214435506707,0.01891471124432917,0.014014298169624743,0.011531534504829005,0.000951341178901731
756,0.013874495582896277,0.01616351755946807,0.013743119509242122,0.011530679903714237,-0.0008018692676748204
757,0.013771448349417879,0.01406677322193884,0.01412004804947668,0.011966883317628485,-0.0016214251953149586
758,0.012794512482478275,0.012882668240223398,0.014177451833929005,0.011557303306105625,-0.0009539093482207723
759,0.010679582621298023,0.011746618578640355,0.013158544582961937,0.009008801164497045,0.0012748150493768077
760,0.008085281668711163,0.01088378039319485,0.011100685135722323,0.004661505475510633,0.004307840046014594
761,0.005777519080027052,0.010415263097575483,0.008359095366582471,0.00027860142773887867,0.006763154475844055
762,0.0040541113989456335,0.009672370104279314,0.005689982128341985,-0.0026739896182106275,0.007569637130576009
763,0.002907547529303185,0.008609225770805511,0.004397666667719433,-0.0038691047798352866,0.006961559340899666
764,0.0020618341888968446,0.007643109000065941,0.004942494870077078,-0.003883666853483461,0.006130223782159498
765,0.001313385238407119,0.00694734239295231,0.006249276703282192,-0.003497092942298265,0.005200668058406403
766,0.00025516673327761433,0.0060573432732641055,0.006785883028599265,-0.0036642823766778227,0.003115650795403408
767,-0.001439379489575045,0.004486627920935043,0.006386396160142692,-0.004793349981024908,-2.1728411338954132e-05
768,-0.0035906161511515666,0.002811898306077665,0.00605421058415691,-0.006168211665799201,-0.002682175502166421
769,-0.005945539665543174,0.0018146378894312646,0.00613156128617182,-0.007364679029029979,-0.003912599490480575
770,-0.008200054577344101,0.0014297760352678004,0.0063455292303053815,-0.008451552389614453,-0.004320663832806784
771,-0.01034202483040148,0.0010855723308369368,0.006318889493371531,-0.009529356274208008,-0.005192445818651864
772,-0.012577200090873143,-3.28065843006177e-07,0.005022564844022379,-0.011490845324767655,-0.007740872276247838
773,-0.014850780434817204,-0.002000091892755475,0.001957244060137859,-0.01518476929343163,-0.01169645341341752
774,-0.01710801343839555,-0.0038444231198507192,-0.0016619075299698332,-0.01995729886905152,-0.014858541783667025
775,-0.019386781606918414,-0.00492297355982257,-0.004622305818172494,-0.024508316219733355,-0.016340540683421396
776,-0.02147103302571163,-0.005790415756196241,-0.006243754504832496,-0.02797979865884932,-0.016966684806502732
777,-0.02305691253887059,-0.006493014632923725,-0.006283132142508283,-0.030083304074659402,-0.016650136213343363
778,-0.024180819951524084,-0.006488980779116001,-0.005678057162845453,-0.030926013406858466,-0.015164078429290923
779,-0.02471047949091952,-0.005734573238910755,-0.005190067992080098,-0.030476878473514688,-0.01312410155802908
780,-0.024491073626795947,-0.0050572487934119285,-0.005027400613948378,-0.029248533566406224,-0.011332167468795883
781,-0.023669957995421265,-0.005280883696102578,-0.005443149112520312,-0.028036586597573222,-0.010174751880380903
782,-0.022160037052541704,-0.0059548908787305874,-0.006058192290612017,-0.026521052920479536,-0.00934401381744988
783,-0.02006374680796511,-0.005999686091342345,-0.006577515298546177,-0.0244322394114095,-0.008989599476026951
784,-0.018448399490496818,-0.005575565453338624,-0.007604234917199109,-0.022800672031305758,-0.010451268973982422
785,-0.018709965427350938,-0.005893110520153771,-0.009444455176781913,-0.022911981930772853,-0.014183723374765951
786,-0.020830536837159706,-0.007143895684339248,-0.01103864407867361,-0.02446863394402316,-0.01823734560647922
787,-0.024068918415276332,-0.00885786271555611,-0.011627205758231252,-0.026710635471747485,-0.021010292181911007
788,-0.028219671141575347,-0.011138206056798038,-0.012174163494892792,-0.029995197869112384,-0.023034497934863743
789,-0.032411763896229566,-0.013614705939942566,-0.013107106174422362,-0.03350011686287051,-0.024983562116268218
790,-0.03538484657119521,-0.015152801830903045,-0.013335914220556005,-0.03523060473378574,-0.026373896113655235
791,-0.037005823196296306,-0.015518081928289828,-0.012842747178432362,-0.03513748355933513,-0.026238933924278587
792,-0.03804147139026118,-0.01525014482486899,-0.01296474667460956,-0.034689496741724855,-0.024248064058753214
793,-0.0388967312350862,-0.014456302071088702,-0.014097611007364666,-0.034544742732327834,-0.021092759590059247
794,-0.03946938169644665,-0.013658951323738917,-0.015471499369903559,-0.03501313256929583,-0.018380053461711093
795,-0.039656061701037096,-0.013482642638553612,-0.01598264515990159,-0.0363594441059311,-0.01723927990036462
796,-0.03931408218064673,-0.013091868661202656,-0.015098805474054835,-0.038237910487635626,-0.016770241396266494
797,-0.03878991064997091,-0.011892767913260343,-0.013826548558914646,-0.04028797230165078,-0.01635129424824094
798,-0.03858108248047084,-0.010594668605330284,-0.013374753754578918,-0.0419487469442297,-0.016830525021951048
799,-0.03871835777396699,-0.009587629707978952,-0.01414332183083264,-0.04283465522926017,-0.01837873534988167
800,-0.03906159881417298,-0.00853659664154741,-0.01599452698741126,-0.043071798338288746,-0.019586364491894635
801,-0.039250816021740846,-0.006815052997346146,-0.01791139096207719,-0.04257538002500242,-0.017845864291441818
802,-0.0393378318974016,-0.004454805641748508,-0.018540951420299816,-0.04107089606630034,-0.01156591858080443
803,-0.039261775043934875,-0.0015807445472994063,-0.01604010384697306,-0.037463181844285105,-0.0011439693131274104
804,-0.03842105920685484,0.0016689268577246437,-0.009364699130831334,-0.031039582392302666,0.009916079017341149
805,-0.03721401432504926,0.0033280161812321764,-0.0016502086465424,-0.02419669725516902,0.014430019864587168
806,-0.036809632160607016,0.001733504287929773,0.0014526989040997515,-0.021205783893807353,0.008200046399498631
807,-0.037013652955416976,-0.0015430358626793322,-0.0024654054199567442,-0.02379760509059323,-0.005042669279240249
808,-0.036491911480493446,-0.004112010809172128,-0.01086853762853323,-0.02956190453852917,-0.018468112093000418
809,-0.03528366746053035,-0.005750444904710194,-0.01995048966152703,-0.03534735263654978,-0.027913249011553273
810,-0.03411237098408,-0.007086652946431918,-0.0269964559780813,-0.03899189726678506,-0.032330819881567247
811,-0.033087506862697874,-0.008807843911216723,-0.03062526007289119,-0.03966527816021696,-0.03295065628641224
812,-0.03233312560482721,-0.011389938679440048,-0.03139392018921581,-0.03852537834351831,-0.031905762803061614
813,-0.03166443605854747,-0.014250705369930852,-0.030710809836128256,-0.036594860822716076,-0.03133944313257808
814,-0.030561024294326816,-0.01662008027650487,-0.029856301312759553,-0.033956789000497055,-0.03282488867966222
815,-0.028807238452607107,-0.017706224536205566,-0.029448980029251476,-0.03055220201558245,-0.03522121063986155
816,-0.026854342834858196,-0.01743859659979302,-0.028719980300287894,-0.026224238943356702,-0.03681274381671642
817,-0.02540071493452355,-0.016756094113617597,-0.02753722985409433,-0.02173338564132698,-0.038156077364507004
818,-0.02421676593697679,-0.01595256494424886,-0.026942856477496942,-0.018442723108827375,-0.039852215689654594
819,-0.022397079537453415,-0.014799724985003563,-0.027495322066274766,-0.01633138616703715,-0.04142994129408142
820,-0.01981376316513314,-0.01338710493794678,-0.02906389090067106,-0.014518253592911918,-0.039221032212627
821,-0.01712973795092389,-0.011996189508972356,-0.03045263981270191,-0.012135300286947067,-0.03408063364541467
822,-0.015097592521797869,-0.011303063877258745,-0.031025906643329042,-0.008772087240578479,-0.02825278430710713
823,-0.013917929681186754,-0.011862177857302989,-0.03147537221020537,-0.005358403326464134,-0.022945564982279232
824,-0.01326626113691099,-0.013309359145534883,-0.031847642021012985,-0.002990446057439236,-0.020260689017275242
825,-0.012450197982579965,-0.014580445010406713,-0.031266142168589306,-0.00107221051881916,-0.01818279035817274
826,-0.010831397560496923,-0.014969741564713814,-0.029315686792048604,0.0017082248803414399,-0.015071735235977988
827,-0.009125110487777354,-0.015019468479705334,-0.027293125076948282,0.0047935795092514544,-0.012019426248430718
828,-0.008067811949241298,-0.015464674806549568,-0.026502503120124934,0.007062559965159624,-0.010778082513624616
829,-0.007470761889349337,-0.016834862010116577,-0.02712848398109354,0.008490534884210409,-0.010121171678633401
830,-0.007253814042793794,-0.019463136997595012,-0.02888445132813847,0.009101979119020054,-0.00866601179689671
831,-0.007015638500559105,-0.022814572070346966,-0.03036729287560078,0.009336378271515889,-0.006309446820272989
832,-0.006194955993891264,-0.026285078517584843,-0.03063598096365995,0.009942997624381954,-0.0025992485234193037
833,-0.005179616415349704,-0.029506546997688187,-0.03113764449185158,0.010345061536683062,-0.00098119767852558
834,-0.004670188845218305,-0.031758976230324656,-0.03304257818758732,0.00968368688808321,0.0011040943253816764
835,-0.004378117873056726,-0.032427383567151184,-0.034996566344477134,0.009103694198130178,0.0064699784793559425
836,-0.0031830705412184274,-0.03126885986773686,-0.035233364557054635,0.010364029641957543,0.00907645239467215
837,-0.0005480334940574706,-0.02865608054078967,-0.03319933233916633,0.013408194979406386,0.009384088789556546
838,0.00284704215613252,-0.025839938500476934,-0.028986671174858956,0.017299914749981826,0.00816236019169109
839,0.006310522189087005,-0.02382572465648796,-0.023589374305220037,0.02187529972679152,0.004439670852963134
840,0.008994203429123328,-0.022587557312608357,-0.019021826924547774,0.02639162545251978,0.003411738811152357
841,0.009710155662157863,-0.02156144295442778,-0.015936766148120642,0.029588396267233377,0.004774196180518679
842,0.008532214627286126,-0.020939412286949382,-0.013033075330303063,0.03152204891829432,0.0056250655867020735
843,0.006770720363109666,-0.021236287589570153,-0.009887392113119784,0.03265381709400018,0.004511765834345515
844,0.00585752665104306,-0.021485383053736172,-0.0077588959194908715,0.03305554609866291,0.003717079757207527
845,0.006524428758032649,-0.020369162043718355,-0.0074570504981181845,0.03291342847000281,0.003272394379957072
846,0.007924635681567356,-0.018558782724199946,-0.008464095021399082,0.03232867487174728,0.003798198562088036
847,0.00855439999012088,-0.01753672191430425,-0.010032814484737104,0.030995503726129595,0.006338048473465237
848,0.007953522977297041,-0.017425601386049403,-0.011669680047435179,0.02848080061985443,0.008119639758520137
849,0.006791047054434965,-0.01782090572025351,-0.012936810729280691,0.02500466347979755,0.008281784186582106
850,0.005808166449729617,-0.0186715254392834,-0.013499526732694465,0.021599656871250508,0.006351924454711393
851,0.0050245066182320365,-0.0198623102796222,-0.01350121235842818,0.019209671725943643,0.001982072232702772
852,0.004283177524558108,-0.020925780141722212,-0.013498054498943418,0.018053047850622363,-0.0025871744182458323
853,0.0034853128033519023,-0.02151080198998563,-0.013630327588596248,0.017892258868278714,-0.006991751552822535
854,0.0025135588213647904,-0.02164054570700508,-0.013502778248900713,0.018478890694385006,-0.011193102251510973
855,0.0014880654564502,-0.02131048800762212,-0.013012233910039146,0.019197395751611605,-0.014218409123739423
856,0.0005912810437720714,-0.02069295321821383,-0.012413318785815194,0.01916767256416353,-0.01610455230052953
857,0.00018275744646314564,-0.019777747550270904,-0.011833406167067698,0.018420577386854705,-0.016692883021962195
858,0.0005500967096088332,-0.018109634157924385,-0.011560072988400004,0.017907449773093644,-0.015998981501149624
859,0.0011211611324341117,-0.016199834446307553,-0.012035550999702473,0.01794067346035686,-0.015134037812285889
860,0.0011849756199495483,-0.015394825200029924,-0.012926514319461565,0.017991097878432828,-0.015889795775248537
861,0.0010390388693578007,-0.015536878617621203,-0.01302337551617692,0.017713452244464908,-0.017716410588762343
862,0.0010199963207147866,-0.015375913633255533,-0.011657179275687744,0.016766151409290258,-0.019367214547543858
863,0.0006431334938243468,-0.014748699461867482,-0.009636304286377085,0.014749734504663093,-0.02089099777249125
864,-0.0006271454968096996,-0.014376332044845376,-0.008406928083612625,0.011615875741728296,-0.02222540241820802
865,-0.002669907660459373,-0.014612249652515709,-0.008465362332638296,0.007867406190927347,-0.02368505549397094
866,-0.004275309718155755,-0.0146522720279555,-0.00848301379381418,0.005133102443488466,-0.02504644763415107
867,-0.004389100239166755,-0.01332639220359179,-0.007057661909751128,0.004483322797179161,-0.025320699988778235
868,-0.003429576811132334,-0.010530582504299554,-0.0039106516146090314,0.004872584625290293,-0.02125727834489989
869,-0.0025083223592532646,-0.007414314475262614,0.0004995999550674528,0.0049393437767386245,-0.016736551487121054
870,-0.002310220826843113,-0.005429553726168967,0.004711486425193556,0.004329372928865967,-0.014399395079795457
871,-0.0024484417809979174,-0.004731514216601094,0.007662141843243035,0.0036565742864110274,-0.012152052863089095
872,-0.002309483395646902,-0.004544264755282544,0.009285597511603827,0.004124134212699081,-0.010803912259165525
873,-0.0016950865304980582,-0.004548500209187119,0.0098853760547425,0.006867841299329236,-0.009144268754103463
874,-0.0003760147968640499,-0.004835091780222262,0.010081152372121316,0.011633973491331573,-0.0066189440941765
875,0.0017227556792789752,-0.005204967112495537,0.010322669445018454,0.016710837729663783,-0.0039441348423960125
876,0.004252938055552172,-0.00487488778595208,0.010421434139040425,0.020407051639035216,-0.0014207081701868235
877,0.006859176830661697,-0.003050370083361531,0.009951553326629298,0.021891313077924156,0.003400307481526137
878,0.009059241582696578,-0.00018558560992074108,0.008784420155659278,0.021166251686509683,0.009541946841954769
879,0.010440917181758413,0.002357593117266133,0.007245666883019674,0.01916326546527159,0.012849917710337704
880,0.011291647239556628,0.00424976707846113,0.006334118063885583,0.017493488844659746,0.014126824454974901
881,0.011651604669543625,0.00605131375644217,0.006669094651815104,0.016797951951033358,0.015620882856950801
882,0.011403298661227957,0.007782664720319551,0.008100671109609596,0.01661961874839556,0.018223896352678636
883,0.011271825841150183,0.009127130942961258,0.010317087726456111,0.016631199880776014,0.021808682189925332
884,0.011648733267015638,0.010023160165507746,0.012300923901282372,0.01647991889502448,0.02279508788023362
885,0.011998330094331128,0.010223096156643354,0.013185087556405113,0.01562361623234226,0.020829232163483966
886,0.011739249591493917,0.009324386643513692,0.013020493750685638,0.013860187952023562,0.017412235487867505
887,0.01075317688406029,0.00779295968219815,0.011890216586767447,0.011481635566559584,0.014145625797753903
888,0.009762384780390237,0.007090638374740842,0.010542291622610195,0.009289311531122543,0.014500429339115913
889,0.009391643281521232,0.007477406333174201,0.009915980782862847,0.007692721608175444,0.0181425503802927
890,0.009528507847312769,0.007647501775331772,0.009971741048662226,0.006403394423256385,0.022056184513364396
891,0.009709924441326585,0.007045465437939865,0.010238272258111183,0.0053296399087473315,0.0243833681574633
892,0.009191892465051397,0.0062411269110211835,0.009833034413240823,0.004380576304973242,0.025855123282088062
893,0.007845997317725896,0.005944587601506551,0.008106484957439299,0.003490806280306568,0.02647665492412267
894,0.006554921213343272,0.0060992718116661135,0.005488659153563661,0.00297053997058133,0.026107771437802484
895,0.0059445383049103896,0.005832037661379126,0.002716121482228736,0.0027540027611202018,0.025291612569460487
896,0.005822413324939931,0.00483672337223814,0.00043787580458498127,0.0021016211456818686,0.02421179955794544
897,0.005941032781021689,0.004005263608121788,-0.00043381333134654353,0.0007441515789642519,0.024407950654324287
898,0.006165501232564135,0.004009219080103325,0.0005276353149118633,-0.0008849727009042649,0.02646105720568653
899,0.006271956059509382,0.004436425861403075,0.002557088232153005,-0.0025946695890711573,0.028784922167591247
900,0.005883586538431598,0.004673329240378196,0.0045791124923573664,-0.004300146541498204,0.029734091077949592
901,0.004540490957528814,0.004191136782478967,0.005795054967763237,-0.005504515253135385,0.02872088916731155
902,0.002742423095380881,0.00286103540862136,0.006088309686243962,-0.005868111940821249,0.02600671976838391
903,0.0016530041769073427,0.0015547434750972607,0.005971509056088281,-0.006119292636099321,0.02278581703633363
904,0.001631158029676463,0.0013986324614802433,0.005592243428409482,-0.006942420060353365,0.02071266450664157
905,0.0022380000826471426,0.002607852561780413,0.004857619446634162,-0.007734214573274318,0.02082794101559365
906,0.0027307200614518994,0.004829753935669806,0.003967123251220577,-0.008024166384529165,0.022707981889941654
907,0.002922110308378093,0.007851545075428127,0.0035666496007007234,-0.007808668015555427,0.024730382056990314
908,0.0029280595580012674,0.01058339892614666,0.0038049692011850175,-0.007363129282410505,0.025558209867404952
909,0.002523980638447574,0.011871738832289373,0.00418010100281812,-0.007480285977858047,0.025743506099808494
910,0.0015923035235774557,0.011792088904202339,0.004376050593775381,-0.00844341114396519,0.02650337088634141
911,-1.5847484102043516e-05,0.01025450601690992,0.003460761261338232,-0.010202070542137391,0.027120393359319296
912,-0.0020423244497253697,0.007580981189886134,0.0005816513107252598,-0.01239773029767032,0.026245455775496425
913,-0.00390881606598776,0.005104244622237233,-0.003396993714462261,-0.014045373100785127,0.02384663762221193
914,-0.0056030592848889125,0.0034061387847946654,-0.00681503106324842,-0.014876126356842252,0.021126153906391897
915,-0.007053544213197396,0.0022145941298908557,-0.008815994251927807,-0.015369227038780754,0.019516655360760127
916,-0.00738375476119377,0.0017509636911317607,-0.009334230559246263,-0.015232773796630059,0.019513071193895594
917,-0.006236585706559789,0.0022256658187392118,-0.00897849966567077,-0.014055833435348905,0.02064108942493689
918,-0.004867548684568994,0.002622207526581498,-0.009160021185431376,-0.012904658888872154,0.021827881026196944
919,-0.004372895593956506,0.0018609288697975432,-0.01052469554889528,-0.013270855366009315,0.02194246261009504
920,-0.004209042008997893,0.0003771812115119412,-0.011768018369367814,-0.014554440113374562,0.02048542276795881
921,-0.002971643653217029,0.00012273632385665707,-0.011033604703809045,-0.014569157554297187,0.018482377084665377
922,-0.00037102051578301017,0.002269568215044901,-0.008033246165009406,-0.012714126255369447,0.017329323739765957
923,0.0021746190794681456,0.005210883319941093,-0.004103776537927047,-0.010406915098529633,0.016424873224075542
924,0.004020691205055102,0.0072778326980036355,-0.0005740069495808488,-0.008553104454589055,0.014924621667572123
925,0.00541299755637387,0.008174961855812365,0.0013007526359498371,-0.0073379400090767604,0.013289042501920282
926,0.005903815579558482,0.007481414711257117,0.0009143299398016599,-0.007216453455291909,0.011962090617247343
927,0.005907025452442964,0.005864209430971829,-0.00025295665268255404,-0.007724191505206535,0.011748490466242243
928,0.0063668519217879565,0.004884356638042363,-0.0006807881713128579,-0.007989139693352345,0.01378320546340845
929,0.006948800970509935,0.004836852287894248,-0.0003288594203022633,-0.008090155071096325,0.017971226819315626
930,0.006836783209645456,0.0046835982385027295,0.00048420151099648397,-0.00840559919695976,0.02238953966636211
931,0.006021926316926749,0.003704199929205523,0.0017264027824981936,-0.008770681195399734,0.025307292124164767
932,0.005185834747256033,0.0025284766973583325,0.003694221493878156,-0.008844894313819377,0.026259859369693193
933,0.004479993599059604,0.001942422894276653,0.0061081870278857165,-0.009188263464665185,0.026624799957913965
934,0.0034548005009983327,0.0019819104238309555,0.007358065299955459,-0.01056515924815977,0.02642342084051139
935,0.0020747746284435703,0.002556663235876988,0.006184908594606349,-0.012684084397394765,0.024807492380905304
936,0.0007596223885474908,0.004035458998259162,0.0035830253534726983,-0.014626279602036982,0.023312098404552974
937,0.0001461538901128055,0.007006872803023698,0.0017756981123145665,-0.015496434864918425,0.023809066918767562
938,0.0008797916643994055,0.011341701236346053,0.002097607199355211,-0.014996944863183771,0.02617454344021668
939,0.002663676352278854,0.015515528592274846,0.0038275685381765102,-0.013947391366180372,0.02842641137533142
940,0.0044456843737560045,0.017754035719996984,0.0052512718999590926,-0.013180816087467441,0.029142379072897986
941,0.005457359476651223,0.017443776783062064,0.005696270097862701,-0.012753638765569363,0.02812557115311774
942,0.005674433361801692,0.015481248283545334,0.005571528074568766,-0.012476477502885292,0.026401967589017826
943,0.005379290925259377,0.013492831909972407,0.005257123420637487,-0.012428656058380817,0.02473956704471946
944,0.004693292314037803,0.01217768856498709,0.005064207428791293,-0.012713685104613015,0.022532088102302138
945,0.004137915272090733,0.011441138669169293,0.0053744310770042995,-0.012961829801101265,0.02021260292419386
946,0.004101431410988527,0.011612741760314346,0.005907593011445029,-0.012464898246894927,0.01958383277140415
947,0.003817087492064638,0.01245322258547937,0.005829884849767813,-0.011068385176107507,0.021356074921230837
948,0.002244695381222735,0.012685965564504662,0.004684527379740847,-0.01016732028477959,0.025448853708244814
949,-0.0003632447280433842,0.01229904862669496,0.0031597549955082968,-0.011139394366525626,0.03087258884256524
950,-0.003070945456785813,0.012176198268697348,0.0026261630566098856,-0.013648549653922922,0.037399045809255044
951,-0.0057086412915511595,0.012395256701393019,0.00412962874992912,-0.016374002365099834,0.04538851776692766
952,-0.008496285596954768,0.012167606776972133,0.008224484216974831,-0.017913400220034677,0.05353184406936526
953,-0.01116121699979714,0.01020072935794587,0.013922628933242198,-0.01756862772451801,0.05787132337054194
954,-0.012481161258669096,0.007051980504751801,0.01839972165905929,-0.015783466311915496,0.055238818605140357
955,-0.011195791866348666,0.005099277176367627,0.01927850400452124,-0.013818136217872352,0.04662297478281965
956,-0.007626887200263822,0.005145522141591808,0.01630124995996248,-0.013000066094469832,0.03457614542916348
957,-0.0028730995891621666,0.006350973206292601,0.011817287311900553,-0.01305747752644902,0.022130259232111243
958,0.0019274134038370127,0.0074039585405115994,0.008787209230305754,-0.012597993563933606,0.011385416574296713
959,0.005304212135935793,0.007103217793183545,0.00794384323016296,-0.011120958584255117,0.003466929254037159
960,0.006406346104809114,0.005308560882119204,0.008413499794934009,-0.007559652818225284,0.00032121076610644374
961,0.006797528446646318,0.003754970974815057,0.010804888831166351,-0.0034142221015794464,0.0012261783442304957
962,0.00629287478611838,0.002284162142751785,0.012994472306479703,0.0006868458758031123,0.004663488357816789
963,0.005112667615219117,0.0011655192237173151,0.0137369778127257,0.0030439713270834384,0.00937909408429129
964,0.0034885339017046452,0.00042199087077511333,0.012732891150085027,0.0028770845103305927,0.013954564581018344
965,0.001708122301441483,6.512285458332426e-05,0.010836987156824695,0.0012862738800828123,0.017045196337206168
966,-7.86765161093682e-06,-0.00018146558006201476,0.009523460144154351,0.00011886990219566533,0.017608759770444727
967,-0.0008535356901801131,9.452958492479802e-06,0.009581615857209102,0.00034393760555466067,0.015354640413956814
968,-6.263540527707523e-05,0.0013583354555922725,0.01028791375601112,0.0017271904861930114,0.011231979798883913
969,0.0014341750864429596,0.0033524198973692724,0.010261747566356018,0.003079484944451843,0.006688883312504501
970,0.0022479470306290385,0.004435918023330479,0.00944459867640649,0.0036274830108200913,0.002488821640969504
971,0.0020436536395158126,0.0035424752537819427,0.00846075531446277,0.0033871849757758656,-0.0018764359098247395
972,0.0013129509008322031,0.0013452797843487058,0.007080828567269196,0.0025202992749390435,-0.006911297687519534
973,0.000767293791600348,-0.00045258426599968914,0.005010281982802274,0.0012409529279104213,-0.011593561907520571
974,0.000974376213706405,-0.0008841895027890118,0.0027806216226890913,0.0005265253159232677,-0.014052633820813697
975,0.0016742848398199697,-0.0004993916080290197,0.001025337771773702,0.0012592805369540632,-0.013925167118670522
976,0.0021341293551856333,-0.0002777446588853319,0.00011913280290089324,0.0027680892902784467,-0.012677205316109214
977,0.0021292138804928844,-0.0004772339055825434,0.00021977731568353324,0.00400424209429351,-0.012079130269419593
978,0.0019793170582681897,-0.0005558423143792139,0.0008659723810336571,0.004936654734170113,-0.012275674417311798
979,0.0021613964951310485,0.00017412626903937905,0.0012706321805370923,0.006001671756290781,-0.011892199048538565
980,0.0023524923879438774,0.00154795333040403,0.0012923533884102714,0.006950900974049683,-0.010698471426938576
981,0.001693976106519797,0.0024286586100252605,0.0012835371405327729,0.007248497016499196,-0.00969383230276275
982,0.00045952741836051186,0.001921912098103997,0.0016286384184541647,0.007434635898787626,-0.009454530672636704
983,-0.00037729802300124303,0.00024995902773752697,0.002339705699409027,0.008003609805215002,-0.00990519041144528
984,-0.0004421242465088989,-0.0017168280358991711,0.0027327577701974394,0.008315968469207787,-0.010616754432629385
985,0.00011653156644377065,-0.0033334784675070964,0.0023995137887752303,0.007972485200534837,-0.011573877363868838
986,0.0008294502188134419,-0.004480531450355629,0.0014674742763991124,0.007093365340780674,-0.012839875698644173
987,0.001338825534321872,-0.005191103316182036,0.0003364749195807522,0.005812233071456997,-0.01377759217047139
988,0.0015938714139911159,-0.005500071256789145,-0.0005523750094271305,0.004177477707653126,-0.01404703583759144
989,0.0015068455103268502,-0.005510864734106953,-0.0012643959902765762,0.0025059065622859435,-0.013690452693197918
990,0.0010672552696279702,-0.005249163550467538,-0.0018238598032156237,0.0017388633515603251,-0.012461219205801535
991,0.00039482694172632114,-0.00481736980538337,-0.0020691353592538477,0.0021174027574024663,-0.010494900103517345
992,-0.0002784534034332307,-0.004420361181759189,-0.0021297488135942136,0.002910694165742453,-0.008625173931392557
993,-0.0008431246591554241,-0.003961237005290446,-0.002274149128805504,0.0033297969483891987,-0.00722725590370302
994,-0.0013505810497152276,-0.0033077714463304723,-0.0026333402786557526,0.002950961200968126,-0.006139323622759502
995,-0.0015040891376228564,-0.0025308158266618484,-0.0030725701329540134,0.002235504376789576,-0.005564676269931488
996,-0.0011300905759598513,-0.001772005241683716,-0.003258889595352911,0.001849288929546023,-0.005510877702064343
997,-0.0005437788804910864,-0.0012106947709873243,-0.002749093056952065,0.0020086318379022817,-0.005379810527003004
998,-1.7800264048343756e-05,-0.0009220865742360787,-0.001495078421269073,0.002496475662761018,-0.0049531124039243184
999,0.00034741026395070714,-0.0007552929158371888,-7.533732758253563e-05,0.0027782288864944427,-0.004580184601295718
