,AF3,AF4,Fp1,AF7,AF8
0,-0.0020469410943833575,-0.01017275277089461,-0.0020955534466725444,-0.0063845807151731325,-0.00127108249202234
1,-0.0009389463236710598,-0.012772452721754235,-0.002781939588486166,-0.005690720811170093,-0.004200772579534402
2,-0.00015283879846920802,-0.01611885130600653,-0.003529607208200612,-0.005021789882380442,-0.011248358013048701
3,0.0005982174017416259,-0.018854628190755337,-0.00394673614717138,-0.004756698505602156,-0.01957441829973194
4,0.0020674970149187136,-0.019551986315998374,-0.0028180960802750956,-0.003961484842834226,-0.025694383664793517
5,0.003958900422979931,-0.018292602460806606,0.0002649634230161767,-0.002173452094084562,-0.028390397270285552
6,0.005525919794226069,-0.01607915896992319,0.00404811312848366,0.00018305254827926095,-0.028635362599534357
7,0.006524240514549683,-0.014018881194832356,0.006642068261820929,0.00209154119016928,-0.027965207197880964
8,0.006782129532764576,-0.012931870718875771,0.006894241559500535,0.0023466912144934596,-0.027425177792470067
9,0.005647065836942446,-0.013379059938194613,0.004615671188772775,0.00036411349340451104,-0.027368643416765155
10,0.003884831979721159,-0.015014127967651862,0.0016820824482681068,-0.0024390806410121415,-0.02718599206560164
11,0.003296453651240136,-0.01657294223932945,0.000547573771855144,-0.0037955114481385043,-0.02579389868133907
12,0.003551579989334992,-0.017197233310505898,0.0008353656224372262,-0.003474906899783383,-0.02223870856071319
13,0.0035864062130967415,-0.016656042885310654,0.0009347504853574706,-0.002984908320654881,-0.016218243190551655
14,0.0035623250895220745,-0.01570566415982545,0.0005352830600648351,-0.0032151167123346367,-0.010184325686687958
15,0.0035574224399761377,-0.01590983696302603,3.193707997770186e-05,-0.0036533838778571217,-0.007794524999982608
16,0.0035576258489637413,-0.017318590154801333,0.00010633984095688034,-0.003087391223760349,-0.009109941934319271
17,0.004133491189700714,-0.01782135241867177,0.0012657880148298547,-0.0007692001898260866,-0.010577515414386026
18,0.005284481598984452,-0.01634689933084728,0.0021526764518833476,0.00208033489632605,-0.010123383736418714
19,0.005983247125610378,-0.01468182308821812,0.0007663277393923581,0.0033909392518110685,-0.010163406210722484
20,0.00604761476889438,-0.014319071028735985,-0.002268900027624843,0.0033258514718483394,-0.013298503608429539
21,0.006442383557570892,-0.014635468427241713,-0.004579127713833344,0.0034097489010858776,-0.018250701721604146
22,0.007424889938987413,-0.014342842935022276,-0.0051194281780707574,0.0036748586130418487,-0.021238705661250804
23,0.008532410708585604,-0.012857893918685283,-0.004456288495083778,0.003764881063915456,-0.019650481110196998
24,0.009127970191329899,-0.01121077586516783,-0.003723745896425435,0.003646771994482569,-0.014727004385322045
25,0.008343510936861198,-0.010853816670551308,-0.0042989564303976425,0.0023751735319809822,-0.009279242666638956
26,0.0062523692349667195,-0.011789414912430466,-0.006328894658629624,-0.00010633996618400627,-0.004607269565493623
27,0.004202457627983691,-0.013407372421305888,-0.007872194881773605,-0.001607667875267522,-0.0019474921798949421
28,0.0034921104729186215,-0.014968117519995374,-0.007180281897747809,-0.00018674199725425745,-0.0021889261162764792
29,0.0043540575773951965,-0.015041402498145152,-0.004538692008273484,0.0037864349033665478,-0.003383513201884481
30,0.005606047847755692,-0.013347480847074572,-0.0016914823449201805,0.008341745158995086,-0.003404457907452255
31,0.005752909367395729,-0.011350474294745427,-0.0003637546898421793,0.011299821735194155,-0.0026175976292755285
32,0.005050904113275343,-0.010169992761818595,-0.0005787775287618387,0.012153995969637206,-0.002350043880210571
33,0.004939976949423216,-0.01011271543043001,-0.0009138385822309263,0.012426150803662704,-0.003559669713115557
34,0.006154890020757401,-0.01094417116276823,-0.00015976629045455344,0.013431337053718706,-0.006192648017839437
35,0.008300111249510335,-0.012033368242488416,0.0019444294346773496,0.014962336152207491,-0.008673730293418884
36,0.010471699395348468,-0.012494624560447868,0.00475400316626234,0.01618572471023923,-0.008736103489990097
37,0.011958029296740948,-0.01191292447880374,0.007134519504213438,0.016701313549105222,-0.005908195439460092
38,0.012428092255925617,-0.011359774763888471,0.007892477540680475,0.016531463565938608,-0.0025844424956699696
39,0.012148259504419104,-0.011702111851297959,0.006878106683500545,0.01584115810573567,-0.0009065351689095123
40,0.01154858018011453,-0.012343738597674707,0.004949480002482904,0.014739202842886817,-0.0005473099816223905
41,0.011237272705497056,-0.012142935926444864,0.0030740291565150633,0.01372245733438696,-0.00023847239235862396
42,0.011420551800827947,-0.010842804803760476,0.001911676957658217,0.01287798214441502,0.0005450150594482336
43,0.01177995094832258,-0.009313781707626805,0.0012369354145385432,0.01207503844208983,0.001402380491397052
44,0.012424677954809761,-0.00788210832355844,0.0003302791422645621,0.011735099916683006,0.0026783215284510963
45,0.012481262884612033,-0.00612450378984859,-0.0013913925619504694,0.011082331654730158,0.005461815073806519
46,0.010250402093398246,-0.003967351648949669,-0.003888817910097099,0.009053129078158112,0.009335414258355004
47,0.006075392641535344,-0.0015602579087304076,-0.006458437205971596,0.00608878165118606,0.013499863291550966
48,0.0026287924503378382,0.0011389611960352126,-0.00841654689133555,0.0033497458250549275,0.01840327121826816
49,0.0019728998974538354,0.00399149498956394,-0.009314900839198417,0.001891826423833831,0.022913683638734642
50,0.003714733015186862,0.00647175052316213,-0.009012807178364704,0.002037073366231679,0.023757936644213013
51,0.005820986102555593,0.007960309402476707,-0.007798970607345744,0.0026249205489020768,0.020055150709662718
52,0.006677209082674849,0.007743024402804803,-0.006117713593381998,0.0025052682269997586,0.014170990051931285
53,0.0063365080462148005,0.005619396625970197,-0.0043365282121236035,0.0019853042741909115,0.008844953446235393
54,0.005860111125817329,0.002640995090965848,-0.0024152133263987056,0.0017227218308181653,0.006001475768480423
55,0.006502290810544745,0.00031487231978948103,7.613237729185993e-05,0.002228811211788715,0.006095020099574641
56,0.008318873023793154,-0.0007815600644954453,0.002367228957175466,0.0034173174714821133,0.0070052050531371835
57,0.009984954943014681,-0.0011293742296732733,0.0029518299841942734,0.004671524033443598,0.005355646949611895
58,0.010573451719801223,-0.0009726713358691577,0.002082465285880857,0.005441140121446538,0.0005613768996800766
59,0.009812361301970947,-0.0005798324204808488,0.0011185679959713345,0.005187567396513206,-0.005273985588327404
60,0.008208868753960584,-0.0006474292750603348,0.0009653683710722026,0.004361804957517332,-0.010318564926918761
61,0.006840815681203708,-0.0014806996967297774,0.001387970988482702,0.003707204450306917,-0.01387088290100569
62,0.006396840068623318,-0.0031230693140998065,0.0017709572698648359,0.0034164904234110422,-0.015913912080871638
63,0.007191998284963683,-0.005232124567505934,0.0027125494236719663,0.003917966546631334,-0.016249577961299472
64,0.00897722579674009,-0.006659668185678008,0.0046915418538968695,0.00535431536694916,-0.014863469653112577
65,0.010892448801413455,-0.006573392920136774,0.006913819966561503,0.007650442829116646,-0.0124189913740396
66,0.01195898937329277,-0.005916919672077675,0.007942993608974864,0.010041856988915054,-0.009563876549444843
67,0.0118581641739976,-0.005956295390017743,0.006789674746378258,0.011085964489752633,-0.005666479992530576
68,0.011523570219249234,-0.006148717238443276,0.0044971994309699745,0.011263177678927897,0.00012699437326242535
69,0.011392325578975224,-0.005492358942432643,0.0027630459421717564,0.011430291421874413,0.006044620259574657
70,0.010918667535910774,-0.0038878293512012124,0.0024025683734949237,0.011026780037407867,0.009405735138958777
71,0.010145581781677555,-0.0017343947431046715,0.003511575285553898,0.010322565751595257,0.01009663580422959
72,0.009259537093560227,-2.038417176082803e-05,0.004841760572626634,0.009886574371375943,0.009215964330535006
73,0.0086465714423218,0.0007178904041833739,0.005399067204387953,0.009498008949999293,0.007566659341781734
74,0.00898173434937757,0.0009169120085619905,0.005844787067468783,0.00905717953946839,0.0061822827211460915
75,0.010341307367614797,0.001085647251114617,0.006761276746589381,0.009279337577113937,0.005868706460925559
76,0.01208121246850366,0.0015400188098710992,0.00744815231590392,0.010523923315418201,0.006912962601338858
77,0.013510060240155957,0.0020417692693868996,0.007305811863997077,0.011951244848703095,0.008511145744884312
78,0.0143053039290741,0.0018461792945630266,0.0068174937279818024,0.012732977667957467,0.008407705306070462
79,0.014338554990011274,0.0005331445050782372,0.0066876717950977395,0.01261471050426384,0.0048354956759575326
80,0.014091589978809152,-0.0012338469185757804,0.007377171869371881,0.012075755626043046,-0.0015069654137692162
81,0.014477085857891266,-0.00191658008707718,0.008960813427789132,0.012149382161837514,-0.00775166282240514
82,0.015441354874896084,-0.0011016396876862337,0.010837051180857465,0.013304272542641979,-0.011816903710921312
83,0.01594979730406307,-0.00014581839183811727,0.012421956608011325,0.014987506682259372,-0.013743598261848247
84,0.015263243644515064,-0.0005227194000279031,0.013531486758631396,0.016045253423024562,-0.014180007626947821
85,0.013243277550533308,-0.002628812077680984,0.013626168605221723,0.015267852218611417,-0.014080974929209025
86,0.01089496219935515,-0.005131440495295473,0.012872366262617434,0.013493823567346437,-0.013726343164626181
87,0.00951324589875034,-0.006854791689482053,0.012582389577554516,0.012744064049801102,-0.012860500849084147
88,0.008838281219075029,-0.00803164384444337,0.012888203073942889,0.012688409412479475,-0.011698316567282168
89,0.00829794155578528,-0.008716029977037312,0.01273229340347734,0.012476147226087662,-0.010644973856762097
90,0.008101831788199104,-0.009154294386007861,0.011802410969134204,0.012716353269078108,-0.01030622227299484
91,0.00816168704403705,-0.009522878752399962,0.010693159979617197,0.013666634896051456,-0.009894639523854849
92,0.0079491085197937,-0.008288049929565165,0.009985529507859314,0.0148295638211272,-0.007117772175278787
93,0.007080900650491792,-0.004357840150590575,0.009451854142571187,0.015676597812519764,-0.0013712277154813482
94,0.0053558015410168,0.0005992408308820741,0.00847784001882987,0.015434985706327578,0.005304235040041111
95,0.003363382597066334,0.004404691619333828,0.007408995559219177,0.01400933437799723,0.010514525497518133
96,0.002566500375697867,0.006588613049573409,0.007350104684906373,0.01303991528821111,0.01305717647411288
97,0.003315186934104135,0.007553374664727649,0.008331795392858879,0.01331330926092761,0.0132065612734291
98,0.004245954219996854,0.007530518764252255,0.009026590678660202,0.013152404935229041,0.011747477016357134
99,0.004483836450549902,0.006795821412818173,0.008611130865257458,0.011576501524903504,0.00879403390411238
100,0.00451115481884329,0.005817528260548606,0.007807941721683316,0.00998023755239373,0.005017773769179199
101,0.0048853675685515,0.004912896747388392,0.007831049717402732,0.009533789447387074,0.0023098131292701783
102,0.0055835902653131285,0.0040949954023220495,0.009050963707912921,0.010080819384664774,0.0012956726953893408
103,0.006052354499821673,0.00336785254026686,0.011031827254931547,0.011177367014302705,0.0007717688347600655
104,0.005926029191164685,0.0031818711386057403,0.013241682474762616,0.012437623457879847,0.0013832681209845306
105,0.005502290564119972,0.003771521582456632,0.01480950194849744,0.013719627252307819,0.005399386615504667
106,0.0045951360005643555,0.0045191258775776014,0.014660924330751784,0.014601739061030072,0.012486347672355132
107,0.0030435249329684865,0.004977023757552295,0.013051612707631178,0.014763531188062723,0.019558542099992225
108,0.0021973394031717538,0.00525092740762708,0.011453720787088733,0.015218517804218202,0.023237614176374818
109,0.0031704012614254973,0.005096694564297956,0.010505487530873511,0.016650459859132594,0.022109761843534588
110,0.005146004782800833,0.0042232132435087765,0.009814505505369428,0.018153228363072135,0.018147832288776873
111,0.006657684511122254,0.0032036911015563825,0.009072392931671823,0.019005454455674656,0.01463280647026317
112,0.006694412965130091,0.0024978419366230966,0.007707541681956072,0.018782743533346035,0.012624489824980269
113,0.005425317682684289,0.0022783800609259062,0.0054005326129249005,0.017467263978369646,0.011858426202624688
114,0.004228765494338833,0.003331254164318318,0.003209985349484814,0.01657003742925409,0.013080980142668758
115,0.003666676785490762,0.005834177478712321,0.002612110692361435,0.01692564888228843,0.016285645217502667
116,0.003213438916277533,0.008447463463769983,0.003639640568467797,0.01776459539242602,0.01884875603336545
117,0.002963849378917084,0.009528659270686008,0.005023158560223458,0.019091845746589203,0.01799905115894977
118,0.003288771849605051,0.008853911818870526,0.005819284596961488,0.020984656772034687,0.01435055078619465
119,0.0037956963772466674,0.007284430682098589,0.005373684918094221,0.022201204420296914,0.009977322516341479
120,0.0038770830243414554,0.005080881308102968,0.00333055410145024,0.02206390986762751,0.00539891615055758
121,0.0033150770663533773,0.0022986400374037648,0.00035583017473462896,0.021112485700449223,0.0013376778890902602
122,0.0023067389870380394,-0.00021812262773262815,-0.0021619662766682204,0.019726195974010013,-0.0005840592577492466
123,0.0018877336195982745,-0.0014257676387560275,-0.002904169458706494,0.0187196842672612,-0.0002474522074094811
124,0.0027452372904248493,-0.0013133252450015346,-0.0020945957630413847,0.01905047320416693,1.8451293564810163e-05
125,0.00392137754027588,-0.000717770681334234,-0.000685169986997684,0.02051577641894602,-0.0014032644294378494
126,0.004687814104856084,-0.0002538319376163617,0.0020359858951148266,0.02351368915173383,-0.003444547464720677
127,0.00495934555789127,-0.0004657380606810181,0.006791899345232063,0.028461032013836356,-0.004504195394212567
128,0.004310966321457448,-0.0015984881912501022,0.012424168823210558,0.033507308903469896,-0.004029396552589171
129,0.0028652755198730756,-0.0026291838839439287,0.01677699706128405,0.03600128627794652,-0.0021434133355076723
130,0.0005152024362262125,-0.002201090700081131,0.016368757073690104,0.03281894256845929,0.0012273073375162695
131,-0.003530192812014918,-4.669537483991456e-05,0.008272928656478516,0.021747456369465457,0.0058958090076707895
132,-0.007962956406067352,0.0034510309360313903,-0.004278724138929223,0.007032898509324005,0.011162715787829946
133,-0.010422227485165582,0.007329264685808521,-0.01380446043451569,-0.003243742292565969,0.016171112309283798
134,-0.010630315517000858,0.01047285700064146,-0.01620172701959224,-0.005793936873418228,0.019987826416395224
135,-0.009456174480610457,0.012693159241725396,-0.012671655425511493,-0.002695910101900801,0.02203972015235737
136,-0.00776278966462463,0.0143140979694081,-0.007072645033614207,0.0025257819917122357,0.02280042007916102
137,-0.006282354363704215,0.015297998614672174,-0.002839166621101403,0.006981970514308669,0.02302819058165092
138,-0.005277567880028842,0.015566792059586628,-0.0012292884807038977,0.00958474615268252,0.022524510215851255
139,-0.004483299338284147,0.015462219307637802,-0.0012519694635216867,0.011184900036854607,0.020705337529297842
140,-0.003681544797762637,0.01500823331989961,-0.001586884073944973,0.012878083138892084,0.01696241579487432
141,-0.0030345170978443407,0.014532342514314983,-0.0022892992456565522,0.014479648795549862,0.012377119824648527
142,-0.002925836265248749,0.014563997421355671,-0.0038929080216399685,0.015034272773532852,0.01013486960638673
143,-0.0037637065933945136,0.014696182483545978,-0.006080211978549017,0.014036586548535613,0.012400081249840652
144,-0.0048723708307003765,0.014992397201817331,-0.007414576461523951,0.012536662792524005,0.018172729132725746
145,-0.004953173992263284,0.016120621302239894,-0.00688662792288693,0.012254236455400932,0.023958030864028142
146,-0.004162487445737276,0.017584837011656314,-0.0051878324197801,0.013585048493510233,0.02668227158556373
147,-0.003275405917586321,0.01838302242890149,-0.0028596912992541737,0.016454890443634275,0.025154426863026928
148,-0.0022082615029799845,0.018160977775171706,-5.8075142124297176e-05,0.020516554354515423,0.01974448538588688
149,-0.0011335597437840616,0.01676139111311179,0.0016684791116670335,0.023909267348803664,0.012271984327317397
150,-0.00033029373721316443,0.015120371951307011,0.0015873142008523656,0.025382622350934036,0.0060899785554696054
151,0.00035020568418015445,0.014301369560128504,0.0007627803870668013,0.025373629947262312,0.0033926862599161986
152,0.0008186583669530438,0.013767241540126414,-0.00018159229409126662,0.02420130545738968,0.0033370243609816843
153,0.000910594168833222,0.013340460776244347,-0.0014064251678667192,0.02182393810237402,0.004706133567796625
154,0.00035808685487805563,0.013274098751769188,-0.00328894084688228,0.01856842100890318,0.006303565551280117
155,-0.0002911674238145728,0.013412098144315515,-0.004868233347473038,0.016077205920655032,0.007032280522727803
156,-7.913796384561318e-05,0.013905144868737498,-0.00481620283914408,0.01558268610439238,0.007506767545644429
157,0.0008193846211829828,0.015271000611650114,-0.003923409263372036,0.016293925163934585,0.009392612502635013
158,0.0019354485721147226,0.017806969489912304,-0.0029477958819114883,0.017510072554414186,0.013668051567453338
159,0.002389312857278683,0.020312799388664343,-0.0020976245701975218,0.018085809457644427,0.018856004545409328
160,0.0013410070663481097,0.021213086552816736,-0.002228566188665647,0.016511487230959035,0.022750556009456507
161,-0.00022012108454453746,0.021097004824035866,-0.0027509051350968015,0.013622320566359845,0.026009699308057837
162,-0.0004080671014824842,0.02174765890494525,-0.0015255758044560332,0.011881618823702646,0.02999508193602153
163,0.0012529750057221406,0.023824057864422765,0.0024998434175079747,0.012709003641739783,0.03330086781544079
164,0.003209237578788026,0.02629003908119687,0.007548658563883508,0.0149418389032314,0.03367776079744275
165,0.004194288224041717,0.02777972311468921,0.01115990866641088,0.017046673421958963,0.031043350754648754
166,0.004979945358752991,0.028005032924144215,0.013283902947961146,0.019296178128383547,0.027005544647778497
167,0.006413025546044629,0.027409956897241374,0.014972991529936093,0.02139914735242962,0.023521344675467584
168,0.007640274684158416,0.026398676154347243,0.01594201519299736,0.021614461813283654,0.022506165675875357
169,0.007889211021709142,0.025505516020784696,0.015301568354035794,0.019826288989506332,0.024414736315648035
170,0.0076325316980036485,0.025503086085536558,0.013659494463802106,0.017740016629213706,0.027699767847334793
171,0.0076880618873331665,0.026181724228874614,0.012781716021660044,0.01682427084421297,0.02993471376841852
172,0.008564193356204003,0.026304481615089408,0.013420701394638359,0.01779179970523097,0.029022074019961625
173,0.009504237724500472,0.025423634316087726,0.014444759702219805,0.01943640711430047,0.02553331478673033
174,0.009968712907438292,0.02465707060064319,0.014993608802714008,0.020521876156168312,0.023352432656430496
175,0.010682612086219595,0.02527735411793462,0.015447991059532004,0.021793543907518455,0.025145222802181722
176,0.01149607611393092,0.027064210890912935,0.015480097147230417,0.02282681248537618,0.029131007140694717
177,0.011718730391476357,0.02867551258745918,0.014650379910453804,0.02240683529543726,0.032385384513854025
178,0.011996989422217066,0.029009238699382534,0.013995126407235487,0.02220997230977255,0.03396445122218691
179,0.013041529684533013,0.02766858381326094,0.01422708495425541,0.02412391774482549,0.03428701401965137
180,0.014317219152465692,0.02492188085419439,0.014963481135960794,0.027233084096255585,0.03397643182266743
181,0.015439495334815095,0.021686031784502013,0.01610945558108333,0.030473667645579287,0.03298645213107838
182,0.01651561781790324,0.01908520023130678,0.017593215381647584,0.03370346604042223,0.03107299576526168
183,0.01721056685976878,0.018027844533209905,0.018538758412198954,0.03601349361536494,0.02870992356365007
184,0.016953715047901212,0.01867187516797143,0.01778889105067149,0.03608393521293988,0.026328068543356804
185,0.016227471339955463,0.020328551551254494,0.015841315099040677,0.034537352814465655,0.024487364222837735
186,0.015883871904473285,0.02224559999468135,0.014277685602734645,0.03298159525356833,0.02455370856896153
187,0.01547339254385433,0.023846829970176286,0.013125237561031747,0.03147118290709389,0.026988365643820955
188,0.014788252648594135,0.02491654622874369,0.01165181282045541,0.029738012123371522,0.03008157272936867
189,0.014597057580764143,0.025898769244010873,0.010545575862356252,0.02834545411957372,0.031583741925366206
190,0.014832985113547848,0.027318313462855657,0.010675206368542429,0.02759502314569137,0.031197561201304538
191,0.01451764795077935,0.029247112000717158,0.01124728236202993,0.026736420823523104,0.03125545217797491
192,0.013724350005828116,0.0314081986952593,0.011389973546651198,0.02566134468335969,0.03365395167769793
193,0.013313737243566189,0.0332823022870671,0.011060830122132752,0.02546058356330004,0.03668306500099941
194,0.012972946663817753,0.034290505323925656,0.01026290978769067,0.026035614328817857,0.03722953392935129
195,0.012818016526470829,0.0342087066928253,0.009872950653315055,0.02738690365473345,0.03519080980331075
196,0.013742303209756453,0.032883300949907955,0.011022672176440575,0.03025388659351673,0.0331885121127206
197,0.014917383120168232,0.030166981096067937,0.013140995893557274,0.033130767954991494,0.03267788246166285
198,0.015041172534352203,0.026962821037149177,0.015034670224698378,0.03367006687505196,0.03250357241113703
199,0.01477368118221701,0.025420434241968496,0.016680099369139723,0.03218034298814231,0.030666838778267744
200,0.015157082619017676,0.026947898655746632,0.01806007705712001,0.030274225951440265,0.026231530213498805
201,0.015464289751805886,0.030123157681670423,0.018374274369847593,0.028335016764760187,0.019495799803915397
202,0.014938157800772262,0.032625345136319074,0.017700341097318387,0.02650332904841288,0.012399859520436788
203,0.013490510812158544,0.03363824633801041,0.016509499490395558,0.02455960189047663,0.007813677242322646
204,0.011208608712162983,0.033566351188431716,0.015105082711380242,0.022057617515696352,0.006876613313816501
205,0.008671277103395292,0.03315966916679573,0.014235584206872048,0.019352287929051366,0.008605667157258258
206,0.0062483121775269105,0.0324829049549889,0.013740781451688005,0.016509139050140228,0.0111096276159704
207,0.00410568902319918,0.03140601974503335,0.012858617856569086,0.013675787353508594,0.013072684720278324
208,0.0024059135618711295,0.030616588487166203,0.011589239465924692,0.011302253541894968,0.014858143799451542
209,0.0010816357278981093,0.03069081133125109,0.010047378270459992,0.009535958642952395,0.016917369831161853
210,4.51216135349519e-05,0.031300757188205214,0.00813950359226813,0.008865908663239757,0.018571916937517502
211,-0.00022703707015972065,0.03203737861676023,0.006223459181503505,0.009854337718639168,0.019231065016705472
212,0.0008900645286765602,0.03252412247268613,0.005193903333190295,0.012430618378832865,0.01831183916063699
213,0.003098480952408901,0.03221458238968357,0.005262841396191642,0.01586710130207588,0.01540578997362864
214,0.005146399669746154,0.03135630449380371,0.005946191446818503,0.01904221200488132,0.011851287270777956
215,0.0059575885611362536,0.0308275745246427,0.0074932307978263805,0.021474041973554202,0.009353121211732991
216,0.004998071589104749,0.03039986328315876,0.009793102691300966,0.022604208175437776,0.007875757973569831
217,0.0029469082975629012,0.029417660451637396,0.01199626161351392,0.022009132903184354,0.007131081000835823
218,0.0018179195378353323,0.02802080427905672,0.013668756125480613,0.020684849837555152,0.007607966252333613
219,0.002239956401440728,0.026451834636116396,0.014224094270950137,0.019509634488227626,0.008744612874340058
220,0.003682206711550692,0.02548713669949803,0.013604464015576568,0.01922898196564461,0.009066736572645302
221,0.005791183087542065,0.026205687974210398,0.012873398064177798,0.02023536782353892,0.009035291415854527
222,0.0075016041870608705,0.02822482414375267,0.012658358045579063,0.021633338034722446,0.0118084816942884
223,0.00841856309131663,0.030429901441925755,0.013064865059611998,0.022547452831893803,0.019782421030275093
224,0.009213322638377229,0.0325757691554387,0.013771122867383538,0.022384042372757457,0.030027262007026233
225,0.009866999375170023,0.03441476857764495,0.0137485577907377,0.021105358308600913,0.03623001841560799
226,0.010152496915702596,0.03570025527617735,0.012689708981261635,0.01972716267702579,0.03539267912400652
227,0.009907922694082862,0.03695973653393957,0.011082749827691744,0.01858625185123448,0.029473704397467236
228,0.0086020105023486,0.03808460776428287,0.009160387055439157,0.016890966742802323,0.021955419321598144
229,0.006459611717580822,0.0383363476744798,0.007210065418696596,0.01470837999840274,0.01548674183957633
230,0.00439027683315211,0.03764821386414705,0.005620463516099233,0.01299282986571328,0.011431881064717654
231,0.0028462984542578546,0.036251756401528945,0.004611966711109299,0.012362091554704392,0.009080973647492135
232,0.0016415634720946533,0.03435825056069568,0.004038422550937743,0.012500678868916032,0.006478340841605641
233,0.00041724229371844753,0.032042646583926825,0.0033222620438116035,0.012215330546622407,0.002737952470532542
234,-0.0004936448512966165,0.029795760155199132,0.0024334305140623963,0.01116122038296719,-0.0006078428932037407
235,-0.0008233056168337663,0.028457867243753723,0.00158668727805939,0.009846107208132959,-0.0016313014318025548
236,-0.0007147129763627504,0.027908581910532092,0.0005305166458812703,0.008627538897813938,-0.001419446483859121
237,5.718161796949251e-05,0.027399393421146865,-0.0006019850390949631,0.007980313320218991,-0.0024557726339292855
238,0.0011793402909575606,0.026394566717535733,-0.0009847149663530957,0.007943995437779452,-0.00508450004468279
239,0.00211234123703254,0.025354122076062722,-0.00010228186009881322,0.00828686733787288,-0.007243884647356398
240,0.003178759536696748,0.025474865970306015,0.0013421445020618795,0.008883914817621038,-0.007375021662018006
241,0.0045938168213702415,0.02686740350552512,0.002363872323464434,0.009069599177364879,-0.006553577776005581
242,0.006102010872564434,0.02844238295993642,0.002908630895007107,0.008590421405175422,-0.0064597929137452615
243,0.0075226080204538505,0.029298097508853326,0.003639249298545725,0.008021141415907344,-0.006896725365350928
244,0.008581034645127215,0.029112441649272666,0.005047507154618946,0.007404980041593995,-0.00664137630956402
245,0.008673960373161958,0.027944619591059025,0.006340749662111849,0.006240614047546744,-0.0054847221090476685
246,0.00765861445149377,0.026579945094290337,0.006290527356437028,0.004353480559473103,-0.0036722688377863787
247,0.006709859563869676,0.0259290806724658,0.005141274672717963,0.0023843712423333163,-0.0010838439382258188
248,0.00652816142463551,0.0258566759433418,0.003805481467631133,0.0008776377019096542,0.0018982043874999066
249,0.006040505548611772,0.0257264148583304,0.002202925078461677,-0.0008677178411530375,0.0035208096489322623
250,0.004594541085567299,0.025632881665704214,-8.916966055184867e-05,-0.003257467370494936,0.0020654690151713007
251,0.0030796883118220566,0.026085758744592152,-0.0029295400441847635,-0.00526258704210869,-0.001733795547852354
252,0.002474335021212006,0.0268284048093463,-0.005914143201702837,-0.006119133220252421,-0.005529633421200446
253,0.0029257065878833177,0.02717654340812568,-0.008484992313883293,-0.006010350577406706,-0.008010855121472309
254,0.0036757103403049236,0.026449286466809867,-0.01074694327307266,-0.0059824917051636865,-0.009785205028005051
255,0.004240446291474583,0.024445995667380396,-0.012941456448657266,-0.006797055169071881,-0.011687623237765626
256,0.005351617802329753,0.022210468016432807,-0.014230756926878516,-0.007753809836998237,-0.013133888906715954
257,0.0074417596311746265,0.020274264034836814,-0.013970766204156677,-0.008295672287324023,-0.013956473109786954
258,0.009744930506527473,0.018157252505245452,-0.012331780252646089,-0.008481483396639932,-0.01576080155317689
259,0.011066549026533078,0.01624249506834752,-0.010140744452646282,-0.008766335417382545,-0.0192472141579888
260,0.010908786165605573,0.015346550756479165,-0.008621334498910447,-0.009850138923199843,-0.023157661578827277
261,0.010141165959515523,0.015692677959665436,-0.008267274013220588,-0.011715831081024228,-0.025622684492850163
262,0.009796832942918934,0.016812073260219787,-0.008598218132162048,-0.013751583795395565,-0.025898773509836572
263,0.009759976848894524,0.017712634539528902,-0.008946797449523126,-0.015653426642743093,-0.025415447691172047
264,0.009526077748400048,0.017908176736797086,-0.00864043639565693,-0.017650034609454364,-0.025275163800762942
265,0.009067708221638953,0.017704869425742863,-0.006839001359403954,-0.019508898867556322,-0.02475679268538673
266,0.008598526906929258,0.017349229401354336,-0.003650974028395289,-0.020309784417345548,-0.023507565184255723
267,0.008347544537551817,0.017128330994524134,-0.0004083684982972404,-0.02029954467271845,-0.02161552902449486
268,0.00826626769798129,0.017270001825246704,0.001689266946792027,-0.02104883696980033,-0.01916582204234747
269,0.008341002950566636,0.01732394778147631,0.002430113158464943,-0.022527598315700992,-0.01716069967690513
270,0.008551619736995527,0.01688984238704549,0.002226756288004975,-0.023864438361725474,-0.01580992102041024
271,0.008216474845520298,0.016121086638366658,0.0013504450538167675,-0.025808802967416482,-0.014323514643671268
272,0.007189232702235939,0.015347612191326373,0.00011842255351228406,-0.02854906421871409,-0.013015889611351724
273,0.006299164884396708,0.01416157591821051,-0.0013233810935916693,-0.030938233737181693,-0.013513222392443607
274,0.006176260617845007,0.012056396210931337,-0.002793455435057272,-0.03238133630288963,-0.016344985901420032
275,0.006509327765808332,0.009009068014140927,-0.003821205541711097,-0.0331340812755072,-0.019921524949060545
276,0.006471063355407749,0.004690665782937514,-0.0045643606215588625,-0.033938037461550545,-0.022663059647778882
277,0.0061520388877408525,-6.369421292632672e-05,-0.005298784336118878,-0.035129931101991016,-0.023305624877206783
278,0.005904157040571944,-0.003678937206025751,-0.006242484634736858,-0.03650489046226178,-0.022170556085543656
279,0.005219031954267419,-0.0058690465399512,-0.007758539628977497,-0.03813022804429551,-0.021907196691028436
280,0.0038629194125161994,-0.006995460641257963,-0.009254414006440866,-0.03991330690887539,-0.024107834821172493
281,0.002147774554553984,-0.007599519279484966,-0.010111208479967269,-0.04164953731287051,-0.02814827003739279
282,0.0002321173337716514,-0.008555353201128263,-0.010695759693096238,-0.04342905174704419,-0.03259763454746716
283,-0.0012185070378580851,-0.010041223439689665,-0.010743083780890466,-0.04435828216031187,-0.03583935439503629
284,-0.0017550539694534957,-0.010942200813551153,-0.009619523424727827,-0.04386184460812653,-0.03659430687767969
285,-0.0021531901928858225,-0.010525607782078344,-0.007704737419480713,-0.042980467642624566,-0.03501806010121514
286,-0.0024830066529129145,-0.009423541405088484,-0.005402373465032155,-0.041471837289230026,-0.033122404478571885
287,-0.001883817256042073,-0.008654664259571121,-0.002788395172906628,-0.038589920323889464,-0.03307759638026115
288,-0.000656075146549518,-0.008881381549250084,-0.0006779772668317794,-0.03578361671677905,-0.03478777529594551
289,-0.0002212066245237921,-0.009944634297810135,-0.0006695012599398353,-0.035146740842418,-0.036536288422912996
290,-0.0011987783419985909,-0.011259912603948279,-0.003555586893463126,-0.03689461413717766,-0.03754070336974186
291,-0.0026756009324301077,-0.012746037563213766,-0.007645742925761709,-0.03903848962597678,-0.03775502131927817
292,-0.0035444195281590495,-0.014177497193133501,-0.009825506278556079,-0.03987373291495117,-0.03597190984333613
293,-0.003846713273101274,-0.014985053990579911,-0.008994862629516612,-0.039813983768806314,-0.031170766253358687
294,-0.0039073793024750995,-0.015107644312573316,-0.0066273528802873235,-0.03951892951274656,-0.024896822096474255
295,-0.003282764777444423,-0.01500462712618353,-0.004329080412597888,-0.03873696164274164,-0.020395389416504525
296,-0.002143036431451797,-0.015689393573052896,-0.00293411560780282,-0.03799173395086415,-0.020059910240799915
297,-0.0016595586054759602,-0.017560564584335626,-0.002478113339915706,-0.03808741416932998,-0.02294802241741655
298,-0.0023820785612388568,-0.019649243817382863,-0.0024804925387947787,-0.03881949510671454,-0.026668374449099957
299,-0.003380997014781683,-0.020806319823533617,-0.002282288354213461,-0.03970455666380773,-0.02993187192910379
300,-0.003272333331690657,-0.020502062353436944,-0.0015051284087157898,-0.040306243634083694,-0.031754554825727796
301,-0.0015766108435478873,-0.019394854972053115,-0.0005964178559343826,-0.039797238618086796,-0.03222289877100481
302,0.0012015690902047178,-0.01871987491644722,1.6368573357210237e-05,-0.037746393510079496,-0.031813517449143555
303,0.0038437540541038737,-0.019005581572185144,0.000341287408471057,-0.03526091095252359,-0.030318725546176113
304,0.005180743944052224,-0.019877684243133197,0.0002314921418145656,-0.03356753027146584,-0.02858973619279006
305,0.004969181578325325,-0.02074830595145622,-0.0005862254585802663,-0.03254905463189382,-0.028688086566184653
306,0.003758075547598126,-0.021397106368439358,-0.00185721290447022,-0.03172036964394522,-0.031423213554084076
307,0.0023541446900515466,-0.021696914180069565,-0.002764153461922643,-0.031098894692706783,-0.035063857215997134
308,0.001423690730591939,-0.021420496275378693,-0.003013347762988107,-0.030729943700016527,-0.037182388682073485
309,0.001343428345391554,-0.020117734921489654,-0.002711345228709284,-0.030451391084525513,-0.036237082505986194
310,0.0015026283942030747,-0.01809023075716857,-0.001975163219103822,-0.03055057455063326,-0.03297818651206074
311,0.0005899932142637176,-0.016735422755166866,-0.001699169705292396,-0.031441416726673034,-0.03018397380399802
312,-0.0010901273716211475,-0.01626989940443513,-0.00220061614499742,-0.032214132397820706,-0.028814656205507556
313,-0.0024450466607427927,-0.016344518640647353,-0.002958086712600167,-0.03200705920699478,-0.028280236360441482
314,-0.0038175456624402458,-0.017633445320678474,-0.004503169047022304,-0.03216050874585976,-0.028673476542472934
315,-0.005452336856542756,-0.020081849168588413,-0.007222896354663183,-0.0338912615358026,-0.02982772803766078
316,-0.00632688555742714,-0.02247912061451143,-0.009878806679355154,-0.03598837066948644,-0.0310747649259095
317,-0.006000677544762855,-0.02407429822581098,-0.011540720606557349,-0.03715245785312022,-0.0317501271632091
318,-0.0057028138398718025,-0.025179528479306146,-0.012854587936463607,-0.03816550874021784,-0.03191188181985673
319,-0.006534688520933024,-0.026338469204795687,-0.014510193827263535,-0.040101310526933054,-0.03247639501349053
320,-0.007880660671459842,-0.02757597141238354,-0.016559143822598394,-0.039298378058693,-0.03370418767016793
321,-0.008725298402513371,-0.028599721802744393,-0.018884570803584366,-0.04162101566710906,-0.03404359051752188
322,-0.009007406391361859,-0.02943254373712482,-0.02117056525609772,-0.042946558272053174,-0.032601036238764584
323,-0.009152706839196738,-0.03020004823688542,-0.02244754084224871,-0.042595987171023884,-0.030482443380007846
324,-0.01006926853918241,-0.031118869513946337,-0.022229066339123353,-0.04171447863270865,-0.026509101121949614
325,-0.012204788638102855,-0.0327269922166428,-0.021589249394966536,-0.04173824688701189,-0.0226741786481403
326,-0.01432399333792519,-0.03437728873386677,-0.021325825684901753,-0.04230812575597633,-0.020330385327484244
327,-0.015020166983184162,-0.03432983933667613,-0.02096950736261551,-0.04246420888042053,-0.017958682957703018
328,-0.014309427296516675,-0.03201950147931385,-0.01988180375918829,-0.04185536826448697,-0.016764666412816372
329,-0.013285424495052456,-0.028790775462228687,-0.018485261250900123,-0.04101260520898183,-0.01708746651068314
330,-0.012753426349064866,-0.02669944559594562,-0.017825790077598797,-0.04048005597368381,-0.017866838279611923
331,-0.012663559966069413,-0.026672674221555486,-0.01789150043533792,-0.0401206271919676,-0.017620265775259335
332,-0.012777676006718147,-0.0285104322200069,-0.017814445572202305,-0.03942199566358231,-0.015970144671373348
333,-0.012738259104347843,-0.03151598204127388,-0.017376868414421997,-0.03795812879221129,-0.01248218356566989
334,-0.012500807408409776,-0.03472949810752836,-0.017300585841807648,-0.03636465087479748,-0.007707449699038807
335,-0.012910384587781277,-0.03789118846379758,-0.018023830596228654,-0.03626091555873785,-0.0037337510568688404
336,-0.014022959318525895,-0.040678809808390025,-0.01872532953135373,-0.03748016238932259,-0.0011893128979557598
337,-0.01478370038936162,-0.042313703140888205,-0.01846361286975206,-0.03837123323937776,0.000529348797231442
338,-0.0148849540619612,-0.04300014162364161,-0.017562214971460436,-0.03878345577120085,0.0024812271432991776
339,-0.014951525109092223,-0.04392337852803072,-0.017127282767825866,-0.03983103761416574,0.005111969767123296
340,-0.015727662009196834,-0.04315314964316536,-0.017906012703511432,-0.041200842086511216,0.004572248368780027
341,-0.01742417001920277,-0.04071426005032101,-0.019632325847243188,-0.04319326055145248,0.003035685577516556
342,-0.01982631420799925,-0.03709768515178196,-0.021688553954575647,-0.045924833878574225,0.002278118576357476
343,-0.022874640642763754,-0.03229662266606422,-0.023771294130526883,-0.04891608152744852,0.0012204457551180973
344,-0.026292302072858983,-0.028161674983710867,-0.025276035575757458,-0.05184191063255429,0.002587045757713714
345,-0.028889631912893392,-0.024363639863658484,-0.025574373338865412,-0.05189369543536153,0.006514137636368546
346,-0.02963179009066831,-0.019915210847633962,-0.025288124653735502,-0.04820895040291596,0.011720851001124058
347,-0.029449101395518467,-0.014947600232331455,-0.025784939534361107,-0.04418350360985345,0.01632492421402905
348,-0.029862330226156447,-0.01111160860816396,-0.027294041491399204,-0.042638298619318844,0.01938393025682148
349,-0.03082594984968545,-0.008309542232197719,-0.02885240826334897,-0.042094200629705716,0.01914637633453697
350,-0.031814146480305484,-0.006042983254534613,-0.03022120643254639,-0.04126676545847737,0.015680398007764017
351,-0.03282995571804343,-0.004138511433560064,-0.031950842444524105,-0.04092759834789945,0.010689125459293257
352,-0.033623510380023605,-0.0008461265600760644,-0.033634851990088144,-0.04076242208820027,0.0046496043207990756
353,-0.03346019705918722,0.004466394430736079,-0.034047858681155965,-0.03960208262636182,-0.00019145468117022813
354,-0.032460359923073875,0.010650753637296213,-0.032919475334735125,-0.03670155118087231,-0.0020746535993107634
355,-0.03193771726093367,0.01576929845334229,-0.03126342219518284,-0.03335183667450008,-0.0009226892749316806
356,-0.03249950813556684,0.01496611983987727,-0.030004627074346805,-0.03211394733640957,0.002670284478842809
357,-0.03360907624767271,0.011401678786880087,-0.02944858755117874,-0.03219585481564182,0.004118937543643877
358,-0.03470296528772423,0.007480526931836643,-0.030014720444348872,-0.03266079728271677,0.0008249377110434301
359,-0.03570076961749419,0.0023094777199277857,-0.03211355389261974,-0.0341258764510303,-0.00533099128039328
360,-0.036323741422303234,-0.00042359150368736684,-0.03430213868806714,-0.03578063114998604,-0.011913415816426265
361,-0.03632522971908349,-0.0006544374581103852,-0.03468574835591927,-0.03715193847521105,-0.01613260523703454
362,-0.03590719016431223,-9.610557582653283e-05,-0.03362927581935777,-0.03803611416691212,-0.017117857089445833
363,-0.03518492044363205,0.0002891827562961449,-0.03271345176181445,-0.03821190210546222,-0.01653387963474151
364,-0.03447128502136955,0.0011649009286926863,-0.033001310589368754,-0.037535136298793924,-0.016740277140312586
365,-0.03375509999389241,0.0016595328132104096,-0.03370673442566081,-0.03639215748186253,-0.016731896462078805
366,-0.032639449733837096,0.002280704496830684,-0.03345980011633574,-0.03444649156477319,-0.014342608612265282
367,-0.031201204495251933,0.004038271082880676,-0.03236884661906114,-0.031446976118181307,-0.008780641003598372
368,-0.0303986565802881,0.004510101931372575,-0.03123571280038419,-0.029006886912932014,-0.00018837818712448708
369,-0.03099920670377019,0.0031749548477339935,-0.03029798629928499,-0.027979609935816545,0.008938109602258345
370,-0.03264697598670977,0.00031157197830417635,-0.029278061875709836,-0.027833676831151604,0.014846148551307994
371,-0.03447207346052136,-0.003478392676294377,-0.027768206042884467,-0.027775916622020648,0.015431658015003076
372,-0.03562080918585737,-0.006427145397065389,-0.0253482613402189,-0.027362966623995004,0.010091843292710194
373,-0.03575255484743895,-0.007503392872592047,-0.021974801334408784,-0.02636444927297542,0.0031449731057760616
374,-0.03507586417010541,-0.007958911318581357,-0.01847590132581053,-0.024836937823257712,-0.0020851789652807902
375,-0.03464584049295229,-0.009856070475815255,-0.01683961365397697,-0.0239434953913255,-0.005740747454317956
376,-0.035268499091625626,-0.013149975278076625,-0.01848864792541277,-0.024431280006446437,-0.006989426412661052
377,-0.03614130444171845,-0.01670252413589498,-0.022350581232736824,-0.025446702267514266,-0.006452663137185134
378,-0.036663139764653366,-0.02006367061522458,-0.02646551835960741,-0.026564987955048087,-0.006240203898748079
379,-0.037236205568261016,-0.023631149500195892,-0.029752400923606214,-0.028219181489067446,-0.00860424770044369
380,-0.037403463906065484,-0.027205386230582617,-0.030916409534812228,-0.029261131859641375,-0.013067426694109829
381,-0.03599819388319523,-0.029918884788519944,-0.028867410754675516,-0.02776197256909193,-0.017836827098732546
382,-0.033579698213852725,-0.03172352965713562,-0.024803582741289746,-0.024668501190086057,-0.02132220074727469
383,-0.031937228665674625,-0.03387982260977208,-0.02087832384222292,-0.022561464257473626,-0.02343080806065159
384,-0.030952900474646747,-0.040876702916878414,-0.01752530417127961,-0.020816028006146892,-0.02611363976822126
385,-0.0300311868172021,-0.047085675504156516,-0.01431310308320236,-0.017936685229534732,-0.029549708667898043
386,-0.0296460467741086,-0.054392889916172804,-0.011080569624122127,-0.01497888842340436,-0.03263335114098924
387,-0.029313011404249856,-0.06036471202953475,-0.007983768640813776,-0.012384729300289487,-0.0339006786509803
388,-0.028633028714555434,-0.05873057107526828,-0.005657419962001323,-0.009987959346300826,-0.029617055949479373
389,-0.028380915255999457,-0.05242851227373159,-0.0038768635310651215,-0.008431757081456204,-0.02210951752999712
390,-0.029612407766270686,-0.04527590411679583,-0.002045115036497443,-0.007963391761036645,-0.013199536462339125
391,-0.03211793300457849,-0.038261062015821794,0.0005738750350798856,-0.0074925258714067374,-0.0034155721192929388
392,-0.03390092555082732,-0.035366844223573876,0.005152115858837166,-0.005288354784556546,0.0022810344200980145
393,-0.033362706842400405,-0.03522111818283006,0.010201230458643955,-0.0018983530844944787,0.0019234800416002174
394,-0.03048349160779914,-0.035618081428586655,0.011700352372570708,-0.00020410549698875793,-0.004576464776755497
395,-0.026665910775040144,-0.036060410478573966,0.0077784951820495055,-0.001740325197994583,-0.014783131487047975
396,-0.023305140749104714,-0.037681975199579255,0.001317954872094083,-0.0044776876919950595,-0.02508831360717952
397,-0.020749253122894645,-0.038337401418642385,-0.00292358309610448,-0.00531643583381777,-0.030491830933428877
398,-0.01903142048758798,-0.0371171576900302,-0.0031402935814583426,-0.0035153605409469347,-0.029404432324069515
399,-0.01799667316255988,-0.035615352463207024,-0.0005642845964240762,-4.730322437413252e-05,-0.023897444207423058
400,-0.017872583869041964,-0.033353519829797326,0.002594320588874214,0.003447576275202424,-0.015486440414738055
401,-0.018995738292246434,-0.031567122775051304,0.0045028861999729,0.005588519661535225,-0.007324494267877271
402,-0.020321648766623308,-0.03056548729007884,0.005145839062840959,0.006929107262815932,-0.001412725234615625
403,-0.02045186524227096,-0.02893712498285928,0.005735545606998662,0.008541178327321756,0.0022612019416255636
404,-0.019721020748256032,-0.028762580432469452,0.006796206936700557,0.009916265097836517,0.001894451889103342
405,-0.01956010477721095,-0.030267871954300075,0.007249508677750148,0.009523317193681142,-0.002121946827356248
406,-0.020055422116222132,-0.032869791460934224,0.006278897802700289,0.007213236795532704,-0.008103215557100677
407,-0.019990349628254713,-0.03596800764660742,0.004466392217140286,0.00444438536386997,-0.013918936082026913
408,-0.018618037994913843,-0.03746249048669787,0.002743123640577919,0.002489320154397132,-0.01678179801036605
409,-0.016289253519420867,-0.037369128838044156,0.0024641358464843914,0.001932496558759373,-0.016914308643610553
410,-0.014694287305276372,-0.03665849693573856,0.0036828823488880766,0.0014885426873730949,-0.01670909992835422
411,-0.015406877116911707,-0.03621487376470603,0.004498473584465382,-0.0008168049840981622,-0.017597292993077763
412,-0.017578994020316128,-0.03520020498106997,0.004056416873161431,-0.00434136702152991,-0.018026124801090827
413,-0.019398887480872942,-0.034025104009999946,0.002574218474515936,-0.0076017373481893444,-0.017121082474251183
414,-0.02045540045858071,-0.0333296919640077,0.0006678343366358091,-0.010363990670696575,-0.015467699490910328
415,-0.020786120486574678,-0.03268629771172797,-0.00017174792925460757,-0.011860069368155934,-0.013899062115823676
416,-0.020121872174853207,-0.03230262761986029,0.000488452715200617,-0.011331299626112658,-0.012143975118684968
417,-0.018476900053832446,-0.031192782494373576,0.0020668476190859276,-0.009130090167689401,-0.007741961233338685
418,-0.016388326512194688,-0.02888671167328029,0.004333290239305779,-0.0061720351876808546,-1.911869422961187e-05
419,-0.014539856501326269,-0.026612966018129472,0.006752544015602943,-0.0036674513119530133,0.00816487988700262
420,-0.013383165109213122,-0.025760536695436473,0.008683125326870348,-0.002325376197695449,0.01304549654014399
421,-0.013344226491732102,-0.02614746272519044,0.009957312562860095,-0.0023660501233585293,0.013278052644411084
422,-0.014409571959074234,-0.026483979922274317,0.01041229412441939,-0.0035437017315709707,0.010468773624212864
423,-0.015379708275182997,-0.02606184683782067,0.01001981038720033,-0.004261232794533292,0.006730284328373676
424,-0.014997042430753936,-0.02462529818387654,0.009232978227120282,-0.0032671196147698437,0.0035375426594267583
425,-0.013827790271501305,-0.022412947084301443,0.008222174374170681,-0.0020068088157863275,0.0018487296470415357
426,-0.01299465136799433,-0.020132838317722578,0.006947062036356093,-0.0017158155850408078,0.00140933972975049
427,-0.012630142992481264,-0.01854517495703716,0.005801352967341146,-0.001374965850698073,0.0010871317919330765
428,-0.012367021551124457,-0.017726286430077322,0.005754571524768616,-6.759979989557981e-05,0.001297475905188792
429,-0.011616481678528752,-0.01686307415512276,0.007799754305132172,0.0022724755061125316,0.003902698047977874
430,-0.010205568311961837,-0.015609034914751517,0.011265249162000645,0.0049536434100045075,0.009132353832110935
431,-0.00843775922784147,-0.01434179218706613,0.013744683472342681,0.006995517779093579,0.015110026322679557
432,-0.006166807585142404,-0.013218328691881666,0.014249487324953455,0.008599138129929372,0.01998454462748813
433,-0.003444312866308156,-0.01240424259194155,0.014244347270778453,0.010487216986231796,0.022886998433738405
434,-0.0014431216250996102,-0.012461046993178045,0.014573935888902167,0.012314909612225202,0.02346153606494735
435,-0.0009629123852742007,-0.013073460815045521,0.015059275650024023,0.013577891702187534,0.022034614915687013
436,-0.0015711697778729749,-0.013276467301517053,0.015985740932235343,0.014198868148788459,0.01961247935501215
437,-0.002481874354948396,-0.013283503966392936,0.01739466892369253,0.014099312734124118,0.01719363604383037
438,-0.003125010072337753,-0.013950117653966292,0.018805084161246828,0.013679245468356105,0.01573392933208184
439,-0.0033089627354066426,-0.014976061216034854,0.019796364665403195,0.013359375780646032,0.016566929086811948
440,-0.0030515818124325165,-0.015389864378956137,0.020103904599851313,0.013290422768847525,0.019866436324568245
441,-0.0024136040820482156,-0.015134168289299909,0.019688781855294487,0.01394527663021016,0.02312178521601036
442,-0.0012157848934472378,-0.014299291744707461,0.01897106739154209,0.015814006345747596,0.024169648237443782
443,0.000646969520007321,-0.01282422449970519,0.018545208400730675,0.018454496334690113,0.0230367547361569
444,0.0026637874347055983,-0.011457092792696277,0.01864352131040277,0.020518089950993995,0.020346815231719342
445,0.0041529377003788025,-0.011236315820766639,0.019095606606989664,0.021191521878183642,0.017492801185119134
446,0.004757398586064204,-0.012543340791692567,0.019039802749094285,0.020665417850125562,0.0161704492404644
447,0.004566686876868699,-0.014579368166017839,0.017626941000966127,0.019315790276307938,0.015983469526567713
448,0.00397781141038431,-0.015914399848936295,0.015554080974635752,0.017899881913864983,0.014762009542816385
449,0.003715005936197579,-0.015324451625315507,0.014431404061598414,0.017654190779641005,0.012014984981055974
450,0.004153182866870514,-0.012650234442747012,0.014739167374241214,0.018746676200247933,0.009506987488653229
451,0.004956630407198137,-0.009223314589819375,0.01576681387456993,0.020694108579957134,0.008705792118707468
452,0.0066100300295500215,-0.00571175783410126,0.017529055880108,0.02423473428085616,0.010236386228803393
453,0.009512914534716923,-0.0018798686937014108,0.02044476807734735,0.029518345203692023,0.013449223230944907
454,0.01236162842904721,0.001463379353083968,0.023721611308713256,0.03455492348955197,0.01618823572057095
455,0.014206804414288763,0.0035814848470184287,0.025827156065443935,0.03739675522024634,0.017435458169449292
456,0.015642348805687704,0.0044231964645850014,0.02602121848475706,0.03783826221590076,0.018095718343376383
457,0.017295716528985337,0.0038135657571763877,0.024795782906675747,0.03704991216459966,0.019031896841602593
458,0.019177535908840963,0.002200075293560169,0.0230191816192236,0.036249862053565736,0.020186537166698635
459,0.020994721934538295,0.0010628871784259697,0.02123115025769802,0.03523967879588146,0.02149486966791236
460,0.022186061161014337,0.0014911232407331886,0.01970861759419277,0.03336792840228236,0.02344651453240585
461,0.022325096496310516,0.002949474494333392,0.018820340367030865,0.03142593150583704,0.02534822990227395
462,0.021793822665764934,0.004644306992964377,0.018607117545210286,0.03064647051759522,0.025513111913084054
463,0.021838139483193127,0.006527149208139056,0.018756404336382402,0.03180043280155692,0.02360407050743331
464,0.022836267067755305,0.008284097714688356,0.019073881783299086,0.03461367980371746,0.02098469589669217
465,0.023966625966088468,0.009956459162187606,0.019494533447585376,0.037665806695625796,0.019973157415074095
466,0.02468670382310612,0.011813226828900401,0.01957200450044725,0.03993045677591813,0.021305549042392857
467,0.024728296320439564,0.013149360986993736,0.018656401445460886,0.040889348876461874,0.02352809711116983
468,0.024356146628082793,0.013457461728604356,0.017005760417552165,0.03902808308056413,0.025597867415614563
469,0.024733840620349723,0.013107492877174796,0.015811864840512422,0.036683893142774586,0.027341031792991827
470,0.02634028561832865,0.012462074428887379,0.016166510429898442,0.035909022547679754,0.02869059549283053
471,0.027635546095085547,0.011028936627456827,0.01766183912087608,0.03551897924876367,0.029314281649736363
472,0.027710598889629606,0.00883581564140885,0.01931005130874784,0.035208690967610715,0.0299921548071398
473,0.027524480691452056,0.0073944427365078245,0.020610615370924474,0.03434589572495688,0.03166365067632975
474,0.027707076429082978,0.00794921219046349,0.02096521082435881,0.03249579266869033,0.032979732580462204
475,0.02827763074406108,0.010444024175543907,0.02027208814693532,0.03046922636053839,0.03252910258089413
476,0.028783991888576298,0.013440311601022107,0.018676120423722697,0.029118804185456197,0.030650737742395857
477,0.028638033135529997,0.015492845226902958,0.016486947542083134,0.027302164652066294,0.0287940938719909
478,0.027852695873038114,0.01658262792014691,0.014555288252664791,0.0243281162702852,0.028733136317137226
479,0.02686988118954115,0.017085700765245068,0.0131161285658464,0.02077597645711212,0.031491604886497646
480,0.02634647292126255,0.016723240766911732,0.011674242182750786,0.017321042712213235,0.03602332975778961
481,0.026781443540836215,0.01551882540781251,0.010291434288774229,0.015648018052672814,0.03966108052613149
482,0.027900721181645174,0.014282211878033326,0.009469452884429378,0.0164144895078867,0.04051115300180241
483,0.028809242946238444,0.013571381783757764,0.009064767016821294,0.01806412094000847,0.03868268147743062
484,0.028901237038304908,0.013522360566002893,0.008452189910372774,0.019435122115376933,0.03434257938464624
485,0.028266663107084117,0.014345385182980001,0.007372980417742222,0.019852789441614394,0.03164516610678248
486,0.027115813218085084,0.015944598529552063,0.0061259485484263425,0.019693000517340544,0.03158576629992282
487,0.025107839449667792,0.017455919717934636,0.0047731267185290565,0.018817868593123004,0.030367949944559148
488,0.022639857070237197,0.018591989352251273,0.003377104269346599,0.016898860462216333,0.027551577320056232
489,0.020946208620576917,0.019940153629680966,0.0021362815812072922,0.014478917792876017,0.023632813921813604
490,0.02024521021851819,0.02146643059025954,0.0006786407135449588,0.01180712064446367,0.01895200629617501
491,0.0202223161197894,0.022695341048291864,-0.0009396830810197799,0.009358766590197272,0.014292625135460932
492,0.020750735145152292,0.023309603954797323,-0.0017705468361551454,0.007718927701397069,0.011080289082955814
493,0.021744020940402616,0.02325795746747359,-0.0011099556718268343,0.006433215491435597,0.009166149573191323
494,0.023188446608837593,0.023265588907033244,0.0006531037332027882,0.005032876149567937,0.008290221130017138
495,0.02510589150380588,0.024572412617520342,0.0026767760471182143,0.003692772296746681,0.007821530260412464
496,0.027043051771891306,0.02748446102432546,0.004651136400964229,0.00227709191379353,0.0059825949498464185
497,0.02826074097661678,0.030869107791653784,0.006517296048637886,0.0007437627854257018,0.003707719054787513
498,0.028250518942178022,0.03257703517284783,0.007155617755826101,-0.0015671842022093455,0.0016075517931897125
499,0.026680665728118252,0.031054208093668188,0.0051814601586028354,-0.00600704989202352,-0.00261881268922927
500,0.02445544929649387,0.02738099002121452,0.0015878186065342145,-0.007210942521347021,-0.006458298832652496
501,0.02294126164221955,0.02379322506015788,-0.0016215695303724005,-0.006204027513880608,-0.010807432570982708
502,0.02203709164175702,0.02134594076151367,-0.0038036906498142317,-0.0046136818953577486,-0.015819927481847223
503,0.02087823052516416,0.019984814084749294,-0.005174570073539461,-0.0014006198990603933,-0.018537225426887884
504,0.019579737535435005,0.019488174372729823,-0.0058096835288383025,0.0007517796164116148,-0.01878446792929606
505,0.019292024982404028,0.020003337114346556,-0.005567855056492248,0.004602107522101958,-0.014960962191041333
506,0.020555945132973038,0.021459270943863667,-0.00474284381238497,0.011716845643862554,-0.008309289554849013
507,0.022939298732936715,0.023094603353220583,-0.0038768578985881766,0.01996382382814776,-0.0026426806659422984
508,0.025932758007969063,0.024394438062982315,-0.0031043221263143475,0.025680495378309673,-0.0004315654998407789
509,0.028487003066785904,0.025315753705019428,-0.002405698808509226,0.02967490203597657,0.0008306377030410959
510,0.029175245138476514,0.02544318970414177,-0.0019546606020203576,0.032574711238579836,0.0017811084696356082
511,0.028179305487990174,0.02461482798624325,-0.001677114857174845,0.03439519618806948,0.0009318219533802503
512,0.026947630038978484,0.023577750931833702,-0.001360995374163735,0.04135549097823326,0.0003200918275584313
513,0.0264000179598142,0.023327577201734055,-0.0008431155145254489,0.04606191639756764,0.0011973289632545613
514,0.0264544688150762,0.023904608093418742,0.00012272197590317325,0.050242315326728244,0.002716943825966882
515,0.026770573555443402,0.02468049607341897,0.0016556223187815448,0.054495470465972536,0.004088305843029341
516,0.02709787572436466,0.02572811596984316,0.003271532679506133,0.05334260204875745,0.004494931821353611
517,0.026750151038223154,0.027004474692897365,0.0036939657544496395,0.049572017333433326,0.004473176120659577
518,0.02526117768584468,0.027967743935083344,0.002267794004739369,0.04557866185811993,0.003904598448833114
519,0.023213831347105546,0.028908816753106317,0.00014893973892131309,0.03989687486247883,0.003151116386007075
520,0.022054735234523587,0.030315285023462438,-0.000956825643459638,0.036313145634846805,0.0035711848806901187
521,0.022286751100862454,0.0315265723853635,-0.0008360615796599438,0.034156505961560876,0.004014443158272259
522,0.022949677494617675,0.0321056569027578,-0.00032973556854596107,0.03161758143400907,0.002566908090914121
523,0.023384355390748564,0.03259542047256898,0.0007550516356046176,0.029097446924765687,-0.0005704313547126431
524,0.023608799574100753,0.033343587950125125,0.0031098535654006288,0.029206400848560757,-0.003026219338050308
525,0.023216352761912303,0.033893835894189976,0.005613701419405251,0.02955572034695873,-0.0038577415520906536
526,0.02186326463450848,0.033544440819187595,0.006688423345547847,0.028719919329236832,-0.004350908273163249
527,0.02072466939233817,0.03284254155650885,0.006987669805463515,0.029023738237100444,-0.004536902945189494
528,0.020812781096966274,0.033476102104430264,0.007918688581281237,0.02962059849336345,-0.0027531512514940813
529,0.02164970125825325,0.03610255911633878,0.009263023771067911,0.030170445749782362,0.0010023893940106319
530,0.02254043993434204,0.03918082045153819,0.009856180102192491,0.03000455139922669,0.004268430425894889
531,0.02277256148739835,0.04063519960867153,0.009287753222196446,0.027899585809447482,0.005766085700797111
532,0.022049007435033924,0.03965604223611047,0.007893299252320827,0.026063337214161614,0.005078653608925344
533,0.02134210062290327,0.036863325974799285,0.006174616286748736,0.025621887415795103,0.0035471842138317315
534,0.021315331575853056,0.03352435694030241,0.004382533299231466,0.02632058901569802,0.0019242764345676305
535,0.021551457857172024,0.030656570801517246,0.0026562462444498073,0.027784147461050377,-0.0002375482650628328
536,0.021758296717389883,0.028987955290787338,0.0017558749744534402,0.028910227981708607,-0.0022136188897160427
537,0.022172222460625054,0.02914886539566451,0.0026299402708848856,0.029768723205999294,-0.003878598719691188
538,0.022693291871303974,0.030876375851309996,0.004870078038617261,0.030542587092394748,-0.005730353251868767
539,0.022310422606194872,0.03262951825170556,0.006680976212759063,0.030257919908983164,-0.007556866750372943
540,0.02071763832841698,0.03345235832701061,0.007239926135977544,0.028147867696113233,-0.007441706531631481
541,0.019026152358431775,0.033860771491292165,0.007325751212139021,0.026291959626616797,-0.005052038673958538
542,0.01839236001933315,0.03460367950471656,0.007772655901337883,0.025930150885244176,-0.0019867297690568846
543,0.019139146962007365,0.03558083873529752,0.008506493119459915,0.02625804492323119,0.00017890500024683682
544,0.020324619756332662,0.03569399990497989,0.008709783887985783,0.02690067176517988,-0.00012695634353103777
545,0.020851992804173276,0.034686702302902765,0.008199400932346317,0.027196925175241207,-0.00219005607563009
546,0.020802771015541656,0.03361135067780143,0.007378237696735077,0.026464597265932158,-0.004246149784325646
547,0.0205403779061305,0.03251149607133307,0.006251485835991813,0.024479371632515203,-0.006418358962143942
548,0.020438865055216807,0.030890365573809676,0.005307471258962721,0.02211388827196961,-0.0056358632651256485
549,0.02066469204919075,0.02954935268608597,0.005431292120363427,0.02017634208724523,-0.0024587638980227964
550,0.02064097944388168,0.029648089319365408,0.006252334992295884,0.018209073434905375,0.0015883907118286922
551,0.02018837146657813,0.031148079108217788,0.006751713249634196,0.016146955940902544,0.007516393875838209
552,0.019540168143948936,0.0328828669737714,0.006853266844572462,0.014463747357570726,0.014335505073905443
553,0.018668809578648964,0.03404255240167788,0.006723512272924774,0.013394093898469928,0.020788876383915595
554,0.017930258037489547,0.03494406026179561,0.00625686985343382,0.013181661236874797,0.02523559868561196
555,0.01758956360430387,0.03616550999800808,0.005476330806521562,0.013321482435024963,0.02809483524564198
556,0.01749565751162116,0.03769849601385952,0.004640396368893085,0.012909826204538498,0.029860592543826812
557,0.017610300521100655,0.03875665990071301,0.004259294913515823,0.011849908312957432,0.03134716835634955
558,0.017737079229113682,0.03837561118291114,0.004487808991068489,0.010739320684674413,0.03182154909918279
559,0.018025838311788465,0.036582467301377306,0.005042225570689312,0.010325867401086939,0.030097467828687007
560,0.0183554334491567,0.03385464343467746,0.005293229878889663,0.01016548204271814,0.027358316328928732
561,0.018217574910023206,0.03044614119481019,0.00525166657266785,0.009489933171346677,0.024056549960677385
562,0.018152096221340376,0.027041128454080385,0.005671168227663074,0.008788534141304765,0.02155047756042699
563,0.018442875320124428,0.024273704717957943,0.006213054519802658,0.008160938034334054,0.02231547941483502
564,0.01855121789817743,0.022734241565044985,0.006273031418956628,0.006761844203610617,0.023448772743779378
565,0.018481692248331086,0.022764975964342703,0.006346171547669315,0.004621949973284689,0.027009153608141746
566,0.01878297117923709,0.02346018705863671,0.007167315552097087,0.0029847131555409056,0.03072519788076567
567,0.01963047555329625,0.02367415540720738,0.0083703471086395,0.0028323887893590563,0.029260339805401506
568,0.020539027744023833,0.02347848909614765,0.008833512433587659,0.0040247718252824725,0.02619959412596054
569,0.020548505202644226,0.023247579867458127,0.007655580451926455,0.005073530214500891,0.023103632744094327
570,0.019057750416002828,0.02307108013176925,0.005104021845057477,0.004543428150664317,0.019930116557104617
571,0.01708888600443431,0.02372727661618462,0.0036060196237416168,0.003620008484701412,0.017813247775385652
572,0.015821329169661422,0.02567700120978194,0.00479354464916577,0.003955451059926167,0.01847241805439123
573,0.015256912146844687,0.028654027841189544,0.00694389959020473,0.004552885192375324,0.019911976423449617
574,0.015048686652269046,0.03219526324098456,0.00781882086775857,0.0038718455160922783,0.021121213566961474
575,0.014558567162247281,0.03506100236089294,0.0071192125966888006,0.0017046709038677705,0.02275454900656098
576,0.013456439549002098,0.03617826128100348,0.005898922797502931,-0.0012014225084827428,0.023216559159626664
577,0.012161023109990482,0.03544693002709773,0.005340147343248511,-0.0033441956962467854,0.02226873283100312
578,0.011274723540095349,0.033617746958445584,0.006021233930505575,-0.0036669919298126055,0.019605744964345105
579,0.011015740364899418,0.03227914103935003,0.00768715250887851,-0.002937995705472632,0.01656636143025835
580,0.010945025513176325,0.03220954338766612,0.009514313130088953,-0.002534197409251133,0.016738200291660767
581,0.011083341414865682,0.033061095224315974,0.011419419569873537,-0.0022490115475318913,0.018762847908573334
582,0.011877800443301537,0.0348581458929302,0.014044352216682265,-0.0013345645438034822,0.0213101852589668
583,0.012219623045959888,0.03700779340198764,0.01659356045246484,-0.0009171208140921729,0.023858032866784225
584,0.010917205072542619,0.03865033738157482,0.01779623039846316,-0.002250174936660334,0.024211954537925656
585,0.009060080827389827,0.03992964777593566,0.018227790718241772,-0.004286363314726403,0.02318781648396433
586,0.007861668924741038,0.04025892299760758,0.01867143460063373,-0.005686245013389561,0.021537691332646644
587,0.007367021238105534,0.039157188960207936,0.01894589430342318,-0.006468359492521213,0.0194951639791145
588,0.007103800615983426,0.0372735676434932,0.018675616051931125,-0.0072668190909161825,0.01682211587998268
589,0.006543693475489499,0.03528227403201462,0.01782823467911735,-0.008487631356292349,0.014430997423696613
590,0.005425614125934375,0.03349716777615155,0.01651064238747598,-0.010021985802487608,0.013050852870431482
591,0.003512962990292349,0.031580636654151714,0.014849811590521393,-0.011466597379728783,0.011844531663646301
592,0.0014287491457850088,0.029887822870619855,0.013918892768176788,-0.01215764945684659,0.011042742540256244
593,0.00017631123790708809,0.02917932121596169,0.014602812814238858,-0.01170541954486195,0.010401822190774774
594,-0.00043655109628992094,0.02924842449047139,0.016080307715833894,-0.010654061736052023,0.009725295361957133
595,-0.0012401378263742625,0.029755625782069563,0.016754212757403807,-0.010390128474943082,0.009990481047279806
596,-0.0024722342685880826,0.03031041093814314,0.016015403309964062,-0.011498609262356156,0.011129312992951052
597,-0.0038438503522872577,0.0302099890538697,0.014205454384257965,-0.013485018410705053,0.011511347137694493
598,-0.004959000300446837,0.029198663095420727,0.0116799769216454,-0.01593234541294031,0.01037197991386003
599,-0.005417231000386238,0.027507727757311206,0.009179922018824662,-0.01811330623862513,0.008244710462055804
600,-0.005533344363922035,0.025546620543236278,0.007203559993790047,-0.02009890031919476,0.006400454857845898
601,-0.0060684965601515905,0.02401300409278036,0.005513665196096414,-0.022605040345743826,0.006248900527350327
602,-0.006850429651046155,0.02348920548184146,0.004139584580501936,-0.024756441178782656,0.007650740024585202
603,-0.006985224542293004,0.023944658998313446,0.0035282931650115336,-0.024994170413449836,0.009202363697779327
604,-0.006586802394284366,0.024728403406017566,0.003876120287449396,-0.023746906902856794,0.010073796459196122
605,-0.006817589890657526,0.02528706459316585,0.004768401314983231,-0.022913815515884138,0.01128887192214103
606,-0.00796004355249281,0.025151295514402143,0.005702405927967289,-0.022375745716672397,0.01315934457662275
607,-0.009823986948975372,0.023817066088946324,0.006281541054401579,-0.021395563530398384,0.013588424093875538
608,-0.012263592514738792,0.02217477396491276,0.00654641692453005,-0.021000891920822953,0.012540932156660287
609,-0.013913791951162697,0.021922265427071458,0.007339464341336243,-0.021267568567826158,0.013556397566705175
610,-0.0137534159513588,0.023094483640223262,0.008387543043986461,-0.02131062321341597,0.01844720743864042
611,-0.012681039959016656,0.024489902628726145,0.008398172883505176,-0.021321784211364107,0.02407341053189051
612,-0.011837814703332993,0.025557893451273555,0.007514673268709547,-0.021812527477293363,0.02577294080985428
613,-0.01170096895837689,0.025727672757463967,0.006475973125429018,-0.022702021114515317,0.02100114038586822
614,-0.012012941948165781,0.023882038477175623,0.005644092607147902,-0.023118953007672912,0.009805997606623998
615,-0.011761825106318192,0.01999220601678976,0.005347514161843271,-0.022294389774000407,-0.00557618943146389
616,-0.010827129205368224,0.015661208903834573,0.005136063820487773,-0.021205002312926463,-0.02130681221594239
617,-0.010345901230017402,0.012766596716774013,0.004543523349078661,-0.021752518462698597,-0.03320726456714491
618,-0.011190018486202933,0.011733479909125297,0.004205668549996816,-0.02460499736506479,-0.03967174991033673
619,-0.012961070818920525,0.011621858064217179,0.004870868146209985,-0.028589853014658287,-0.04199657737410748
620,-0.014403007292552648,0.011816739399762658,0.005923655048423739,-0.03162502409555917,-0.04171846608026512
621,-0.014798701422529294,0.012320851727479222,0.005782126209357528,-0.03254079832958175,-0.04005706103234036
622,-0.014333413313458707,0.012863567914629098,0.0038903080715638836,-0.031674616538511835,-0.038016056114448325
623,-0.0136814174769589,0.012909243083541012,0.0011699808029424423,-0.03011476234384441,-0.03618092572293181
624,-0.013503483521299656,0.01262135699365114,-0.001214613995791412,-0.02911723968114668,-0.03446268811742969
625,-0.013697142385864763,0.0127005607710259,-0.0023413953741067716,-0.028823245687315167,-0.0324000190071481
626,-0.013860562747861944,0.01302432755125315,-0.0018515111335478112,-0.02864473358855591,-0.030545771065964022
627,-0.013916230741282566,0.012610459535759374,-0.0006470243968929743,-0.028692278286238986,-0.0297078677966276
628,-0.01355391288557929,0.01116533354115305,0.00015478282981048244,-0.028853365029909647,-0.028914833085397915
629,-0.01258331255346383,0.009421255838274465,0.000565064708586281,-0.028664737687231403,-0.027257243168343877
630,-0.011393159845154852,0.008393840432620741,0.001249515470416739,-0.028312756534378068,-0.025615121384562355
631,-0.010440281503690096,0.008748217975609113,0.0028190825831348057,-0.02825132596235314,-0.024198635625132713
632,-0.009959564712431656,0.009825058616424406,0.005215166261594063,-0.028359810298717182,-0.022449484304517892
633,-0.010191570468617695,0.010338289073038161,0.007195717999909814,-0.028595883480355522,-0.020847975073228185
634,-0.01117060740515716,0.009914911575252518,0.0075875187337679515,-0.02941662282882147,-0.020384784234948872
635,-0.012382581570762816,0.00879651870538203,0.0062947579410488185,-0.030738990074114687,-0.02099793668951866
636,-0.0135262548447252,0.006883421161183163,0.003604093426524623,-0.03216618930491891,-0.021537130683882643
637,-0.014998302878357368,0.004271067207761711,0.0001360702773442617,-0.03355665290608376,-0.021282717474197795
638,-0.016741988515738965,0.0021138033880601713,-0.0027279292031926797,-0.034203166389213634,-0.020124818864800113
639,-0.017958640387240283,0.00127828638887534,-0.0039138847812709415,-0.033441608765526994,-0.018526200958566268
640,-0.018675305823009,0.0011402068247112435,-0.0035360912164499056,-0.03226577927563283,-0.017428976117505525
641,-0.019615771057081656,0.001184200839023426,-0.0017689923948175934,-0.032053308058958244,-0.017092582466654224
642,-0.02123618741035154,0.001356400403141701,0.0007610592857840344,-0.033048326787083956,-0.018253613906419257
643,-0.02332773009440994,0.001303185145941955,0.002543685598083328,-0.03477976940249678,-0.021485146543157616
644,-0.024950833608819854,0.0011308062996598766,0.0030423533264356825,-0.03654581352392372,-0.024994810856831143
645,-0.02562611480687178,0.0008776061979651801,0.0024094954975208316,-0.038122050214118255,-0.027387338457294633
646,-0.02562427600393781,0.00010581959266734939,0.0009047582317630694,-0.03946066073293253,-0.029176815734743924
647,-0.02526780741511577,-0.0013745204836933356,-0.0001879834260340629,-0.03984182148260923,-0.030816040675554882
648,-0.024775467794488408,-0.003562501427052282,-2.6817869408142793e-05,-0.03883274925970562,-0.031956594520803
649,-0.023902325668429713,-0.005837535245990661,0.0003313652020162734,-0.03713653146521085,-0.03221641547399381
650,-0.022129461273456337,-0.006944528179691907,-8.810442824343279e-05,-0.03577071682139251,-0.03192040875761965
651,-0.01978732219818337,-0.00668419764184017,-0.00045498177956748394,-0.03509045205277571,-0.0314858295867538
652,-0.018210865948559776,-0.006479219486973195,-0.0001492681763168347,-0.035135140635662435,-0.030953462829062906
653,-0.0182310367893296,-0.007677321025116201,-0.0005635297439099252,-0.03576124194482175,-0.0299434038024651
654,-0.019556214146739737,-0.010174182757908948,-0.00293761887200667,-0.036449713790042026,-0.027957495961521077
655,-0.02140405443797374,-0.012679722127529738,-0.006578508505343523,-0.036877705707973704,-0.025973278301536683
656,-0.02323127800026438,-0.014080067098735471,-0.010323130872108031,-0.03729986011737831,-0.025637828806216737
657,-0.025230962049443816,-0.014328351298615533,-0.013473609633777217,-0.03819510823075951,-0.026699951640798775
658,-0.02744879588167765,-0.013908547883344958,-0.0158322414082334,-0.03958207298858756,-0.02785102732003546
659,-0.02957270301855288,-0.013518693201148374,-0.017664317255652005,-0.04129644066876074,-0.02875483770371631
660,-0.03146960105515144,-0.013851191520396345,-0.018620857664980818,-0.04041042264334296,-0.02767274320051764
661,-0.032958704472460326,-0.015020245359426884,-0.018286237677889283,-0.03759611937087429,-0.026199715079416288
662,-0.03387991980149847,-0.01704997654713174,-0.017205989825003945,-0.03453003567275208,-0.025037729292508384
663,-0.03469559944702207,-0.019608857726186566,-0.016230235680151864,-0.031818295887267756,-0.022350894828900555
664,-0.03614392298139233,-0.021042049569556614,-0.01617093214406467,-0.03127010449778103,-0.018137970910812196
665,-0.03799308183602382,-0.02044725546732108,-0.017526782038425646,-0.030878987229037626,-0.012742523320308664
666,-0.03933332808927646,-0.018881369129276373,-0.019992922572189202,-0.027974990446932864,-0.007606461632496728
667,-0.039761498501715564,-0.01716161080825569,-0.02265583346085884,-0.022707404738608123,-0.002605354939329659
668,-0.039987193751775583,-0.015843160654994772,-0.024938001627855495,-0.018032116521076766,0.002110937632462686
669,-0.04109481612104629,-0.015893004126256032,-0.026622615222139226,-0.015110928264295614,0.006026970785080528
670,-0.04284794121458062,-0.017308214360286477,-0.02712265793592658,-0.012788537559943499,0.008576306623186612
671,-0.04378582439829313,-0.019725245754571245,-0.02630634020214618,-0.009155889056732636,0.008667390463727536
672,-0.043428094651047716,-0.02325303180881051,-0.025043111267776502,-0.003060560457798512,0.006608663055602837
673,-0.04261607124795468,-0.026629050243834912,-0.023931023659032425,0.0035352637798737483,0.004052170388688577
674,-0.041938653518826245,-0.028474993561577355,-0.023303993771758003,0.008808908063254945,0.002624244741543805
675,-0.041070342348259584,-0.029317254741798526,-0.02337358641979671,0.013389145090476163,0.0024272686663113275
676,-0.03923552124105699,-0.029761019040646812,-0.023443563452212858,0.011904916545264151,-0.0004989788945671136
677,-0.03635859592786629,-0.030216470052359445,-0.02237897230730432,0.008511594988202982,-0.0026341702253660903
678,-0.032902752623328625,-0.03130595648574607,-0.019525358599419878,0.0060236173764240996,-0.002076647040403914
679,-0.029484160907293295,-0.03259193404718628,-0.015823704526745547,0.0018500165109953403,-0.0013055049383843362
680,-0.026408820254476682,-0.03291208324002784,-0.012889251193155125,-0.0009493551338578264,0.0006669107235389791
681,-0.023976202749522165,-0.03243869454240038,-0.011864654950982984,-0.005129668350372813,0.0016446040442915162
682,-0.023066922764662812,-0.032150884176197866,-0.013507138238931432,-0.013533585115772857,0.000601597194206416
683,-0.023675468571300512,-0.03225946499771394,-0.017460732235877366,-0.023879774022942418,-0.0012270145428423108
684,-0.02457365803723954,-0.032247676956363526,-0.02209092053745237,-0.03030961768040523,-0.0019930463148091293
685,-0.024010391430016275,-0.030878708453008965,-0.024791124376546115,-0.033007965936739124,-0.0030963706694138965
686,-0.0211324795485404,-0.027552236584939892,-0.024378547175697072,-0.033112078864542475,-0.004789265236978615
687,-0.017267978536616154,-0.023208011206079366,-0.022803753571292506,-0.03176118962484066,-0.005174525650387555
688,-0.014449117268887778,-0.01926123214938707,-0.022266165028023078,-0.03404931022909903,-0.005183133773612894
689,-0.013630121926098984,-0.016657947852068856,-0.023233357445884905,-0.03995507151651123,-0.005254645831771084
690,-0.014432267318631155,-0.015466689030125791,-0.02503408732859407,-0.047371026861720525,-0.005657014763353582
691,-0.0158100228182274,-0.015295410616177051,-0.02636119479779045,-0.05475482424811989,-0.006588046502399651
692,-0.01718726822524884,-0.015806695679458138,-0.026718311698335807,-0.05435592880437127,-0.007428843982638239
693,-0.018381726718532124,-0.016219166294549826,-0.02659900522063701,-0.0511767066235222,-0.007935129582183122
694,-0.01878859449272411,-0.015451257392115572,-0.02628222670287575,-0.04966753077418158,-0.0076094875202249905
695,-0.017709196576492617,-0.013472334843603396,-0.026116888419382707,-0.04718822815767694,-0.006245975905594509
696,-0.015435315459459037,-0.011655249481419721,-0.025886262000336478,-0.04588789700717618,-0.004155040514686692
697,-0.013480407286010073,-0.01126679358752182,-0.024662768478429402,-0.044020395320596345,-0.0008066285604527646
698,-0.012848655029169197,-0.012088441959594685,-0.022588854247236032,-0.040581624017282034,0.003677588756275365
699,-0.013043787483613605,-0.012693222933449695,-0.020670679827750935,-0.03714157104693013,0.007081573155769167
700,-0.012769696938208073,-0.011420161189658383,-0.019062045334519682,-0.03690407447350468,0.007678714237627885
701,-0.011571964129415229,-0.008182075450510373,-0.017269884007664126,-0.0373544801613332,0.006027894161358058
702,-0.010687282169108392,-0.0048146232765880065,-0.014640527149425441,-0.03703210973268744,0.0037081284300076764
703,-0.011227262969144308,-0.002824836189961592,-0.010218238029446958,-0.036334396763851654,0.002334215796532017
704,-0.013062964251803219,-0.0024572974265119193,-0.0038592071541235485,-0.031952158377319566,0.0018503435341265355
705,-0.015379334747175483,-0.0034605645321909135,0.00336874981220467,-0.025202348345466034,0.0005999049257586191
706,-0.016796808131868606,-0.005502729217793479,0.009553818944343068,-0.01784387431888227,-0.004994557442798508
707,-0.015851867337842013,-0.007844072371809363,0.012292245975633317,-0.01067664395098119,-0.01667903196181319
708,-0.012505442065943246,-0.009596824824293923,0.01028724573701298,-0.0073921913494517455,-0.028354720894090857
709,-0.007941504688869793,-0.010729475805642891,0.004713405561303217,-0.007641200596778155,-0.03763557727833447
710,-0.003431510030566446,-0.011969066029257834,-0.0018891019493295087,-0.009143906007386899,-0.04386135182849396
711,1.0858021750817923e-05,-0.013540173196822419,-0.007884102444817284,-0.010564789962728305,-0.04594950989246546
712,0.0024468648028694783,-0.014562348151752225,-0.012627022473328515,-0.0100534670154345,-0.04691775885982812
713,0.004734169083884894,-0.014249118184768789,-0.01569824394643152,-0.008295738944552019,-0.04709682043696464
714,0.007317324691513366,-0.013018078835906145,-0.017427677865747667,-0.006303776098576876,-0.045811019974756874
715,0.010188715253812076,-0.011887454604691438,-0.018021202374499362,-0.003523193731399113,-0.04248340241194629
716,0.013005187453937668,-0.011751204020711219,-0.017093318686825162,0.001098413758439791,-0.03785925197938469
717,0.015174259838052947,-0.012659418351676199,-0.015327367804010679,0.006021665307189627,-0.03232657589457917
718,0.016283898383669605,-0.013817114605854856,-0.014278937865169527,0.00999669738176183,-0.028276444083297075
719,0.016928292289378206,-0.014620013380487703,-0.014081359714443867,0.013404694973938947,-0.028134272818611052
720,0.018000305865681913,-0.014983970004634382,-0.01348035332329353,0.016151432006949223,-0.030178667535442658
721,0.018835281865797908,-0.015084405380407851,-0.012435666983679096,0.017813423711401436,-0.0327713305196232
722,0.019278577603846006,-0.014421913765591349,-0.011310977658997332,0.018512362898126165,-0.03367834094531789
723,0.020424018077398673,-0.012717571100720861,-0.009605235922552888,0.019347955248790065,-0.031338430609158245
724,0.02193692471332035,-0.011250504212453471,-0.00752075385828664,0.018214332543202576,-0.028072388918205723
725,0.022795969680391628,-0.010918158228596207,-0.005791414055580601,0.016143006425324256,-0.024400436491671857
726,0.02290253855375056,-0.011099244843151699,-0.004993223847526483,0.014044720253459434,-0.0198976844163053
727,0.02288625153748097,-0.0107653279595722,-0.00510492919483059,0.01116283341713486,-0.015803709850791776
728,0.02303635649455194,-0.01001506400745889,-0.006014636471533954,0.00902724328625542,-0.01415458575237181
729,0.023149860039870174,-0.009755432573380277,-0.007932125732873063,0.007159941905324666,-0.016473363794217565
730,0.023380226904030986,-0.009859917483411817,-0.010126325386198173,0.0050373781290687205,-0.021140582966236436
731,0.02389423972131741,-0.00957932063773009,-0.011378355221846236,0.0033031808907415254,-0.02420969101450293
732,0.02428218872060186,-0.008675360394195183,-0.011407152635496274,0.002989953357068317,-0.022092581253696363
733,0.023928992598171255,-0.007578357515084438,-0.010535824453492241,0.0030004056044086597,-0.014469821366855672
734,0.023061295666965045,-0.007087194694846027,-0.008566685864326191,0.0030425596121222507,-0.004302610274958463
735,0.022038243367006206,-0.007629701145853642,-0.0061525856454892145,0.00271572210260285,0.004032609607694361
736,0.020724012996738143,-0.008996048469221665,-0.005335870919666754,-0.00023463713495307389,0.006775993657964658
737,0.01963863412008909,-0.010936959629885919,-0.0068930412085645935,-0.0043599666169798585,0.002177161546774623
738,0.01942726508689062,-0.013399747071508055,-0.00972572773075596,-0.007315320572264159,-0.008172801429281375
739,0.020151557139238167,-0.01599879622446045,-0.01207316130721663,-0.00933066162249626,-0.019268977809043852
740,0.02149423990692163,-0.018482597696256882,-0.012645424762643694,-0.007362073082669907,-0.026891292765470937
741,0.022477280847439884,-0.021163840414702734,-0.011566373260518991,-0.004503426828917812,-0.02851440177765595
742,0.02245473471803716,-0.023739952585058042,-0.009394769108482321,-0.00242152039714646,-0.024977938291627092
743,0.02198221888364883,-0.025297933853497392,-0.006658006729898294,0.0007434962737386379,-0.01979080324408483
744,0.021793304128604536,-0.025646201533120406,-0.004592897350378725,0.0025972329738769414,-0.014980737360742642
745,0.02180384887087394,-0.025475883562956606,-0.004178892835872829,0.0035928346111279218,-0.012023603013064342
746,0.021480504881303934,-0.0251310035519987,-0.005012061752412702,0.004341655046915959,-0.010777639161483006
747,0.02107210081883093,-0.023959241140377008,-0.005680129707783303,0.004459722913190951,-0.008999963092487538
748,0.020907339330488182,-0.021645199423609148,-0.005364654066241508,0.002890897325789841,-0.004764556616578328
749,0.02050022819383292,-0.019013165426975308,-0.00448273221130581,0.0013486842336402417,0.00021126102579855307
750,0.019552410652914284,-0.017445863068231402,-0.003566959490447223,0.0004160092860784265,0.0036920578232952765
751,0.018111084202305207,-0.017619403940330403,-0.0030961864834098624,-0.0011963180714959767,0.005501228559245613
752,0.015975312251110915,-0.01893467669165591,-0.004502160427963794,-0.002941629126554399,0.0056700168800480665
753,0.013270568198140414,-0.020556455749413064,-0.008932677618644833,-0.005407765007468521,0.0049458718234415755
754,0.011309612770012419,-0.021796660345949084,-0.014439264204989012,-0.007031653915393615,0.003984373038789294
755,0.011506896002459476,-0.022363243138917032,-0.01737348150915691,-0.004973343968397786,0.0027626880083381255
756,0.013872295715854991,-0.02254105025756028,-0.016460550674838603,-0.0018635394799883407,-0.0005960827978487457
757,0.016998134881602903,-0.022695632567345195,-0.013757673985609155,0.0006882172565300138,-0.004748932104220497
758,0.01905429234562881,-0.023145586690681733,-0.012140663988716363,0.0019454067307306763,-0.008062714129904388
759,0.019167413333399625,-0.024303204793598623,-0.012150481150793252,0.001753441064480608,-0.011172130559329634
760,0.01844590445221859,-0.025941562307466758,-0.011656105174611995,0.002527762715861278,-0.014527291541307136
761,0.018444812342884916,-0.026596689420870952,-0.009096751072721348,0.0041273994053765434,-0.018286158432628763
762,0.01901186455756839,-0.02491869809852434,-0.0054858322734978,0.004800654355047735,-0.020421186913401345
763,0.01912150990674003,-0.02111976050703743,-0.003036737817967187,0.003503251368512282,-0.019219881159227636
764,0.018305131913742303,-0.016880607367914403,-0.002967598415692238,0.0015801505675189027,-0.015920648641312492
765,0.01712855652844448,-0.01356714743609435,-0.004107270242936901,6.455858331885149e-05,-0.014005021167373241
766,0.01686412972664463,-0.011389757718682569,-0.004331628068530782,-0.00010017771131362152,-0.015105635177594329
767,0.018213084501955776,-0.010688156700684234,-0.003536910362922155,0.0015230802757836364,-0.019191100616617444
768,0.020598082164339285,-0.011908170054945324,-0.002903323470485486,0.003200252742540331,-0.026414005283101186
769,0.022819463207629072,-0.014278369688687138,-0.0021586678057531014,0.004862837517819307,-0.034535092338261394
770,0.02408755878211971,-0.016030328283618465,-0.0002715529114222101,0.006171521480595384,-0.04217311074054771
771,0.024251281961146207,-0.0163606501080086,0.0023743117124770427,0.006409960427855916,-0.04873168610531635
772,0.023249042306132957,-0.01613545824571112,0.003935547234679419,0.006287788914167197,-0.049620554345823194
773,0.0210245543091623,-0.01621583699299804,0.003168138632443929,0.003940123841081614,-0.045049662526520234
774,0.017850803541818863,-0.016284087716654266,0.00043561186688239955,-0.0004119151381044994,-0.036555368233415056
775,0.014632376317992943,-0.015165854105771388,-0.0028729402814913155,-0.003950233088660195,-0.025447143364459475
776,0.01261853783845006,-0.012345548353571332,-0.004762301686788425,-0.006345060766549535,-0.01675246202282344
777,0.012693050302282263,-0.008729169760474532,-0.004285502635141923,-0.007058243357365993,-0.011651949878907478
778,0.014568668290216817,-0.005610302925190433,-0.0023721548872009065,-0.006148883106081774,-0.009082312394467294
779,0.01665946934419502,-0.0038689630813390553,-8.492827496190006e-05,-0.004624005097600044,-0.007679095545407312
780,0.017515262099045057,-0.0037029627400904513,0.0018918068581420227,-0.004040809535005007,-0.007388628224245352
781,0.01710973206646945,-0.004579685729947042,0.003191249973945728,-0.0033310455594990893,-0.006988697677600001
782,0.01641543816949274,-0.005802802800512078,0.004473342676940084,-0.0009462020177662833,-0.007095508187115931
783,0.015999344775779963,-0.007412889885159211,0.00654391823439915,0.002862897585238249,-0.009453727786609311
784,0.016003364509871706,-0.00982601742927219,0.009459775087105268,0.008464844100845005,-0.012252872334878734
785,0.016447134950959584,-0.012887932241784538,0.012494547601398147,0.01510210489150455,-0.013729157647272613
786,0.01667772620406848,-0.016054274696165736,0.014285810331589967,0.020873082717067944,-0.01264080432199786
787,0.01590221212991778,-0.018841495780768405,0.013909889462754798,0.02439910283350778,-0.008287419155994144
788,0.014206317452939906,-0.020327590196953092,0.011944891160295967,0.023995382351123026,-0.0024563821181788578
789,0.012309871083165549,-0.019228270160179226,0.0101861638960379,0.02208076578057404,0.004219005178649202
790,0.010369577911581487,-0.016138165232537534,0.009554853418524228,0.02021875225685364,0.009037385389850562
791,0.00829714556665664,-0.013043452833953596,0.009602085239818878,0.017698498590135343,0.009517147885317266
792,0.006713597621600331,-0.01068263907375052,0.009894787526761418,0.016405580624884224,0.0089252254926489
793,0.005870280515894261,-0.009465138500553109,0.010065431176092935,0.016159408388778544,0.009948519243990993
794,0.005375170205944941,-0.010112717399703536,0.009936305497866494,0.01610753915954892,0.01144965722754722
795,0.005218167053725535,-0.012395674154777693,0.009399947571784388,0.017078311668000844,0.011479243310425612
796,0.005519638735243383,-0.01545124632508869,0.008483919456594931,0.020171962730936716,0.010299003100428502
797,0.006151539594361057,-0.018602422464814004,0.008077668205711055,0.023232235136194046,0.00883325276081462
798,0.007411483299489205,-0.02078295613473262,0.00946890045007997,0.025365500619591266,0.008429268697771072
799,0.009376084605486076,-0.02148518685270807,0.012525756215556173,0.02761376915121705,0.009186533082546772
800,0.010973954394158901,-0.02147413167423864,0.015510110410675647,0.02864966285355848,0.009292483484075242
801,0.011292550141086656,-0.020996780051974463,0.0175549467534991,0.02865006899778147,0.008482587406100046
802,0.010199785309085208,-0.01983743301957974,0.018581293110188697,0.02784539601329153,0.007356340420332017
803,0.008299605265091466,-0.017762020424760744,0.018265883947659625,0.0256258799283267,0.006758955072674521
804,0.006850368036073578,-0.014398992219046407,0.017102301823512373,0.02307436574697004,0.0053544814349470605
805,0.006541695534665354,-0.010480691352508693,0.016236166816928275,0.02098276125473484,0.004559139340675223
806,0.006949923665578512,-0.007644822805716257,0.0164443026777488,0.019203958800591277,0.004421504542252567
807,0.007287815139259154,-0.0065467865934057045,0.017675553817976267,0.017745992513599353,0.0032194215344230033
808,0.007337068555209715,-0.0065193361706578695,0.0192848266737513,0.016305597654427142,0.002332512790753575
809,0.007292023851273478,-0.006616760536278765,0.020359581596661177,0.014976702354096583,0.0017632483315840398
810,0.006964882798095377,-0.006450309449765047,0.01978597910724576,0.01354121029955854,0.0005733218278729655
811,0.006350023427889224,-0.006179892549739366,0.01752551452750118,0.012036847408446221,-0.0014318523884685984
812,0.006078237722832431,-0.0053389272126246,0.015055872559047244,0.01054557900845228,-0.0017163427099121777
813,0.006306472175339373,-0.0030655961890262095,0.013711828269468433,0.00914656992354823,0.0008446451590492804
814,0.006584982077178399,-1.9819680005681408e-06,0.013806439933984643,0.00779369642093375,0.005693315329279787
815,0.00685014746485877,0.0020664584395552587,0.014964328405658913,0.006628900667899284,0.012236688972697798
816,0.007388201834463051,0.0025481164231936767,0.016775819464296977,0.006280659122920605,0.01773671316246449
817,0.007664963863185631,0.0017051081154685552,0.018466383906042185,0.005650577708001753,0.018818266356411248
818,0.006952760929566675,-0.0006680525459092359,0.018804265244068814,0.003617406556821581,0.014077391029554935
819,0.0061419409319365525,-0.003679893356606894,0.01783823077419756,0.0014697310585448777,0.006220374794817392
820,0.006185366152281295,-0.005624153161965564,0.01686379064139665,0.0008630630464964853,0.003129853033254825
821,0.006222377554900823,-0.0065345393741701435,0.016070937785548058,0.0004998605137652877,0.001015948111541042
822,0.005222133962290025,-0.007360744046268709,0.014514043869466739,-0.0009671241565506983,-0.003938720658346148
823,0.003430410502816588,-0.007890660410864888,0.012276085303160947,-0.0030614095637059476,-0.008951613331091707
824,0.0014812733406224026,-0.007472299433110083,0.010185699993998296,-0.005616395351544005,-0.014566766802259695
825,-0.0003021023614670461,-0.005928695027614354,0.008807790136927531,-0.008523436205869508,-0.018611910935903236
826,-0.0013988744329402134,-0.003397072097038362,0.009142263738798378,-0.010623587353621176,-0.0195735341835918
827,-0.001716503533761825,-0.0009608569290421134,0.011479018215262307,-0.010870829376001456,-0.018201264892437206
828,-0.002287569632099776,-0.0001240443197687363,0.014442917518181678,-0.010249471994867775,-0.016907253999466146
829,-0.0033981759099011135,-0.0008342661028585453,0.01688125144243998,-0.010294326344328477,-0.014186085070111461
830,-0.004707990650886927,-0.0019753508920307035,0.017643380978396375,-0.01189663155274333,-0.009424696431695611
831,-0.006534748751938786,-0.0032245526549002606,0.015480341737238074,-0.014846499444291417,-0.005059091783843006
832,-0.008127065575749572,-0.004569833180725038,0.011500626095136446,-0.017137825034634877,-0.002017627925988431
833,-0.008789126768020667,-0.005687608212094516,0.007608906577472894,-0.017758542279316752,0.0008543623161159164
834,-0.009839354855647752,-0.00663040809104775,0.004345019169977454,-0.018085996110440074,0.0026881670174255545
835,-0.011256771221243276,-0.0069647319593599075,0.0030374213913522937,-0.018564805034233054,0.004763114848660551
836,-0.011513179076275469,-0.005919882415902615,0.004419857893887351,-0.018607922836176485,0.005786448179519468
837,-0.011109069397311773,-0.003901154218209468,0.006344143977797702,-0.019261031388284004,0.006943592648818461
838,-0.010925034562224165,-0.0015727665279102643,0.007097534738240615,-0.020846177181901977,0.008209116588281612
839,-0.010138178208422775,0.0007993211420273397,0.006829889365472642,-0.02159671505949392,0.007483539939940279
840,-0.008365196360946141,0.0026366123657459296,0.00617378263898411,-0.02033782873489151,0.00542768663315873
841,-0.006854672159027648,0.0036812073830782034,0.006056202677660499,-0.01792560204685813,0.002989947299703674
842,-0.0062610271790475205,0.00534843179578608,0.007406585036805785,-0.015800353687575725,0.0021509813454687406
843,-0.006251049022339575,0.0087134419617155,0.00977136234385809,-0.014605512825982343,0.0036827766369463086
844,-0.007039048984230861,0.012141362016899354,0.011219327022519803,-0.01478566044160185,0.00600164459272543
845,-0.008488353462163903,0.013914283160141884,0.011346044389726178,-0.01631815381661324,0.007369523322471861
846,-0.009656790828406227,0.014321369443171444,0.011399737664281054,-0.01835183390595767,0.009000103134297747
847,-0.010135910179870903,0.014287967707840162,0.011445362297247982,-0.020267475779999614,0.011227755985734429
848,-0.010580422108774565,0.013729806931776263,0.010493299849468308,-0.022215205515302087,0.011346037850136017
849,-0.011201761776820562,0.01209950483764394,0.008367892823621475,-0.02408023294094986,0.008466692283492465
850,-0.011379606587534478,0.009971390208353376,0.00593773093347002,-0.02549985385650423,0.003982333641204635
851,-0.011385997139289622,0.008265651580969313,0.0036872742194567682,-0.027124157179891643,0.00012739187838494895
852,-0.011643876991630287,0.007509386803665613,0.0015092519324603234,-0.027242179400576248,-0.0016429862649156802
853,-0.01226116453543267,0.007499980219620026,-0.0006999746103569589,-0.026476910320275326,-0.0027812455752662295
854,-0.013978062879602408,0.007226430127039273,-0.002917548227353713,-0.025728385558348596,-0.005311573070758514
855,-0.016547480110861445,0.006854578334141308,-0.004335143684718,-0.024065234139396964,-0.00874082757161151
856,-0.019105749109005817,0.007309801280461463,-0.0038405899911973067,-0.022327444129770797,-0.011380381708414789
857,-0.02178316565017233,0.008284301967966859,-0.0015959424852158637,-0.020855742553093543,-0.012577422703511658
858,-0.023825029741649996,0.009460018461090139,0.0014434204765489361,-0.018728527409283456,-0.012533165167215832
859,-0.02394732469396231,0.01159427034042156,0.004836953695426855,-0.014694351817131678,-0.011343937512378248
860,-0.022700298327156466,0.014982877154731152,0.008377030060986586,-0.009885444927424328,-0.009056711787271339
861,-0.021243096709582913,0.01840054989015517,0.011422467489047067,-0.00466527426016928,-0.006040925178997446
862,-0.019959222761477758,0.020495266200748763,0.01283290979457247,0.0001140938179037695,-0.003022740543616834
863,-0.019245955067434317,0.021152264034006205,0.012019619325016212,0.0024184377786487226,-0.0004676809546636178
864,-0.01965550284700472,0.02085060576837331,0.009788633088299038,0.0031669347979189277,0.000995332221324069
865,-0.021152119735151825,0.019555424030602595,0.0073461474948783145,0.004036901566513195,0.0005106945073622833
866,-0.02286560690703262,0.01723439501455583,0.005620929029507342,0.005884495335730199,-0.0013688463129427771
867,-0.02389095967497445,0.014804829281473718,0.00489995850715864,0.00916842141725601,-0.0028576450225080326
868,-0.024111343715942608,0.013516271951371957,0.004753101976754237,0.009898757002812803,-0.0008254010490424447
869,-0.024177388972629468,0.01418577697635452,0.004939790499311168,0.009329790815439332,0.0037601016396816944
870,-0.024525492767989012,0.017038868912971173,0.00547941323227614,0.008408297602652846,0.008520750994402186
871,-0.025026140289754778,0.021078627760401064,0.006017116557388819,0.005846886816056305,0.01210111139721365
872,-0.02612343829233394,0.02414560746406359,0.005491627394202608,0.0033597481413193877,0.012208897704513052
873,-0.028033464285427807,0.024916303289611644,0.003494242825107949,0.00010866029180971611,0.010131349657701582
874,-0.02945211606227864,0.023865425975114325,0.0013886951987419779,-0.003267244040797122,0.009348530902621029
875,-0.029537744720002212,0.022285976228360083,0.00043906895664001723,-0.005160927546708187,0.011668196440129024
876,-0.02954622740829914,0.02176878535369828,0.0010312596631942932,-0.005115452750817174,0.017351693311220395
877,-0.030630725193381406,0.023544144700707245,0.0039691813132763125,-0.005135538197256286,0.028251174822002442
878,-0.032224841871734244,0.026955488108123836,0.009998869808687933,-0.004296422500535207,0.04366929100991845
879,-0.03313767491186686,0.02964985668668849,0.01827054342342294,-0.0006602000270027808,0.05870366090250878
880,-0.03183517358791058,0.029917386717622358,0.02590287049747054,0.003824289631686046,0.06755008431483682
881,-0.028081516782152555,0.02786413348717246,0.028884847315765225,0.006799714196638569,0.06569795199346917
882,-0.023724521522464848,0.02508093116640723,0.025339022023331593,0.005901143302708073,0.05517885838829069
883,-0.019636292092721174,0.02340553565881668,0.018156764981269887,0.0017970029715616458,0.04312639827098205
884,-0.01642241006203973,0.022423513606688997,0.01104562772552242,-0.003260192523341277,0.030392892500917673
885,-0.01548122709627448,0.020308872776506934,0.0050987454816149415,-0.007640766723082961,0.020158694662989297
886,-0.016229750233356557,0.016754060623784983,0.0008442013130797158,-0.010463434793930202,0.012953585825757313
887,-0.01636622734774749,0.012938746363461465,-0.0012534864755824526,-0.011725541686637564,0.006039122357914684
888,-0.014809349037725237,0.010053434411001979,-0.002105948024970938,-0.012060461678460655,0.0015326276662012877
889,-0.01229320728423215,0.008338779072742138,-0.0031433628423231117,-0.012532541032149475,-0.0012536566944952251
890,-0.009387221929547808,0.00803759552326533,-0.0035975050051545417,-0.012422092931707159,-0.0025338765163488036
891,-0.006251808253907103,0.008883960458443117,-0.0012427760459306847,-0.010381512880432714,-0.002256177782146791
892,-0.00394084224396123,0.008646819169564572,0.0031614739101924337,-0.007037451180270554,-0.0014614270830303057
893,-0.0034391836440855065,0.006335579221795884,0.005743209665177942,-0.005131967045557403,-0.003388577433157998
894,-0.004275458928363366,0.004464569143378053,0.004318131201429732,-0.006311461442835938,-0.007685569274869824
895,-0.005587773427537118,0.005326868961737056,8.884564100038719e-05,-0.010256259608127448,-0.011434396743766536
896,-0.0068782443111873055,0.00817221281567572,-0.004376724865951199,-0.016472245581337728,-0.015058285203376194
897,-0.007772420055544754,0.011100665775870756,-0.007501144083892735,-0.022986203756611614,-0.0188280430709831
898,-0.008585644530703556,0.013632269491186871,-0.009617250768916346,-0.028771078095654393,-0.02197103311085673
899,-0.009956380514104256,0.015925208066236114,-0.011142220668610417,-0.03330984331363746,-0.024233750496613724
900,-0.011382101972262231,0.017441522700900235,-0.011419889722120085,-0.0322983491467091,-0.023849939570341795
901,-0.011371305691404225,0.017673655060316762,-0.010430990133834002,-0.02903128713149988,-0.023936252516370854
902,-0.009211090273766763,0.01612864087121758,-0.009868844712018128,-0.02690215152349147,-0.027440280438292754
903,-0.005788237356416669,0.012840667029234315,-0.011397635330593493,-0.024752029906002244,-0.032508097340697796
904,-0.0024806172519321944,0.00925452233360716,-0.014080447607063043,-0.02338547588148014,-0.03539476351468589
905,0.00048744953915612967,0.006735865075774231,-0.01495435141761199,-0.01957501403845909,-0.03270001092570566
906,0.003101308777501615,0.005114709041551355,-0.013517497230268134,-0.012368397822809029,-0.026965583706891356
907,0.004950388832508583,0.004381434565740198,-0.011265007333471955,-0.005447308941537833,-0.022890044693426866
908,0.006627469199093547,0.005221088296255967,-0.008583227392427168,-0.0018530650810991325,-0.023088095914832293
909,0.009070079561462815,0.007467700647721653,-0.005748873522681969,0.000763212360493844,-0.026128215058976223
910,0.011620023089145733,0.010297747580318168,-0.0034326384542401026,0.003194445012179907,-0.02942569932321099
911,0.012660874194047022,0.012788269870079187,-0.0031318905201319566,0.0033334967611905074,-0.03271345451670477
912,0.012191499411061018,0.014620088711020255,-0.006163630832338464,0.0021852016290072798,-0.03559151198947275
913,0.011352945534315541,0.016158678045297036,-0.011355305036210508,0.0006540592666215558,-0.036972173631482835
914,0.010635149132896702,0.017718296797747817,-0.016014343639403107,-0.0006655698262311331,-0.03631899723702183
915,0.009863491050987674,0.01936470868062571,-0.018508114603188575,-0.0009927895593892743,-0.03421722824068993
916,0.008983894823159217,0.02077119227604993,-0.01904499471593364,-0.0017348633145276922,-0.029971925970356993
917,0.008282613218191853,0.021094572691166588,-0.018721986090927806,-0.0021900065789950468,-0.025879478471439735
918,0.007873681383541675,0.019693951131723245,-0.018676728336891192,-0.0019984347864982826,-0.024376710310290182
919,0.008063137550647453,0.01729589747939851,-0.01880741337544032,-0.0017051576747092478,-0.024871812610999768
920,0.00914228805396529,0.0149360468923013,-0.018092583919229473,-0.0004098757831175383,-0.026003851345389385
921,0.010599797261121244,0.01289524816840905,-0.01689759573864789,0.0013513434295496336,-0.025618116964569088
922,0.01207817262499631,0.011965557090436646,-0.01625071459555624,0.002917919850768727,-0.022960046101151436
923,0.013425691509345332,0.012522810507939469,-0.016196709295867393,0.004355055838938231,-0.019292574040105138
924,0.013939016147655033,0.013367014250982958,-0.016365443680269386,0.006403545744619112,-0.01750108716833895
925,0.013736833908883167,0.013951236472842552,-0.01637181913520231,0.009783040943995088,-0.018320556440037425
926,0.014133138840093413,0.014902265401052234,-0.015871588755902135,0.014875163069786704,-0.020173434169501778
927,0.015059205055520832,0.01581966685394545,-0.015630399247884,0.019656881752524943,-0.02243296544343665
928,0.0152254813378333,0.015817035396473757,-0.01659651401873812,0.021425998722096946,-0.024862163442045955
929,0.01490623818979976,0.015000368347635967,-0.017722264344058485,0.021407163125267067,-0.02656981436846965
930,0.014788264077731735,0.01378539888576891,-0.017691500938922487,0.021460997120505556,-0.027120608620459796
931,0.014673761263223069,0.013031326522746321,-0.01693871433932015,0.021613869487912912,-0.02630037187631132
932,0.014104477218612377,0.0132835549963331,-0.0166592392408387,0.02109918582363977,-0.025657675302247548
933,0.012871767653507185,0.013705100201716806,-0.016234263064997374,0.01975254463566621,-0.02354120779773129
934,0.011598053798554678,0.012944377943147223,-0.013641095906254713,0.01890163886000246,-0.02118257362885477
935,0.011001556275447268,0.009746270755237636,-0.009036892349695638,0.01910997257343611,-0.022050429634598787
936,0.011177254468824156,0.0034878022992067864,-0.004230859793273563,0.01954720135708557,-0.025328693474956383
937,0.01174358194311407,-0.004860592450732386,-0.00016822811502162816,0.019896652990433944,-0.029487039669836367
938,0.011944054228671938,-0.013147043333125519,0.002752107860565424,0.020185291131276293,-0.032645262429369576
939,0.011376228043595005,-0.019921479824922615,0.004306749682011084,0.020006849942658323,-0.03393074920025742
940,0.010577323452047219,-0.02443520635532052,0.004948412818531725,0.01919718775979151,-0.033287337038663684
941,0.009879524116077405,-0.025871734164194596,0.0048725812516417395,0.01764381691322893,-0.03154671056538659
942,0.00886194332470286,-0.02451125489227004,0.0035205425723198744,0.015231145183794764,-0.029606295116324795
943,0.007248207084101947,-0.022047774541165407,0.001302517282124103,0.012853773518658008,-0.028687204513561864
944,0.005624012088471156,-0.019626533683552008,-0.00019835548708310564,0.012035536489972376,-0.029305465156871043
945,0.004870790212780465,-0.01764530792615012,-0.0004076988473195011,0.013003771600790654,-0.029856033037867276
946,0.004891065167460302,-0.017114652955665388,-9.422247082154787e-05,0.014144985832751093,-0.029721353041660372
947,0.0049590718195823965,-0.018877672285034088,0.00021450367435701834,0.014091358564345872,-0.02982756196583281
948,0.004779552472182805,-0.022257014165700605,0.0008882200937228362,0.012682839422075922,-0.029925927283520865
949,0.004521909882395395,-0.025210588719028718,0.0026189512679496286,0.009830016462748776,-0.030265657060064212
950,0.00509886584479095,-0.02584908728805846,0.00550632208623242,0.006660728869766952,-0.030113006530753113
951,0.007131081316640551,-0.024435412792852454,0.008546479681157708,0.005560898004831302,-0.028616119298623108
952,0.009178953748362044,-0.02265596824156951,0.010334167225138382,0.0064994428542208245,-0.025918924717980272
953,0.009709644147104228,-0.021131782828418044,0.010440768415311177,0.007410485507577222,-0.021632006027843497
954,0.009060154670503346,-0.019864362124093433,0.009385913309733162,0.0074861948647490986,-0.01694151296426303
955,0.008288352245238061,-0.018716146213087727,0.008071379487188012,0.007668606918963632,-0.013495226530777104
956,0.007744718580610502,-0.01719985197482864,0.0073859989328542335,0.00855716645647278,-0.011406732312057919
957,0.006626273536841234,-0.0157300737633516,0.006976952988594667,0.008589109017658315,-0.009739636269826058
958,0.0042978065662496005,-0.015631121415024783,0.005899243187731858,0.006690301112354917,-0.008172145640614931
959,0.0017460431742268422,-0.016857373550825085,0.005016022453068782,0.004649343520062161,-0.006791508553536447
960,-6.844123380708745e-05,-0.01599377390382424,0.005155288048241259,0.00353225643716265,-0.004302964976592036
961,-0.0019253053963921843,-0.014792578584401521,0.005890730326220096,0.002689469675398232,-0.0016301325674087854
962,-0.004244489057766105,-0.012914193538559809,0.005883322561486963,0.0013716106510728568,0.0014988825395870677
963,-0.005412751989554619,-0.010793056304391023,0.0062994130434930245,0.0014498088930792728,0.005272745647792937
964,-0.004793847470919233,-0.008931323850029144,0.007307301651925844,0.0035716096551934536,0.008848586268934727
965,-0.003600212311510398,-0.008215459363239294,0.007349219924309099,0.005940785889581524,0.010629689293911792
966,-0.00269381464146552,-0.008528424489647416,0.006242436307205389,0.007373933306405729,0.010178980822700337
967,-0.0022103197499208573,-0.00887614194123026,0.004786684232716233,0.007907865118870237,0.007916344029422666
968,-0.002367725409385512,-0.008776220974698127,0.0025786173425599657,0.0072403063949306795,0.004398897387758318
969,-0.003030930069636974,-0.00844967581013376,-0.000586180286340195,0.005415515020418499,0.0004558715519035949
970,-0.0037448542912380837,-0.00817500089437067,-0.003448938431825008,0.0033339827384547796,-0.0027092249202639086
971,-0.004427314333270341,-0.008333807819565367,-0.004874127352596818,0.001901801698538582,-0.004176436859530466
972,-0.004653170616592277,-0.008913862620806451,-0.004277979144799043,0.002069014610754854,-0.003485767439735853
973,-0.003744366297647041,-0.009045318140888998,-0.0015898306588060063,0.004091379698245382,-0.0002043536859429951
974,-0.0017914820929915405,-0.008043662216160404,0.002164800538497096,0.006711197764058266,0.004842876201546225
975,0.0007647739061032889,-0.00607715597176366,0.0055796303776904106,0.009008835445726188,0.00940641385367811
976,0.003321148205921211,-0.003819732818998628,0.007536880961813102,0.01104095453605464,0.012108686835499599
977,0.00510484554612178,-0.0017739290541631816,0.007570300899587466,0.01259801762105313,0.012975074447117013
978,0.00538305036100392,-0.0001168133315210079,0.005728163930894475,0.012935380728139385,0.012258334900667639
979,0.00415443741490114,0.0010828581258909389,0.0026298872739074796,0.011377124699657968,0.0106198936452417
980,0.002545455722067061,0.0021022741634969745,-0.00020960634917142489,0.008297812327686303,0.009458669503525996
981,0.00145134306416057,0.0031368132850608994,-0.0015890590045548622,0.004980092492560656,0.009426339170199765
982,0.0010220462157421286,0.004024462402403717,-0.0014933089735282797,0.00272510294829029,0.009913735461492193
983,0.0011120353425564365,0.004688564322943928,-0.00067327352840164,0.0019623365901442935,0.00998222949717204
984,0.0013371842239494954,0.005293451400618013,1.795214477477481e-05,0.002122509111284075,0.009044366187103884
985,0.0012531944017014857,0.006014711916419832,-8.482931903021929e-05,0.002481994946946955,0.007506208999837411
986,0.0008815183929790527,0.0068977751258313515,-0.000898025239097243,0.0027462880219005993,0.006243555129383802
987,0.0008151055440249477,0.007937551849111778,-0.0013212601045775613,0.0032883980551107867,0.005537239487518837
988,0.001086245816582276,0.008693136240176806,-0.0008781309487761058,0.00438629164364896,0.005102472136517126
989,0.0008992426678380957,0.008533772103989517,-0.0004376724297899529,0.005487906433516202,0.004834558048182304
990,-5.8674338316809396e-05,0.007626305581327811,-0.0004826516674232241,0.005783159807105573,0.005200345495193595
991,-0.0011333521342713434,0.006673448616436941,-0.0006127964095462992,0.005146151230653754,0.006503378213122476
992,-0.0015812018877170652,0.006061861605531496,-0.0008557782680421926,0.004161081407969106,0.008190428377496714
993,-0.0012107815754463732,0.005897783961229016,-0.0014349344929468295,0.003285366119666268,0.009429671940420185
994,-0.0004574288978938326,0.005861479911313163,-0.0021167886487096347,0.0022938241316200793,0.009688043282023402
995,7.543826256641448e-05,0.005265434871318553,-0.0025594080308732007,0.0010892904537702869,0.008736523119673977
996,0.00015096896143250554,0.0038727288527593997,-0.0025246845096026714,0.0001932542897728355,0.006633307863756855
997,-0.00011717451913822411,0.0022467263535473126,-0.002013845386219599,-0.0001347810177497607,0.00410763789183046
998,-0.00032750460092628443,0.0013068728260941115,-0.0012432941395721273,2.8001206399995692e-05,0.002392469330201089
999,-0.00012642340321027226,0.0013750737871302218,-0.0003596720496805029,0.0005417484445970668,0.00196916871406577
