,AF3,AF4,Fp1,AF7,AF8
0,-0.004353147667048959,-0.004968086360316991,0.007938981815482365,0.011868708512826483,-0.0007691192870980299
1,-0.005388491833215203,-0.00620878573949322,0.00884869049018016,0.010420680064882766,-0.002053391802010121
2,-0.005808938360033344,-0.0065847152078300246,0.010585018027015112,0.009561377992075758,-0.0024897410368023387
3,-0.005773654747644224,-0.006790877557412861,0.011426549056251246,0.009290822249135643,-0.003249402055928104
4,-0.005554679192529231,-0.007307509850890295,0.01050382702679581,0.009434812054380865,-0.00492272753357456
5,-0.004893136408627935,-0.007655911050315014,0.008778848507660185,0.01028697780770976,-0.007143395369465242
6,-0.003709361778662776,-0.007103101166951995,0.007749079394620565,0.011551557671431815,-0.009045556756433894
7,-0.0026976597841846853,-0.0062900897721319075,0.007646846552692091,0.012099203857578667,-0.010832502839609173
8,-0.0022508024532746913,-0.005748153408084516,0.007685561342109324,0.011392789989886668,-0.012762875855980956
9,-0.0015097385404733577,-0.004151178975085385,0.00765735133907303,0.010604551156199,-0.013578712810767548
10,-0.00038297561013204127,-0.0008354724418062094,0.007289528541959183,0.010451930523984566,-0.012592795247801094
11,-5.652664489707297e-05,0.0026061556748108654,0.005889498423451207,0.010399739502754506,-0.01113307933977839
12,-0.0008007878762779965,0.0043095387191538145,0.0035717951158334904,0.010289321252865368,-0.011053532511601058
13,-0.0011999429300751344,0.004258312116248364,0.001980233590087557,0.011369586240616132,-0.012505928580655724
14,-0.0002571672163205649,0.0031869274279133796,0.0033560515689409257,0.015441510494788799,-0.01433952303493965
15,0.001325744164980842,0.0012163563991200578,0.00881027727811848,0.022808411032956912,-0.015846713065308604
16,0.0028859873250403375,-0.0007967185598159635,0.01747768644825232,0.03167380949313439,-0.016230650391346208
17,0.004107131669263567,-0.0015966617111127805,0.025705856673695755,0.038320862601370784,-0.015172395288455877
18,0.004339055113296361,-0.0011993611453127843,0.02848135708294746,0.03844559700116891,-0.01404819954666079
19,0.0036014562629102334,-7.586680328308943e-05,0.023340997676472013,0.030565228102362067,-0.014227955562654769
20,0.002639673231053521,0.0015531492376878629,0.012210570450501897,0.01775707576441732,-0.015916779136743518
21,0.0019368502705930418,0.003065799443186714,-0.00015946589207670593,0.0053533052973954495,-0.0187821104056298
22,0.0020075791240158126,0.004271398029638373,-0.008772990447205519,-0.0022002242814443108,-0.021234922862230655
23,0.003137213451427102,0.005375404715968585,-0.011087783856737306,-0.003529785042718036,-0.02159563461930533
24,0.004294087321564295,0.005769158086084721,-0.008843093331900809,-0.0013830309771168821,-0.02061977641798231
25,0.004275693670079525,0.005300723361695619,-0.005710241540962256,0.00019874320805877242,-0.01987824844381324
26,0.003720039077898465,0.005548348533188209,-0.0034127106879511767,-8.35879046740614e-05,-0.019210620608408373
27,0.004241210645091969,0.007758476204746567,-0.0022089457248590616,-0.0011850649664853522,-0.01809032105790582
28,0.005539348162756868,0.010637219792263761,-0.0032044129360994135,-0.0031292165314357103,-0.017378202958827783
29,0.0058678591941575325,0.012547140785517412,-0.006807653375844456,-0.007043754790308232,-0.01720105965883073
30,0.005141343436834968,0.01415898628486679,-0.011233595338063387,-0.012519957561435195,-0.016207412732715188
31,0.004538327065220463,0.01640709136009125,-0.015175498335481758,-0.018271882625570255,-0.014048742050486247
32,0.004647126142981288,0.018598719251938702,-0.018422621133686475,-0.02288076827400374,-0.011828038900872775
33,0.005640367042398177,0.019790286984678003,-0.019608263278041972,-0.02422697310632736,-0.010457903616265179
34,0.007671767869290423,0.01965453657863688,-0.01691711762903338,-0.021112902476387335,-0.009655781925672418
35,0.010094290890066731,0.017994810280188497,-0.01072484529371844,-0.015037856001888722,-0.00886324704082167
36,0.011725012649545478,0.015522090238186258,-0.003813620923749143,-0.009044204578238178,-0.008123220304370573
37,0.012075262207085597,0.014010553587854503,0.0006896478254379659,-0.00582365023329382,-0.007322472172924388
38,0.011355733106534935,0.014610879281166462,0.0012934629612137054,-0.006620027553717983,-0.00585043207428258
39,0.010304596443138516,0.017095785531360163,-0.0017864178988159314,-0.010635287522511847,-0.004128522752109952
40,0.009765169124733401,0.020141206342342413,-0.007360086993821203,-0.015860594885501355,-0.0037129141321366327
41,0.009854388795983122,0.022617020777666468,-0.013134911751598182,-0.020698937947524032,-0.004330043937847339
42,0.010222288455294668,0.02418387892488409,-0.016908218143771133,-0.024709560785381793,-0.004331995138033193
43,0.010747022933038562,0.02440957048694867,-0.017744365074614424,-0.02753496415990166,-0.003375097424186536
44,0.010930384194171196,0.022980110906026904,-0.015843850719602284,-0.028846523730158058,-0.0019434125214066518
45,0.010063849865428291,0.020613121077033517,-0.012803818351781767,-0.029297199521676472,-0.0005607889556110771
46,0.008503738927188954,0.01893336912370655,-0.010544768542878334,-0.029732847268731794,0.0008170383275567417
47,0.006822719803069285,0.018851945949511215,-0.010411380257049898,-0.03104272624191215,0.002490110719766889
48,0.004832622679120304,0.01979907988457951,-0.013058356781268494,-0.03406973092972851,0.00432458505399426
49,0.002568626885851553,0.020644426812801712,-0.017227256459107755,-0.03783145316430503,0.00625333020008678
50,0.0003687787898489014,0.020162504216135083,-0.020710581057111495,-0.03996081691035683,0.007323157296948691
51,-0.0014946381973087212,0.01839157183575356,-0.021944875672733975,-0.03904936409589567,0.007164378790307503
52,-0.0025541972391482457,0.01675580536108973,-0.020306382674454095,-0.03566528332039953,0.00739125681622194
53,-0.0022678551575846624,0.01567747661788205,-0.016834995992759873,-0.031009347468705956,0.008008432649956477
54,-0.0011518069276413303,0.01448317497260965,-0.013620597775372745,-0.02646171352157009,0.007305767816127932
55,-0.0005757367391074528,0.012980010253838941,-0.011648391457574795,-0.02377202412139079,0.005191390657110754
56,-0.00026335915220598004,0.012051923695379146,-0.010141442041970629,-0.022841570895957487,0.00353640117138773
57,0.0007388124068368701,0.012349134534378671,-0.008743277118922213,-0.022689958863879624,0.003468678115833701
58,0.0017913528989687653,0.013091736023438053,-0.00829980667440471,-0.023582738935059074,0.0037450738304055987
59,0.001995786584251286,0.013509490328475749,-0.009283266386705534,-0.025698867847347505,0.0033490280822168267
60,0.0016963146369308926,0.013696806866459516,-0.010803957715475479,-0.027844633649074198,0.0029679000382365865
61,0.0015499230809614365,0.013782678708899201,-0.011289146668917225,-0.02847829679729917,0.0032361949369351366
62,0.001405772160399698,0.013839832995890991,-0.010194002094062477,-0.02746936222818905,0.0043933333120457765
63,0.001162503913728839,0.014063773975686929,-0.008064595924131605,-0.025538657050900207,0.006702048243272139
64,0.0012938844753661292,0.01453164962019179,-0.005759771992013018,-0.02329090991155862,0.009938825599367465
65,0.001974981006255583,0.015152184654593122,-0.004323511997104924,-0.021309012015243774,0.013248771153941906
66,0.0025772662590248336,0.01551047751287922,-0.0048233510389845535,-0.02040103740192544,0.015189526870723898
67,0.0025467135050398627,0.015507387744195288,-0.006972159905690171,-0.020733528083004316,0.015395961113371163
68,0.0019510805897962468,0.015742607614195672,-0.008808261846660193,-0.02103757135025711,0.015334698490732542
69,0.001194158512512587,0.016534229959722892,-0.00886097362580077,-0.020170720867180088,0.01613421509429449
70,0.0012163499894208515,0.017513587478582435,-0.006727170563833143,-0.018106221432140378,0.01779971494355161
71,0.002335744544581557,0.01773870830823299,-0.002993616098386135,-0.015838967751481806,0.019324465876767418
72,0.0036208927235112562,0.01692320733888206,0.0006309729495033961,-0.014464605228534108,0.019306363037337352
73,0.004291127050014842,0.015922485957566585,0.0026663683228799018,-0.013996809899838094,0.017440899499188194
74,0.0036410661721744107,0.01486223933451143,0.002550111479518335,-0.014808148767515544,0.014605158526849299
75,0.0012930547599075946,0.013565286215752372,0.0008310200711793336,-0.01784157943195517,0.01213164553393215
76,-0.001788703028389948,0.012688431596079755,-0.001383505438264089,-0.022181802962336274,0.010589134215656772
77,-0.003953677758568419,0.012510215346495577,-0.002918897854538741,-0.02501945268220871,0.009573105642466427
78,-0.004262682290999643,0.012275070200664071,-0.00255721668199164,-0.024703697624079247,0.00867746852541432
79,-0.003243653788040538,0.010976384760689144,-0.00045107646827862043,-0.02239328374026519,0.007354991217655024
80,-0.002087890319069037,0.00875031620580781,0.0017793335979474625,-0.02031940123552286,0.005624329801436108
81,-0.0019902882127490976,0.006520403186003308,0.0023407526757365624,-0.020181943369360324,0.004328915451956572
82,-0.0029116213414036468,0.00483767480166397,0.00116034255031897,-0.02143265054369362,0.003900022960919003
83,-0.003333216786127661,0.003991580377418363,3.431926576073095e-05,-0.021802611410132684,0.004207911049240601
84,-0.002913185773706562,0.0035308652087136833,-0.00047843234410154336,-0.021171535639467366,0.0043563411776436165
85,-0.0022232279599880334,0.0027456564796358857,-0.0007894453306520193,-0.020485206913631142,0.003290597545809351
86,-0.0011600600799254361,0.0019783682391132057,-0.00017117656975926938,-0.019159130677235545,0.00158769071487882
87,0.00028290297172903954,0.0017079737648433796,0.0017928699733398919,-0.016784437698376908,0.0003036582626511212
88,0.0017551118140528585,0.0018038437701872244,0.004420765887103831,-0.013933306733171655,-0.00029386512047562625
89,0.00275373361488988,0.0022986091578003185,0.006718967564989237,-0.011418220353040907,0.0003191156234830603
90,0.0026318328273350644,0.0029115339622624754,0.007306968484509436,-0.01036760696499341,0.0017667412983342712
91,0.0012044192260387168,0.002973103862304378,0.005281389605868689,-0.011584953045285463,0.0023546466075866205
92,-0.00042830828158250397,0.0028878962548538577,0.0018549003503984635,-0.013930499781563958,0.0017146135894646549
93,-0.0014075954577152754,0.0032728610174137013,-0.0007375266303005489,-0.015771845038714916,0.0009711014094490955
94,-0.0025021162804333493,0.0033893297801088637,-0.0016109529587641411,-0.01712081457816626,0.0006398874056924184
95,-0.004156681253120565,0.0026594296954608955,-0.000963650613176331,-0.018181030975743005,0.0005842306697901663
96,-0.005468357956042854,0.001885665385978858,0.0007482044741943566,-0.018459830492088696,0.0008241066168333969
97,-0.005579561689774458,0.0015137020550154453,0.002574814674312896,-0.01783334219594859,0.0009014910961305402
98,-0.004974116683627451,0.001014942554240932,0.00372317027145561,-0.016827657975197564,0.0001807752545831334
99,-0.00454571675657954,0.00032815183617793077,0.0041890337875189875,-0.015750713237848917,-0.0011549912515107861
100,-0.004458962512858953,-0.0002734571540684297,0.003854024609666443,-0.01497828117393641,-0.0029222838988758595
101,-0.0045172202555804715,-0.0007639762200846379,0.0026054187395301584,-0.015166865645827619,-0.004941165723113206
102,-0.004336989089431918,-0.0010385366819952448,0.0012273574430774073,-0.015878324010327433,-0.006421460057106168
103,-0.00373871344328171,-0.0010932206411512005,0.0007913655446268301,-0.015780589485501238,-0.006855715650802472
104,-0.003229951127203036,-0.0012829530481302512,0.0017267164100176642,-0.014294782179317487,-0.006244206751356204
105,-0.003216355916710616,-0.0016706050114630073,0.003546703204739126,-0.012139358518419583,-0.004815607107925864
106,-0.0032416915571056595,-0.0017154710525361884,0.005145740109832728,-0.010384461207144929,-0.003239009277714492
107,-0.0027933269546488583,-0.0011677345888024774,0.005531737632182951,-0.009584422051670536,-0.001927230144186212
108,-0.0021363353689874557,-0.00033283851438930916,0.004631577423738294,-0.009792517834919136,-0.000634513089027604
109,-0.0016781553793704174,0.00046942765027085774,0.0036319763453362287,-0.010069675306695903,0.0006822892024228531
110,-0.001415506980954996,0.000878209511311581,0.003702659982274182,-0.009193330597494047,0.0015425220777603337
111,-0.0015287322650004481,0.0003838400665426668,0.0043842190548739595,-0.007495224818687202,0.0013464146567170095
112,-0.0019004847260872884,-0.0008022556491843768,0.005075789199670038,-0.005634246871939177,0.00019136544488967489
113,-0.0020177687234687334,-0.0017373590887330946,0.006328579796160053,-0.0035885934116623875,-0.0008932134996453156
114,-0.002290506848663259,-0.002075750494866819,0.008218596385674974,-0.0018060881975230135,-0.0012852632222717579
115,-0.003273804121898406,-0.0019128704603910615,0.009951139640709674,-0.0004924746958559739,-0.001410844563367844
116,-0.004532409922456459,-0.0011223782090524711,0.010998273399311757,0.0007817994875441705,-0.0016098450007893026
117,-0.005570794919902145,-6.2827385281084685e-06,0.011108982602300518,0.0016444606055641812,-0.0015289519053016038
118,-0.0055583462755005655,0.0012456612966212969,0.010675333941294095,0.0021137661613224988,-0.00045485926499463355
119,-0.003684520929099309,0.0028844195325648096,0.010937741218793819,0.003423517011373162,0.0016951683148411318
120,-0.0008709623616915799,0.004553678764452112,0.012734799835577772,0.0056635255464153435,0.004212083677783889
121,0.0016441350960612869,0.005724109275881629,0.015755680634534964,0.00808020098415051,0.006746512686328344
122,0.0034842249902170145,0.0060379397567060355,0.018574776033901005,0.010270896997372133,0.008725720216928174
123,0.004823455502271549,0.0054032024916805714,0.02003365094802933,0.011899379629581082,0.009066135099408713
124,0.006443156491195563,0.004563884501165301,0.020235270616220706,0.012932026533119879,0.008056774939313834
125,0.008486044908060184,0.004279538815432606,0.01963140320207469,0.01320494916859093,0.006896429093597822
126,0.009683332065346214,0.0041331512128892495,0.01832676024811505,0.012171273768450359,0.005552406514430591
127,0.009219945755378885,0.003746873768553385,0.016457768828892248,0.010122990920975284,0.004021879932611136
128,0.007718463702505707,0.0035258158465103543,0.01421443062555821,0.007948410301764493,0.0030619011989578356
129,0.006218018942548989,0.003459149530862102,0.01193079619117272,0.00635301807144112,0.002830474992020181
130,0.005470851392803878,0.003397732484050422,0.010506837781379876,0.006192154613562857,0.0031695151093113533
131,0.005400713040976116,0.003363250962980831,0.010182269123915568,0.007147132045310125,0.0038948676342577043
132,0.0058442090962216855,0.0031501803039696496,0.010455598588327307,0.008031183928931512,0.0045495905516773115
133,0.006608588417310941,0.002584892833655248,0.011153177608232789,0.008594859229533298,0.004195223873742021
134,0.006930525887270848,0.002065534739702177,0.012211981800694417,0.009133485683603447,0.0029855776461619496
135,0.006295887444528872,0.0018044237953547613,0.013216497780232699,0.009590290328466063,0.0025799448774515583
136,0.004954517704534967,0.001424368812674198,0.013583382076435927,0.009616609508076,0.0034869844613777613
137,0.003683848869752694,0.001121615169111949,0.013195654557221086,0.009013476404494071,0.00509271487501713
138,0.002966792024931061,0.001408139819318138,0.012079864774467123,0.00787507172418365,0.007016791797715433
139,0.0025848017916133624,0.002178471547767253,0.010448204511138552,0.006444041806227232,0.00878287207788498
140,0.0019127437653810768,0.0025803137330481837,0.009055899096994561,0.004742395929789571,0.009409381284656713
141,0.0006969474716527411,0.0019778281678982535,0.008669722107389,0.0029551124962787336,0.008374619081749453
142,-0.00042467791611599804,0.00072741116510125,0.009308952566881532,0.001833316024142137,0.006316247677785504
143,-0.0005646063226152354,-0.0005800352613433182,0.010254527990628669,0.0020248843934687617,0.004315052616562989
144,0.0003273439841533652,-0.0014400290054475855,0.01164399576387718,0.003634523728480453,0.003495785376388537
145,0.001492440877130222,-0.0016175843496499143,0.01421362992427308,0.006674131782055846,0.004099215912720266
146,0.0027156582156596244,-0.001232747655937354,0.017482093236949787,0.011393863555113197,0.005317478556529704
147,0.004228328189287099,-0.0005581485591158519,0.020086775032434397,0.01690145722320958,0.00663244030030278
148,0.005484590441241927,-0.0003672345150318945,0.02076692791605632,0.02069191856665545,0.007830493930108021
149,0.006218777069874599,-0.0009403172475252697,0.019396768070882447,0.021908582066793664,0.008795586488856972
150,0.006723689485774691,-0.001876325912448022,0.017311413016566593,0.022143433998612422,0.009311575866485825
151,0.0069102452679599856,-0.002934968573313101,0.015599769196209581,0.022398409492794768,0.008861018562044177
152,0.006789785445394726,-0.003936715140728546,0.01399206157657657,0.022409358112072873,0.007260460206445065
153,0.006438934765120399,-0.004751567483816029,0.012390763120241795,0.022103309489906377,0.005215094039363182
154,0.006009959862147433,-0.005055112053660934,0.01187871887993589,0.022254159408130195,0.00407787060439155
155,0.005935420876206877,-0.004703819131167927,0.013090486336619817,0.023791604059948356,0.004493028286141866
156,0.006430774416650677,-0.0036772659018417626,0.015216417226117674,0.02616630752254057,0.005890861993781363
157,0.007092590759496042,-0.001912022966411064,0.01714921248975887,0.027639956587466482,0.007018455961032167
158,0.007539596214354733,-3.882130333828466e-05,0.018721495380279028,0.027752994396436536,0.00719367234440356
159,0.007932332494942783,0.0010560960082229174,0.019910720894599596,0.02711285200951347,0.007185482028624888
160,0.008436749375386072,0.001251998560479559,0.020329690175315426,0.02636839251956051,0.007934167226074975
161,0.008666403935686256,0.0008011869333368277,0.02016011757662221,0.026172658151949326,0.008806540791744784
162,0.008280324951532938,-0.0001841693028175778,0.020096974831204085,0.026578166477729873,0.008412969445364828
163,0.00806950405481299,-0.0009937204927807667,0.02081803020481587,0.027624909072986013,0.0070730018633828355
164,0.008843596453642667,-0.0007081747836572318,0.02279928085511712,0.027522285352619226,0.006462114305585379
165,0.010024277393158445,0.00040843609442162365,0.025747796479908183,0.027725872797963805,0.007494095426439097
166,0.010731977322607743,0.0016801973949270136,0.028351882261706235,0.028504556319807972,0.010047200189727113
167,0.010982055846880558,0.0030722137853449348,0.02941415525282403,0.02793067343148273,0.013283576752316917
168,0.011336027942099,0.004092722059448278,0.028985802376003466,0.026824263574767748,0.015694850983383645
169,0.012016726485215044,0.00416224627754831,0.027818386498914244,0.025020704994815998,0.016732710246924225
170,0.012435507967671157,0.0037169490676682735,0.026342701992419875,0.022025103574985275,0.017144619117368438
171,0.011780634158956168,0.0031219084507733428,0.024895792994331773,0.017889768783649215,0.016924255931474598
172,0.010189005359920233,0.0026136092549278182,0.023829461108409493,0.013674719316962401,0.015717632765297047
173,0.008694250345744649,0.002728965533299159,0.02291025595057994,0.009075469281429986,0.014191435543506457
174,0.007928930221514934,0.0033020053004011256,0.02141996998140517,0.004009838131247042,0.012884865359520265
175,0.007991811917499037,0.0037874342309119646,0.01943411157481412,-0.0006378057984473748,0.011707711491644011
176,0.008808072096738376,0.003945394774684717,0.01792950723886563,-0.0048390842634599765,0.010451731320071246
177,0.01005807426187393,0.003512248051476121,0.017463070605216267,-0.007776675778725182,0.008839907982359391
178,0.011563231531033485,0.0025019246914583355,0.018165419148719178,-0.00916410939298745,0.007192690608136476
179,0.013307702729292131,0.0012173808024558488,0.019822247570617357,-0.010044332990292715,0.006234417063823589
180,0.015119360390939916,-3.195156110822317e-05,0.02162176429676674,-0.007467877086642025,0.006087101871649989
181,0.016554876730449558,-0.0008835987340625518,0.02305230111099389,-0.004764302196642199,0.006478702293576256
182,0.017256963150439848,-0.0007829046826088383,0.02425675683651454,-0.003569583152017792,0.007788844575469919
183,0.017545923990176113,0.0006432606797027917,0.025370868902623234,-0.001456171623030505,0.010626778363101972
184,0.0175923179799221,0.002460101065160372,0.025961418617635033,-0.0010363002006909142,0.014122541343245636
185,0.01694425801850057,0.003463232219913398,0.025373457100438146,-0.002259030915983719,0.016603958116740918
186,0.01552409024181339,0.003661286927872979,0.023765068926912856,-0.003518022629154391,0.01747639374789698
187,0.013684170932763345,0.0034111840967369082,0.021912312675065156,-0.004449802462590854,0.01710515380481886
188,0.01186038099683318,0.002860709962834652,0.02043868048752606,-0.006436827927900112,0.01608371627731624
189,0.01057536324032406,0.0022433204533737357,0.019786925568511457,-0.007858035973567334,0.014788987799076574
190,0.009914102080159116,0.0016383333079646066,0.020100584918681663,-0.007965558796959947,0.0131152378310585
191,0.009741954541512882,0.0009836105976866812,0.021303020686940417,-0.0073449165707882656,0.011297551734662502
192,0.010254485411764526,0.0004055550689341706,0.023411457490896962,-0.004967210679039792,0.010285155155483273
193,0.011358499082585256,-0.00010002127271123547,0.02595114513211229,-0.0011660261726603902,0.010370568665182859
194,0.012385942844020673,-0.00065098154948664,0.027782429228419822,0.002049965898269025,0.010972333934529309
195,0.012753241358888917,-0.0008172466326061723,0.028517291923573853,0.0037779727488121157,0.012166059621685623
196,0.012755143919297074,-5.496328997978699e-05,0.029089778121638283,0.005361787266976522,0.014186912582522821
197,0.012839542674460969,0.001148849147906663,0.029969376067187307,0.00746389034460724,0.016231866263518777
198,0.012420995611467204,0.0018128560760308431,0.030067213911056354,0.009543242281062247,0.017188695314039267
199,0.011110917995826372,0.001724159023813865,0.029023061064431834,0.011901830961340771,0.016638916871283497
200,0.009479432178367735,0.001492044610263378,0.028078773737143042,0.014491943596412723,0.015761721079662196
201,0.0077953524142418944,0.0015960182742208672,0.027606498240160933,0.017429121162660058,0.016193968933844033
202,0.006487266838348224,0.0021693998336668858,0.027491006847262925,0.021050045776629937,0.017981642109410657
203,0.006114980322465175,0.0033221322311515803,0.028052018676427436,0.02530145868138248,0.02029305538271069
204,0.006301958035674763,0.004524105942807558,0.02895296484334182,0.02873990124868848,0.022432970061328238
205,0.006655943398577353,0.004823526649118899,0.029723794310056558,0.03153887046914227,0.023653043767358738
206,0.007027316280004876,0.004035223003686897,0.030257405609659897,0.034692767234398,0.0239213003286496
207,0.007025405962588338,0.002751723668545422,0.030252932949993372,0.0376011485020285,0.02427704377767323
208,0.00624003508945389,0.001500454273733192,0.029318749564267454,0.039662970741087995,0.02523122056419478
209,0.004994170798206308,0.0005098196883826049,0.027761329601925105,0.04122354595328181,0.025968596487953615
210,0.004508558339091576,0.00014922227327144333,0.02655474173159257,0.04384038937502045,0.025861319799325624
211,0.005262814068497655,0.0007297757310838943,0.026094051994089783,0.04831201837648122,0.025254039172356163
212,0.006333478617210681,0.0019411362091876824,0.025565747884566205,0.048211225220822475,0.024706654636659497
213,0.006887454107506681,0.0035240704020664836,0.024536258020346403,0.045614540646375316,0.02543245269877932
214,0.006830908746372578,0.005458575087178063,0.023905210627040468,0.04330063548818535,0.02850207700203195
215,0.0066520844775092534,0.007610262500883803,0.024568751887241287,0.040035289860252364,0.03289249321838174
216,0.006879386453647763,0.009566484935611456,0.026657818143311206,0.03882674100728868,0.035978875452119065
217,0.0073211975057454175,0.010453257328169064,0.029424900116068367,0.03837965073262005,0.035915064881897316
218,0.00767366484459749,0.009856526732000255,0.03165506047508954,0.03705345756110157,0.03324630847084124
219,0.007889289597690672,0.008344701267800956,0.032731823217379274,0.035509249694987484,0.029744012379482418
220,0.007892519522878387,0.007010696404580928,0.0327652959520361,0.03609257211224987,0.026990466001027554
221,0.007391610673963262,0.006466898713527704,0.032040290033862856,0.03652648323508173,0.02636228677512008
222,0.006065531735768709,0.006541849582350411,0.031341012214410574,0.035486235000677706,0.028982564181161657
223,0.004303539389388245,0.007178037988073407,0.03239888901174828,0.03509868708733856,0.03553195027106268
224,0.002928904731620812,0.008386714691143651,0.03688632249958471,0.035702243072059915,0.04561648722257336
225,0.002347481415031391,0.009353090283232408,0.04400676951761191,0.03883050263598126,0.055560994964644755
226,0.002575194100993914,0.008902546734292631,0.049881446436402924,0.04319565293542903,0.059277524359670555
227,0.0028645469095704384,0.006903640764249426,0.050055775488782345,0.04410983958519405,0.0542844770789189
228,0.002568709628130062,0.00444846872133709,0.04354943773264721,0.039276366886195097,0.043700912526244966
229,0.0026916491903944384,0.0026692962218703453,0.03477049595476628,0.03225141717549134,0.03219447088727605
230,0.003912452236273664,0.0015533296850563513,0.02865165304295475,0.027020409863328185,0.02288445362616697
231,0.005491092800183709,0.000772973470692511,0.026177547969065105,0.023961727136703477,0.017193729928394373
232,0.006877528616292568,0.0005696507541661406,0.02582525512130078,0.022019425749129976,0.015158921836771411
233,0.008085125151035917,0.0005519389625021811,0.02581015641624084,0.019804512805793244,0.015081920111260966
234,0.009208797686599074,-0.00019731974682349695,0.025585451150307463,0.017324400876021974,0.014650019420465057
235,0.00990051233467061,-0.0019138572559612697,0.026015729387091825,0.015393482669856705,0.01301988485347917
236,0.009851173758672557,-0.004068695964643796,0.028122862762373423,0.014362701458203226,0.011416481745642247
237,0.009706297805548662,-0.005507866733353309,0.031835690661445135,0.013867795934762301,0.011530563828818327
238,0.010553938690997024,-0.005404896228318692,0.03574874772347129,0.012903196025295887,0.013168521695767845
239,0.012433149820926349,-0.004613711285204373,0.03838351244907487,0.010694252624650473,0.014265108394981171
240,0.013998041770696228,-0.0046501473347119035,0.03893503221529541,0.00636411392050913,0.013558056307073912
241,0.01472353877978118,-0.005318588304416175,0.03754632723266389,-0.00028577918621176677,0.012318578799635042
242,0.015484837414907627,-0.005300227209050753,0.035672232959762414,-0.0076512280989247325,0.012415221378155402
243,0.01626530902566193,-0.004443571134332284,0.035162084334058666,-0.01438624733763082,0.01428185739223972
244,0.016512024688543476,-0.003478136844318466,0.036698042069518266,-0.014524681738491727,0.017111846443614995
245,0.01686334740878867,-0.0025867360677797216,0.0396686613146486,-0.011684664914397664,0.020005647318369596
246,0.017519126929808223,-0.0023254806401901097,0.042725284194351044,-0.00941052083407408,0.02210925722786983
247,0.01761784237295153,-0.003870874489279649,0.044247641089989784,-0.006413232258158339,0.022280457465780768
248,0.017169087268410186,-0.006978907756411932,0.043304508017292714,-0.005520534957081798,0.020237210513761768
249,0.016739514546349702,-0.010169885211435869,0.04014491991744665,-0.004954552874931566,0.01695090913864558
250,0.016503824423125635,-0.012151825216142343,0.036492251131622765,-0.0029926840128272395,0.01435854556545726
251,0.016035052911041,-0.012885362826442726,0.03417022946337503,-0.0007874292267096025,0.013546451782921829
252,0.014660858584315805,-0.013453572316231845,0.03376022000762814,-0.0016041110096617955,0.0136080119191334
253,0.012844169182234171,-0.014169013065677593,0.035212989912539246,-0.00345521278839014,0.014024048238944743
254,0.011444299151278184,-0.014811660126694059,0.03742459965419817,-0.004408792101744349,0.014895279261012931
255,0.01023995120604305,-0.01549736997376571,0.03882003671983608,-0.005071668256905085,0.01576144743903645
256,0.009216215653551848,-0.01573860257132673,0.039121083133647,-0.0033717993852064626,0.01638979920747489
257,0.009280333703207345,-0.014667767427756169,0.038879311788919346,-0.0005751397595202596,0.016934732299540914
258,0.010357088786840683,-0.012775175827192467,0.037824954671692244,0.0022161312380795414,0.01682498075672578
259,0.01132841960482334,-0.01133905092424,0.035635456680039555,0.0042445807601704895,0.015413279481952197
260,0.012058705863644381,-0.010199636987797299,0.033863951372084845,0.005464137600099899,0.014104477302836647
261,0.012592567990184397,-0.008690432568200332,0.033782653512910855,0.007458197797347809,0.014581594711767377
262,0.012360900668872066,-0.007232241284120768,0.03432134838744096,0.009979570073035406,0.01613364333444548
263,0.01155991757003134,-0.006445488229352103,0.03437902331798759,0.011981158696649633,0.01728069069222019
264,0.010428433857966221,-0.006732700611566396,0.03351983737416211,0.013468662830004976,0.01714444665878166
265,0.008549998247982386,-0.008052570757908719,0.031505452070943636,0.01420807221167544,0.015316660131549439
266,0.0062555253415826845,-0.009466991547914753,0.02935302365464471,0.014620613572483874,0.012556858455690538
267,0.004465375915960479,-0.010317485394216125,0.02804251677961022,0.01565624183957167,0.010575479651026608
268,0.0032075253864346834,-0.01082321950581155,0.02698347103891243,0.01791561849492771,0.010657340395415073
269,0.001777618577672721,-0.011239168511319623,0.025546262482478353,0.020496358166377533,0.012539574863061675
270,-0.0001229720162338981,-0.011820200797479974,0.024126404390928755,0.02285251675572046,0.014749496204281851
271,-0.0018689524704261114,-0.012833962425289176,0.023225100231785697,0.025850694706295838,0.016248254231190785
272,-0.002675170957794999,-0.01409897466025686,0.02288504705057445,0.030022606106005212,0.016686125837862484
273,-0.002704539600095793,-0.015145413776065453,0.02258636529911364,0.03486935028618408,0.016105199582836197
274,-0.003047325519124108,-0.01582498950488521,0.021296020868592943,0.03901423948536412,0.01506161364083597
275,-0.0043836280194261045,-0.01612557086653023,0.018903920777950778,0.04170182938084738,0.01465017624743888
276,-0.005558182024262555,-0.015690858412958843,0.016873652474696257,0.03943196510193781,0.015880625444257144
277,-0.005048012235161454,-0.014341936045657332,0.0162521180426066,0.0359130026442121,0.018253823127808183
278,-0.0033408604372067168,-0.012449179784394686,0.016853968507304546,0.033765513039768436,0.020507425920330974
279,-0.0018529932930171481,-0.010683520133753326,0.01841231714181459,0.03143956069297734,0.022273209082369072
280,-0.0010561185499255393,-0.009536941342136191,0.02044347883573587,0.030466571161513915,0.023415861013128814
281,-0.0008769009440453459,-0.008991485633247606,0.022082696903503986,0.028973529658667445,0.023633509196552684
282,-0.001078839727892705,-0.008581268113496153,0.023143054060923533,0.02597899360131733,0.02348884144095872
283,-0.0012982794491851316,-0.008096273516162026,0.024050691492618497,0.023312871591532655,0.02367715339111535
284,-0.0017818150255479823,-0.007992208914578478,0.02472807066604562,0.02327103342748118,0.024264761355916317
285,-0.0031173289700416134,-0.008695025550873208,0.024750745191740434,0.023434562660077304,0.02495478128242285
286,-0.005018411906415681,-0.010034618831113977,0.0243627157054017,0.02259369967336882,0.02528801503547552
287,-0.006586237524106659,-0.011253038865008978,0.024062089579529593,0.021998168192689956,0.025271812927876003
288,-0.0075494841394230724,-0.011608192385121667,0.02366520045886773,0.020383052983287138,0.025058771157544797
289,-0.008141904992630757,-0.010812110111881934,0.022663287579676037,0.018388939364549307,0.024699728296957737
290,-0.00870860429361427,-0.00942588899244244,0.020642651707307263,0.016434833785920786,0.023774454914069404
291,-0.009237293022270308,-0.008108649462066223,0.018043044615404596,0.01386230135495684,0.02192809723780694
292,-0.009013953359563582,-0.006568384731298456,0.01596242243284088,0.013029067095930347,0.020228546282750597
293,-0.007574478993702929,-0.0045309059986050615,0.014794648893441223,0.012968870442259453,0.019979957103168255
294,-0.0053861296670347945,-0.00242593661521263,0.014192046857533449,0.012508358815421493,0.02119844009625456
295,-0.0033764502881349695,-0.0009133184890858263,0.013588162713789981,0.012388339748472324,0.022625669487134934
296,-0.0024930681602878205,-0.00038502365975530455,0.01277509138270049,0.011906387098016601,0.022777019830833075
297,-0.0032486410864306895,-0.0008235532201440833,0.011686439974491751,0.0111784283863111,0.02110375600193124
298,-0.004781277337670049,-0.0017843865427025977,0.010187657277207211,0.010419583682756887,0.018175127246299574
299,-0.00573619358729581,-0.002493903328941471,0.008568233082641754,0.0097568321864446,0.0153638036675054
300,-0.00573176204431038,-0.002525437185687825,0.007556751154893749,0.008862354008930505,0.014274422282090554
301,-0.0050608054997865895,-0.002475363660293348,0.007837533747155106,0.009154869349668273,0.015242963717942253
302,-0.004243670173596531,-0.002938455418867921,0.009278187758769055,0.010916254364102249,0.016981614701161094
303,-0.003955732727741157,-0.0038628864154581933,0.010571878147903906,0.012537703218460166,0.017947743321745677
304,-0.004556797845520606,-0.005444709483114053,0.01023872135546617,0.01351055379867576,0.01678054403355016
305,-0.005316044132769242,-0.0076716414516172305,0.00841366760467218,0.013776727627695747,0.013371490507019575
306,-0.005140226168695271,-0.009922476162608124,0.006850177763822916,0.014188008453418038,0.009587012143379781
307,-0.004392449005180505,-0.011744865479453375,0.006622145779050776,0.014458413740809093,0.006914656359562176
308,-0.004530181474101513,-0.01316130438802176,0.006616677885596873,0.012990150411112055,0.005114904164981808
309,-0.006366573098045753,-0.014475804262901574,0.005199373740649769,0.0094107746576626,0.0033106033679933316
310,-0.009080510346042535,-0.015485643792227442,0.0028762232937660556,0.005496664861390129,0.0014880277337885241
311,-0.01115184168109408,-0.015546857718736092,0.0015354655084384215,0.003202421867846911,0.00035644843947717724
312,-0.012420993474330075,-0.014613300398018454,0.0016751956577041325,0.001527120488198743,0.00013115996275922
313,-0.01335367779236266,-0.012796046401978812,0.002355350058086272,-0.0014792840379443022,0.0011373012085263646
314,-0.013621406383521247,-0.010369758902899266,0.002587580215482691,-0.00519544266375478,0.003050227836717755
315,-0.013171505808842061,-0.008618345472666216,0.001712803546738843,-0.007709494232336675,0.0037414769303172712
316,-0.012568186393922496,-0.008477568469113062,-0.000786135881219746,-0.008424970647030856,0.0018760617409096295
317,-0.012172735286662626,-0.008874634721565265,-0.004984292772154729,-0.008516076072547165,-0.0006729776814444631
318,-0.011900346269001704,-0.008342974765131303,-0.009477622715892961,-0.008946813421576601,-0.0018672984741871775
319,-0.011498700689357268,-0.006864992146144622,-0.012082474359723528,-0.009469580032961177,-0.0018739067761681745
320,-0.011002193038688155,-0.004946833560218411,-0.012550489708393134,-0.010437299407070944,-0.0010461584219300583
321,-0.010503514774510583,-0.003450859753957919,-0.012888301087130228,-0.012438575953322427,-0.0005054779256973596
322,-0.009847726961015569,-0.0037813251697221125,-0.014577631976901421,-0.014900641925217535,-0.002795668472212316
323,-0.008958290224113735,-0.006205969822500921,-0.017359354810805264,-0.01768320930995106,-0.009101382940099108
324,-0.008552517927847851,-0.009230457377570627,-0.016925621667748643,-0.01817222734686074,-0.013423573383174124
325,-0.009253801310786361,-0.011103786380979676,-0.015840474462747042,-0.019268918261125267,-0.014471881992421385
326,-0.010437837719254116,-0.011490960505190348,-0.01556816537017783,-0.020729994236045744,-0.01346287991676954
327,-0.011385555799423746,-0.011363593537305523,-0.013748808667179983,-0.019210017982723895,-0.011075098135068162
328,-0.012122435507553238,-0.011567065873231391,-0.012602492812119786,-0.01745634832460851,-0.010110611731807603
329,-0.012912710543824226,-0.011939370428023352,-0.011744924410410848,-0.015861541687308797,-0.008817230674872861
330,-0.013980470767698728,-0.011816386798109386,-0.00898457075534953,-0.01363393832564829,-0.005437240994595833
331,-0.015304537468400253,-0.011407591853502016,-0.0038724656075743813,-0.010933657987444537,-0.0013482612392699525
332,-0.01594836652681306,-0.01110241999800364,0.0005069893172054172,-0.008696280067774778,0.0005694361731044535
333,-0.014907982228316043,-0.010277011708980661,0.0033040264735163163,-0.005422275456719005,0.001994226271199645
334,-0.012396376331554538,-0.008749587600003,0.004708440868688486,-0.0014488609547243362,0.0038535179455729896
335,-0.009562035376984197,-0.0075124651711149905,0.004616147354207583,0.0012566274622579678,0.004233063419009648
336,-0.007278356380613948,-0.00702829263482433,0.004581689710184519,0.0036756068929273684,0.004059784611025466
337,-0.0057425331850294165,-0.006943297489961617,0.00450173143479376,0.006158742668621792,0.003893377812856373
338,-0.0051685126079848214,-0.007070073982396949,0.0047654575135121415,0.008832497804491671,0.004618152888774687
339,-0.00560177440478352,-0.007528834006604439,0.006336580661834547,0.011781034869928712,0.0073266331037191825
340,-0.006668887451151485,-0.00834549298659426,0.004927137170904778,0.010399610982988501,0.006191682576623593
341,-0.007535987656652615,-0.009107915920317976,0.002467860935078866,0.00716596874369389,0.002452230825650086
342,-0.007487979580139887,-0.00924873583186839,0.000990406520168213,0.004915899950385057,-0.0009624245085491396
343,-0.007043911627306946,-0.008701621400240134,-0.0006413575512910374,0.002484667775212643,-0.004294153179592555
344,-0.0068859238897256226,-0.00800634411628378,-0.0006311526723214241,0.0013215401234898238,-0.005322164450654204
345,-0.007096513116200533,-0.007228952598987256,-0.0008675743766101974,-8.130539780967818e-05,-0.005270656656706605
346,-0.008178412421897135,-0.006079552305595299,-0.0034272717800725495,-0.0033241287631642752,-0.005267656029608463
347,-0.009703340486328503,-0.004587320683841782,-0.006861131248810564,-0.006824063678964291,-0.005226890934322073
348,-0.010135168075730805,-0.0032459154975894625,-0.0071379196271971045,-0.006440975491714163,-0.003689884158421378
349,-0.00930965752950504,-0.00260169520782907,-0.005289117510636771,-0.0035569469076841345,-0.00245833165783962
350,-0.008041209474074815,-0.002124479175850373,-0.0031829836189002335,-0.0011359662188981433,-0.0015675077661023756
351,-0.007303325964898667,-0.001514743647842602,-0.0005359607429032282,-4.600933224939547e-05,0.0005724724310058225
352,-0.008037541277728991,-0.001557537454503817,0.001351154029374279,-0.0014234209859009252,0.001630637843732324
353,-0.009986470065375383,-0.0023173776965530824,0.002494113382762539,-0.0027645178783162606,0.0014944552081919038
354,-0.012117753774966456,-0.0029718913193194007,0.0029306493856252145,-0.001712707794858659,0.001754362271404085
355,-0.013539944687665813,-0.0034853524200416388,0.0034067514601594405,0.0017236002576458101,0.0028383732011584765
356,-0.013757144411176947,-0.004669438939489746,0.002495359278863391,0.0036396419316531542,0.0020678704635167765
357,-0.01304246143766647,-0.006255640802500207,0.0017554500922712204,0.004940553684186207,8.728820795272197e-06
358,-0.012249261859706904,-0.007057881878859283,0.0017062008773814604,0.005698525349105948,-0.0010848598128547176
359,-0.012442891827504148,-0.00689415883054798,0.0009763595971514852,0.003724004451357261,-0.00026613195674971273
360,-0.013966460423267012,-0.006331832770343519,0.0013601761888721012,0.0016769790876510352,0.0029816951852945166
361,-0.01603726685555293,-0.006241552757797648,0.0018779348869833513,0.0004140544648884274,0.005346797741838344
362,-0.0181424674306689,-0.007355059185068525,0.00051403198819784,-0.0011671270335176388,0.004408998017319923
363,-0.019976118146251436,-0.008878740624776936,-0.0022368203808180837,-0.003428188701906518,0.001826293468346652
364,-0.020983331406190027,-0.009667104000199789,-0.003036892720594851,-0.003976530442083633,0.0003252304335082298
365,-0.021707852288320794,-0.010175413435781053,-0.0019785778371358546,-0.003311064843879954,-0.0008594558723326913
366,-0.0231414030658892,-0.010955669492610193,-0.0012337936386010158,-0.0031130416227385005,-0.003065883172282053
367,-0.025271786703711163,-0.010755973509636753,-0.0013181129700877547,-0.00338269963290477,-0.003745521975597238
368,-0.027407003877699922,-0.008764377984768399,-0.0023241837202848037,-0.0046234668788637835,-0.0007380632199186966
369,-0.02866359941722716,-0.006071456036066196,-0.0026397148871606917,-0.005598792858435114,0.0045263681093894005
370,-0.02860717568033244,-0.003690928938552818,-0.001736680911317487,-0.005659109475403243,0.008919434534463897
371,-0.027304416232574596,-0.0023166849967531126,-0.0006564851645660801,-0.005270268684907713,0.009921757768930856
372,-0.025531638773671154,-0.0028047324587399465,-6.593118813342132e-05,-0.004682559695792291,0.0070736378398779725
373,-0.02410534929488062,-0.004812708598921423,-0.0010488611234260338,-0.005060642256776829,0.0022030466504013913
374,-0.022220442230836152,-0.006770106267604617,-0.0033428135896042656,-0.005088835028988371,-0.0024668407785063953
375,-0.0186325479955727,-0.007678302499202281,-0.003905163409902834,-0.0016789922495840824,-0.006129941217687542
376,-0.013990203476394465,-0.008102235447257989,-0.0006232498777819203,0.005377342606670108,-0.009117133778859228
377,-0.010423548319950083,-0.009023458283032328,0.004404218758537605,0.01308328498804712,-0.01184440829532116
378,-0.009100273726140902,-0.009498816595632937,0.0074612894107014835,0.017578731583363656,-0.013024804123461443
379,-0.009382975752493763,-0.00776407961374784,0.007016490948480308,0.017273665390136063,-0.011030719617503723
380,-0.010477290797498985,-0.004141224742093159,0.003959905449847935,0.012998016977476316,-0.006853148142024064
381,-0.012359077515158667,-0.0003664734236505777,0.0005236041317662003,0.006902748926059088,-0.0026263595670166767
382,-0.014671736474704341,0.0025562802683027895,-0.00109642004962912,0.0012258178448526162,0.0008323323533590714
383,-0.017146761907832965,0.0046406601593253025,-0.0005325974326901545,-0.0030655927071101944,0.004125345228456059
384,-0.0196203481217148,0.006312310405367449,-0.00037011301382770985,-0.006654268312323746,0.0059599434430781684
385,-0.020885249441277745,0.007686270228041952,0.0005554684197054805,-0.00846619524003866,0.008567619970478824
386,-0.020322582157391942,0.008258875089162183,0.0002896110695837204,-0.008926502148310948,0.008323446120346467
387,-0.018482305780692092,0.007989080872190664,-0.00143751364076093,-0.00826010696061758,0.004718736421223373
388,-0.016403553140135665,0.007263053752759557,-0.0027765585429462085,-0.0062891290206476425,0.0014509763824583147
389,-0.01502904175675013,0.006273848732415626,-0.0047532196559373465,-0.00522985095474958,-0.0007308668156103971
390,-0.014014350923971323,0.005732763991891951,-0.0061839422312738816,-0.004611039149435982,-0.0013774651944705371
391,-0.012835652610739188,0.006259096240520163,-0.004451847187857924,-0.0023702196689871194,0.000429703977515515
392,-0.011975405239986235,0.006917568279079792,-0.0015903825121782868,8.377120138235229e-05,0.0016144302836150547
393,-0.011660229992548603,0.0063025558008358235,0.0013746258150216584,0.0026235259007130027,0.00066077339741069
394,-0.011239926335274594,0.00474265496286121,0.004557054288430425,0.005904795235292223,-0.0007460600462113869
395,-0.010300297258708426,0.003728287950893097,0.007121649062863211,0.00874087486236543,-0.0006543990554599025
396,-0.009201989236193095,0.0035079410632717378,0.0072153696120188255,0.00910394902144208,-0.00033378875485138925
397,-0.00802743275075821,0.0032182402783762017,0.005624520547325201,0.008040638851057175,-0.0008068264912387215
398,-0.006562968818474973,0.0025360631932308565,0.004215698197710908,0.007881297298034792,-0.001734247178183425
399,-0.005608918102999133,0.0014702061206711915,0.0036390613776268463,0.0088614961216884,-0.0028531362421541978
400,-0.005517496674956964,0.00047265152462668296,0.004326764506276801,0.01008817041291718,-0.0028207997165768588
401,-0.005673373174883207,0.0006471230413633624,0.00525381349760401,0.009899934409807472,-0.0004536103290038716
402,-0.006247546662257441,0.0022787061799196054,0.00546938558906598,0.007137007597954247,0.00412650252760509
403,-0.007623386948941284,0.003885581729219975,0.005157592148931958,0.0023680890552919215,0.008778362214641698
404,-0.009034862181856606,0.003917067324645162,0.003131984919424243,-0.003151585007083856,0.00858301907327118
405,-0.009011354803490294,0.002677246762595713,0.00014480114916453306,-0.007067293075813992,0.003521403708707033
406,-0.007369954720503048,0.001289120435709934,-0.003722181806536239,-0.009118809261288687,-0.0036799388139645557
407,-0.00513653111328823,8.371017872602551e-05,-0.009070119410688455,-0.010931706662930888,-0.01117450892254132
408,-0.0029427484032455643,-0.0009659232251586522,-0.013524574025395107,-0.012741117272072668,-0.016813522095375476
409,-0.0015353210043996994,-0.0021155836024513938,-0.015962503208470476,-0.014519151370713815,-0.02123339469155332
410,-0.0017408639297128725,-0.003880216687259509,-0.01724251692732282,-0.016545664993537983,-0.025626871873034064
411,-0.002990224512502673,-0.005692852646625903,-0.017409579844596457,-0.01858823203982728,-0.029226284932098744
412,-0.003643457408031717,-0.006085105244042063,-0.015106775900681935,-0.019343482921526,-0.029891216957845527
413,-0.003155015353542631,-0.004436916944894786,-0.011902561049726116,-0.019043007613607933,-0.028061462622355794
414,-0.0023150838356986686,-0.0017604363646947763,-0.01101197332919819,-0.01955958583228469,-0.02625339668713911
415,-0.001230209487004156,0.0003547436612465611,-0.012732371451781358,-0.021221021502635284,-0.026690223046751296
416,0.0007743572924338824,0.001315100270141197,-0.015029307724398571,-0.02266757944555796,-0.029899411752602377
417,0.0036591388974319475,0.0015425590652265524,-0.015638838427983283,-0.022383023122121724,-0.034100995457147926
418,0.006433155252466489,0.0013550113181630317,-0.014415912474897699,-0.020140848962488092,-0.03832107863897173
419,0.008256977262131312,0.0010030304292567628,-0.013340025667608172,-0.01760809594286997,-0.04247641475276577
420,0.009111725675930599,0.0011516190173218228,-0.010610463781613715,-0.013252969381538584,-0.04193191107966274
421,0.008932062797386698,0.0018170627559539166,-0.008842194202705551,-0.010382875907451194,-0.03874348627508602
422,0.007426307993286956,0.002159632868638736,-0.009028440568338734,-0.010237522231463974,-0.034806635141475986
423,0.00544834662545858,0.002197151678559119,-0.008209049433847756,-0.009412016637565577,-0.0286016276096198
424,0.004520739806007733,0.002698094704057409,-0.0068083001384799105,-0.008042055320598585,-0.022892717330301637
425,0.004814508314834134,0.0033954895139024282,-0.004205613408755973,-0.00557097937266155,-0.018229100708074722
426,0.005655555546509433,0.0035413774570148553,-0.0009654928606098592,-0.0020117610937442566,-0.014751388520661733
427,0.006875386525085406,0.0031783954044671252,0.0015791959380441203,0.0018753741348783084,-0.012718545565850734
428,0.008691120493275289,0.002696602874648061,0.00225042823801175,0.004229118891991237,-0.012701571148478355
429,0.011060109978337524,0.002496957234760889,0.0023617025795575593,0.005752827017032753,-0.012400091917715607
430,0.012784577977750913,0.0029347586709261866,0.0018105975339539227,0.006153797938710457,-0.010152980656992319
431,0.012908248382901114,0.004155291427067343,0.00035449233803386737,0.004381218987934984,-0.006136741155629106
432,0.011743409910010763,0.005535557678879608,0.0006521772860995095,0.0024823784727831776,-0.00015404515799721102
433,0.009682448842053822,0.006031425876241094,0.0019951528328857075,0.0005143849598191162,0.004877756175831882
434,0.007663137785654317,0.00594623747544599,0.002823222479401894,-0.001216680407363393,0.007636296977091154
435,0.006993181015886646,0.006330373266416144,0.003193563498008587,-0.0010930462017305033,0.009510292010778427
436,0.007432114654242581,0.007064434330785577,0.002166260153130634,-0.0004274727448412415,0.008489803835703462
437,0.007489404396876097,0.007602754992948649,0.00027229223357753366,-0.0001567832510124113,0.005603605851269554
438,0.006689989655720277,0.008389227194958647,-0.0012458217370847453,-0.0007221994304576186,0.004065956577886077
439,0.005882618384434064,0.010045559539584947,-0.0013255854293614591,-0.001300722514538918,0.005267806539951147
440,0.005501186108067883,0.012052528278241032,0.00040173717378893696,-0.00011891242262054684,0.008978688584568042
441,0.004936459193457525,0.013272798869754037,0.0017061950053422006,0.001120695285555389,0.011545377233789554
442,0.003703435075247917,0.013181984131034448,0.0007178156693035239,0.0003732394323722889,0.010265087380410777
443,0.0023444045439258267,0.012293257248293952,-0.002192311494614874,-0.0016888297089900782,0.005924668458894847
444,0.0020874320308519522,0.011983032870353471,-0.005038931161510495,-0.0027617693290895116,0.0018361955678474384
445,0.0034391437274089577,0.013206749180274657,-0.006567838938691375,-0.002621988292742059,-0.001002187720478985
446,0.005474310998194902,0.015186461626636654,-0.006206914554928973,-0.001902887222476669,-0.0026107021358337127
447,0.00714817306117535,0.016348836561010337,-0.004115314813291861,-0.0008970249558612417,-0.002971362881589332
448,0.008100560454747389,0.016373442503190023,-0.0027094143117889695,-0.0014660707301934485,-0.004250813237828337
449,0.008591462647918206,0.01634270331953299,-0.0005090369902563648,-0.0016642394924055507,-0.003983653842223685
450,0.008822449646968213,0.0166435693226556,0.0010633471695726045,-0.0016309106856722334,-0.0035127384043752105
451,0.008693721133358591,0.016738180018055524,0.0015946788831143965,-0.0016794233625642672,-0.0034333175412455132
452,0.008611794102224988,0.01660296982275006,0.0017270926914141095,-0.0012583928541269169,-0.0015891693429135757
453,0.008713968201041174,0.016015568339052343,0.0013779299107873502,-0.0005425843694940691,0.0005365767104999447
454,0.008309378514898305,0.014319566898006621,0.000444529148850658,0.00015762599351082753,0.000841114684729219
455,0.007302645985965458,0.01209869475250618,-5.5546815127804427e-05,0.0010809193364323187,0.0007125399515844123
456,0.006703720641981578,0.01077870056207938,0.0006380606314903619,0.00253522260794665,0.0011495484749420302
457,0.006844180468952916,0.010292472680986304,0.0021563398117410647,0.004556860753007417,0.0017635313867539304
458,0.0067788454793084015,0.009475842404243076,0.0032228408554910858,0.005608790725946283,0.0014380615694292427
459,0.00610985306622825,0.008472876088705627,0.0034661009025434035,0.004745362220264257,0.0007282596894350942
460,0.005251161063604912,0.008241425520228126,0.0032216022606502445,0.0025472429993737126,0.0003778082320557909
461,0.004279003717517318,0.008731087031114968,0.002842074114662503,0.0004964469646899579,0.0005647979882839996
462,0.0029442042344926668,0.009384152461851751,0.0024003477895467853,-0.0007509368637660719,0.0006838564617981087
463,0.0011639093737646111,0.010074946930065816,0.0022701244532815482,-0.0012931554607361249,0.0007191535586882582
464,-0.0005340248076270531,0.010937009120571052,0.0032296150597051414,-0.0006744576273611333,0.0016701346088179403
465,-0.0018068819735762409,0.011604025202293427,0.004440586243417986,0.0003494321552413901,0.0029080230475867623
466,-0.0030784521610885854,0.011457486126787328,0.004073703727925216,-2.520430810477762e-05,0.0034704195700196987
467,-0.0044122582431768064,0.01054622291817295,0.0017391898840670036,-0.0019634379239397166,0.0031291712377372566
468,-0.005523357941470163,0.008926864747221505,-0.0018564099178419744,-0.0045495356833994876,0.0019559603254323114
469,-0.006151427111323873,0.006841340282440064,-0.00531074734666344,-0.006235950295592731,-8.411267072379054e-05
470,-0.006224281885265541,0.004992595628673732,-0.007926555901681115,-0.006648289642374287,-0.0021413679290941063
471,-0.0058374984266157766,0.0034509340418203234,-0.009307908681945323,-0.005792939922930749,-0.0036933446348890336
472,-0.004538369760892893,0.0023917338419626286,-0.008144073079216989,-0.0026255560529051475,-0.004758968542621954
473,-0.002063641197302164,0.0024625171421805733,-0.0042700557754517116,0.0022799297607410183,-0.004374687156083901
474,0.0005771339230676964,0.003347896116872067,0.0002055529532065192,0.006443499498213776,-0.002684720505203714
475,0.001996376591502753,0.0038587217520475448,0.0027719671305873415,0.007968783381672872,-0.0010503094926831479
476,0.002037048045058006,0.0034313284389499953,0.0030196739895054035,0.007274074272303567,-0.0008397716709971867
477,0.0016254373514279603,0.0029457171536171824,0.0023805956142496526,0.005720110694217837,-0.0015560734933973053
478,0.001316004692294411,0.0035331817672490514,0.00216351354137494,0.00436881244278293,-0.0016667485790378962
479,0.0010278701580913733,0.004907531219726506,0.0024622497367272956,0.0034170523614902434,-0.0011320478961650607
480,0.0008867079330266253,0.00621026997987066,0.002780293973740051,0.0022601145422803384,-0.0005562236138044999
481,0.0010491326159336523,0.007214533551169871,0.0026869472035858594,0.0006699658584369489,0.00011529435159950188
482,0.0010588326159149534,0.0078162092473929,0.0018878433317110167,-0.0011120231794256071,0.0015722753885062956
483,0.0007350414091143623,0.008043173529797203,0.0005610996728283591,-0.0025111214687929813,0.003753498291694843
484,0.0004938361415109891,0.008088204058960657,-0.000781071496304984,-0.002589971768853941,0.004742931047670452
485,0.0004932601046607072,0.007674706762432928,-0.0020943428909582376,-0.0019340838048265004,0.004184598210581782
486,0.0004938504260108361,0.006694217312670792,-0.003240276540610103,-0.0013215240153841388,0.002776162256688148
487,8.134453562282918e-05,0.00576904278002404,-0.0039103495298900125,-0.0012005431015460687,0.0011234037475040524
488,-0.0007430931064850852,0.005314895065415948,-0.003711562429244996,-0.0015687198309892322,-0.00010248333909288814
489,-0.001886867109394521,0.005101123523605421,-0.002270632631558738,-0.0014874230258919915,-0.001354791276955716
490,-0.003901303503955601,0.004685706386370956,-0.0004316830738072145,-0.001577081337959644,-0.00325339984050051
491,-0.006215257576791093,0.004458310174360738,0.001057991277326324,-0.002282043754467843,-0.0052789332138087185
492,-0.0066665566593432715,0.005801050321481698,0.002618748162799688,-0.0023445908532115406,-0.005316681631289439
493,-0.00525480244305154,0.0082782810978772,0.003793126340502193,-0.001894995581116342,-0.0035641495652737713
494,-0.0038579739130150744,0.010131472529905377,0.0035767264468382558,-0.002215546888581096,-0.0018354099225983277
495,-0.0031411825081473135,0.011227255039200747,0.0027163849674841332,-0.002736271653573202,-8.051369955123601e-05
496,-0.0032317194053879277,0.011758737144040575,0.002229069937682563,-0.002642973858854902,0.0017907417734649156
497,-0.003921314337775266,0.011421257739515946,0.0018468658746443724,-0.0020869952168830574,0.003205940742840311
498,-0.004665392750362435,0.010375236269509612,0.0011621809598210142,-0.001071772667298403,0.0035870788453471266
499,-0.005593689434692224,0.008706886198832314,0.00022942882535608052,0.0003226988679174038,0.002469522989040996
500,-0.006965272786322305,0.006586905394950372,-0.0006062820608918292,0.001203834699413776,0.0004556755638729015
501,-0.00824638714492284,0.005255653245331763,-0.001234574220501881,0.0020647527208251847,-0.0006805182801602039
502,-0.008779193278432103,0.005482538577271608,-0.0014396334744455146,0.002920906006136384,-0.0002134340125100854
503,-0.008706999411628072,0.006514780221373463,-0.0010393046636472713,0.0032404787937493217,0.0010708329140841507
504,-0.008461467568049788,0.007584296948981473,-0.00045288480914960287,0.0035294191053419064,0.002195319502197956
505,-0.008232850748945792,0.00837546295471359,-0.0003788711595149363,0.003125283965972795,0.0023068095227588787
506,-0.007979199990329824,0.008731119471237335,-0.0009040453515709739,0.0014880334675313437,0.0012605281995547032
507,-0.0074130180469049005,0.009001701991150622,-0.0010304449588197523,1.8926784723000357e-05,-2.3190727824266808e-05
508,-0.006888130407932421,0.00951051768551608,-0.0007680200987530547,3.081164799181032e-05,-0.000623504292195925
509,-0.007199381096571943,0.010043350132212196,-0.0012380903754911003,0.00024258596872314778,-0.0005098672240752117
510,-0.008375586926849098,0.010215079104110928,-0.0024111536631641404,-0.0003721902581715836,-0.00039559496887858265
511,-0.010081976891377792,0.009561310137645846,-0.0036059607656798993,-0.0016759739635743435,-0.0009745768989901002
512,-0.011433662687229975,0.008538855724928577,-0.003689664190936085,-0.00281806102102439,-0.001278024962522385
513,-0.011436382469821293,0.008269920560383174,-0.003028653193605858,-0.0037938274428651764,-0.0008404722954574072
514,-0.01029165025743795,0.009062068850996077,-0.0015191433380276477,-0.004131533001904807,0.000514432226236014
515,-0.00830679606226539,0.0108382466827946,0.00042979942063348873,-0.0038114359388826914,0.002212696272460459
516,-0.005918176313640414,0.013107497979617513,0.001549705952471835,-0.0006057617623856687,0.004526834217045416
517,-0.00393755070701004,0.014678275940790624,0.0018183332938274278,0.0035017463986163357,0.006290917937739734
518,-0.0024715048714632373,0.014831434045139792,0.0019364212865928322,0.007607262943142373,0.005789600967864916
519,-0.0015843895436488673,0.01419034443449233,0.001551069399270161,0.01215931646704382,0.003567563113811593
520,-0.0015457382570066445,0.01360409266963649,0.0006592225362419241,0.01510246767419889,0.0009349196919118266
521,-0.0018996043492771003,0.01302189709933356,-0.00018879846012924293,0.017448704050293053,-0.0015255704840091366
522,-0.0019474198071000545,0.012030444733188737,-8.871384091245111e-05,0.020940502622046782,-0.003869098575543942
523,-0.0021210621986995854,0.010539827547556644,0.0009882221826298392,0.0250065121692346,-0.006223461352562128
524,-0.003353005060370908,0.008989104935778099,0.0025670638873691947,0.027489442720285497,-0.008212887957615777
525,-0.0051161875482692324,0.007972684099856471,0.0038723587111448125,0.02915485255025615,-0.00910883113160788
526,-0.006158663456907938,0.0076714558821275045,0.004416718630370215,0.0313159602850303,-0.008807157558673371
527,-0.00652379826851464,0.008085252647333618,0.004000501898025686,0.033879531908340525,-0.00756418414053978
528,-0.006559444730328602,0.009497302576167875,0.0031155720886857355,0.03805993551812934,-0.005385748740552507
529,-0.006335594883300663,0.011673159072280137,0.0028575608380274386,0.04363757171892711,-0.002930937922592821
530,-0.006557827298812534,0.013499159709312687,0.0026488683044215114,0.04850019638297726,-0.000907270530754775
531,-0.007622907340059749,0.01443149174699865,0.0014336930061311852,0.051529441185384835,0.0008325871730398157
532,-0.00892866921993784,0.015162908733199077,0.0013390424289505517,0.048158963158170615,0.0014903775687582124
533,-0.009848653924850178,0.016236621230371825,0.0019334506282384664,0.042909821372219555,0.0023555925896868724
534,-0.010593875033411491,0.01703333124479581,0.002800175924789827,0.038729993566656615,0.003385549633094742
535,-0.011046535332504772,0.017297128828320275,0.005170606542799322,0.033676122163059555,0.0036561931975987506
536,-0.010444884955031954,0.01760711103656409,0.008542502659526878,0.03082976863241601,0.004964238832388501
537,-0.009456366387626796,0.017530980908422297,0.012257246402689615,0.02830177242173083,0.006691428247184619
538,-0.00924882136999844,0.016262378512632535,0.015446437131251057,0.024105285023039772,0.006696899120688156
539,-0.009597156340394625,0.014483368703902834,0.018392478645152116,0.019807100043086754,0.0050610306172919105
540,-0.009773636527335506,0.013716333743658542,0.021298147966566695,0.018812365083617028,0.003924136920790323
541,-0.009416601297279963,0.014492284382301565,0.024868874307842993,0.019894836508705837,0.0033003111287554076
542,-0.008632822095303243,0.01613055736727126,0.028971702803428007,0.021435923995823825,0.002215051864071312
543,-0.007379270032748689,0.017736948305646625,0.03272427550654308,0.023557342556138904,0.0004180842104504726
544,-0.005380520149477181,0.01884395961307481,0.03653262155211984,0.024103945329724333,-0.002644268127869394
545,-0.0029745312569559455,0.01947039957108048,0.04045928356923999,0.023430888163684983,-0.0058989366268881694
546,-0.0012555035374583836,0.019393807986545476,0.044253269110483676,0.022035503719051854,-0.008058336892449829
547,-0.0010197115158166999,0.018338194990755615,0.047471676643466874,0.018713907571901965,-0.009263389117917457
548,-0.0014807944925707376,0.016653460415852715,0.045879473631589854,0.016626538621835957,-0.007151706335909286
549,-0.001801259427411698,0.014770480682222272,0.042862232742353804,0.015549096956630969,-0.0034000481464780004
550,-0.002373671253274955,0.013274931945529025,0.040268295137527554,0.013731918849359561,0.0004934744951952035
551,-0.003284299997922521,0.012853401910425987,0.03631598091565577,0.011518330273713644,0.005459407201935709
552,-0.003967567601413879,0.013457595806914007,0.034262584495010656,0.008704810035218063,0.010033778178206986
553,-0.004141589150766977,0.014328412010755688,0.033539555662441344,0.007014882683372494,0.014160172524135855
554,-0.0037437638928614235,0.014841634164512788,0.031792017563744876,0.00700268134393023,0.018532382611395087
555,-0.002905723895671261,0.014623034266417602,0.02782743147462973,0.007031025360767856,0.022793692559688165
556,-0.0018299899063187082,0.013566827759071361,0.023286282873719776,0.0047928061563687705,0.02489597362689668
557,-0.0006868600028682043,0.012085766237584988,0.018366864983515287,0.0016184385511638752,0.025447699671147128
558,4.582760168660907e-05,0.010228934225106732,0.013710738136007565,-0.0011340138746564457,0.02508921034795397
559,1.6279713329554345e-05,0.00761583947479615,0.010325054494040949,-0.0037888853917881103,0.02357670272934499
560,-0.0004146164840781887,0.004500673809896182,0.006733742201389106,-0.005524111903696198,0.022806362373346014
561,-0.0005541809637947244,0.0015948858128977898,0.00372097992784492,-0.0062603297838121985,0.023273845878001204
562,-0.00028786885723509247,-0.0006411924373388178,0.0015788084024289115,-0.00635417814909925,0.024498740027241495
563,0.00011024484098246117,-0.0018894581563534873,-0.0008560534534997298,-0.006523806990965378,0.02659334006878356
564,0.0003914276786796337,-0.0021946375541720387,-0.001607415691779029,-0.007412669227683498,0.024813868410043235
565,0.0006307364875634307,-0.001774762272832462,-0.0020943907150432106,-0.00855483431847708,0.021205811276861775
566,0.001185032428889158,-0.0008005956456829013,-0.0030287829607908746,-0.008663334113261745,0.01774470324470754
567,0.0018410536670026643,0.0001614233018384435,-0.0028788192532010954,-0.007928165572514701,0.013906333491220332
568,0.0021065747445376056,0.0009300488953361063,-0.002563472877024361,-0.008184605937281353,0.013491113168607825
569,0.0024345614204250633,0.0020313451181454027,-0.0017368375661080257,-0.009474190959450278,0.014834505798660106
570,0.0034247739024484865,0.003253469339714151,-0.00039618456575895596,-0.010726844236553042,0.014480246810622386
571,0.004480646490849877,0.003885023811020464,0.0003515256761305256,-0.012020558469650154,0.01271491313142141
572,0.004563928480442004,0.0036891675353866917,-0.0012672072765468779,-0.013662317687935662,0.01213360919483598
573,0.003614198111408235,0.002977609527542795,-0.0046288538944632895,-0.01567891688283818,0.01068795471526809
574,0.0026131508341431615,0.002634094470413539,-0.008473807131274883,-0.018049752063199826,0.007901325830371593
575,0.002141179236959814,0.0029493609866693155,-0.012479186458222814,-0.02099389615759717,0.005525950672626711
576,0.0016168173119814676,0.0031370810559871666,-0.01608725508527044,-0.024604427526422574,0.0018994266260572551
577,0.0003683500107293922,0.002676730339868823,-0.019547782794139143,-0.027923186746019218,-0.0022578332348669734
578,-0.0013116435700289803,0.0016994106195490513,-0.0222883813997088,-0.03024865375124496,-0.006424690808842942
579,-0.0024580512002004844,0.0005061899591354119,-0.023694675635266865,-0.031833421904816604,-0.011340344413632127
580,-0.002223040458015176,-0.00046301959123096773,-0.023818024147386218,-0.032236248271395485,-0.014689383650719827
581,-0.0009054381058225565,-0.0008844077660006475,-0.02340108396035443,-0.031424127431950326,-0.016768372491550367
582,0.0003145913704352891,-0.0003196136287619162,-0.023314704505847533,-0.030759746730273953,-0.017178158537521655
583,0.0005754961079489258,0.0010289472567950935,-0.023851326131569997,-0.03126165113679356,-0.01505041832465795
584,-8.950222751258517e-05,0.0016554191088755743,-0.025035181932984825,-0.032534508092483636,-0.013710539905765453
585,-0.0009109192536383006,0.000741539948003721,-0.026778409833406618,-0.03356452433124564,-0.014360768412978543
586,-0.0016140366872223933,-0.0011558646924443839,-0.028861946582846222,-0.03434767381657166,-0.015876235940988144
587,-0.0021576789938662863,-0.0032489568332675777,-0.030122349956236152,-0.035090687347402706,-0.017429029004377577
588,-0.0020913313399190873,-0.004912719548152929,-0.02942349103408937,-0.035738593660874174,-0.019351099313223746
589,-0.0016235522978664005,-0.005922553649917013,-0.027343256614175897,-0.03656295493286241,-0.020725266450020135
590,-0.001096620894527947,-0.006153063056306885,-0.02523556469501252,-0.03723888623121602,-0.021338050335666412
591,-0.0005808859094577941,-0.005373389202958427,-0.02420857456800399,-0.03808842330376379,-0.021281026032433214
592,-0.0007853907664413653,-0.004047727964733115,-0.024503259536071735,-0.04015137771294536,-0.018955477943678887
593,-0.0023067130996945106,-0.002729676614917494,-0.02451323092508836,-0.042525664194058066,-0.01358495957371931
594,-0.004987035215793519,-0.001216422960413359,-0.021645387213448164,-0.043140774760240905,-0.0046805783882386594
595,-0.00783418719905604,0.00016230747531301,-0.014551257640923288,-0.04068716056122364,0.005775728879937713
596,-0.009310117618535042,-5.227066784028567e-05,-0.0051202451266873315,-0.03559500068288285,0.01444528794941881
597,-0.008950331790969962,-0.002659832741846704,0.0009054051675283652,-0.030381634474710366,0.014165182438902964
598,-0.007729875854424291,-0.006656455747758574,-0.0001988486308470999,-0.027864560861012903,0.005039759214578311
599,-0.006425626510387981,-0.010223974413228969,-0.007032958219062318,-0.029012642696926817,-0.005843464636772642
600,-0.004684208490375945,-0.01231216949075384,-0.01601296612507182,-0.032199291415464876,-0.015373154748652706
601,-0.0022089933501879782,-0.013516517164652837,-0.023984860221197224,-0.034837112764885686,-0.02143761166643257
602,0.0005390288367477204,-0.01466159898562464,-0.0296577149495179,-0.035396569323364796,-0.023229171247587634
603,0.0034441309851175332,-0.01551759035063584,-0.03178207356957096,-0.03310734539195021,-0.020881442412697983
604,0.006491247833399034,-0.016002668726588558,-0.0301459278496399,-0.028188016026585137,-0.01671089194477934
605,0.008909845792504242,-0.016388193326058578,-0.026560429001510823,-0.022842249962648283,-0.01168769600016758
606,0.010059813975143257,-0.016740339970238372,-0.023343204932012647,-0.019324968808524867,-0.006735112003091312
607,0.01021503104677855,-0.017021088120322807,-0.021524214458771056,-0.01763294086482584,-0.0031475417337517735
608,0.010204665404506513,-0.017043139276295388,-0.020389766167081245,-0.01654184501173211,0.00019415181890982322
609,0.011027896341013308,-0.016888911552002495,-0.019087948949221552,-0.015162645186137677,0.0030203440876978437
610,0.012898871615189274,-0.017031645136804677,-0.01703966376375928,-0.013248867221810897,0.004987656976433271
611,0.014965256182058264,-0.017483869850560975,-0.014331965009151472,-0.01104027728167006,0.007309466344232905
612,0.01677639424505863,-0.017458275203297912,-0.014817931834529351,-0.008808722399294849,0.006318314941340782
613,0.01834890975553324,-0.01656991372793684,-0.01673219179059709,-0.006596346874016369,0.005251883578795984
614,0.019580926865051623,-0.01526451250642026,-0.01810501976176744,-0.00439753264999209,0.006507084014352826
615,0.020771302749899936,-0.014306158208707946,-0.019892622834564187,-0.002054785829054363,0.0077265840823194576
616,0.022352438615083844,-0.014514800099190674,-0.02027621390438538,0.0008030975655975503,0.009509904168762351
617,0.024131961463930995,-0.016258301115922996,-0.02061404326945273,0.0038784544437023053,0.009247350645354846
618,0.02586532170620639,-0.0190618523580684,-0.022003440960810028,0.00679000148455646,0.00549071549998408
619,0.027256279308676218,-0.021939251975642553,-0.02393021114507802,0.009284377614772459,-0.00027984338154125703
620,0.02777034684510831,-0.023891011872052056,-0.025066661446570257,0.010452542238103178,-0.003906599112584145
621,0.027873079717017794,-0.02403967328563147,-0.026214161126671957,0.010792209571686358,-0.004510884658485306
622,0.027884758003426553,-0.022764628934133137,-0.027446800544901163,0.011810971124543263,-0.0027815882801113367
623,0.027433392773428145,-0.021306426403905183,-0.02831526538070522,0.013759128731224693,0.0004376347627922312
624,0.026546506227531543,-0.020290102190524305,-0.03055700017882176,0.016078633016846474,0.0025702240076806407
625,0.02514043351367089,-0.01997399197458519,-0.0337391939066503,0.01787437732927658,0.003695409285478168
626,0.023990421848953846,-0.02004243125451179,-0.03724971478785274,0.019118327053614513,0.003851788124035281
627,0.024279944899802473,-0.020281441049722265,-0.04147318911526855,0.020349387880091527,0.001982838482295342
628,0.02547511733071482,-0.02120409051980193,-0.042367223844571845,0.02090325216852351,-0.0007917784302037511
629,0.026316748924488306,-0.02248199887401458,-0.043050114014596005,0.020054010441205236,-0.0035819173212709374
630,0.026475274995540792,-0.023472905394861163,-0.04450696719464789,0.01870485576470297,-0.00511635763972273
631,0.026612659539385665,-0.024394130293591255,-0.04301542287077684,0.018863588959215888,-0.004627254913422621
632,0.027287351737954157,-0.02514548169551978,-0.040418168881492834,0.021351345279311828,-0.002510143497548657
633,0.028215121309809344,-0.02546255506054139,-0.03677071217182715,0.024721235779022587,0.000949432981500985
634,0.028808566227728007,-0.025829980648666425,-0.03229758605821954,0.02716872833750377,0.0037467487365757156
635,0.028881494334346246,-0.026775576002819716,-0.02842616995882598,0.02860639221801512,0.004021041805261362
636,0.028782430296632522,-0.02820445775803077,-0.027963069635297606,0.02986739003058446,0.001567163770019746
637,0.028497906566870086,-0.02978515121652926,-0.02976868191955301,0.030713363850472363,-0.0018196686052047088
638,0.02795408337514219,-0.030945608011888236,-0.03248096736297708,0.030709975302646866,-0.004955393049714488
639,0.027557586375720918,-0.03121910490064986,-0.03608760287346207,0.030135880126746374,-0.007442088434820861
640,0.02718317391051392,-0.030921430757554016,-0.03803509333791532,0.029322793007611904,-0.008109987663457146
641,0.026580855360258553,-0.030318645546481435,-0.03757215745394651,0.029112863823934243,-0.006432471251737698
642,0.026288579818024616,-0.029389715998002733,-0.034766770456056494,0.03034584674220655,-0.002595039979599286
643,0.026239277404453018,-0.028694366687391837,-0.03073894781131309,0.031987268508691886,0.0017235814630056645
644,0.02555841954338451,-0.028772682447311616,-0.029161733781551985,0.032085824337967576,0.003238656471130978
645,0.024453471301140634,-0.0290578265143691,-0.029940503403574653,0.030390141035038,0.0029656429530762543
646,0.02394871591094885,-0.028394079397540073,-0.031479247720131866,0.028234298831698937,0.0032410588782362977
647,0.024260517839171037,-0.02652582437147641,-0.03307099006151943,0.0265939227620253,0.00449822824276228
648,0.024396494588867498,-0.024580512736783824,-0.03387306152177703,0.025333264247488874,0.006230987482986635
649,0.02373671244288552,-0.023612371473442282,-0.03410200113690925,0.024412709251111636,0.006192282729162028
650,0.022904921969834,-0.023627066360860653,-0.0335422449994063,0.024269271985410713,0.0037560393293487844
651,0.022764961093650827,-0.023687258078036226,-0.03187961066839801,0.02503483530017376,0.0004998139347834349
652,0.0232752748942496,-0.022845683114750936,-0.029175389506798266,0.026037017669356413,-0.0016501798159690541
653,0.023688401179040662,-0.021029878552053405,-0.02726394924307314,0.026169325493302094,-0.0027399437919197384
654,0.023922424931800544,-0.018577627185741515,-0.026627052399168315,0.025263497898260216,-0.002796091271661546
655,0.023995043387794002,-0.01594737394723536,-0.026103025006679232,0.02392827617994472,-0.0016976521848656864
656,0.02343882770614862,-0.01359519260311891,-0.025419881479356678,0.022445488537109048,-0.00022819318170592986
657,0.022516861564152568,-0.011734358312835562,-0.024021080756706073,0.02133558639951902,0.0014662913198925879
658,0.021815406741641452,-0.010500254122604956,-0.02198435289907335,0.0212550518035832,0.002842258662554252
659,0.021288505859352776,-0.010089116608223868,-0.020422077664708042,0.021589616024791897,0.002746496710097812
660,0.020759447432847796,-0.010448294750165359,-0.020516173410139883,0.020848592739567823,0.0027788241554368453
661,0.019991186899255563,-0.011403571042369316,-0.022434894244834396,0.018559083841832993,0.0014718151743436962
662,0.018931578753949657,-0.012903494900637231,-0.025249770445401096,0.0156292623103011,-0.0015306834959940797
663,0.01795402285489862,-0.014458136945151598,-0.02767432806423393,0.01298458255376287,-0.004105351827863462
664,0.01748152489123339,-0.015237073448184478,-0.028345017217898304,0.011570643304722246,-0.005959778331187953
665,0.018062038518601695,-0.014838095330212464,-0.02677759419102335,0.012058569318930899,-0.0055533470881735415
666,0.019371152993948905,-0.013971361448164143,-0.024109450980473734,0.013510554656592275,-0.003018086206051392
667,0.02007580156907906,-0.013578725067354486,-0.0219021947374171,0.01422400043362585,-8.634632496082138e-06
668,0.019486083150474325,-0.013529453848295769,-0.021000867102704233,0.013150896999691413,0.001831405413161647
669,0.017578319985433462,-0.013443001186968874,-0.021837890778478555,0.01009178304843778,0.002725297641696831
670,0.014803540489693004,-0.013465928544752672,-0.024190292759887606,0.005800380648330223,0.002824302427546466
671,0.011900354192340472,-0.014066302951234746,-0.02731683329926549,0.0013776884254147,0.0017770024473944487
672,0.009085853143849333,-0.015393591547778513,-0.030637607621516138,-0.002894200474664997,0.0006023085037429957
673,0.006709528422266818,-0.016638036453097024,-0.033015352127573276,-0.006886841682974797,-6.642158472115979e-05
674,0.0055852437922102646,-0.016543047954400734,-0.032799119080817396,-0.009582211748466053,0.0006969796012364653
675,0.005567713808192089,-0.015292263346294877,-0.030033326062487684,-0.010772792436814041,0.002757884798612074
676,0.005684224028018697,-0.014458400557328372,-0.026812393796649337,-0.011841774741974393,0.001422724302683561
677,0.005702899300924257,-0.014634485747293952,-0.02471905585650988,-0.013174259479812205,-0.0027832011238790506
678,0.005984383431911279,-0.015001263284256081,-0.023797176911941484,-0.013719860002649457,-0.007715566616735595
679,0.006795081451693886,-0.014482892553559465,-0.023315560167324886,-0.013005426247613179,-0.012496469785630824
680,0.008169799317982882,-0.012830598583792135,-0.021900003306753783,-0.011268908378380784,-0.014916363097597899
681,0.009900220430620152,-0.010724203902272888,-0.018768256434404575,-0.009037496521341795,-0.016582973699582386
682,0.011700049382532683,-0.009006593485642162,-0.015026804932680408,-0.007170975685531653,-0.019710520962287866
683,0.013181398278088386,-0.008315345016368271,-0.012318752988649566,-0.0063561912876961045,-0.024309488983481398
684,0.01387971311840578,-0.008446991329248773,-0.011664194732833172,-0.007065559188654176,-0.027899328185620964
685,0.013861709515383912,-0.008332140128572882,-0.012956236470506468,-0.009004772771481803,-0.030634392022195582
686,0.013666995998055567,-0.007219330266527588,-0.015163209156346667,-0.011215322921889908,-0.03363984885553438
687,0.013320676508094402,-0.005302110790212913,-0.01714582012656841,-0.013594739164616424,-0.03642019623656025
688,0.012743859697941786,-0.003048306148449773,-0.01773416042925489,-0.01640561548553313,-0.03897085262573405
689,0.012291008775685926,-0.0007707095465942246,-0.017063718714524,-0.019525124515304908,-0.04090861800771795
690,0.012034560972947837,0.0008402926255383993,-0.016425166345720492,-0.022475556519235582,-0.04320804355313582
691,0.011950998347148845,0.0013688684837397283,-0.016053116339745786,-0.024322158890055894,-0.04716283708445436
692,0.012244981567553838,0.0018027821919363975,-0.0156804279288879,-0.02505084534911897,-0.04703813951753343
693,0.012183055588890577,0.0025655506460364437,-0.016368812342697873,-0.026155066995412087,-0.04472550364889229
694,0.010762889674077524,0.002881071159432835,-0.018786903041047156,-0.02810067215496481,-0.04297722843024824
695,0.00870635706653215,0.0034020625192260003,-0.021260986381419152,-0.029324129244706426,-0.03987923459081722
696,0.006900172245954181,0.004838913888156532,-0.022402972261521867,-0.02929125086905705,-0.03690430770723188
697,0.00503103286657139,0.006342542354404904,-0.02283449943941822,-0.02915118528685306,-0.03269282564447568
698,0.0035601425361784823,0.007522736225258251,-0.022954437967326057,-0.028722138735756856,-0.02668860322635307
699,0.0032058874384263084,0.00843987912029746,-0.022265200235251165,-0.02719896823862705,-0.020948440715162664
700,0.0032391232386267204,0.008814186092406253,-0.021141091563959644,-0.025697260570638075,-0.018737364682972605
701,0.0033814719040916054,0.009149585293964434,-0.02038262764130802,-0.025453901552321665,-0.01748058570863279
702,0.004288386473562872,0.010216365958541935,-0.01988176300005999,-0.025800499491945805,-0.014794340970996429
703,0.005450353967009553,0.011235389021917876,-0.019125885534113235,-0.025923499161050717,-0.012381122549882561
704,0.005715000178792212,0.011381692052170555,-0.01780281108528831,-0.026254128574185017,-0.009652992149718471
705,0.004869599714908504,0.011050812279866979,-0.01644243302399981,-0.027067179463097283,-0.007331074388881795
706,0.003593111522566025,0.010619738746841129,-0.015684019106560313,-0.0276914208132892,-0.005258313349634308
707,0.002572601865264545,0.010175229678886379,-0.014789623197420458,-0.02768093070787165,-0.0020120652715124535
708,0.0016364499053137217,0.00943299743519353,-0.013662753018385116,-0.02788124459984418,-7.884823183833443e-05
709,0.0005776067037761255,0.008687705497759388,-0.013579713543768497,-0.02899490247153277,0.0014604119649367614
710,-0.0004472564740118801,0.0089963626503217,-0.014899589089233585,-0.030617567213949443,0.003913630597397274
711,-0.0014980665441061657,0.010421995751786803,-0.01685182166272071,-0.03267828145200872,0.006285045627971876
712,-0.0020585739964406897,0.012110008408646598,-0.018176916183975985,-0.034666529403430804,0.00926329767689542
713,-0.001565405814432982,0.013382491985254107,-0.01809229276661212,-0.03529145848930153,0.011681477465845939
714,-0.0003746041471982895,0.014261787215779507,-0.01659113136016024,-0.03414160418665279,0.012563891519362066
715,0.000883804451975867,0.014887462302844857,-0.013774261415794523,-0.031521930920848804,0.0121851025499624
716,0.0016910836735185278,0.01489105367475472,-0.010334365797751918,-0.028286331829103277,0.011543137089497522
717,0.0021130748767475165,0.014413439972220707,-0.00718171575985369,-0.025425555765329844,0.010610185281154132
718,0.002392930662290637,0.01405248588736694,-0.004593204736913469,-0.023433833434817586,0.010380037162444311
719,0.0026066298306001196,0.013622857633296093,-0.0024911304358585266,-0.02245627967198977,0.01163165796109684
720,0.003184927343015721,0.01278519746732823,-0.000819618648214756,-0.022026171058631857,0.013261405391299661
721,0.0037951649023739526,0.011714886874240073,2.1318971205954192e-05,-0.02214637906232938,0.0151973163341418
722,0.003460148927588431,0.010831149043880326,-0.0003951361507392451,-0.023399269816818023,0.01692906547051932
723,0.0021249317534433446,0.010509117458894858,-0.0018087954471842766,-0.02559837999320519,0.017580241273054874
724,0.0002178224935622328,0.01081861574521547,-0.003703881621752079,-0.028208797174976163,0.017590957300905808
725,-0.0018454390835230755,0.01191086236300001,-0.005290359347835145,-0.030306382821675134,0.01849644549095383
726,-0.003230415239488098,0.013681189342453671,-0.005588801098491699,-0.03082068353940723,0.020639637341924207
727,-0.003641057411096217,0.015064825513190007,-0.0048354083137918885,-0.030340501048719215,0.022322284835794574
728,-0.004063868334462085,0.014937689393715495,-0.004404055967632736,-0.030704330035222483,0.02234882756442504
729,-0.005165012071982747,0.01357003751295162,-0.004867396305631279,-0.03250326625155188,0.02134941381692253
730,-0.006634475720836789,0.01220310751974744,-0.005650049211093848,-0.034424297433745726,0.02053790164765577
731,-0.008026806894234084,0.011600336953518177,-0.00585896009091022,-0.034781308198315326,0.020476130378806107
732,-0.0086628908516056,0.011837304369058204,-0.004592803852882661,-0.032774094044059725,0.021115123333864724
733,-0.008493585476653331,0.01225530756300682,-0.002035083791075205,-0.029564418896757347,0.021877109924291573
734,-0.008614236949778592,0.012271283594449156,0.00019519753358034032,-0.02762832122813175,0.022057512322038425
735,-0.00935941354936215,0.012172246499038418,0.0010333741749465107,-0.027693567794081702,0.021334736014420312
736,-0.01027017617933129,0.01178097398596784,0.0008959187449365791,-0.028702426800180668,0.01964545677862209
737,-0.011140961308275873,0.010913524309569376,0.0007317283295599085,-0.029520574037050985,0.018083493640283117
738,-0.011455217181150903,0.01058181120060788,0.0013748795223726558,-0.029033540637679243,0.018716318516736496
739,-0.010966589149488242,0.011312900032793076,0.0032356826578675358,-0.027169647982560042,0.021765746396220784
740,-0.010424354761216881,0.012471001263383642,0.006030652289968506,-0.02515732839329915,0.025304094488828456
741,-0.010073318272109508,0.013626836855700033,0.008925418649530305,-0.023583220698540155,0.02797226299613317
742,-0.009302022166433586,0.014672870027533754,0.0113183890331739,-0.022237056588085093,0.02950953251278157
743,-0.007852937509482688,0.015434953050982317,0.013536358230628966,-0.020806781147724687,0.03008831705489668
744,-0.006219559401044017,0.015752775827993337,0.015578338781874349,-0.01925035172379645,0.030076557015243578
745,-0.0055132501957114435,0.015194348466249914,0.016115761987329624,-0.018565122120157953,0.02914778456686367
746,-0.006074879684740188,0.013456917952646816,0.014765766471726923,-0.01882690938137565,0.027020428480574878
747,-0.00712305617444231,0.011004367186239681,0.01284841839373322,-0.018811548993561245,0.024613286604927034
748,-0.008196988226184764,0.008535147597640616,0.011159371560800874,-0.018493268265316356,0.022995895990916667
749,-0.008880366136189111,0.006424611573486056,0.009892541586871065,-0.017958544405326217,0.022678470736172872
750,-0.008939216299744309,0.004456002026483262,0.009441923414805792,-0.01668403522084634,0.023116405141612187
751,-0.009266667423900386,0.0024092643296577112,0.009450739847135051,-0.01554444352511967,0.022944219849609548
752,-0.010353878112820993,0.0011391190482258787,0.009118923290430483,-0.015754318617571927,0.02236436664862167
753,-0.01137492116531823,0.0015648939162154242,0.008589491861533492,-0.016773929037835256,0.02269027976963481
754,-0.011888602350668263,0.0033100164458036672,0.00819031870979574,-0.017607947184412637,0.02379059013012246
755,-0.012486878846728318,0.004971622907166553,0.007716827378540139,-0.018160538553775397,0.024113375114067123
756,-0.013175609654344852,0.005431667642726449,0.0073178397694301164,-0.01831816545845719,0.02271953622309692
757,-0.013679390511239557,0.004535641594047024,0.0069205701427500375,-0.018371207924377013,0.02035722146295345
758,-0.014505751980331444,0.0026285599214268514,0.006083606544203626,-0.019404955251353988,0.01828976391876422
759,-0.0157700706384907,0.00046818999960989853,0.005045593070873321,-0.02149944887532006,0.0170700733567933
760,-0.017010371853980202,-0.00113083264000257,0.004373081913023101,-0.023585142262419246,0.016561277012981546
761,-0.017842559917873476,-0.0018614377614351132,0.004635660108821013,-0.024875915770728854,0.016833230962253795
762,-0.018329735870356075,-0.002138079161565706,0.005827184726703937,-0.02550376925162833,0.017889389752778817
763,-0.0188447808515337,-0.0023689735076924032,0.007301059680155958,-0.025862783519165683,0.019375754599908906
764,-0.01966209408373457,-0.0026818361017328734,0.008673363451122773,-0.02601832655373864,0.020667936217091575
765,-0.02061862870394571,-0.003200081586044264,0.009417911905635689,-0.026322870057605984,0.02111394828541915
766,-0.021245442936815493,-0.0036321817010386897,0.008475188502571278,-0.02757985379141686,0.020894262433505357
767,-0.02181098999117389,-0.003664383525472016,0.005367495051754611,-0.030103664438948456,0.020292203150236734
768,-0.022717757001472837,-0.0031366437610325067,0.0012595549088655583,-0.03297423481293583,0.019356871413984643
769,-0.023520181644260573,-0.0020444750790037914,-0.0016976391602169035,-0.0347554251031946,0.01853442074764619
770,-0.02383114937494674,-0.0007848503206269954,-0.0027721257074263955,-0.03524431861022874,0.01850552932476376
771,-0.024132847561446596,5.313584055117629e-05,-0.0036921019629012138,-0.0356075040325354,0.019143648151501078
772,-0.025024836123235396,8.145401691843375e-05,-0.0057556275461859265,-0.03650314171833648,0.019512817117762846
773,-0.026286187068964215,-0.000509782923823122,-0.007897318002206364,-0.03705130832062083,0.019403180300669735
774,-0.027800608184726457,-0.001450255634650574,-0.008866902009979515,-0.036565616028403865,0.01911869471149827
775,-0.029547763104372907,-0.002543824490599957,-0.008201227844167438,-0.03518679503196537,0.01868303810495701
776,-0.030743004918762508,-0.00300649391580647,-0.005698345508783783,-0.0328629996042407,0.018476957722990243
777,-0.0307186494719353,-0.0016123003100343692,-0.0019552523833684826,-0.029977810081251586,0.019428725763786823
778,-0.029527733156504376,0.0013502730547247435,0.0018952612921017882,-0.027029671624450816,0.021155443042755344
779,-0.028097431540741756,0.003801107893755267,0.004692596736007244,-0.024472068083605154,0.022129029548799917
780,-0.02720051416448223,0.004786854040050842,0.0056427133150638645,-0.022672499092617343,0.022231455544875867
781,-0.026699900366810882,0.0048968416919931545,0.004773377653649793,-0.021177610671418882,0.022256491443612025
782,-0.02670804040419728,0.004927698253733093,0.0028654879155534576,-0.01984671910005556,0.023071913304702017
783,-0.02727679248047011,0.00574898957099422,0.001216495526678614,-0.019048204490612647,0.02540914919837084
784,-0.02775763393712546,0.007575495181911589,0.0006221902126156612,-0.01880894877369165,0.028582461073263274
785,-0.02809774562426683,0.009076185001985293,0.00045565923364576064,-0.019006884770809526,0.03065536635494792
786,-0.02912704178956778,0.009193989642052642,-0.00011213614173423519,-0.019912027547798035,0.031225517986571246
787,-0.030624610299681044,0.009332213331781516,-0.0005711484272995986,-0.021518283987935,0.03253508747875774
788,-0.031431071117697655,0.010794024551355062,-0.0005623078760267388,-0.023135768190386295,0.0354134714743621
789,-0.031494811205638906,0.012358308120570791,-0.0010459150703312173,-0.0243981870150024,0.0376359158214
790,-0.031300130108679526,0.01287855716536024,-0.002184692547513805,-0.025125656259974732,0.03797454361323381
791,-0.030898131757819285,0.012778434680751093,-0.0029448993326651137,-0.02524643230559378,0.03724194794524399
792,-0.030263208671204214,0.01262499945423806,-0.0028353560462460537,-0.024832045320013256,0.03618377144664384
793,-0.029316909885865564,0.01255295500007187,-0.0022641637935226994,-0.02382723060676324,0.03528176182630665
794,-0.028134690840797838,0.012560343545880263,-0.0016291782551040824,-0.022445852450691927,0.03473142502278824
795,-0.027071522712051717,0.012660303184066787,-0.0005345364253098875,-0.02087208740030766,0.034416321634955165
796,-0.02618876394771266,0.012658137187642431,0.0012893978581653125,-0.01896302688575465,0.03435698163477678
797,-0.025317743519538485,0.012444608909915176,0.0034255714478085997,-0.01703064172260645,0.03436719860936687
798,-0.02474120964763533,0.012230454397245785,0.005687561103049282,-0.015946205717366244,0.0341696220288368
799,-0.02487890039494349,0.011964858054737886,0.008008861596255292,-0.016151566362527486,0.03376155747288899
800,-0.02552890692125143,0.011465112306944197,0.00983436700143455,-0.016882392000227703,0.03276280823311746
801,-0.026181123131049595,0.010736769046669068,0.010206119434698189,-0.017063489459365592,0.030660071239150904
802,-0.026687477549147236,0.00981353876569399,0.008580157191666826,-0.01705575285729913,0.027825576365665895
803,-0.026876354595776305,0.00917512749712297,0.005681714748497466,-0.017708129366248306,0.02568180992415755
804,-0.026247646044923467,0.009520691668359149,0.0030316154387384987,-0.01845116091819028,0.025469772108134336
805,-0.024689221203153602,0.010630950042665763,0.001885729742499633,-0.018129925581340054,0.026997447908137413
806,-0.022675369395406667,0.011728346648455044,0.0027270431384933944,-0.01651660972284135,0.029484850451974274
807,-0.020792639424771345,0.012433386816208003,0.004975560306279224,-0.014543640394351059,0.03221396271384306
808,-0.019459578529654957,0.012684987678528763,0.007440987510534821,-0.013366994607550017,0.03424709325917579
809,-0.01812776937038504,0.012913100672603652,0.009452296507267421,-0.012570393336923072,0.03548535898657169
810,-0.016210613815406078,0.013517246336162796,0.01081168555202146,-0.011024834018537572,0.036645493626406365
811,-0.014793269124879339,0.013888634917982982,0.011414972326825722,-0.00908244752795458,0.037394078210413566
812,-0.01453681080157501,0.013375112492046133,0.01202505548412512,-0.007371590279658437,0.036952573533141485
813,-0.014515088923217583,0.012391482800311094,0.013400753656198344,-0.005992673254499231,0.03578964200426217
814,-0.014428720317878889,0.011800055737982382,0.014604281283698133,-0.005564845632602912,0.03480281033706236
815,-0.014710273995160082,0.01192875489506822,0.01477160156873832,-0.006503087303441638,0.034482407305694164
816,-0.015323408914290333,0.01247563184743218,0.014575996183966594,-0.008269459037134223,0.0352651475806999
817,-0.016018402818545812,0.012780347619282267,0.014759846417906947,-0.009876318416957821,0.03652688937025028
818,-0.016711999594872455,0.012242263876686381,0.015430005699228595,-0.010322994636577544,0.03659372693999217
819,-0.017595245249148406,0.011013989536342464,0.016129461151923825,-0.009838448479826378,0.03509052887069029
820,-0.018740594573923554,0.009760071361893066,0.015913867830194137,-0.00990097910017344,0.03132474898861586
821,-0.01975891249177843,0.008566486941582711,0.014381859715226113,-0.010937156900663514,0.02692221655389231
822,-0.0201966328389972,0.0070760813430500395,0.012163094417604917,-0.011935056438393437,0.02237247176930739
823,-0.019779526458563998,0.00544677045212213,0.009962190958173826,-0.01188891654554501,0.01684060958813482
824,-0.01904529460542449,0.004232492337122921,0.008128555604455615,-0.010808328915715728,0.012324675559001415
825,-0.01887755189099756,0.003939168944162632,0.007136879134918878,-0.009409061354811525,0.009519867997089398
826,-0.018698931962957095,0.005007712254847208,0.007477283624355941,-0.007898870182727523,0.007969327845663008
827,-0.01756795638983484,0.006997611085621953,0.00895963193956862,-0.0062971562119636905,0.007268755673076808
828,-0.015911845989837158,0.008497016084884814,0.010886891582330235,-0.0046539112283370074,0.006989358861179892
829,-0.01447434611073259,0.008975205992886879,0.012691716029218503,-0.002935198835942881,0.00564826384308194
830,-0.01334300862652397,0.009217589790638256,0.014104285831707595,-0.0016777103083874853,0.003352528494466221
831,-0.011907185561135226,0.009762616800950965,0.01473621791255707,-0.001306540994636386,0.0012237038686565647
832,-0.01006657472562171,0.010191547299836654,0.013628896477203608,-0.0020474001219416816,-0.004646180862592448
833,-0.008644602141183575,0.010386510059426661,0.011185198091979792,-0.00366300552315743,-0.007398355262914631
834,-0.008065550962200779,0.010848929918916318,0.009448383688000014,-0.004937250133842205,-0.008874625127664362
835,-0.008098610746789088,0.01140750677155563,0.009212502643689526,-0.005067283366322032,-0.010237940503861937
836,-0.007718966966637623,0.011866539011954861,0.010089567227781778,-0.0036539631848527777,-0.006825229277192344
837,-0.006559374338783225,0.01245004612700792,0.01125532406043766,-0.0013872033439836474,-0.002433841378727265
838,-0.006127469933586609,0.01261022341886442,0.011662681590714336,-0.0004440318270613946,-1.5387983955871632e-05
839,-0.00679652092169358,0.012151155335175513,0.011883761849359378,-0.0010841020534416196,0.0032452320863811676
840,-0.007379318416279218,0.011916325245072787,0.013139268619299115,-0.0017156416869301909,0.005518713575341313
841,-0.007757261982810749,0.011983308096390245,0.015071000401424192,-0.001933674600294375,0.008769788931278413
842,-0.008489512422658935,0.01170582894396302,0.016969789924325778,-0.0021556632640187087,0.015398894701061245
843,-0.009778391110079903,0.010980618696970453,0.019096743549556233,-0.0021536493681618704,0.025643595166597952
844,-0.010899792415998732,0.010098540343579217,0.02241244154626023,-0.00035399982345894065,0.03589991345535802
845,-0.010257074685990982,0.00894860617371858,0.027470335028411636,0.004626054419842971,0.04435655149019578
846,-0.007271219449543437,0.007341141125388077,0.03236297444590189,0.010831980449488047,0.04788337668046049
847,-0.003164561715549975,0.005807966759722525,0.03347162193636659,0.014447869885412107,0.04497180360430612
848,0.00045726925659127747,0.0049209795423635705,0.029167095345713216,0.014267787483885111,0.040618218497921896
849,0.0028407637904756923,0.004579727258973731,0.021494398758953485,0.012101346291795314,0.0369126678614834
850,0.004263222678786872,0.004577099004544639,0.014236319987433136,0.010189649792076155,0.035038067849198405
851,0.00505805092835966,0.004296234634271392,0.00906171847788119,0.009114889961692548,0.03539885807953842
852,0.00505919072701268,0.003178882230598391,0.004884720208537868,0.007690937363685288,0.030260391248830204
853,0.00455511293624233,0.0018996692108293285,0.0015265309118999459,0.005736749930629952,0.023697733700001472
854,0.0042367072676026156,0.0011122687994139992,0.0005492827117118595,0.00501516568305153,0.02039199646800285
855,0.00446942645218813,0.0008579114737743833,0.0019204334124327401,0.0063131859743193975,0.017929666095386883
856,0.00547324643568401,0.0009047556517709391,0.003430363935524228,0.008643584317789195,0.016855264985983807
857,0.0072757784331091225,0.0008080078244322991,0.003778975055144547,0.011154238742075245,0.01382867107091708
858,0.009013764987959314,8.834207608545372e-05,0.003375548211743707,0.013754260894645447,0.007734317827000648
859,0.009631181005050567,-0.0018586270301142245,0.002403185264142073,0.016369868378722736,0.0006227195969667493
860,0.009501745747573434,-0.004917179808590588,0.00032370810396081345,0.018490770594466212,-0.004665700951692925
861,0.009757291441495121,-0.008068807521548114,-0.0031826647979482764,0.01924436814512281,-0.010843493990946803
862,0.010744846174739399,-0.01055414578895281,-0.00780308472844446,0.018282732820851584,-0.01845701476002686
863,0.011961007788986547,-0.012398719219480391,-0.01239218854752415,0.01708791626263159,-0.024535307550039902
864,0.012840928702594505,-0.013954459571580254,-0.015337508680087566,0.017720245442321272,-0.029797015081337315
865,0.013241989444831884,-0.015177218411848303,-0.015771671394868157,0.0202456310177764,-0.03329556726151718
866,0.013241104216417865,-0.01562486046393595,-0.013860019009477859,0.023148929856966656,-0.03464928215874011
867,0.013175265554806848,-0.015098861042475212,-0.010495758201095537,0.02524483246895953,-0.035172102178275245
868,0.013826668447271854,-0.013845517363043184,-0.007475313137787568,0.026340951876565842,-0.03449597925361004
869,0.015457231503513877,-0.01227779694709813,-0.006146771523458063,0.026766178935925842,-0.03441623999268775
870,0.01779456192710573,-0.010687911916713776,-0.0056807575698876725,0.02750411630299637,-0.034566529618098335
871,0.020689206622842876,-0.009397274733807739,-0.005060161690890867,0.029450743566230248,-0.03319607927630307
872,0.02347562707745018,-0.008895633135203813,-0.00482544644940901,0.031869263693473156,-0.03166985334299784
873,0.025218686920098397,-0.009342040720651848,-0.005469569833845975,0.03381298837680864,-0.03058907556416239
874,0.025527528203726942,-0.01043862316177789,-0.0065351667338555824,0.035168481719866376,-0.029985155302606092
875,0.0251121055638669,-0.011638424021214318,-0.007142050038289501,0.036050078100517344,-0.03020863740623982
876,0.025376634115114313,-0.01254399218709711,-0.006798943932337379,0.03716877904778049,-0.032353316402712724
877,0.026501579040093877,-0.013497765645744602,-0.006017018712272886,0.03893981245846617,-0.03582263110650834
878,0.027329412114483313,-0.01478958488753709,-0.006006504997879163,0.04020379818479272,-0.039633645866372
879,0.02750432905008475,-0.015682383740889132,-0.007155251638630624,0.04008708350870071,-0.042229222789904826
880,0.027224260647544775,-0.015818755611143383,-0.00819758363747192,0.03932350035919219,-0.041747149735044994
881,0.025823086915999507,-0.016365946598509044,-0.007889833410624898,0.03859389912322475,-0.040164391821742466
882,0.02327189553833205,-0.017992162788594248,-0.0062794540517055785,0.0378907761759591,-0.03931863917728234
883,0.02101262733674993,-0.019598415309897903,-0.004022339387122589,0.037372021015226575,-0.03880094952210159
884,0.020211231775064235,-0.019816997866257843,-0.0019344796924109845,0.03713390080104846,-0.038307964524940064
885,0.02059633937569177,-0.018262437355415148,-0.0009190354010384229,0.03657232208607023,-0.03786336908011237
886,0.021157241425776664,-0.015904004271392113,-0.001512337830066372,0.03550426240968659,-0.03812374933198016
887,0.02142132182542816,-0.014329077059483957,-0.003266558277965792,0.03470572457387127,-0.03974579175446031
888,0.021373853452809385,-0.014222147530229346,-0.005017276991994755,0.034463274862246235,-0.042055901064364756
889,0.021222570995711752,-0.014667190400806057,-0.006024841326821501,0.03457136828661998,-0.04316133227939565
890,0.021217981576572172,-0.014761229945944403,-0.006519878621071138,0.035034191421537436,-0.04242536903998484
891,0.0212150657249673,-0.014697545450950023,-0.007611905504769588,0.03521850531833469,-0.04166223854477297
892,0.02095180057198106,-0.014395665901090213,-0.009906032608313688,0.03410242784679966,-0.04087467201832656
893,0.020020486293331297,-0.01410081901534123,-0.012076508058043757,0.03254183698776273,-0.03832646481857088
894,0.018569687661699905,-0.014462128814007134,-0.012021034057171871,0.032874705892786724,-0.034635704126977744
895,0.017461830592712863,-0.01470294720383462,-0.009406604190411005,0.03533959203234585,-0.03096189865709779
896,0.016574229490163926,-0.013755866577544355,-0.006490514556610824,0.03749358108070866,-0.02746836023558831
897,0.015311440393144938,-0.011541691367500053,-0.004815412867525303,0.037583054380124784,-0.02390874842014962
898,0.014162223707087323,-0.008606257689031007,-0.0032138131635221366,0.03629975167687921,-0.019986918871887572
899,0.013826312877278079,-0.00623316801619078,-0.0010061355232490474,0.03501472275440183,-0.017037025488665092
900,0.013887384962020003,-0.005544517627777825,0.0009130318899308972,0.03391035326115926,-0.016587862288759938
901,0.013565038421588887,-0.006512988131666617,0.002118264809500066,0.032597645317999684,-0.01768180737082573
902,0.013117214975201862,-0.008279781782202926,0.0028192179907592938,0.031283986135540336,-0.018302205142157704
903,0.013144256702474202,-0.009714154610460046,0.0032472384763626025,0.030274637121885974,-0.01775410435104244
904,0.013570805627796636,-0.010086903740002148,0.00337976583437392,0.02924991022295599,-0.016917654193009706
905,0.01421019917291834,-0.009557429767409167,0.002909543107916514,0.02789681324919797,-0.01727077067324541
906,0.015368756949365426,-0.008301721477544745,0.002132637089324884,0.026661385294741338,-0.019029715693617427
907,0.01667789852710698,-0.006489733231356004,0.001309585966859015,0.025532652092773524,-0.021073820109118502
908,0.01689822110705391,-0.005060087196680824,0.00016948077223588937,0.0237211185664752,-0.023155148979127533
909,0.016104898236333483,-0.00412310164116391,-0.0008780267792855218,0.02152716583132118,-0.025245368768624668
910,0.015129073461875772,-0.003080403279694279,-0.0013934966398219328,0.01968284083296131,-0.026235675048239215
911,0.013986189227009668,-0.0023294923772059057,-0.001298435409759186,0.018042322748571506,-0.025458458094674542
912,0.01247392018126792,-0.0024253745478469944,-0.0006314262536568427,0.016671155965445487,-0.02303353509383792
913,0.010822967428203926,-0.0031689801224053177,0.0004350304675994382,0.016341979122456878,-0.01884189226576059
914,0.009758809871214746,-0.003861544663948894,0.0022229585444589763,0.017393762994403594,-0.013334013252219784
915,0.009605039879728496,-0.004162024110158748,0.004068208331028993,0.018894369894352222,-0.00850233541300793
916,0.009823304841016045,-0.004308696459631155,0.004063203790465762,0.01943062162686211,-0.006187104211013918
917,0.009954070554254072,-0.004485535991507352,0.0018086995593804625,0.018575346752016095,-0.006355800387927655
918,0.010251570887374307,-0.004765650784816956,-0.0009585555043695805,0.017406255786813277,-0.00748210163660852
919,0.011044594530483178,-0.004929972838579824,-0.002296211271835501,0.017339744669983934,-0.007770673298365337
920,0.01204748231311855,-0.00451063628229156,-0.001811116963662436,0.018505772264354278,-0.006676582956715209
921,0.012600580725681827,-0.003720321820316794,-0.00042532289611201283,0.01977833416761835,-0.005119403578545626
922,0.012166202857892888,-0.0035196029944916454,0.0008906689283498564,0.02005959822269986,-0.004385894329604784
923,0.010843472833765903,-0.003936688452862879,0.0017756516887151332,0.019222021125810722,-0.00465396232465408
924,0.009416917569442592,-0.00409998517677188,0.0022743797258333977,0.018108650179765293,-0.005449389269155462
925,0.008734085319497584,-0.003976189013541588,0.0023040789238797216,0.017376577123298553,-0.006730940534164719
926,0.008969852068234661,-0.004106675217637857,0.0019768583121715535,0.016805168491244155,-0.007987724986206321
927,0.009415730288776831,-0.004707657837627475,0.0018958271710742508,0.01594996023748189,-0.008498677286544364
928,0.00962879503974022,-0.0053946877337217375,0.0026463988502199616,0.014834449736089028,-0.00812003815730905
929,0.00966745386543259,-0.005701769451481955,0.0037587753097753675,0.013655258616781353,-0.00754139916914426
930,0.00925191351404448,-0.005793667459450068,0.004217339133201676,0.01247649505245451,-0.007757985565607152
931,0.00828521859906444,-0.005943873767964827,0.0038746780394570838,0.011222147652503064,-0.008636725435225326
932,0.007246979396065833,-0.006015240061862969,0.0028476957761412636,0.009600590597061894,-0.009327552491590625
933,0.0066634586134725156,-0.005574977876572487,0.0014739018997405387,0.007995544558666775,-0.009355629055738937
934,0.00633235431642942,-0.00443326665631835,0.0005355122097663662,0.00704906584838061,-0.008499825221468202
935,0.005338878282226423,-0.003174465714100974,0.0002972649462851637,0.006154382441460977,-0.006655961030363008
936,0.0035706294701794913,-0.002324001484136545,0.0006806665953154014,0.0044481418169411676,-0.00389747302553148
937,0.0018885704133251584,-0.0017840773101692826,0.001625449364206639,0.002199407336269955,-0.0008435412081785604
938,0.0008317572883172794,-0.0012179520398358772,0.002748156715988095,0.00016928526956508244,0.0017796826993740707
939,0.000573274855964711,-0.00022689690069402165,0.0037968937553527283,-0.0010191330821289913,0.0038696996495157635
940,0.0012188822767434518,0.0010723328161970362,0.004992598287231099,-0.0009220163992670773,0.0054325377254754925
941,0.002541825529426432,0.0026079807212805745,0.006306491900704581,-8.552849951443317e-05,0.0069523668325023515
942,0.0038044602695383694,0.004485196269120249,0.007306186372429254,0.00021350984662893253,0.00845014112500791
943,0.004197218154539131,0.005987480939530503,0.00774188883704394,-0.0003487837219375999,0.008678842241019395
944,0.0035913366757174686,0.006607431360762649,0.007641110782048937,-0.0010972431386441655,0.007762427454658154
945,0.0027548445072691015,0.006652068250445501,0.006971697853480679,-0.001708535669145683,0.007241541784569657
946,0.0022465228191761275,0.0061508616292571885,0.0052326747114728915,-0.002838518604358079,0.007409240666382409
947,0.0014672950297923884,0.004924603057726148,0.001939057111964603,-0.005127704762032319,0.007625577682396623
948,-0.0002901549549438809,0.0029571262791691986,-0.0023624700368667733,-0.008268571823613258,0.007470149777783215
949,-0.0023973377504154895,0.0007361610385385225,-0.006171820084154505,-0.011078576796960228,0.006899652828321187
950,-0.003900734988258165,-0.0008775391586445706,-0.008515266768705466,-0.012588764708171805,0.006481459207255663
951,-0.005126846459727225,-0.0017900827911449125,-0.009809866159491745,-0.01331523191624601,0.006339066335399114
952,-0.006432563659705431,-0.0020079365264358564,-0.010506415115177921,-0.01388614094484367,0.006355108241090067
953,-0.007233336365623178,-0.0014595918477343266,-0.010232565822136412,-0.013839016092600066,0.006851183789258843
954,-0.007001213529012561,-0.0008438723271955717,-0.008564137829219625,-0.012864809711466873,0.007657538075046014
955,-0.005873871164203958,-0.0009300679930667288,-0.005589732350321429,-0.011352654196259308,0.007974144488426878
956,-0.004531825118678448,-0.0017126194624267252,-0.002007828920910122,-0.00970952292289389,0.007080474964050405
957,-0.003592342753577639,-0.002587474114150785,0.0013648707404506522,-0.00781521072690261,0.005268811863372589
958,-0.0032395024642546282,-0.0030138829780220295,0.004309379274506977,-0.005717119631445688,0.004023207197803364
959,-0.0036060482442959196,-0.0027273746486833664,0.006528499101618347,-0.0043110151320600535,0.004395686332104423
960,-0.0045129213776795175,-0.0016400487166891497,0.0066759444771930165,-0.004050313646283421,0.005131190274357258
961,-0.006584155248719345,-0.0007096280246066806,0.005496545108748756,-0.005702453901142112,0.005526185502136814
962,-0.009006578145288621,-0.0003539556860669598,0.0032389951493656376,-0.008229402966454927,0.005131206050300186
963,-0.010794030227026748,-0.0004578034812399417,0.001282870472168385,-0.01015630808480848,0.005098876571616267
964,-0.011203686283877308,-0.00043949732049753114,0.0002566963353361236,-0.010938240369285533,0.006600384980779279
965,-0.010003707486531755,0.0001354344727553348,8.555274625734358e-05,-0.010649763481204885,0.00932233092691229
966,-0.007898386433683355,0.0009609865866905577,0.0003235190564549439,-0.009360420608792738,0.011192962067483799
967,-0.005563351023157765,0.0015640359982185222,0.0005063797607347671,-0.007469398624284282,0.01091343244187557
968,-0.0031521139924935476,0.002064538164535499,0.0007436167674488742,-0.005697121123772325,0.009523865028174178
969,-0.0011654191159531594,0.002609404005408272,0.0010238172536018526,-0.004949606593720517,0.00850516401736604
970,-1.4395371432317648e-05,0.003163730776602038,0.0011778637310135341,-0.005595184296618832,0.008185566632868608
971,0.00032757700382699033,0.0032618215552459805,0.0012836033237830474,-0.007012022431458674,0.007715175085509132
972,-0.00013282914997979909,0.0025453431974898845,0.0015291227731225468,-0.00844594421922713,0.0064804725029946764
973,-0.0011432540219300583,0.0015775172452524668,0.002104937368911146,-0.009461745064312794,0.0048995123038644
974,-0.002074619516893139,0.001287522167022473,0.0029893336380592364,-0.009780019314584103,0.003889218934910061
975,-0.002703116314734267,0.002126540625433551,0.0038082777008470524,-0.00989184628005694,0.004287501112756067
976,-0.0033316560175095577,0.0034105662222333336,0.0039454422625874105,-0.010336143262076374,0.005480216190113115
977,-0.0037434777878421147,0.004476472514174737,0.003459649569005654,-0.010388131379724167,0.006213411197920981
978,-0.003521284105845807,0.00544136796450272,0.0028697968112169937,-0.00952454581120691,0.006009394547974607
979,-0.0031368384149832165,0.006185422348773716,0.0022432056730699607,-0.00858801055773763,0.004987296493279067
980,-0.0034165906924554616,0.0058290542837396535,0.0016235089480331631,-0.008326498526930109,0.003247006860945408
981,-0.00442419067656702,0.003938931156920615,0.0011727410857087746,-0.008531288221349721,0.0009208051396273887
982,-0.005239715710345584,0.0018340340632545138,0.0010063991536867997,-0.008552202821939015,-0.0006666463287945879
983,-0.005230818444129557,0.0006258665113984712,0.0011179700571512013,-0.0079973475714074,-0.000538144562376883
984,-0.004657964555319357,0.00018953424342974483,0.00130256030096687,-0.006961889254022785,0.0006615154239728862
985,-0.0038472184603723474,0.0004667782589786449,0.0011467058283248777,-0.005710061788982091,0.002121709557628027
986,-0.003503913071298159,0.0010781305803447931,9.935843536227563e-05,-0.005044561367946009,0.0031514036546234784
987,-0.004268469441085423,0.0015736782697857931,-0.0015531693090780638,-0.005650167834616393,0.0035014833342754226
988,-0.005795509397729354,0.002060469706192148,-0.003051431661503603,-0.007242984288732832,0.003533612716289394
989,-0.0074247000523601425,0.0026385471147092093,-0.004379321808631762,-0.009352780292013833,0.003603073718202516
990,-0.008328108313021916,0.0033903951566027447,-0.005304628683177465,-0.010968704307535684,0.003871731032292578
991,-0.007992709947734933,0.004222851606223067,-0.005325719827291165,-0.011038927839850755,0.0039715308128530965
992,-0.006787139067491738,0.004956101699972308,-0.004528981216922311,-0.009894731637149726,0.003834527844747444
993,-0.0054046541004625975,0.005385479665641607,-0.0033685781775257134,-0.008474570920389241,0.003782334087767512
994,-0.004226109529191916,0.005171407303950015,-0.0023770352351663395,-0.007119495020128053,0.0035231302712274725
995,-0.003288928239972862,0.004304264982291706,-0.001832694735932668,-0.0058411529042056145,0.0027169836186409766
996,-0.002558796947380999,0.0032435113837919684,-0.00165392167450709,-0.004869063860446755,0.0017363681956383268
997,-0.001979377591899599,0.002366838195533207,-0.0015501396811625173,-0.004246727778749079,0.0010100524858453557
998,-0.0016135777084835441,0.001570353421056672,-0.0012896953670749611,-0.0037468620012593204,0.0004050234610700799
999,-0.0014690348164729515,0.0008366984272080723,-0.0008932946281289776,-0.0032786221896244894,-3.659299387694521e-05
