,AF3,AF4,Fp1,AF7,AF8
0,0.006535464042543947,0.006002656314116833,0.00031375447139508125,0.02278053981019288,-0.0024703099070314738
1,0.004656414955894999,0.006316003111544255,0.0006134452106516118,0.021537286947726022,-0.0055176647370193
2,0.00536109617628543,0.0070899996181860775,0.00034921908543322506,0.024309293323833542,-0.0071477553417192375
3,0.009099500715984803,0.008703186658414921,0.0007151237825033053,0.03018962109795857,-0.005178861435949267
4,0.013173539872600833,0.010692459091694582,0.0017828395990782916,0.03312141316205209,-0.0009401698959102477
5,0.014938951893640445,0.011333020705119528,0.002057103807472065,0.03101120514783235,0.002016687668286028
6,0.01438127805190014,0.0096883434782501,8.43354179606835e-05,0.02455327742830435,0.003121437048397427
7,0.01398940114681339,0.008508794078403478,-0.0027299467737547716,0.01646598630131441,0.0062583051320305476
8,0.015044613871570424,0.01042541908117391,-0.004448057810419015,0.011149161033860646,0.012211820353238973
9,0.01733062358962436,0.015001999822813031,-0.004103439292244479,0.008529098904556448,0.016809913800732983
10,0.020745082183951467,0.020077251211833232,-0.001226060914921993,0.008241592711301125,0.017935651301555337
11,0.023720590098872774,0.02287529723949458,0.0027080419500026347,0.009312604634719179,0.017887221586081577
12,0.024724767366233233,0.022429220982208942,0.005809830102672858,0.01041245439847705,0.02005637991068964
13,0.024124635671029026,0.020036024061266196,0.007586255662606549,0.009696348666316678,0.024467178229146423
14,0.022556031779213143,0.017105291053368853,0.007428573025538241,0.0065030298829418945,0.027351570805646985
15,0.021049844587192956,0.015214837877228852,0.005362415237902382,0.0022278451617279834,0.027134374335760904
16,0.02091657210057047,0.015534401002609586,0.0036742947397825983,-0.0011908269052895862,0.026852007664645246
17,0.020734807932538853,0.015911042032760624,0.004012704690242333,-0.0029983130409294762,0.028347703462805532
18,0.01820750875592486,0.013053526619064832,0.005561858727941917,-0.006183549996534423,0.030448394923192748
19,0.015101407001143888,0.008171410472943237,0.007531660570629863,-0.012235224894235236,0.03308629498802303
20,0.014781404188904735,0.004955712697728722,0.00977577833675855,-0.011262611069119313,0.03623257996092967
21,0.018428334912730927,0.004312796528427468,0.011452952395830716,-0.005962374375906504,0.03753795035069823
22,0.025007620383553853,0.004550572845113426,0.011402638740426081,0.0004031793841409366,0.03446573768104924
23,0.031213135755307143,0.0038370706980758195,0.00974414386301265,0.009370883973748748,0.02620372812535441
24,0.0338064083787885,0.0022732034983074705,0.007901208411773584,0.014892818004280767,0.014960922552275982
25,0.032146450335966595,0.0014807808834497369,0.007059062263320172,0.017585226083577748,0.005924922461290288
26,0.027717687790531135,0.0017595553038051485,0.007757092433373739,0.020186858612216935,0.0019971336629616156
27,0.022963933948421406,0.002018393005896177,0.009791188782019525,0.023682850121282996,0.0008389593837918605
28,0.019507314727436095,0.0025817019502215642,0.011836727405509603,0.024980258748484727,0.000986881051827648
29,0.01727683860588912,0.005169971404133177,0.012344544396369134,0.02507562273901295,0.004370244170515717
30,0.016490719516470524,0.009573327244460415,0.011528853657269564,0.02596471682526165,0.010371186077113579
31,0.018883057199354892,0.013684598856631962,0.01164140265509122,0.029038564515885924,0.015472152696786236
32,0.023019202695325622,0.014876391552852114,0.012816605859094615,0.03588422378512474,0.017405208830257323
33,0.02424751676756067,0.012041306414621526,0.012952648375216485,0.04170246115718433,0.016140523442238822
34,0.021290461765273536,0.007486900472723174,0.011517902822143712,0.045400691379482244,0.013305552197239091
35,0.016300702632794796,0.003583851406133602,0.009027260616903027,0.04989248423895187,0.010324901290161939
36,0.012205893210660452,0.0013146698324343672,0.006951700086660314,0.048891987878059824,0.007690908152094079
37,0.011124074646899823,0.0013896816121887093,0.0073964302339504535,0.046977959879900014,0.006348100883045892
38,0.011490682158601809,0.0017937671431816505,0.009077295023049603,0.045190857835487756,0.005753763690592605
39,0.010023305044677787,-0.0003834898378650905,0.00845125742397609,0.03770237378607633,0.003538494022602356
40,0.006775654388835536,-0.003043444782354512,0.005512192554106413,0.02911581877461695,0.00032138055600693734
41,0.0030988453238615004,-0.002490381057528139,0.0018727580546845216,0.019640405434889704,-0.0016051304525507226
42,0.00012958505421219928,0.0010966574107662244,-0.0016559413357310167,0.008756935460697928,-0.0013947783647117592
43,-0.0007779519115346207,0.004787236857243041,-0.00395095566481292,-0.00048535378973678703,0.0014210368526763604
44,-0.00034535915034907336,0.005884401574085724,-0.0046393516359732635,-0.0037608768756410174,0.006031715745648871
45,0.0006583451174600182,0.004666586872901516,-0.003632497537739947,-0.0028792302062744237,0.009819093996276593
46,0.002379151084069416,0.0033321145983043563,-0.0008742018387625049,0.0008985458693226329,0.011206577967304315
47,0.003655473550177986,0.002584393726853639,0.002559708357462859,0.007087228963377942,0.01049419459634364
48,0.0031193947688746,0.001874540607955026,0.004940987005815692,0.010777322711723523,0.007667725816364179
49,0.0008978664562276885,0.0012486152064720404,0.005501108519076132,0.012261038783224642,0.0030233335647298527
50,-0.002017693903090849,0.0005083024937255204,0.004541788748606419,0.013400539696048422,-0.0019746343868238593
51,-0.0047610394040434436,-0.0011977579209305554,0.002314480759105515,0.012973201689901985,-0.005661150754717537
52,-0.006658553024323484,-0.0035433182152520043,-0.0004935645842469089,0.011530051845625885,-0.0059980818226614465
53,-0.007475083081958593,-0.0057793109848516865,-0.0029820576211934736,0.007492116691302005,-0.0035440205357989635
54,-0.007515369793553875,-0.008233011969981835,-0.005223104469083877,0.001090899021587105,-0.0020738264949692014
55,-0.006773272789292156,-0.009751391082521066,-0.0069529032969068705,-0.00424527746299881,-0.002641850603415117
56,-0.005913864737842072,-0.008755355823463443,-0.00818196232725411,-0.007451928377954956,-0.0038718539248536847
57,-0.00627851171113742,-0.006886647503700235,-0.00944706388075575,-0.008327829291336526,-0.005526154304957598
58,-0.0075761706225075266,-0.0060308425572715655,-0.009755977946840225,-0.007812521699608875,-0.00650871431241974
59,-0.008832337081149746,-0.005795277923968502,-0.00871833754826336,-0.008379482419034395,-0.005414187564884353
60,-0.009406658263044383,-0.005389148718004063,-0.007533709129085895,-0.01159628940759768,-0.003730830198532701
61,-0.00838829314993531,-0.003920296052552207,-0.006490385151420212,-0.013700179923511104,-0.0026356373528267744
62,-0.005557390863379927,-0.00033584651796560454,-0.004352287925889568,-0.012285778591397652,-0.0005358881326740817
63,-0.0022919269063609283,0.004481899565785919,-0.0007522062433936446,-0.010091489772169044,0.0023849385165023752
64,-0.000334765020921092,0.008236403198323097,0.002437853168313855,-0.00935682338525717,0.00384107238192886
65,0.0005751721994170023,0.01050356434429686,0.004162593773505427,-0.009424994988788503,0.004188555158662782
66,0.0016004691875207656,0.012049388332597178,0.005288108797725004,-0.00815256596335576,0.005375524420809874
67,0.0027989099836006437,0.013432334818130883,0.00659763702246948,-0.005567038015870255,0.008237104312657778
68,0.0039737142784195085,0.014963398967871607,0.008055076865264495,-0.0026524112582474286,0.011560725553000386
69,0.004710259986156733,0.01589244845493023,0.008657312612011253,-0.0002652449525082135,0.012204064397525954
70,0.004066281001731256,0.016080916055361116,0.007461535859355785,5.061636378170661e-05,0.010513338607703112
71,0.0012528852791480697,0.01557955009991265,0.004671363679498072,-0.0020774801941668987,0.00988362447221534
72,-0.003245394759977579,0.012937379478890093,0.001045725853183388,-0.0045550263211807706,0.00939227405254095
73,-0.006957058900411636,0.008647820440979028,-0.0020422253109658017,-0.005437844713706104,0.006831851894406314
74,-0.007968347741602929,0.005415248587987264,-0.0034293249199934196,-0.005863051450151371,0.004526880596451879
75,-0.00718864431891805,0.0030623146951648966,-0.004034463651830924,-0.008173541877938865,0.003710874592101256
76,-0.006016090234447586,-0.00012766845216817028,-0.004581720477042246,-0.01210691777034836,0.0028842480153769183
77,-0.004718168436768781,-0.002860167965881798,-0.004195261680974723,-0.015455974744340992,0.0030522553966674045
78,-0.003790205765523564,-0.0034868949494158484,-0.003142972407482598,-0.017552315472484727,0.005022253501239188
79,-0.0033374178387048144,-0.002364494547670423,-0.0021131147139651003,-0.018399123073639445,0.007273853211018812
80,-0.0029704935894870822,-0.0010371459367523172,-0.0006333090141914357,-0.017048910343405756,0.00894769478227912
81,-0.0034510909157682715,-0.0018158095423531826,0.000997932005178946,-0.013918275403583187,0.010177948628182016
82,-0.004245185221543017,-0.0037421773321338527,0.0025146558347812573,-0.010152696385487861,0.012250077634593525
83,-0.003703369509340627,-0.003565455806526936,0.004036006702914799,-0.007309271747480412,0.01600455061341759
84,-0.003250910033791081,-0.001901248285326212,0.004044148478319164,-0.008780411686644111,0.0193156120424731
85,-0.004709565489810506,-0.0008521009340370847,0.0025438084017574128,-0.014821904588265274,0.020649725223227562
86,-0.006562996992683029,-0.00011888857939003704,0.0019090688650414665,-0.020848277271268024,0.02087575439660691
87,-0.007129064643197849,0.0005486506240287626,0.002201788805928843,-0.02382120498339271,0.020010288851575377
88,-0.0066451651759296005,-4.2115037022351546e-05,0.0018198594003212701,-0.024090480018150912,0.01729600917664208
89,-0.006025948460481024,-0.0020721624007731068,0.00045583404048719526,-0.0229352074284698,0.014101240883704137
90,-0.006005634602952867,-0.0037683688272434034,-0.0012489107366222719,-0.02119958136832547,0.01289760180093309
91,-0.005811035739420589,-0.00360368977812941,-0.002069535380642812,-0.018576804204322114,0.014490439654095048
92,-0.004228088022042636,-0.0016628693907802833,-0.0011941940281881987,-0.01556586416352667,0.01846147734335642
93,-0.0020780518477277305,0.0004969895122236913,0.00044623368920817527,-0.014219148943015281,0.022903496368376
94,-0.0011507845273371262,0.0010260860932773043,0.0015081787614945122,-0.015215729129608824,0.0254527095292295
95,-0.0018993692974699154,-0.0009885829555325758,0.0019342003770676163,-0.017563733582791407,0.02508855530319904
96,-0.0031453584777962466,-0.005509225001388393,0.0025017731296375096,-0.020170643115291965,0.021116331538826482
97,-0.0035815332258247595,-0.010943517406515618,0.003908084821877341,-0.021928918153998774,0.014765912632266051
98,-0.004326490625537269,-0.015036572076380183,0.004917243777115898,-0.023414794446765932,0.009548180585442673
99,-0.006771287826416406,-0.016484010424525734,0.0037068252968253143,-0.025395192299510354,0.007862106618658653
100,-0.008992393775609578,-0.015016887571611813,0.0017032000489882908,-0.025685659590320962,0.010065616328172742
101,-0.009645349832305482,-0.012323415312889033,0.000722054319794086,-0.02355341344595613,0.014845187841184817
102,-0.00998353927234632,-0.010923980327723112,0.00012302608876862015,-0.02201350859980169,0.019634926075161072
103,-0.010397823803418785,-0.011481659673061575,-0.00034026395728345123,-0.022731129659196096,0.021994577535291823
104,-0.009853953483919053,-0.012756219967822809,0.0003648813926201575,-0.02409192053399944,0.021600552631831253
105,-0.00819515654934886,-0.01355488800975295,0.0021100030894956275,-0.024910324665060102,0.020344903613888958
106,-0.006213466614446993,-0.013101581061043676,0.0034269887719864107,-0.02577476313747894,0.0197745744511494
107,-0.003933585973757869,-0.010917132246316364,0.0034278634025254663,-0.027023894941245276,0.019529939814739102
108,-0.0011026562111614128,-0.008090061113916448,0.0024843085270535212,-0.02835318533842822,0.018481813033838806
109,0.000891944950277972,-0.006781305604309563,0.000857782693401002,-0.030060924199315556,0.01611099745910142
110,0.0009324201694202278,-0.007895776846836953,-0.0008285875288691481,-0.03133740133493357,0.012183762452383683
111,0.0007703980108849973,-0.008745708538932735,-0.00046399420209427596,-0.029427362518702184,0.00896059687319513
112,0.0007374557544719684,-0.0074753174131064375,0.0011749793171208936,-0.02570258098852434,0.008878319482671204
113,-0.001598686471731782,-0.006960234559089471,0.0005841384065337376,-0.025117655865083313,0.01010262621713018
114,-0.005726032937383561,-0.008476852330463767,-0.0018476008143753658,-0.02757852943244812,0.011345572269669436
115,-0.009446331900746953,-0.010950498829870266,-0.0040570538749711655,-0.030888692576249696,0.012116899729058366
116,-0.012455091110742486,-0.014376237414371267,-0.006038189847500846,-0.035462790874041084,0.010763635222747842
117,-0.013562383303968382,-0.017367325327934693,-0.006902208146908543,-0.0390250037850924,0.009045724755377862
118,-0.012940845743480716,-0.019181246358274572,-0.006622985116525372,-0.03958306310597418,0.008597691979326453
119,-0.013375256672025913,-0.021046095791421214,-0.00667165627622327,-0.03903346039993881,0.006832238199685572
120,-0.015379387536026091,-0.022447817333631662,-0.006836441234636046,-0.038503094414330793,0.0028454417022670707
121,-0.016816169592893938,-0.021468158653727514,-0.0058741115140791104,-0.0376141967999648,0.0002294374701050494
122,-0.01582836395646197,-0.017796119692353694,-0.003114303320017934,-0.034987074939146774,0.0016565709295039207
123,-0.013186432326960444,-0.013787990536105656,0.00016156610887569696,-0.02993504825205416,0.0049462600975655555
124,-0.010585527981769646,-0.011833351384834823,0.001781536441194951,-0.024424558117153137,0.006797592322334782
125,-0.008665885824157291,-0.012356401221591089,0.0007412923921661409,-0.021026159487971974,0.0067330842359225665
126,-0.006841860429694123,-0.013238832114752632,-0.0017653348039096347,-0.020061965529862905,0.008043241003731234
127,-0.003821597989406416,-0.011991028055951094,-0.0030999943200807492,-0.01991404019057004,0.013149098309899908
128,-0.0005356193731861597,-0.009799870403948393,-0.0027488637608614596,-0.019998196863810207,0.018479673454671237
129,0.0014143596447450133,-0.008282354143615783,-0.0017721465262371331,-0.019998589069849134,0.020825031189504822
130,0.002204169079300685,-0.006761952246421602,-0.0009466798789125791,-0.019321156353188255,0.020850285792323273
131,0.002294201958669446,-0.00450556634780788,-0.0012314906980366396,-0.018789963160839602,0.019177581010806678
132,0.0019018800623075813,-0.0018504028776874589,-0.002553366051016162,-0.019076215984991502,0.01635462532722829
133,0.0011134545347441297,-0.0007836105071512148,-0.0038465842209008732,-0.019652645157961515,0.01318652218983716
134,0.0006633076284881353,-0.002183322572385828,-0.0039000617278977696,-0.019148634914931198,0.011507149109228896
135,0.0007864204503852612,-0.005211514923037449,-0.002493353510755138,-0.017016806516007486,0.012135524866001146
136,1.9823090167594375e-05,-0.009043104653448689,-0.0008318409325069635,-0.015073883996593264,0.01320911090406178
137,-0.002453989864165944,-0.01181489844460347,0.000403655683600764,-0.015602071097037104,0.013732938236970475
138,-0.005120128437203786,-0.012051872327764083,0.00177829599264878,-0.01828085467663977,0.01356912634187011
139,-0.0058118524258544855,-0.009685284050276983,0.004017367616647484,-0.02038554033610343,0.013467357894988602
140,-0.004572789351962259,-0.005748112200591624,0.006691380526396431,-0.020543132938571476,0.01492111050403896
141,-0.0026550384749959746,-0.002119053299067778,0.009271641784043941,-0.019415503628928403,0.018615570382991366
142,-0.001167190678044553,-0.0003104607940431401,0.01143228461767321,-0.01834458464127131,0.02431281517808597
143,-0.0011085314059032106,-0.0010804701066110109,0.011873506957506084,-0.018093483812319164,0.029458167964346953
144,-0.002234674780837491,-0.003923764776932965,0.009787824276449393,-0.018166008155667466,0.030512074207318263
145,-0.0034577163586029924,-0.007142361957229287,0.0062266830223546695,-0.017921896569201196,0.027388069896332502
146,-0.0031551654867298397,-0.008629643789752851,0.003737386374446981,-0.016063272736319856,0.024234507635028654
147,-0.00013923865732361337,-0.007485453523801556,0.004574180970504672,-0.010937628575208249,0.0244427607721177
148,0.0035648822890549203,-0.005468069319636972,0.008114269826802741,-0.003763511782205793,0.027066150264721794
149,0.004208768491500681,-0.005457930851561397,0.01052243469659853,0.0005251670394057571,0.02760914370132018
150,0.0008497786711020755,-0.008007632829106664,0.00878533081645893,-0.0017753720277076275,0.022377488540507594
151,-0.0042349842246981635,-0.010596570777353966,0.004187399286738668,-0.009056519483804686,0.013745476431007791
152,-0.00814762139149045,-0.010637748798795489,0.0004048064574071808,-0.01648757777813403,0.007572174991513593
153,-0.009818438887950247,-0.008456982235596721,-0.0005785582990210967,-0.02072073310810947,0.0056884942346965926
154,-0.009772062967979613,-0.006466729563330632,0.000518521592718105,-0.021542897742465504,0.00556132743107029
155,-0.008653673096406269,-0.005816680857439122,0.002083778773431145,-0.020538971613675665,0.005984946248861647
156,-0.007264647389322635,-0.006284606555267744,0.002897495955624707,-0.019379182479846515,0.0067027329131771115
157,-0.005910358346522875,-0.007446269508089976,0.0026229506353846782,-0.018164576471193038,0.005380494527281616
158,-0.004606076165674159,-0.007949303503941713,0.0014723848418299172,-0.017260016449200576,0.0019481296580745055
159,-0.0039558585545899074,-0.006481891889818136,-8.767402719871261e-06,-0.018412866195610677,-0.00014504476074565027
160,-0.003942922195912549,-0.0033383272812773056,-0.000711042237019065,-0.021284161206759803,0.0003104627167686463
161,-0.004156804430371699,-0.0005098109156871922,-0.0007536250364945153,-0.023857278628722625,0.0008162835865437279
162,-0.004481684446855089,0.00042614956486962803,-0.0012201961322200522,-0.02428785774767853,-0.00029462447168000837
163,-0.004564264678937179,-8.665172051474946e-05,-0.001963458447971442,-0.020921323756953256,-0.0012677432040244833
164,-0.0036822622366924256,-0.001273359643695726,-0.0018170493005114266,-0.013660290021487383,-7.16184265387381e-05
165,-0.0013091444933321314,-0.002751104726211167,-0.00024802882678926755,-0.004481102291911441,0.002543939271723467
166,0.0010056754280893918,-0.004497903368772954,0.0004405890420441822,0.0027852205871204566,0.003385495282607862
167,0.0011878157146666313,-0.0068245000123609975,-0.0024609528825533565,0.005099619400807225,0.0008014294737897217
168,0.00018682302607576996,-0.008727457974603569,-0.007317308110514913,0.0035377423315344366,-0.0023664110692165194
169,0.0002485736878514139,-0.008486798110537774,-0.01017350816539192,0.0016620921663814076,-0.0031646415681816976
170,0.0009225400001547934,-0.007021067317138987,-0.01027831293648139,0.0009212253725420615,-0.0032810099677577204
171,0.0008819830263902976,-0.006418422576016287,-0.009229407531849991,0.00106734596240121,-0.004948251194655837
172,0.00048511318918278317,-0.006732117147217155,-0.007707541162495457,0.0020986709223170556,-0.0064119036379379326
173,0.00033855465200006323,-0.007374045756031118,-0.005805292160649074,0.003954823002287141,-0.006119803215713919
174,0.0006517142096805524,-0.008817811112177625,-0.003823037137639865,0.007098788114276174,-0.0066765423576191155
175,0.0010310020730041022,-0.011549166908203831,-0.0026035262254149195,0.010688784530419314,-0.010351366417672016
176,0.0013320987772087658,-0.014014984042029012,-0.002569125866113373,0.01262301851914738,-0.015202820068518901
177,0.0025613363178030365,-0.013995082483587067,-0.002871517172705757,0.012994546971796797,-0.01853292796924219
178,0.004295274893148119,-0.01234542438780281,-0.0035769727625456237,0.012711794021662793,-0.02057562704220856
179,0.004052366338784152,-0.0118629915986206,-0.00590764049252199,0.010626646520296282,-0.023728762488351558
180,0.000552378247516372,-0.013358710345576985,-0.00916743060547451,0.004823005873185757,-0.02864810298181162
181,-0.004372051312296461,-0.01462139027046307,-0.011283535340663283,-0.004524005353501662,-0.03113807857840264
182,-0.00806276974694495,-0.01306581071507086,-0.012161978378787823,-0.014717573654912932,-0.027145040157192987
183,-0.010873299574591757,-0.009573964871811304,-0.013862312796528867,-0.02387814323791835,-0.020156573038446212
184,-0.013382480538280337,-0.005926732195418177,-0.01623236594201048,-0.030362115379825725,-0.01470538558733116
185,-0.01303752390508746,-0.001738713504160494,-0.016070696852820268,-0.030462948882003987,-0.009788689607180963
186,-0.009670979271080732,0.0015340234853125647,-0.013403612620363338,-0.024297409053678217,-0.005643391859250814
187,-0.006834080686149439,0.0013903250757792162,-0.011777486331957668,-0.017653520317738144,-0.0049260550850238225
188,-0.005479659670625053,-0.000829269408372783,-0.011842734293581753,-0.014155851374878072,-0.00708024743368948
189,-0.004722058801451203,-0.002826450861814799,-0.012122494293001246,-0.013586721514006974,-0.009611737736899554
190,-0.005054189502879824,-0.0050045400909089315,-0.012908465276321878,-0.015567580915467914,-0.012043598034642031
191,-0.005523189236940473,-0.007511205226483498,-0.014289088841555912,-0.018528018867311383,-0.014695945389791729
192,-0.004836266478043186,-0.009430456736134815,-0.01572560095838766,-0.02096834101739326,-0.01659611992190503
193,-0.003900605268368398,-0.010531458645636458,-0.017233074721604517,-0.023230372148402713,-0.016558038544061664
194,-0.0033608489119798866,-0.011024249147532493,-0.01805210849079987,-0.024152566449135555,-0.015061304731158024
195,-0.003405014911492264,-0.011297666429296149,-0.017761279530138317,-0.0222588286752805,-0.013468086608164105
196,-0.0048339203405551095,-0.011509808419360688,-0.017582861983507107,-0.019508137114265696,-0.012253189852673164
197,-0.0069570743205922105,-0.011048633569956463,-0.01755012730768015,-0.01800053945934639,-0.011220752476461105
198,-0.007436137364412866,-0.009115775780481124,-0.015481735531807211,-0.01645223377056928,-0.009990353998383491
199,-0.006529255207877161,-0.006587912471296574,-0.011184609635012423,-0.014065606791884504,-0.009316744236029554
200,-0.00585488106189592,-0.004172547718653838,-0.006430312083849845,-0.011639974424228339,-0.009930062646849994
201,-0.004807743199880277,-0.001046219726565703,-0.0024275923510722014,-0.00898226608529523,-0.010763140313060252
202,-0.0029144824522805168,0.002548854080427978,-0.0005272356472396093,-0.006071690738735723,-0.010742931044388868
203,-0.0011283679441077927,0.0052890548763729825,-0.0012830309162376857,-0.003856902918987484,-0.01034561146124496
204,-9.50430281620152e-05,0.006584151950351933,-0.0035086186597180625,-0.00303694676808235,-0.010063753490522893
205,-0.0003968307250807244,0.005952594543931823,-0.006633626863956849,-0.004009866181258188,-0.009710244094202113
206,-0.0025504293694116565,0.00329072950001344,-0.011028179349905768,-0.006580427204483471,-0.008808544352429707
207,-0.004805471516316864,0.001213423508473002,-0.014804903727461753,-0.008453937882619368,-0.0056573724460748116
208,-0.005132000134503301,0.001504250278284576,-0.015037073092506655,-0.007182023030210583,-0.0005232793048158022
209,-0.004292032361199854,0.0024778671932879875,-0.012000524706385345,-0.004138407532975386,0.003504706468827153
210,-0.003940426851623608,0.0030475433731470135,-0.008929250218823287,-0.0029637426331221442,0.0054442113594636585
211,-0.004256063180672754,0.0036501920946887642,-0.0078779406479603,-0.005004826870867226,0.006753819834035978
212,-0.004625767656029936,0.004273576724187492,-0.008072641109186334,-0.009369522110735752,0.007992134351104963
213,-0.004339455747520274,0.005079814882326576,-0.007889636197672165,-0.014078877085735643,0.008977182395859335
214,-0.00275882510622205,0.006146429324008079,-0.0066859114234962755,-0.01658001932791687,0.009077326262691015
215,6.688421715114295e-05,0.006875983489038914,-0.004533441060440245,-0.01562808206496299,0.0076160530995800935
216,0.0030020289935638283,0.006858912751380563,-0.0018347831817989585,-0.012420607016762952,0.005218628236024796
217,0.004893251977545569,0.0058808827982338935,0.00045545759385334366,-0.00906626009420895,0.0021354332899309715
218,0.007849310373645734,0.0059660657233672814,0.003203362022924165,-0.0041294191280893105,0.00020460183438953116
219,0.01301115561864821,0.008577563878158832,0.00656602959408075,0.003330078023518092,0.0008456991155345593
220,0.016691859984621166,0.010770927497261468,0.007440780234529667,0.009075867795421182,0.0008200306318595828
221,0.01649913560821058,0.009927764664981934,0.004537491361360772,0.010770933186354867,-0.0016105160911790786
222,0.01336415366420716,0.006231937119506018,-0.000719083329910389,0.009512576563315302,-0.004882669895410153
223,0.009689031074600504,0.0015132543581006272,-0.005877575367207371,0.006069928147334899,-0.007948513782537745
224,0.007428180276323169,-0.0024680545600784614,-0.008796615666663201,0.0015604228746006654,-0.010810772807624137
225,0.006242204826609518,-0.0053148446938510695,-0.009734762873490361,-0.0014092488913860495,-0.013705112857721182
226,0.004954396174426812,-0.006512391210377178,-0.010412133949650845,-0.0007873394641890672,-0.016373589135004002
227,0.0027290250539298904,-0.00595494147423134,-0.012116026812671972,0.0013895890968753993,-0.019215785305297533
228,-0.000667194577592692,-0.0050010581244993154,-0.014181288741201262,0.0007551999125655885,-0.02275449254848646
229,-0.004109376225878077,-0.00475818633918926,-0.01454073639847098,-0.004179008691825739,-0.02541148470514303
230,-0.005701337592662665,-0.004911672160340289,-0.012732460686942742,-0.010861126174508474,-0.025347465463795533
231,-0.004680678091058913,-0.0046975566887507494,-0.010505604585586178,-0.016016052359479123,-0.023637863903834433
232,-0.0016813339733734683,-0.003421690980181991,-0.00905728087650684,-0.017699998646014937,-0.021998423346058046
233,0.0024275888196397706,-0.0006075730853795136,-0.007569795930983834,-0.014879846913830605,-0.020064697291018473
234,0.006307650826897449,0.0022554417810179274,-0.004904904286539616,-0.008345678416569685,-0.0174658953240253
235,0.008342044432647272,0.0029832834568872123,-0.001253961840463547,-0.001255556976380798,-0.014414177080181929
236,0.007823283236058187,0.001544284436859748,0.001310976473210414,0.0031495414996498446,-0.01164459874460646
237,0.005387606755990473,-0.00042104526322526807,0.00037717673384143186,0.0042224641850423985,-0.010909123601251057
238,0.0026079757021368623,-0.001263401436039885,-0.0036420137059118996,0.003406699620327515,-0.012868136935706598
239,0.00028186638812640203,-0.0004211035777781979,-0.008149079256762382,0.0018412521405364638,-0.015116115983065757
240,-0.0019766516993077877,0.0015616628304991325,-0.010936124957175762,0.0003664330709501887,-0.014444430858560313
241,-0.003977951284387427,0.0033400365392089655,-0.010637133991394812,0.000695187922334691,-0.011675943417872774
242,-0.004593566305536049,0.004209040276545613,-0.007116956041174912,0.003875178276964165,-0.009773940935545728
243,-0.00341440058353539,0.00513646195399503,-0.001962747814597012,0.008282542064427138,-0.008862697023840748
244,-0.0008386410927164456,0.007362976719132213,0.0030804740236753062,0.01212487606553483,-0.006831989389223867
245,0.0018914680978787493,0.00989592484500973,0.0066108096591172135,0.014757656179856016,-0.0037055493922280172
246,0.0023637995368528753,0.009967670516798456,0.006760637838337144,0.01514316119698609,-0.0025218044915777975
247,0.000482655782023937,0.007869348532915934,0.0036140359064064046,0.013636090117593182,-0.003395215095308554
248,-0.001402897346386936,0.006445687000537242,-0.0001556430447358828,0.012588672231809346,-0.0032790881199114223
249,-0.0029324158330384393,0.005960043904799154,-0.0029726164099251385,0.013062824621368027,-0.0026513862210819344
250,-0.004852236177548668,0.005219170038456228,-0.0055322160471157535,0.013894186010024056,-0.005018383151294209
251,-0.0057239218677301576,0.005160895458308818,-0.007647010478625929,0.015381059403991811,-0.0098935066872055
252,-0.003831457470944584,0.006813864356886299,-0.007855345332679188,0.01871681382300004,-0.013176843263956671
253,-0.0009610621066256347,0.008103179656289544,-0.0071021189836244355,0.021459352014192568,-0.01442698892080759
254,-0.00033422245590916433,0.0070233361319162,-0.007737406591424829,0.02053308534722246,-0.015459353876624834
255,-0.0019561244844588776,0.005120328416582518,-0.009302902522697113,0.016998020651546458,-0.015122952558472697
256,-0.0030619227891948127,0.005635010087671825,-0.00897249087618612,0.014483514064053613,-0.0106815861773372
257,-0.0025467022692709854,0.009894189819251081,-0.006580407168315642,0.013954869596012732,-0.0014157304553807522
258,-0.0016802512926188929,0.015656088399255114,-0.004539874267403734,0.013890087393536437,0.010021205387466809
259,-0.00030370434480418473,0.019876526963350644,-0.002741506388012365,0.015520339496128467,0.019741981302895985
260,0.002813737196114879,0.021176698986807428,-0.00032512293115090086,0.02014747024881369,0.02453288482775967
261,0.007630661744767033,0.020204329728149558,0.0018717161955574897,0.025707950580659077,0.023688644242869237
262,0.011769166616612106,0.017977583525618415,0.002674030045798497,0.029117782471960903,0.01912685645434248
263,0.013046624934147655,0.015275375336163886,0.0026076113747337763,0.03038285947209524,0.014514719344920188
264,0.012569350787210606,0.01349406456933972,0.0040300719329844715,0.03254730809873199,0.014209615094385794
265,0.011045583498549354,0.011808280965525001,0.006390490277698747,0.034781489222978475,0.01712739038368726
266,0.00815250911390218,0.008820957183125661,0.007144523077527041,0.03407251245492146,0.017590783811830015
267,0.004734872253974618,0.0058590381774548065,0.006728090249182443,0.03184857342925777,0.013284079250398755
268,0.0010713952776138563,0.003993217296870866,0.0062426282288513294,0.030105523612726,0.0055927834029557335
269,-0.003014708652974977,0.0031736242299368646,0.005278125782858481,0.0276408290550047,-0.002802570861630449
270,-0.0058261208600917085,0.004489520907785635,0.004886583436379962,0.024715743257524438,-0.008021740715984646
271,-0.0053094887794309775,0.008369139717652685,0.006367237984349467,0.023969320186707683,-0.008289245565224234
272,-0.002241864192520618,0.012598373887722098,0.008386243936041086,0.02532365138246544,-0.006424225351755707
273,0.0007680423877033811,0.014984030362269671,0.009433912715076813,0.02573682333211346,-0.00538810117957305
274,0.002461093449144976,0.015423242532242455,0.010024925688135653,0.023855290963181053,-0.004848313524051569
275,0.003654243051231408,0.015299930366027828,0.011427971756727107,0.021485108403749714,-0.0034064351210424974
276,0.005117824154332599,0.016479146186159685,0.013315156700367804,0.020238348150127122,-0.0003433325650406289
277,0.006030028295284607,0.01915416607588445,0.013540480652260998,0.019079216957179103,0.004505792036888633
278,0.005634240267848381,0.02117084701623951,0.011622462057041904,0.016961533430182505,0.01102857849809003
279,0.00492490008674856,0.020758918463278916,0.009852081847039635,0.015536639680384488,0.01772975298708315
280,0.004648351793471787,0.018185795173772203,0.009092353321678997,0.016077414224685106,0.021295896776396095
281,0.004850416263015598,0.015335507642800346,0.008562728422727593,0.017799181202955587,0.02040716327831343
282,0.006392946640120744,0.013660815031831312,0.009241952050934848,0.02046947181020144,0.016914641144927894
283,0.008858945333487868,0.012572661589912945,0.011681926212178088,0.023370475069470015,0.012145475379437708
284,0.010404215040138708,0.011604295576987304,0.014496350896542791,0.024640112209565565,0.007222694686569468
285,0.010874565252140887,0.011904989601719821,0.016913076924737546,0.02457383782547739,0.0052268595994866465
286,0.011286040662352396,0.014037478565109908,0.018927548793602176,0.02501174208044414,0.008638518444563948
287,0.01144124061620742,0.016356264425224074,0.020654057012936385,0.026205853511656465,0.015928484523958737
288,0.010520987412356951,0.01688574458434809,0.022082975838698896,0.02711523231386458,0.022222442808535824
289,0.008204769758859044,0.01537341495033921,0.022323015012714765,0.02633215946454695,0.023863901564799988
290,0.0054856826225785195,0.013706166471009154,0.021360782404874424,0.023565264199313575,0.021879954719340355
291,0.00444742576431175,0.01385498659726281,0.02091535443256019,0.020483410298577823,0.019661072343337846
292,0.004440062512579362,0.014028857820424288,0.020826061362103538,0.017276219374704412,0.017736042010156997
293,0.002731268494683296,0.011444772710967001,0.01950950778610411,0.012894428465431162,0.01438335226588205
294,-0.0015137502816380873,0.006876684970834242,0.01662046645942973,0.007797635287768521,0.009291433773876503
295,-0.005293319031809841,0.004403833012031539,0.01371608545312583,0.00466181235719066,0.0051753980540764554
296,-0.004331665509501531,0.007095688241022713,0.01343330680451284,0.006619206042627352,0.00591604636533596
297,-0.00020189030885783274,0.011612768894817962,0.014979330899974753,0.011994987060316119,0.01005666954965506
298,0.002568686841745799,0.012950677095694875,0.015632091696270292,0.016639332492948102,0.013016012033220458
299,0.004149342146954461,0.01153937293169904,0.0157287659517916,0.020036634124830817,0.014641104194185114
300,0.005542956514245558,0.009808102433488978,0.015457102462359469,0.022406432829099394,0.015156744910687222
301,0.005215426559724732,0.008354544656287833,0.013366646115994535,0.022752773215064317,0.01263693283387271
302,0.00277311251706864,0.006931595445430373,0.010006396791688785,0.02116084602956277,0.007924281730523496
303,-0.0006694261331138315,0.0052736908415750355,0.007146638825063407,0.017842419771941665,0.0032168222979280913
304,-0.003243661202201079,0.003896596640114579,0.005930691080355033,0.014097248714218396,-0.0015585260293183652
305,-0.0030208943240038915,0.004212210662631625,0.00675461709487362,0.012247027230508991,-0.006497565430048285
306,-0.000310676318156465,0.007062583259358452,0.008681461132003854,0.011982318908777002,-0.010077224655994952
307,0.0027914335064719315,0.010783727479225642,0.009894911473667852,0.011521160019078883,-0.012765045185977474
308,0.00411608970295443,0.012219456359290415,0.008705381888886038,0.00991578348198839,-0.016208280752750954
309,0.002661818336825986,0.010053455794055975,0.004456526366326234,0.0069756264326189185,-0.019111172350653502
310,0.00034545289949167163,0.006183362984721047,-0.0007588930171431135,0.004083935741425113,-0.019087590744613366
311,0.00012808668610683082,0.0035916261295893762,-0.00288293121466696,0.0037304063660365664,-0.01624185372145152
312,0.0016015639277035358,0.0027882233214962535,-0.0006813491176726123,0.006267208106779865,-0.01274226850323659
313,0.0021579978935919075,0.002482218302029019,0.0027137643672865506,0.008721619640297449,-0.009500856374960866
314,0.001501931471712068,0.002364022392367263,0.004298749856708584,0.008875162258813232,-0.005650349223024175
315,0.0003756454199543715,0.0018578795231291659,0.0033685327236088517,0.007312097658343849,-0.0018015195153829287
316,-0.001884973864562152,-0.00012974871949340158,0.0004861542510900447,0.005584973925300448,0.000447052043175799
317,-0.004591864504221366,-0.0018243338544266033,-0.0020317602927252473,0.005854125237718921,0.0020731081057886545
318,-0.005402268414336957,-0.0008154672925299023,-0.0019365771652091186,0.010028998506625779,0.004774373892688671
319,-0.0038713810840236866,0.0014517455110313905,-2.9611487234426194e-05,0.01712091180013112,0.0076575792473195774
320,-0.0014730277517876209,0.0026609048700773825,0.0017181069818392612,0.023394849447342127,0.009286432324397171
321,0.0005644945755398007,0.002492851341164824,0.002525589648299596,0.025809555987601845,0.009254743562155355
322,0.0021333988148792117,0.0016781436664266485,0.002709537741846886,0.024389444803360562,0.008192579865042298
323,0.00418077517725112,0.0014783424844472624,0.004063082802611194,0.022301159356794855,0.008166344021103616
324,0.006627145866384104,0.001944601494712594,0.007290679141265206,0.021561522815033714,0.010352932548125741
325,0.00816457244761582,0.0019024859688805346,0.010261136172594453,0.02059818071161432,0.013606767393235526
326,0.008977796184173102,0.001649477575376972,0.01179296598280112,0.018254201406153046,0.015748651384439635
327,0.009703538262344463,0.00254641993029816,0.012600956778247354,0.014917464895404256,0.015380625359093143
328,0.01041914657306022,0.004773409077312017,0.01399889944648773,0.01260138985591485,0.01266202436736284
329,0.01128550957174179,0.006736096767360751,0.016887908841431536,0.014438377053059686,0.007820598352431998
330,0.010992840486250762,0.006430091768091611,0.01938169138346214,0.02010498428709267,0.0014527249169702012
331,0.009246528143314114,0.004192908874894625,0.01955679929695132,0.026071744362540606,-0.0035529369108465497
332,0.00828039785139588,0.001709594401633202,0.01815884725984424,0.029466188684234285,-0.0042782061621692985
333,0.009304775158493695,-0.00022966388509970567,0.016294049658591988,0.02972629966319136,-0.0008751911876061346
334,0.011708531930368747,-0.000989419546519856,0.014477000067669752,0.0278967214249198,0.004443684974728655
335,0.013301185982657088,-0.0007107345453253904,0.011878540727648507,0.023653079877492145,0.009560785994904543
336,0.012064775189274615,-0.0005323879142724728,0.007536699124591781,0.016297973533903123,0.012622610691797055
337,0.009293233657616915,-0.0006351718068699465,0.0034781024461255656,0.008480755970982636,0.013021049402154906
338,0.0072710529824064314,-0.0004136648069750977,0.0023518985653447943,0.003981462845680409,0.01186074959151967
339,0.005070072592742967,-0.0008919623132047172,0.0027747017375011683,0.0019025381012883194,0.008538368972294501
340,0.0009419231152781837,-0.003033877815717687,0.0016962201603508515,-0.0020186356636115246,0.001998691241638122
341,-0.002823253508914366,-0.004489306246619515,0.0002907846546674755,-0.007397603076733029,-0.0038962231369309326
342,-0.0036734171810244233,-0.0032636507557051338,0.0009876343184348605,-0.0108460668955425,-0.003393255316569036
343,-0.0027588116333778904,-0.0004494945575926159,0.003029034510320319,-0.011924085597638233,0.003561439867729302
344,-0.001613256970198894,0.0020915610162072704,0.00495889626624787,-0.011776278826233721,0.011086580651408362
345,-0.0016230715836051902,0.002538795001609748,0.00541591784661766,-0.012641653224644145,0.012912041087739929
346,-0.0032832953603799796,0.0010045829570907313,0.004105278749047923,-0.015167821796913577,0.007743850924746499
347,-0.004704880642792517,0.00019810970160603607,0.002974983474993896,-0.016186320143784228,0.0003681034321290414
348,-0.005358864160366254,0.0005507156667830404,0.002986651145211744,-0.014612495854878643,-0.005281941273697433
349,-0.006384212213882959,0.000108371981175403,0.0032966536200136243,-0.01230688130489593,-0.00987539525414944
350,-0.006965670859023709,0.0004663440536495455,0.003712546312234992,-0.009294013589702445,-0.012991445385165598
351,-0.006198581967942029,0.003756411008415594,0.004112963888023629,-0.005465309422707303,-0.012764730164624382
352,-0.004381470486604953,0.007291203252405395,0.0040499189863333965,-0.0020011174039677422,-0.009800407587505729
353,-0.0013072174527251766,0.007965723069178924,0.004094859501377601,0.0008905154984315408,-0.006329772345129174
354,0.0026375719422540357,0.006254501947578084,0.005248514148705857,0.004151384301690966,-0.003712614335640874
355,0.006666064442942078,0.004579336931438253,0.00832407898079692,0.008780334686443837,-0.0008683954227081599
356,0.010123088054198096,0.003845589275398549,0.012935133023277784,0.01430625323472422,0.003635959117560995
357,0.011477650272528615,0.002255207537970168,0.016457518264706303,0.018274467247128452,0.007808142892686632
358,0.011309170516652735,-0.000794358118115609,0.017729231276612762,0.02006616195394596,0.008625430638166063
359,0.012596431309668654,-0.0027952358798134526,0.019027375695711442,0.022487273873680783,0.007394937546128419
360,0.014545770167233046,-0.00309175934582454,0.02059779082782247,0.025708057008940723,0.006503618503198774
361,0.014407471543041003,-0.0031910938868971515,0.02056614061158512,0.027279463416303187,0.005827513860610437
362,0.013169124267269896,-0.0023974010660142648,0.01967365817834258,0.027589258328255845,0.005609999991822603
363,0.012312251565528148,-0.00026382591249318483,0.01901158541303793,0.028257447286162852,0.006131166056654972
364,0.010888306489802234,0.0011947691754670717,0.01749252040704389,0.02978149406839611,0.007149210449738262
365,0.008636224411821164,0.0014801371691382478,0.015008841975064816,0.03201849805502278,0.00951337508783975
366,0.006042827907351258,0.001520341531620286,0.013096473965902612,0.033077376714934895,0.012796065217896896
367,0.003229921600460805,0.0011387427090200992,0.012615956780215742,0.031114036437427477,0.015050410321773454
368,0.0018841197806685065,0.0014311965001354706,0.014215516788738053,0.027634425392612846,0.017182089725300196
369,0.0024043632457732235,0.00360556373078476,0.016840506904987607,0.023615778039382723,0.020509260005611006
370,0.0025265773117016843,0.0061543529867631175,0.01761849861066994,0.017866728369117103,0.022741689919258665
371,0.0015816709362883197,0.007572927691887948,0.015532220285559466,0.01152119628070635,0.021385555597801306
372,0.0010484242334226467,0.008298831003845068,0.011861716571285494,0.0077411522585353046,0.017203737912219606
373,0.0016289129068519836,0.008244686587176652,0.008445924716775948,0.006996954895405661,0.011963507305251614
374,0.0022067274764194676,0.0057764050363960555,0.005723611176136014,0.006074575233660031,0.005472950122909359
375,0.002079938941757661,0.0010272985183243807,0.0028733143522558947,0.003420758073930241,-0.0011313936594523153
376,0.0023019935681269288,-0.0027933607182136786,-0.0003741881663927597,0.0008603663702511289,-0.003995160250289923
377,0.0038071986718492368,-0.0037387433410093337,-0.003538477344299136,-0.0005207839933923293,-0.0025578229477707655
378,0.005790383507613694,-0.0036308622278816054,-0.006039578264285297,-0.0013882660178560673,-0.00010827436087548301
379,0.0075805447348888475,-0.004080392217107496,-0.006944668092398493,-0.0016300560891654003,0.0019612845003013656
380,0.00971580763051086,-0.004539035253043886,-0.005433690331769342,-8.816033704848886e-05,0.003995350263726746
381,0.011834714398165342,-0.004710220697054122,-0.0028155312905759127,0.0027099350004301157,0.005540855723411181
382,0.013227454210283741,-0.00497685130768862,-0.0012309494355880763,0.004726930575312844,0.0057474603361772295
383,0.014114676904164597,-0.005071014181335007,-0.0009907669966128109,0.005097094070657826,0.004279503614735417
384,0.01451285384233815,-0.004536688814676278,-0.001172916653034084,0.004861203168865987,0.001429475756386311
385,0.013743001529747674,-0.0044123266210873095,-0.0016342379917115724,0.004564879304727981,-0.0035500818131445275
386,0.011631147099782954,-0.006139544366198947,-0.002397743619677585,0.0030651732263189428,-0.01054496539091737
387,0.008762447129921034,-0.009222288182130115,-0.003042708115560729,-0.0009531203127869665,-0.01617165928688247
388,0.005989863295788572,-0.011738112430511564,-0.004490512592370427,-0.007535405469797053,-0.017894608469305136
389,0.004186274686769749,-0.012784671904091374,-0.007713970374492688,-0.01443704284946909,-0.01747684276967051
390,0.003907908189073748,-0.012833211362551538,-0.011117477478100445,-0.018306690758218447,-0.01767932450581822
391,0.005685608224527267,-0.011978248129347346,-0.0119843009289759,-0.017427672291438902,-0.018770688607781864
392,0.009533367816796423,-0.01019254120330522,-0.01004956987870385,-0.012898175236554245,-0.01932123981286902
393,0.014305404138814563,-0.008220061968637095,-0.00724780243495646,-0.0067304226950440854,-0.017633531192244686
394,0.017158632301637496,-0.007607891992143071,-0.005370205632928757,-0.0009366134998838163,-0.01485464488902379
395,0.015439973090157658,-0.009045076031276404,-0.00521774558551252,0.002576386156450167,-0.01421733371743986
396,0.00986902818745062,-0.009951252798842188,-0.006052157969642952,0.003981093612105329,-0.015165899597981515
397,0.0031270284530782936,-0.008224058583691012,-0.0069082839777923006,0.004855623002026409,-0.015841023650552358
398,-0.001909951822809294,-0.005292914414130525,-0.006863024168706706,0.007351670078333976,-0.015803391121065692
399,-0.0034936685526311684,-0.0029991382728236887,-0.00515476847879556,0.011961368259454515,-0.013813928725153801
400,-0.002660255970921961,-0.0022267509681913804,-0.002896905891913063,0.01475583739688627,-0.00985441327876034
401,-0.0005255299040234825,-0.002125021086662283,-0.0007565168903674524,0.013891076856105796,-0.0046094216502157405
402,0.002391893752380558,-0.0010191401448334835,0.001593682873481718,0.012076014463909285,0.0017512526701044626
403,0.004272350586680126,0.0008027989143355992,0.0029191536154584,0.010048127903170143,0.007977861236620238
404,0.00407357225240206,0.0025885427038288937,0.0022554717964209164,0.006907332997644552,0.013505481027758804
405,0.0028656595848936895,0.00493349049099437,0.0011674579195329613,0.0037672910288749518,0.01830501261599274
406,0.0018718984462611774,0.007676060710752299,0.0016503330765174516,0.0027339841981387607,0.02019146817330046
407,0.0010270800055701805,0.00940683193209405,0.0032103397931326906,0.0039121825911099094,0.017505695037223306
408,-0.0013089997541897592,0.00877286093970429,0.0030462786865984126,0.004369790427844202,0.01085440991788272
409,-0.005627605819422981,0.005762320921842682,0.0006569558901799325,0.003000319412260996,0.0023656791457586294
410,-0.008659550051857002,0.0032201891474526335,0.0001452248129029714,0.00314105162808466,-0.0027668129891594167
411,-0.00751252117810728,0.003928852909877102,0.0043598176694752975,0.007069218355301137,-0.0008033432351545887
412,-0.003584685252625956,0.006721428477753236,0.010180079331788463,0.013220258694034877,0.004692738915371716
413,0.0005458889011425509,0.009132075106645848,0.013012810076873872,0.019205618390553812,0.008590820095880284
414,0.0037628993403866096,0.010057944994926201,0.01212275726846948,0.022751745465319023,0.009991296089979469
415,0.0053237345576416925,0.009314535428662167,0.009676934289335295,0.021904441597534238,0.010007814551556993
416,0.0052976624988241485,0.008424762544115566,0.008288263065671613,0.018234189154367877,0.009636056102109906
417,0.003980173426691365,0.008279231289443838,0.008243066323336044,0.014335753444258786,0.008876999252649752
418,0.0007760339309145143,0.007805548226848889,0.007506947843619211,0.0098074582890101,0.007844471098364897
419,-0.0026483897086110875,0.007526086924233918,0.006405015994845939,0.005787540446444402,0.008082256069929458
420,-0.003069026636639737,0.008901317996706203,0.007323810567756463,0.005413716354989783,0.010084386717121476
421,-0.001164858194825977,0.010880018927772513,0.009863928934431212,0.007645889916824742,0.01236256082471769
422,-0.00011541882531679093,0.01107081593617367,0.011539359925370352,0.009385030756671863,0.014145213888006405
423,-0.0008112108227175272,0.008338248447508037,0.011566875956214941,0.011239007185469007,0.01515402009123909
424,-0.001421098012873985,0.003897949844104669,0.01159468950875033,0.01543518695631998,0.015573182414109365
425,-0.0005585110022158434,8.427801228166782e-05,0.012807047121480805,0.02046063801564141,0.016871861015515417
426,0.0002685292776649123,-0.0023231536749445687,0.013499299547000108,0.02179495294536922,0.018329849225914914
427,-8.488120259706399e-05,-0.0036595300500943447,0.01273821472350005,0.018790959798742877,0.017390176002008043
428,-0.0006257116317977097,-0.00427483008176019,0.011800444026060673,0.01509388603422643,0.013960176165025606
429,-0.0015295547135017727,-0.004646201303314063,0.010141966301069179,0.012008117352357569,0.009664518359323648
430,-0.002507110618551674,-0.0033607810064842022,0.007962142039185539,0.009544440771824137,0.006774893412698862
431,-0.002118164764554707,0.000997415934422053,0.007175373249071831,0.008057084396724834,0.007834006819267722
432,-0.0012973578520620347,0.005343824237280329,0.006618459427543303,0.006241798188813919,0.011420409357352751
433,-0.001180123209877119,0.00600235751240206,0.004761551424969382,0.004147264124109823,0.013749358059272203
434,-0.00130590617497889,0.0033712760381336433,0.0025193592463293247,0.002994205412112713,0.013853527722528673
435,-0.0011582461333978814,0.0001397336008065656,0.0007780247227059999,0.0024380925474562698,0.012168385938111216
436,-0.00015884283097467535,-0.0017684503160362703,-2.6678905341136126e-05,0.0018790387350618575,0.009313564958235186
437,0.0018506361165513308,-0.0021652586887103684,0.00016676651496975352,0.0011489101307387709,0.007589975757738825
438,0.0034931180487797293,-0.0016146150954707212,0.0006750363618671389,0.00026937475835801567,0.010186334452378593
439,0.003358535662282715,-0.0005278693778044347,0.0012591839368604808,0.0004876393863768355,0.016545497470967375
440,0.0017767455437328347,0.0007053189423557655,0.0021013965170513117,0.002691197878889503,0.021883161636288593
441,-0.0002252031944331781,0.001263155089066078,0.002870078807811506,0.005373068324112767,0.022897038369266175
442,-0.0010348241193639592,0.001196954129030367,0.004170789253868486,0.007695936508513216,0.020003900236099798
443,-1.5723599335440026e-05,0.0009796272898944416,0.006484722527950177,0.010273095509674535,0.014546051704926476
444,0.000491874626793533,-3.554316219388666e-05,0.007735600900317405,0.012260423556007012,0.007360043511487975
445,-0.0014207085105141157,-0.0020379498885893027,0.006513039179709031,0.012599933894117059,0.0016283546778923714
446,-0.004687104924041655,-0.004248598611550107,0.00404053082867861,0.011808132995476306,0.0012511468220182283
447,-0.00699538820810279,-0.005651743835816519,0.002319126728467901,0.010676474924460272,0.006136178935225128
448,-0.007623434459709391,-0.006066472211093851,0.0025625101091277087,0.009106968307062365,0.012802880202925965
449,-0.008349496848711802,-0.006642873713337992,0.0032837770929762624,0.006182727743731102,0.017119511011508246
450,-0.010398493424728197,-0.007805004793427162,0.002136464450819851,0.001971504191989156,0.017160363286017437
451,-0.012515464857255408,-0.008286421428381834,-0.00049927687392097,-0.0017088619383533565,0.014406088141809124
452,-0.01327243810112432,-0.007562261900362214,-0.0034817872979242223,-0.0039015000125902782,0.01076517205708317
453,-0.012446139331594431,-0.0077035165612865915,-0.006411132394949971,-0.0048927290756179236,0.006328314231367547
454,-0.010406607682370454,-0.010017195031217013,-0.00819336250979309,-0.0048001495433865485,0.002110953552802931
455,-0.008311618146186384,-0.013219195172186251,-0.00908305590049712,-0.004608957494308923,-0.0011418486783153973
456,-0.006932701040649172,-0.01564527312421416,-0.010062739390542691,-0.005045487661218885,-0.004354590574628244
457,-0.005683391651911337,-0.01545368698968978,-0.009813991730812715,-0.004865941725860598,-0.006657309235112094
458,-0.005154307046524162,-0.012128919574921694,-0.007789370133017529,-0.0035689416836725127,-0.007338003991827755
459,-0.006173843924955797,-0.007419180289397015,-0.005486310539429911,-0.0012613299838758734,-0.007398305529708868
460,-0.006815967711832817,-0.00277453930504415,-0.003675277878160601,0.003690658602159606,-0.006475490166097385
461,-0.006997863396796524,0.00038206991519630244,-0.0036108961227349604,0.00989774860345166,-0.003518038893047384
462,-0.009145387865796393,0.00022092787269248563,-0.006211346932429314,0.0126839207958176,0.0012508524461887277
463,-0.011999822277349305,-0.002890263709472443,-0.00901626034101398,0.011231535294525972,0.00705652662857961
464,-0.012493134770024906,-0.006579113504795092,-0.009913395519215655,0.007896002938622875,0.011411174280502399
465,-0.010067820573308883,-0.008201676247611787,-0.009556414713806667,0.004464585676570548,0.01204494277730526
466,-0.006147914510549195,-0.005904944641203541,-0.008450456398759921,0.002111329868803733,0.011332428928401417
467,-0.003033036128423554,-0.0013341177014816845,-0.0067804198810580245,0.0014399271515009606,0.011766511452708076
468,-0.0022353404796877966,0.0012485761511240696,-0.005221839926232714,0.0022110930377947377,0.012053423625358916
469,-0.0025754826704965975,2.407501504703042e-05,-0.004066786504903457,0.00352235594865709,0.010617906358432197
470,-0.0022323601270256366,-0.0034971400103939814,-0.0035855429828579176,0.004130684118336284,0.007334745368230297
471,-0.0010463180260776965,-0.006179601226306263,-0.003350209817751526,0.0036131025825533753,0.004716411404194911
472,0.0005845506106033814,-0.00574687417945177,-0.0015270083667454572,0.0030321827644102413,0.006123314571800528
473,0.0021190436962666235,-0.002748917927316361,0.0024788910588065282,0.0031777594718841035,0.011625769368807135
474,0.0018277776277839041,0.0005320408720926695,0.006488928173358632,0.002342300223234231,0.01826484242340403
475,-0.0015860541568071807,0.0018907779654482675,0.008763222395315061,-0.0010121938856912352,0.022195691050701943
476,-0.006829992579548489,0.0010177804635868328,0.009722116434650938,-0.0050524147897517396,0.022512821950162798
477,-0.0108892550304136,-0.0011238454462076865,0.009618643712930003,-0.007444880840116771,0.022044088288464242
478,-0.011560349537300675,-0.0038144475106428486,0.008530219149905737,-0.007738867171009968,0.02192705038148683
479,-0.010161992497979106,-0.00604452288353615,0.007301089683408636,-0.007000801051808609,0.020988021490813066
480,-0.00910868042560878,-0.0065817259697534625,0.006974801810344286,-0.006379935713817911,0.019586208387693555
481,-0.00962785999374438,-0.005700109065821265,0.006558766551944426,-0.006895951059954362,0.018002851125271016
482,-0.011836193110887107,-0.0046159616027868135,0.004026937736809334,-0.007932220886725188,0.015261222901759778
483,-0.01362463713904991,-0.003893466923180368,0.0010136744273835153,-0.005200366418002126,0.01178446292998344
484,-0.014162106496757323,-0.0042099565360522355,-0.0002506974314210642,0.002245295872976896,0.008750186133730933
485,-0.014882044083031202,-0.005011319668794597,-0.0010623177991726741,0.008734482309175015,0.006822492236030647
486,-0.014975972062566543,-0.004670628921696939,-0.0018168199486085818,0.01172835779184565,0.006892079777077666
487,-0.013265424163978788,-0.003663195875790674,3.5031550350693746e-05,0.014500954123580182,0.008208364662527882
488,-0.010711060012616113,-0.0026183937437314034,0.00496943207484429,0.017805962406433423,0.008993182101199163
489,-0.007864704402481056,-0.0016740519879384127,0.0104109003935999,0.018549186060052666,0.010032343638832012
490,-0.004134230639701861,-0.0017915853098436946,0.01550141765863816,0.015890818661640136,0.014909830559855347
491,-0.0003179116216797971,-0.003991976190630781,0.01929572821515231,0.010702497030235916,0.02378627736418406
492,0.0011936317098025884,-0.009411554593954305,0.01888268222306187,0.0037412760020345635,0.029518473535159725
493,-0.00019519575969661964,-0.017191360706972213,0.014640667059265785,-0.0021312311265728958,0.0271988541054223
494,-0.003287248550438763,-0.023752163401179454,0.010211180573673932,-0.004663850454276625,0.02044707422276966
495,-0.005503873755143367,-0.025268909807153277,0.00907128939059381,-0.0038406327214887894,0.01494989337108637
496,-0.004098328893566206,-0.021373266196296578,0.012114851352255906,0.00023444149315613233,0.011380140078637545
497,5.625909256180815e-05,-0.0157209573413767,0.016030853577876775,0.006190049078324142,0.007160468072197137
498,0.003290383462234445,-0.01148756644526863,0.01700730213313014,0.010567661104572782,0.002532418089036754
499,0.003306498552809744,-0.00949051013057856,0.014484043271240856,0.010368217862352208,-0.0015188794154702492
500,0.0004411600652291393,-0.009695962137399506,0.009755477472857963,0.00593946633092344,-0.006473614150203606
501,-0.0034651703874338884,-0.011339564836054914,0.004600402330417352,0.0008157903909551167,-0.011756225241762218
502,-0.006352058572610498,-0.013770336002109043,0.0010573805694347484,-0.00231839220504743,-0.01575437430208717
503,-0.007342560537196937,-0.016498194207257292,0.0005901893394329305,-0.0033890851466194657,-0.018571324943007957
504,-0.007133957073401002,-0.017147130661048286,0.002939055470829903,-0.0035288062512552286,-0.018310578514099417
505,-0.006972253011946372,-0.014415968425875579,0.005554842085657499,-0.003814340833238886,-0.013596614135246092
506,-0.006549138159104532,-0.009980373640064284,0.006912084650364233,-0.003287431638108041,-0.005921804821285064
507,-0.005814662333741683,-0.006610796018213226,0.007221829464706703,-0.001481717757933013,0.0014416662392238771
508,-0.006233569963270998,-0.006538430797718493,0.0067711144397120905,-0.00024777297506707374,0.004712219082223055
509,-0.0073295932121886734,-0.008239498793035909,0.006784391896003738,0.00017111131282511474,0.00403699970201623
510,-0.007765249727419002,-0.00808517281226211,0.00753067608250677,0.0012879898585760369,0.0029212289068609714
511,-0.008147921281527835,-0.006421230003823634,0.007582786778509403,0.0037374802898400374,0.004263444305856542
512,-0.00891370727591256,-0.005807585832230345,0.00761320188643755,0.007555112383720398,0.009717142944582787
513,-0.008911161570892378,-0.0061461005181183545,0.01006670156233659,0.012161980801698726,0.017790907932163275
514,-0.007998590028147972,-0.006873902374852283,0.013811719921092752,0.015725490454481524,0.022222868705484743
515,-0.007511038933352839,-0.008669081820943992,0.015347611271220116,0.017360049218974872,0.018414535350122187
516,-0.008118346207480812,-0.011195591554580078,0.013774713918540172,0.01712822848209418,0.009930367647590413
517,-0.0085065339281505,-0.01132752267170587,0.011149439597738054,0.014789353494980624,0.004758915755241759
518,-0.007817572658615832,-0.007708396192816531,0.008801678259313358,0.010007977776997063,0.0048424506073447525
519,-0.006965262946624785,-0.0041341420239599785,0.006148584845246165,0.0037730171456068287,0.004860357909843889
520,-0.005837311342989095,-0.004110874513922586,0.00412977901892352,-0.0006489557147633094,0.0011731602592095355
521,-0.004131252017669733,-0.007670133396329317,0.0035388519005785032,-0.0015514582872298093,-0.00515692120927723
522,-0.0031144908956653844,-0.012615032510199868,0.0029603724763316774,-0.0008817892529168648,-0.010978806275676775
523,-0.0035335763503757988,-0.016169071423589084,0.0029877328683286853,-0.0004062109333662781,-0.014024413422850749
524,-0.0036244229357571484,-0.01623297201203747,0.00625948388375179,0.0010902573622419388,-0.01355614323134528
525,-0.0033252482392177136,-0.014006922407065357,0.011875843487936877,0.003748541402517817,-0.011395446864664163
526,-0.004978486026836468,-0.012494413799539741,0.016623114508158447,0.005162338533644051,-0.01074406226388439
527,-0.007300643005548442,-0.010620091808998323,0.019672196660264075,0.0047281698933655724,-0.009993771903350733
528,-0.007311763573936944,-0.00600625911550976,0.022345007003885312,0.00394397080908837,-0.004907238024352672
529,-0.006359803983959962,-0.0009378312405980765,0.02443408160256,0.0023984916900442305,0.0024062046870749836
530,-0.007573948922275055,0.0014874434066549425,0.02300327186175445,-0.001682259629267246,0.005294655967314022
531,-0.010712786951054454,0.0018469334184663116,0.017861050929957704,-0.007243743135776457,0.0017179976763307368
532,-0.013488762037315954,0.0011641479967861236,0.014791608136614917,-0.008803688354864607,-0.002668014744822772
533,-0.013937685426303663,-0.0006082066116645633,0.013904727515024518,-0.007813657188946974,-0.0055306713408059495
534,-0.01098867339304649,-0.0032221717780187486,0.012674727875360416,-0.006845068637036056,-0.005875694639846815
535,-0.005725624601868123,-0.006013543719333021,0.012599469051435115,-0.004274416477626163,-0.0028114611238950486
536,-0.001705418572077333,-0.009006652574782385,0.014229962341468767,0.00010044576446209055,0.00019438785419192465
537,-0.0018570911365144015,-0.012501378819026458,0.016502147397146002,0.006356416979917207,0.0019319405771752616
538,-0.004744149171842004,-0.014863257972165648,0.01829959558236236,0.013184411132702432,0.004111772452058351
539,-0.007160283961550816,-0.014975977039363667,0.019329846122391876,0.018042589199502884,0.005141039160113903
540,-0.0083020604782802,-0.013235805366181208,0.01773616362810186,0.017748095566760675,0.0018589986733624998
541,-0.008667926463484046,-0.009773367361906248,0.01382365252014301,0.014354864972816617,-0.00139339305216142
542,-0.008872779420588865,-0.005850829390242082,0.009397700340396139,0.010896041434893936,-0.0009109626716584569
543,-0.009095437146802792,-0.0024264471632348115,0.005001986482238885,0.007882574546331613,0.0024369166075438923
544,-0.008391703516256,0.001090849096452374,0.001914764024545792,0.007191539018530841,0.008102706612990718
545,-0.0073081858225847755,0.003967622073229928,0.0004653933424312202,0.00766438123638701,0.011959532149520677
546,-0.008414547493936142,0.004562357191508468,-0.0004239174275810825,0.005285212305922958,0.01024978608442093
547,-0.01177425451426543,0.003478567932514929,-0.0011353362482581606,-0.0005012873115785535,0.004838995396543185
548,-0.014264012384240748,0.0022613349264058633,-0.0013477255944066941,-0.0073216941977660484,-0.004083315155505265
549,-0.013957326392303047,0.0017145825996019077,-0.00042695572372191814,-0.009153166294676393,-0.012341906376711127
550,-0.012616047479111709,0.0017870640343989766,-0.0009133624405279121,-0.006790467023655657,-0.014511891833612362
551,-0.01291041346886914,0.0009766818692036367,-0.005418238426338048,-0.0062247344862763326,-0.012131990385497199
552,-0.01424985224858137,-0.0008325189707193791,-0.011674687459771856,-0.0075669419546612595,-0.008039653249188063
553,-0.014381660298337196,-0.0017116017875105877,-0.01613486647137876,-0.009081638517130241,-0.003838009746089439
554,-0.013457495123196984,-0.0007273831500201108,-0.017610323125518666,-0.010233242985166303,0.00020444338612181386
555,-0.012248569114454926,0.0022799812554878947,-0.016794428503416312,-0.010896878319025293,0.003647668182848196
556,-0.009704652151284097,0.006779505401983444,-0.013579605718960391,-0.008691133074427641,0.0065432104464937454
557,-0.006328324070125465,0.010497928593581465,-0.009287407347549735,-0.004510407359305676,0.008026422536044995
558,-0.004434497014377045,0.011842426578365296,-0.005611944169989126,-0.0008677266239997758,0.00828052837628841
559,-0.0044389990493774265,0.011330560852751885,-0.002233132410499594,0.0022221706224112873,0.007905320660682792
560,-0.006257179457988945,0.009283867268770066,0.00014549758235802494,0.003394189429437519,0.004873991552915983
561,-0.009670361823029354,0.005972481814484897,0.0014157870626196178,0.0025116735627624936,0.001009277251048032
562,-0.011822163963064132,0.003037794228317387,0.004394540922742446,0.0034834153725971993,0.0009833992312683597
563,-0.010973620356650188,0.0009968295194816362,0.010304670575170925,0.009633118754678887,0.004644328030987106
564,-0.009363682620666258,-0.0017903204306597737,0.010970939051931196,0.013634179916170495,0.004767835553154257
565,-0.009186915542723953,-0.00631764770415597,0.007172792492082324,0.012849132855052372,0.0014166123644571977
566,-0.009770995497364626,-0.011381061522508791,0.003028072868885462,0.007812019293240385,-0.0037569727898026243
567,-0.009214404873027188,-0.014931540983975262,-0.00031057369564960473,-0.00025103336032600493,-0.009642329787572242
568,-0.006958205788456178,-0.016031622371649644,0.0008193736833777163,-0.00582076852277646,-0.011405619616458891
569,-0.004136753357992869,-0.014282866273181163,0.003605606749351786,-0.00909376198690168,-0.008538547230867482
570,-0.002432313280893724,-0.010048122370597795,0.004270576648589942,-0.011703482448681779,-0.0027479139742369197
571,-0.00261782699786503,-0.005607397613741814,0.0021270446533840407,-0.013550493355317255,0.0013519569528975992
572,-0.003699007138750951,-0.0021970322790945984,0.00013339774653038641,-0.01148093969935499,0.0015003177434365306
573,-0.0045836740996528175,0.0012206553815754645,-0.0016580022359823918,-0.006453532236271728,-0.0015829920838848481
574,-0.0063850224761715065,0.0047796847578563005,-0.004133014180615785,-0.0022124722135749312,-0.006093476310685988
575,-0.010256791542143956,0.006989606576426402,-0.0065875580813959545,-5.732342237310159e-05,-0.009061064091547475
576,-0.014926857646237301,0.006265075198962772,-0.01019960043882946,-0.002184046247186877,-0.010434174791152568
577,-0.01753102589369321,0.0032494359299268753,-0.010093158018308351,-0.0026371961117075218,-0.00753636070629691
578,-0.016559788324571355,6.560732090730421e-05,-0.0077432923704317605,-0.001081385911627256,-0.004444936610453909
579,-0.014361921092426384,-0.00297051510146126,-0.007026834152078542,-0.0001692561252873242,-0.0037742790175449084
580,-0.012583331224919468,-0.005063853535318567,-0.00781882640002942,-0.0006589988976550974,-0.004688631371425653
581,-0.009899558101934198,-0.004293237157888455,-0.007905407793931528,-0.0012338356438458852,-0.004775913556944452
582,-0.006522626865801313,-0.0019846171488768155,-0.006588795359310485,-0.0006932980447383794,-0.0033445439525152023
583,-0.004142123177454534,-0.001377440471378892,-0.004389631734747132,0.0015893625521769747,-0.0016877351014491085
584,-0.0028548629702593335,-0.0023847766795947333,-0.00203066519600764,0.005190986990269704,0.0003052214196970144
585,-0.002507505933972728,-0.002963160247889603,-0.0002234258301551415,0.009044584857605469,0.002856475166946902
586,-0.0036683149525058435,-0.003325053846329815,-0.0004043509824010873,0.011430370129286412,0.003110435842512208
587,-0.005652124535432804,-0.0037563758444058223,-0.0029230131521186965,0.012103683677470984,4.4821801375310644e-05
588,-0.007203775126673538,-0.0028045251644122217,-0.007437587030931676,0.010786943891235204,-0.004034055655664481
589,-0.008122644451041786,-0.0005806637033319633,-0.011986080669443953,0.007704986485997206,-0.00788800695885935
590,-0.008797578316367587,0.0011796396654221218,-0.014504723813795358,0.0038756600751794646,-0.011654742301453573
591,-0.009443191202252997,0.0008182336909015218,-0.015896249461574447,0.00019751194976495206,-0.016129143338390578
592,-0.009347604887024623,-0.0012836436232319612,-0.018327804849785384,-0.002005542202471242,-0.021414454175220234
593,-0.008081012715392211,-0.002546707001369699,-0.022635746287403724,-0.002026052054202271,-0.02653879298702374
594,-0.007167301175493116,-0.0023608630786612016,-0.028976638376569754,-0.0009566124400731185,-0.03277380386595988
595,-0.007646615740761581,-0.001984899742993326,-0.03742376227620988,-0.0010481437526034057,-0.04135506732890385
596,-0.008769331834373792,-0.001973304260963752,-0.03983455592576867,0.00046269133362180324,-0.042534669711465925
597,-0.009581433141903385,-0.0016982265772334808,-0.03845716504483179,0.0006662818258490986,-0.0369009842718395
598,-0.00957987213228498,-0.00024160857661279067,-0.03588692710915418,-0.0003973272317677263,-0.02727826430700394
599,-0.008718123535399469,0.002101518321447284,-0.03033028261253815,0.0016116774754626434,-0.014109727084701982
600,-0.007505441909176949,0.0035250258868222643,-0.026017037936045533,0.004351774562422648,-0.004861255547413117
601,-0.005815210657713125,0.0030151356752318166,-0.020504385584643715,0.007818942120726468,0.0005962178392178448
602,-0.0040022501907544805,0.00100308021953181,-0.011970564789104212,0.011814202560426956,0.0037899082012253344
603,-0.00396347279964178,-0.001899742680009334,-0.0032637320958132294,0.013117852320842616,0.004087479076283538
604,-0.006074679357074944,-0.004459954380017114,0.0020056798111172816,0.009502556066576979,0.0011099442356516335
605,-0.009228449711440542,-0.005317905101330386,0.005922529307627484,0.00482582242421478,-0.0002909247446960222
606,-0.012062910600679487,-0.004065779299842941,0.009185963604038063,0.002361829365726721,0.001429653699654656
607,-0.013180690987590988,-0.0019481823758708459,0.01140092000673934,0.002325613845774554,0.0042421817673410755
608,-0.011374669530664195,-8.733647428700318e-05,0.01690650056054723,0.006143893991144131,0.009941112129269368
609,-0.00697599416265426,0.0014026822542867836,0.025345428511608058,0.012182976949900691,0.016592629204687424
610,-0.002761561876970351,0.002234193908945318,0.03354417774710993,0.0171737271861189,0.02235816875368848
611,-0.00017689881553404753,0.00251540968597405,0.04110644372866712,0.021063503870512024,0.02908343211015854
612,0.002372493252885471,0.00302622670183047,0.04582747495096839,0.024594272598173775,0.03258764541220448
613,0.006449633567210595,0.005040190897117157,0.04972865929551473,0.02922362409077952,0.03608167511288146
614,0.010667849698523666,0.007600153823109479,0.051952028320653626,0.032509171602831816,0.039603326330185325
615,0.012047087178148895,0.007903019865925131,0.04932861050568648,0.03044669283424679,0.038175128610337825
616,0.010032269081432014,0.0064903689471374326,0.04452698109697017,0.023852279965582503,0.035772287863302735
617,0.006685956981575449,0.006110889071383226,0.039172850769271135,0.015009274697367897,0.03421751836692105
618,0.0040568801548452015,0.007674654017551949,0.03420265024364278,0.006128997142565858,0.03147595933152693
619,0.0029929738058614326,0.010000788470933462,0.030844963068140795,-0.0007156459738663918,0.02514972649472552
620,0.002758216894172418,0.011177717960476102,0.03020450901292985,-0.0038691069431540832,0.01702067996105154
621,0.0013185446130889959,0.009845308073214851,0.02945864851882629,-0.00507084426642769,0.007973476111800758
622,-0.0021198376966538794,0.006642161852938921,0.027415686460267537,-0.006537443739876573,0.0015920662246180447
623,-0.004781467430855234,0.004689182270335929,0.02668167449040316,-0.007395294397686934,0.0010870946079862072
624,-0.004067823329397275,0.005675011099129396,0.027715330076016037,-0.006746478357218041,0.001687772866309886
625,-0.0016906962402628003,0.008136160405768547,0.029862754843414906,-0.005475298683445622,0.00026411935822375876
626,-0.0004731580677389978,0.010170459519241296,0.031782378589962045,-0.005466244726768538,-0.0038315978433297046
627,-0.0007828122628989498,0.010086537740139328,0.03280553997464237,-0.00724598029378963,-0.010939629014567076
628,-0.001725576837576911,0.007479517279935773,0.031028999211393377,-0.00856479308635899,-0.015113793089857604
629,-0.0026458424702256126,0.0039931620200134,0.028418929664777572,-0.008964477092658593,-0.01631317929225602
630,-0.0023626435241173387,0.0017029662462925072,0.026915767162934305,-0.007071721033280869,-0.016176525582339268
631,-5.472753481493537e-05,0.001855565887502979,0.02629354296796205,-0.001122293814765732,-0.01434671333600758
632,0.0032202406716961077,0.003873718713910072,0.02777031088771357,0.005819871449851529,-0.012638068528093283
633,0.0056845320397460285,0.005438691459322865,0.029248841329565282,0.010120195177086788,-0.009091603595840993
634,0.006937666575558366,0.0054399905457987105,0.02854892066608705,0.012391359632630834,-0.003325510128725786
635,0.008094506831083368,0.005199242297934385,0.02630663127094372,0.014880974372749321,0.0028075509121677725
636,0.00974649732688307,0.006032891146605784,0.02340898151284833,0.015526578561854791,0.006194108524809567
637,0.010634612537478647,0.006908616008479901,0.017669256439769694,0.011266021513683501,0.00629600074818054
638,0.009700279142899053,0.006032144928559978,0.008889157950974828,0.002736528597833427,0.003726153115142789
639,0.007336187414860757,0.0037892115896787683,-0.00023390292559908026,-0.0060616567681663,0.00012464312120200668
640,0.004796290448847154,0.001592246383907116,-0.008297683117306692,-0.010839377467265054,-0.0004237537826543977
641,0.004734571013251311,0.0007920487121629903,-0.014252923108906865,-0.01132445998430135,0.001604944235800414
642,0.007801219122994572,0.002118248671136468,-0.016730297076843658,-0.007878160653939386,0.005403579048416951
643,0.011168042463831953,0.004475193634229616,-0.017714170220508908,-0.002947862307510321,0.0077923547733074
644,0.013020400478882796,0.006268696740364061,-0.014365995020743882,0.0013808858597043905,0.004014776708306584
645,0.0142073510424155,0.007291580149916165,-0.00961458729183912,0.004195950532183729,-0.0017427643696046394
646,0.015399866306149623,0.007632714117040503,-0.006248111606080648,0.004092692369042144,-0.005027059833056917
647,0.015520951594775819,0.006382705386698168,-0.0038854705221126815,0.00024229586935861186,-0.007369831709031455
648,0.014399910086465751,0.003530420481801106,-0.004125088133930667,-0.004494037848974337,-0.009308666335160413
649,0.014111612614333746,0.001320527528921531,-0.0030850806214250373,-0.005610416255983303,-0.009996872685183464
650,0.016577633299825322,0.002566594005883512,0.00213153795358927,-0.0013608668350096034,-0.0064838416341156365
651,0.02120996152894506,0.007689798126714674,0.009001873977673111,0.005671438256663545,0.0011059941355382847
652,0.02425305887440994,0.013681523152940642,0.01115111088337323,0.009654746220503399,0.008295550608992746
653,0.022715869477619156,0.017788145461485133,0.007587478388296718,0.006626546485603418,0.010647677960610866
654,0.018824436955884066,0.01980876589258855,0.0016939768132866895,-0.00015428937683940752,0.009024311750713757
655,0.016212744780424317,0.019436663719354264,-0.0035179930286742085,-0.0049703023353267406,0.005235220282915114
656,0.015341653221476247,0.017216641305089927,-0.005453897357485176,-0.00629727326433618,-0.0006247763240989097
657,0.015281897790571377,0.015906765786348608,-0.004935477322336962,-0.004920534101338986,-0.0053773297509219645
658,0.016177674937298353,0.017080173231173435,-0.0024279873514516962,-0.001227607593182003,-0.006685934481829379
659,0.018082166593089446,0.019730722281364025,0.0020352830104785956,0.0032646936414203382,-0.005771832870868659
660,0.0200658667922588,0.021718439383226394,0.004304906978747454,0.0051288276261176454,-0.0038924193911284467
661,0.021313940434924933,0.02110054079547954,0.004576183918344726,0.004734805566241217,-0.0030324280932889002
662,0.021440586565182697,0.018119563209518366,0.00353118786473272,0.0029313676547452895,-0.0026170571290538916
663,0.02043874881446228,0.015022180529105218,0.00024492960968072356,-0.00012629310675831161,-0.0001651783094384587
664,0.018281863241934343,0.012292215464919678,-0.0038500648517312036,-0.0031821485337529486,0.0026858806689404125
665,0.015456755523551698,0.009272688507238084,-0.008294201386892767,-0.006464335767616108,0.0034338519123892513
666,0.0134837762278709,0.007241730985029894,-0.011632862850594882,-0.009228500148172239,0.0026853421846640066
667,0.013251985345297949,0.007362212292674986,-0.01240443352504199,-0.010137730487291085,0.0019774792776335306
668,0.014300662067323456,0.00895747437279412,-0.00968625722827589,-0.00874383797006646,0.0018876293569325053
669,0.017095598719776634,0.011826367270392024,-0.0038240158407754567,-0.004454103804453409,0.0041886786182180075
670,0.022494701350135017,0.0158690693323765,0.004751859487166748,0.0036085047894088168,0.007997426845134823
671,0.028628206251432343,0.0188507842641468,0.013023261689622622,0.012207364132383984,0.008472748947866836
672,0.03288221357556547,0.019588954221260165,0.01599854430816309,0.015556240407632147,0.0053870217187611475
673,0.03442430935837097,0.018977960974950105,0.012843699980828368,0.01188962054809172,0.002255431002027327
674,0.03332896421505809,0.01730496763770425,0.005287167028580127,0.003240576235845539,-0.0007502881625071648
675,0.030504523238279905,0.015652074158059488,-0.0033428654458231588,-0.006133704194380936,-0.003976840706456437
676,0.027179616988497603,0.015524937541426111,-0.007011170547448964,-0.009453533090074441,-0.004136770538913747
677,0.02442128960596576,0.01710178948219626,-0.007043239171880541,-0.006614634320566896,-0.0014486431235464126
678,0.023253369910014875,0.01944412201782627,-0.005507397601740686,-0.0009443684335734019,0.0026729756613027107
679,0.023585497004441885,0.020740968782150808,-0.0015613583940561838,0.004430733306908725,0.007247469938627699
680,0.024511719058829384,0.020056475935896607,0.004004474986227634,0.006853876090364127,0.010631879354528747
681,0.024698996383303497,0.01683837059949788,0.009712356649599305,0.006291602528805443,0.012691706174432188
682,0.024181625336662883,0.011086519061827449,0.012598910047428614,0.0026860878679945926,0.012977902002668797
683,0.025020834501489075,0.005437682117520192,0.0123942312275979,-0.0019532147381317107,0.012315304939368457
684,0.028177986486696296,0.0033317031975831192,0.010046860073892824,-0.00561463159622262,0.011999072773166598
685,0.032081995191713744,0.005398455478279646,0.0072885421980152625,-0.007307118649235621,0.013546744347977955
686,0.034411582916585776,0.008806675105384078,0.005277051749174244,-0.007855916366314674,0.016438989838272244
687,0.03448056138857729,0.011071126387068527,0.005096603090261101,-0.007338536259481649,0.019996827375258354
688,0.03228002423644339,0.012159053687571643,0.007194397726671865,-0.005256299481903252,0.02529783873046702
689,0.028536368387113632,0.012473852219251116,0.009137667400759499,-0.0032337966107714553,0.030972248613355208
690,0.025351416285918072,0.011696649907304736,0.009982818015489045,-0.00099272998498025,0.03602271044013402
691,0.02309483088400269,0.009416793679244893,0.010159264225844419,0.0021720774866661394,0.04215695653566842
692,0.019059872574157068,0.00549962176326528,0.00815969782605318,0.003966869012918357,0.04487433302706855
693,0.013058623169347878,0.0019538222013811717,0.007132381946982181,0.004290006547074675,0.04563790351553403
694,0.008202719671009506,0.0008998586330693552,0.009194547635658126,0.0065571756778148695,0.04588454804099426
695,0.00477825198416398,0.0009767361958945284,0.010741629985093329,0.010497131974707854,0.042704361345139843
696,0.0016477902407691578,0.0006723458001056673,0.009260863243546554,0.013327574478990127,0.03833599857483163
697,-0.00018225183147487376,0.001085625227881607,0.005378850229817641,0.015491475595060806,0.032892518683797195
698,0.00019371850241243802,0.0036789585412486444,0.0015353778649075055,0.01798710432282699,0.027122897906500694
699,0.0016428993259610587,0.007007870038234199,-0.0009401569991995777,0.02001457836966566,0.023146933319879354
700,0.002777917316980435,0.00822262542623626,-0.0011705991320512124,0.02119820407492791,0.023260212819747796
701,0.002514642356433987,0.006890739528376271,-6.013800567576143e-05,0.02095621417301003,0.024924651364588078
702,0.001372642658247404,0.005661610366426661,0.002119048807224254,0.019733124140470966,0.02644287270617098
703,0.0010490191558545471,0.005793268334389714,0.006052967994758367,0.01885692345694691,0.027562328234321608
704,0.0017957401601672797,0.005171127117922481,0.010025675064831364,0.018496580387351153,0.024994745584957557
705,0.004007605663535551,0.0032903759965139997,0.013369549259006328,0.01931205866044231,0.02028079599892924
706,0.0076277921736822695,0.0014871322423856486,0.015728724299174338,0.023625406781568947,0.016353833176434605
707,0.011538998631269354,0.0012767325405486432,0.01726428733947639,0.032254360340547746,0.014348939582016086
708,0.014178185462848793,0.003589945564994517,0.01642124143176826,0.03814900221470474,0.0180753755675635
709,0.01370091809140641,0.006951092214055929,0.015806327921036742,0.038229523161529,0.023943798868973232
710,0.01053547811979308,0.009651150863690032,0.0177262068891234,0.03308222052445224,0.02785475931370899
711,0.005660776179185605,0.010416972706154763,0.018747060841552723,0.02364794482611316,0.030547753476295104
712,-0.0005539993968173733,0.008278789936405967,0.016150357835029713,0.01403678058788354,0.03092706872612048
713,-0.006156239678597348,0.00468122367572277,0.010547509753810677,0.005398634770446235,0.02927350176320183
714,-0.010295800550443782,0.0015845393609995422,0.0047496420075465486,-0.001683474734553035,0.02700034345841329
715,-0.01372272198267677,-0.0007687382487548615,0.00019177231194080058,-0.006431983136364212,0.023490111511057826
716,-0.015926797169885872,-0.003140245833670291,-0.0021483260792858443,-0.006256907297993754,0.017067375794353766
717,-0.015671652266137683,-0.005653270986783089,-0.0024202917207515216,-0.0012932241833685854,0.010553265877959649
718,-0.011801797930935734,-0.006456136915746127,-0.00025344684683673143,0.006743037644745502,0.007028633564744053
719,-0.004864809317059196,-0.004546355147745944,0.004169286380331422,0.014624650396296252,0.006416145161645021
720,0.001834672773218345,-0.0016815121418854938,0.007745174248023686,0.016765957149761215,0.008375166884627158
721,0.005965857026670798,0.0006969694125037998,0.008965834180806542,0.013281945459493816,0.011280188280681143
722,0.00818588657206562,0.0029155795705803006,0.008501986707775702,0.008517761032912931,0.013673190911944053
723,0.009067209065630268,0.004199826351798836,0.00684264952079516,0.005483809597217902,0.014475059645435892
724,0.008669103464430655,0.0027051898157434365,0.005428901363017598,0.006076257003851325,0.012595511650531228
725,0.007479674743840875,-0.0015978498889029165,0.0033184274620690975,0.006712570393723108,0.007956405461664293
726,0.005495657834804141,-0.007063847148653692,-0.0004466714461074226,0.00419088659543203,0.001496802885565397
727,0.003462569792085965,-0.011242511947641844,-0.0032237436636383615,-0.00022317589106881245,-0.004337644046335837
728,0.0022621145603941815,-0.013109873540418555,-0.002783221105234759,-0.0050543535604324515,-0.007551928738750999
729,0.0021149764395806637,-0.013283692338225671,0.0003511207772846616,-0.007422842763578736,-0.007549214370021812
730,0.0035336058040531973,-0.012308202845191593,0.00395896949382571,-0.005172744298971402,-0.004304724122400085
731,0.007056516498705595,-0.010266265305026345,0.0070449180129651635,0.0001711879603771003,0.0015333568321205966
732,0.012292014181462014,-0.006642804942159561,0.009373710784428425,0.004426570173573444,0.008535955861234032
733,0.016464001316812325,-0.0022493795863846896,0.009343721327151822,0.00439668491784895,0.01303395949455449
734,0.017498641076058707,0.0013876056882631642,0.006075953851482267,0.0001662566460778703,0.012255883649243448
735,0.016590241137096628,0.0032652615128892118,0.002480673671557196,-0.004015813936717419,0.0070408977060392956
736,0.01569757874268765,0.0023303111909615207,0.0016561745077756772,-0.0038566758123350616,-0.0007195013243485997
737,0.014664200078301198,-0.0023107524644121833,0.002160389217673701,-0.0009781742285367354,-0.010107150895796356
738,0.012330206154647265,-0.01007942858949399,0.0015615729660096568,0.0005576704431823363,-0.02027656241060599
739,0.00988137446900194,-0.017301321430408013,0.001220373762159757,0.0003204083556746377,-0.027104732847355692
740,0.008835567422739174,-0.020010160298810704,0.0031882925181126354,-0.0002329231517035874,-0.026709200728299593
741,0.00883639282185399,-0.018826812510236615,0.006713102261129095,-0.00011803223543566676,-0.021399133578073052
742,0.008707683618909667,-0.01787762509129799,0.009146678009183288,0.0007644819844850337,-0.016966590653404764
743,0.0068171994032654,-0.01936781302999678,0.0074388606333688784,-0.0002552699245289218,-0.017067383767848117
744,0.0038448169801255415,-0.021902724259582534,0.002010501126578505,-0.004815550389714864,-0.020481852944131292
745,0.0030203221709895426,-0.023532918027187242,-0.0030714958161649564,-0.00986359960383387,-0.02336195547099802
746,0.004173479061552427,-0.024610728672202237,-0.00591895813007256,-0.013397881563232348,-0.024176425795344264
747,0.004685620019665165,-0.025128212296195263,-0.006685925657555007,-0.015643099504795272,-0.02286460912805947
748,0.00414782132918702,-0.02325621084408993,-0.005125425667039663,-0.015369672552771555,-0.01885089941240463
749,0.0027951478465695115,-0.0195733724331558,-0.002581488221797609,-0.01213528734117124,-0.013885434879776648
750,0.0007380157759568102,-0.016852787215476235,-0.0015229655629188893,-0.007816340161520812,-0.011960184840277485
751,-0.00094127424172077,-0.016043390074798446,-0.00250627702755092,-0.004913771385001513,-0.014977804373090542
752,-0.0010574951989888951,-0.015629899875581298,-0.004303799543442601,-0.004623141387518535,-0.020915174092194445
753,0.0003500436689615573,-0.013672826616340924,-0.006005097292901476,-0.0058628659157469775,-0.025897826144968734
754,0.0021203889382531162,-0.010516831984127239,-0.007364911798165221,-0.007212396769947724,-0.027870093275159713
755,0.002724623009192843,-0.008747874547946434,-0.00829839216215969,-0.009068700842731885,-0.027731824268904953
756,0.0015524777027575748,-0.008925099030707135,-0.008134326780312003,-0.011437005455235422,-0.026043382259319053
757,-1.6990312179077936e-05,-0.0085206447690144,-0.005782498047513805,-0.011873058909650663,-0.0219226398222826
758,-0.0005348345342297855,-0.006080623149248564,-0.0017601089623948353,-0.008734565431984675,-0.01618558612880569
759,-0.0003464586378516181,-0.003356959220397639,0.001884852382184871,-0.00334511422051797,-0.012177462961410342
760,-0.0009925634672462433,-0.0030897464045410434,0.0032532223304816096,0.0014577006446513793,-0.013018770987048242
761,-0.003278930780101022,-0.004944790419749941,0.002040458704770264,0.004499272263722218,-0.01725283917894287
762,-0.005899097391601318,-0.005295841849488942,0.00045849741904894066,0.008148320498396328,-0.019375121514779145
763,-0.007035773187306797,-0.0026490230129129514,0.000783177810494547,0.014101304693716536,-0.01771440460313508
764,-0.006212035659573609,-0.00018979124854244173,0.0028598366861878953,0.02008535957559693,-0.016427629394092407
765,-0.004273213586233338,-0.001277153035403397,0.004604916800989921,0.02248638371561632,-0.018569493124891985
766,-0.0034583539292171043,-0.005224257011900915,0.003308074096684613,0.019006950341683645,-0.021783714534224626
767,-0.005217803817903804,-0.008548280095456938,-0.001382150202197594,0.011130460212393119,-0.021561037950221094
768,-0.008930208461323032,-0.00935716728961981,-0.0075011729860240935,0.003076510148869256,-0.01791264266303495
769,-0.014373351380638158,-0.009202097712159614,-0.014417894602476606,-0.002974819811985877,-0.015863571596569457
770,-0.01970515183932828,-0.008900262335643172,-0.021340639282569736,-0.006409315661129473,-0.016873122558854325
771,-0.02140200383631375,-0.0072837336243851344,-0.026156759806954206,-0.0070977050031610445,-0.017822895253197035
772,-0.019123980088169082,-0.0046414358659714865,-0.02737418267181202,-0.005633148618188849,-0.017502024363348058
773,-0.015537721481903709,-0.002191494356691534,-0.024600908827548836,-0.0029675591107855073,-0.015945117238147063
774,-0.013260826379075434,-0.00025925610508605783,-0.019266417307143187,-0.001088863340742165,-0.014052073349993428
775,-0.012842192860473885,0.0012438147269428405,-0.013885125506252809,-0.0012884916735179186,-0.013279327172585143
776,-0.01281220117848646,0.0018070361293709718,-0.009761420658437,-0.002092497498249139,-0.012756807163408917
777,-0.012382738039586606,-4.8064769424853386e-05,-0.007325908900884711,-0.002039081052304844,-0.012373535559293799
778,-0.012587482817036007,-0.005114741198661753,-0.007378927301961295,-0.0028818559811869017,-0.013970573688418768
779,-0.012967432951351311,-0.010375031887837135,-0.008512594543658858,-0.004967654856738801,-0.015423202791514011
780,-0.011604627138758473,-0.011858040974490539,-0.007399716436993309,-0.004698527602516148,-0.013044824236323086
781,-0.009418222744556186,-0.01044316308053716,-0.004157641139623221,-0.0012907528526444445,-0.008641182707115311
782,-0.008353060354975402,-0.008522689333645996,-0.0010742694761008852,0.0017055124991641165,-0.004847047694271715
783,-0.00787877285709525,-0.005505616672142515,0.0017545611704087851,0.0022015497526489173,-0.0012686306883441208
784,-0.007447422776653237,-0.0016147342682731036,0.0038786645722871907,0.0007252745105430604,0.00036004162068409284
785,-0.007695327492426239,0.0006314346851940846,0.0033363639035918187,-0.0018443113031168582,-0.0024883634861569935
786,-0.008314182488486104,0.0002875294872703623,0.00020326428241970634,-0.004430329105219375,-0.007819714603719411
787,-0.008643473779213557,-0.0018465623623333447,-0.0037332961548786113,-0.0062047292641937025,-0.012688822319884998
788,-0.009188527184597707,-0.004410479262149416,-0.0073131159812406836,-0.007320717861743584,-0.01681563846369214
789,-0.009666206136425451,-0.0050444025407652415,-0.00927616653003648,-0.007003093138612323,-0.01909506957760409
790,-0.008448163315798772,-0.0030729623433460394,-0.008674803485908973,-0.0036840350007266904,-0.017852386547150212
791,-0.005630206979455708,-0.000921732586986008,-0.0066410134150697315,0.0013602894116719689,-0.014814450533707592
792,-0.003451999613266741,-0.00013049373741471954,-0.005166003334960577,0.004451940269891244,-0.012842988498437546
793,-0.0028432351236395504,0.0014351321927389992,-0.004260493349667361,0.004472964843013826,-0.011006414525927368
794,-0.0033596951587394003,0.005076625088176569,-0.0034768734210305885,0.002154016065441168,-0.007937069184212902
795,-0.004446067569497155,0.00937099353644895,-0.0034334844865252937,-0.0020463958552347315,-0.0047408636838190115
796,-0.004521440724575855,0.013341286744165229,-0.004239235098906981,-0.00645819411665861,-0.002404366887630029
797,-0.0037110719225900515,0.014404925012863274,-0.007058911247029457,-0.011144652271069493,-0.002993597851348578
798,-0.0036553568317400052,0.010230680931642618,-0.0124271703836201,-0.01706963724096729,-0.007038966157137046
799,-0.004490635834617188,0.0025995402344890814,-0.018011251045768693,-0.022354066026397754,-0.011541680250619952
800,-0.006164372375632282,-0.005645000265118079,-0.02203014230982148,-0.025291738677311392,-0.01399537294240469
801,-0.008795898895452231,-0.01248662127928425,-0.024037292076798073,-0.025966094256479128,-0.012606112397830311
802,-0.011212955627157625,-0.016349776533820217,-0.023179041654912417,-0.02438918060039096,-0.007363510294175147
803,-0.013216098523063375,-0.017438353807370084,-0.020462676088401247,-0.02156649315756628,-0.0030836515113668024
804,-0.01590521070260825,-0.01695891701066894,-0.018874835300816132,-0.018686929236325475,-0.004183119299688042
805,-0.01804302307237879,-0.01420571589007879,-0.01867534647624091,-0.014948225226879119,-0.008231596886251075
806,-0.018094253482894302,-0.008387826368298332,-0.018770543943066945,-0.011655191296162316,-0.010389572221487162
807,-0.017257141800474822,-0.002406994446385102,-0.020054554682975265,-0.012532431809887683,-0.010827001687041121
808,-0.015963542463549474,0.0007551903725614978,-0.022081987311431062,-0.016019224959348998,-0.011760512798926101
809,-0.014366889080717923,0.00033970912054244966,-0.023967349400634008,-0.01842423548714292,-0.014455780161199645
810,-0.014328530391490934,-0.0033504698633642477,-0.02661564047992878,-0.020268108264190225,-0.0202796376111462
811,-0.014985500938836986,-0.006920943118710055,-0.028953845572975367,-0.020575372668649856,-0.026897310964221467
812,-0.014019729334227498,-0.008030485231108152,-0.02933965930909184,-0.017355828320055094,-0.030158211652747048
813,-0.012152319741020393,-0.008377022443873791,-0.02857824183646066,-0.013593777176310197,-0.028838135816486518
814,-0.011846718714620685,-0.009556971329165645,-0.028235839505672194,-0.013520452422665379,-0.02505506630578838
815,-0.013379793083416133,-0.010635959756930598,-0.02769160688832324,-0.015836316568702467,-0.02160126598865026
816,-0.014643316677038444,-0.009782433748049985,-0.025209030066158274,-0.016539625939550995,-0.01917429275610648
817,-0.014578779248835726,-0.007955489049577684,-0.021970879819910107,-0.015312197573306097,-0.018105364721165494
818,-0.0132313491661632,-0.007595499583434057,-0.020129197243649293,-0.013293578066334976,-0.01760066852909848
819,-0.011681187436847084,-0.009504102073150467,-0.02025117417712595,-0.011186991429152183,-0.015378016894610652
820,-0.011354788679625189,-0.012268138574599165,-0.02137887612543265,-0.010051615196909709,-0.010928852021032753
821,-0.011557372111161429,-0.013137310657994752,-0.020951528974994426,-0.008938678840296215,-0.006037274058791405
822,-0.012476481597181429,-0.012929429333436633,-0.01958190087795646,-0.007671360132819634,-0.005008591857287429
823,-0.015378643724968123,-0.015010474341431672,-0.020882154240834554,-0.008205187589513586,-0.011098023653832018
824,-0.018362238837524407,-0.018685872354830324,-0.024278046651678185,-0.009534343004599728,-0.021204572387551277
825,-0.019011158489923685,-0.021034317696463106,-0.027097710460494657,-0.009956982538450685,-0.029570643801130624
826,-0.017678543605575046,-0.0210702375634147,-0.028763303785111556,-0.010845718508785324,-0.033074514214859144
827,-0.016146554478290498,-0.019308038303654455,-0.02946857436156402,-0.013836481799936623,-0.033075478163026764
828,-0.015236686450399,-0.016291057197147202,-0.02912751742610248,-0.017918773975252916,-0.03226996042812043
829,-0.013963080343382124,-0.012308648080213426,-0.02687073695273811,-0.020756206315508997,-0.029930194571743226
830,-0.011735933878143012,-0.008148499998125515,-0.02259642928760353,-0.02203996143813336,-0.02502833892427965
831,-0.009249707737302092,-0.004831047292009379,-0.017725885988096803,-0.02246014750956164,-0.018963140421288514
832,-0.008069522413431104,-0.0035576456906402025,-0.01452555897187524,-0.022867714094851176,-0.013934281248228141
833,-0.008511453125651772,-0.004443778499012114,-0.01368042969625641,-0.02363226239762094,-0.010901830125748605
834,-0.008379213096489467,-0.005224497732656236,-0.012942439375744777,-0.023039779272187838,-0.008824546173229373
835,-0.0065564714733518025,-0.004140839113329078,-0.011025239007612512,-0.020082352524474493,-0.006810320429714971
836,-0.003447438287421771,-0.0012955218003265936,-0.008303638233529684,-0.015124109389616678,-0.005136820879182577
837,0.00111303560071951,0.002859211571851327,-0.004756331231248282,-0.008681156015440011,-0.0036133323643809693
838,0.006354857553248969,0.007000613050389499,-0.000810155526354156,-0.00275637970592605,-0.0017300438130441063
839,0.00952347533132602,0.008888190338164034,0.001964099918909058,-0.00047645616473464866,-0.0005742262171594265
840,0.008736308219013257,0.007818974861339997,0.0027306300870021337,-0.0029894291274761274,-0.002521812183064762
841,0.005335380044476025,0.005780663020084247,0.002908569370262897,-0.007656952704247092,-0.008252958131954221
842,0.0013402179447157027,0.0050335734219277214,0.0031919944944233183,-0.011539717682169201,-0.01457837611979773
843,-0.0031075937018586065,0.005035153147132276,0.0015006667759886946,-0.014861939368130019,-0.018014683588776673
844,-0.007922386222598263,0.003779730788496136,-0.0032650988873914174,-0.019000803043663042,-0.01796416978061043
845,-0.011610759320234445,0.001152790069242069,-0.009294250631786667,-0.02379832428366897,-0.015570001164908342
846,-0.013382116047368357,-0.002185343432246736,-0.014516535762342346,-0.027884819634074434,-0.01413951406954762
847,-0.014281536123868043,-0.006077269872059964,-0.018034561712442103,-0.03064577792877208,-0.016443728461206102
848,-0.015060694297719055,-0.009051130990270526,-0.01942134377652572,-0.03181604392403703,-0.020622300233984592
849,-0.015272261828756774,-0.009271572068945192,-0.018563300768003516,-0.0304467580415713,-0.02293129533449459
850,-0.013918649027847623,-0.006708628065010412,-0.01595131520650106,-0.026085515292237522,-0.02168568404343373
851,-0.01070560083008649,-0.002410797471958933,-0.012661231419735148,-0.020047777048285722,-0.0177937683287692
852,-0.007289560888643171,0.002356053582792239,-0.010492029351233402,-0.015550754247060958,-0.013330538154710646
853,-0.005582367394561361,0.0052842278401820765,-0.010844281209073261,-0.014988348220111273,-0.009609940855277608
854,-0.005506490463610767,0.0044444087691451984,-0.01280255921263807,-0.017616851343817574,-0.006717095501120646
855,-0.00503635072546427,0.0009082276816194698,-0.013711507030351414,-0.020731810943796513,-0.004943162499035818
856,-0.0027802314140527046,-0.0032356772784654098,-0.012284573109878566,-0.022431112495149855,-0.005109633838649756
857,-0.00014889930162384558,-0.006325110021345468,-0.009801474507469227,-0.022945034914497797,-0.006272053443147422
858,0.0012786830282779762,-0.006608633658016658,-0.007597008030966961,-0.02256299239403491,-0.0061932435907596116
859,0.001244016626898416,-0.004746449265836646,-0.0063218003698880445,-0.021607306490773904,-0.0049621888160094425
860,0.00011115120616858238,-0.002277610179865545,-0.006011355881971395,-0.020768698315824265,-0.0036223910076368265
861,-0.0015764530991407722,0.0004832701553342083,-0.006141614637890168,-0.020896856434673105,-0.0025082092445712994
862,-0.002981591069006088,0.003546066045630867,-0.006236435506739556,-0.0228076717162509,-0.0014265715413407246
863,-0.0027357741200789093,0.007575523434473759,-0.005941463071231879,-0.024770311092687278,0.0006377321680591375
864,-0.0010569305376727947,0.012135716381851394,-0.005620944275726152,-0.02349586675922519,0.0032659004576576904
865,0.0015183693140391216,0.01600512908870569,-0.004617412028012552,-0.0176249841230449,0.005976200027902339
866,0.004725472613577234,0.01845554875265201,-0.0024645767362990252,-0.010146644360804346,0.008953973999119883
867,0.008111440464091376,0.019340840164877554,-0.00034705315119891504,-0.0050473887252682195,0.011316671132878299
868,0.01084953181508721,0.018035691061273933,0.0006410910382317672,-0.0037348703535829224,0.012287909922288176
869,0.010255575811757886,0.013059072815344125,-0.0007598519289710386,-0.006958516151792549,0.011585082386520442
870,0.006688064347621341,0.00696476987481354,-0.0034845818427735402,-0.012764272567281144,0.010288800038357686
871,0.0035806601143702948,0.0037049375656239497,-0.004981757980802319,-0.017792658774370033,0.00948453196857571
872,0.001600834081511308,0.002377101624465851,-0.005124909661255207,-0.021331979372068082,0.008368539666150197
873,0.0004460742411564496,0.001970891684520843,-0.004377284605652623,-0.023110518976965776,0.007195695272448468
874,0.00015627272277551467,0.003742204992863109,-0.003681111712584648,-0.024534386335684045,0.0064223656243489625
875,0.0012385725081817604,0.008041735795338047,-0.0033554711253997688,-0.027129258916097396,0.005470396730067655
876,0.004962596271880931,0.013376015579887891,-0.0013808187681431444,-0.028289368461532686,0.003864858869310499
877,0.010046171094551457,0.017024284469619212,0.0022388813741363324,-0.026116822584624534,0.0007686183103813459
878,0.012861811864481917,0.01713584104545486,0.004373711728235464,-0.022730385254106658,-0.003848791159402629
879,0.010964527304208061,0.014407824036582178,0.003063973546604922,-0.02062796364443983,-0.008330906991702181
880,0.006058975686207029,0.012277444748174491,-2.922795662388796e-05,-0.019557712595175376,-0.009660432561259107
881,0.0023402135516173666,0.013432581211045,-0.001947335286100676,-0.01865037959734623,-0.006322876375692697
882,0.0009008453266490274,0.015797065421022268,-0.0021418952977597314,-0.019339623183783808,-0.0006559036090958761
883,-0.00019051755005901943,0.015670133551490193,-0.002576429121105738,-0.02316957341311264,0.003987556278436542
884,-0.001923311147029282,0.013032540393769755,-0.004810588765711133,-0.029243527688708783,0.0072877901922448595
885,-0.0038645559493397084,0.009793068936657792,-0.008144807018134328,-0.03512946451753108,0.010378818362593807
886,-0.004546476862262644,0.007044246371363048,-0.01046499420783124,-0.037887482295127166,0.011551062902645296
887,-0.003132539905086149,0.006072374131618282,-0.011067923628811361,-0.036737051275372926,0.009465117331055817
888,-0.001992333485341337,0.007143844610317376,-0.012084176247574463,-0.03548503857311167,0.007379458739504827
889,-0.0029894984545294602,0.008738814018255202,-0.014961087609486225,-0.037313352754449934,0.008647207565100316
890,-0.0044018145489559965,0.009473598859168713,-0.017686438918678618,-0.040259593005401155,0.01139048098421007
891,-0.00467333838712063,0.008647008841847464,-0.018035883857239185,-0.041402427678749354,0.011164773152823321
892,-0.0038987264108483344,0.006414793374973189,-0.016123613870778732,-0.04020871919382117,0.006644231049189602
893,-0.0017670083991486966,0.0035385067073111878,-0.012807064993131017,-0.03675059636972535,-0.00021249119823190388
894,0.0017993685531710922,0.0014145215340184477,-0.0093058513788649,-0.03170340178576976,-0.005456040029549205
895,0.005716473600040827,0.0020458290124703367,-0.0068006651558930094,-0.026841539091425688,-0.005565195578720995
896,0.008358932956461437,0.005229555528448132,-0.005913705527328884,-0.02364346354362849,-0.0021419990241796937
897,0.009858735763771501,0.009073876059435403,-0.006066979818841877,-0.02074747636635414,0.0016754923465238502
898,0.012545907063557135,0.012665680934476752,-0.004643773225157023,-0.014645398013940101,0.0056933700996583
899,0.016381096304883717,0.015074795024911856,-9.97309356255235e-05,-0.005846880529114506,0.009400969265755739
900,0.018728375616887387,0.015275037327274116,0.006295357710291488,0.0011849449889091222,0.010963985468230724
901,0.018356639313539657,0.013454678436495008,0.011906201223466618,0.0037800285603244448,0.00937146263271668
902,0.016752127045208464,0.011436706374678536,0.014784889586300086,0.0031106476666459696,0.005833972899197116
903,0.015162788723015972,0.010098803218138311,0.014416125542026502,0.001134058247782089,0.0022110859045387384
904,0.012945288465666654,0.008497154954274591,0.011181577679171373,-0.0015745653332501959,-0.00037032718734567103
905,0.0115178253874018,0.0078097252769249136,0.007915179355890178,-0.0024246487696672333,0.0005711357108444901
906,0.011782745872815005,0.008956179719589296,0.006218120201954394,-0.00023230067373742247,0.004820356506413092
907,0.011264983257121181,0.010425478890311266,0.004242339489396818,0.0015349814639965915,0.007992791589450174
908,0.010465003059672372,0.01168837942456081,0.0031623534131161716,0.0025645555856421308,0.009612778337950491
909,0.011314633836280943,0.011956618015631141,0.004995666437628649,0.004793008617157627,0.011490369206878855
910,0.01255438332147398,0.010018877567289896,0.007564810005818432,0.007296688463690179,0.01183576735449378
911,0.01347158936300641,0.00699252036790738,0.009144732178938538,0.010391258745748762,0.009247738559364092
912,0.014815464843135725,0.0050050984211457055,0.010775864496242724,0.016868275507244554,0.00577556520982324
913,0.0150628871751605,0.0037957804176152426,0.011813389369356555,0.026009889258995417,0.0030099383070195957
914,0.011680006981162772,0.00182011870122998,0.009790820653668644,0.03213415521059072,0.0009361347619789385
915,0.005946779824894427,3.880966450708823e-05,0.00579232255680802,0.031449100715203425,0.00017712644221921217
916,0.0012520167944542553,0.00016445571650691119,0.003182189810824645,0.024629078884749807,0.0006481247572701345
917,-0.001345166579693072,0.0015335363401396533,0.0023440411742112286,0.013939840533638977,0.001079262704394788
918,-0.002698529860696281,0.002561003100610399,0.001669329581807152,0.0027687536563865,0.0007090820351522883
919,-0.002934922992211461,0.0029753322846163407,0.0014007242075638566,-0.00474504059458065,0.00015888496468457092
920,-0.0010055371861382107,0.003811703891527749,0.003350632655500496,-0.006085220141427813,0.0014531184937741485
921,0.0025870351997349787,0.005597262318127497,0.007392356783308035,-0.0030161639141636025,0.005332793182916294
922,0.005062600431609836,0.007493179206624244,0.011124513026170263,-0.0007537720747243354,0.009438149290271607
923,0.004796360439032222,0.008852347259090395,0.012950080467267264,-0.0019437847706112391,0.012013512687896303
924,0.0032319400151089705,0.01018628911103147,0.013268615769281083,-0.003697205423928833,0.01346080354685126
925,0.002223144401172292,0.011272748973032551,0.012761523444966876,-0.002267853456556913,0.013281476613294882
926,0.0016346495182747325,0.010630098870844866,0.01108156625467943,0.0024333671150707724,0.010640414325634267
927,-6.276835232439636e-05,0.008382044041781386,0.0073156622147413745,0.006590683725728126,0.005992167892800941
928,-0.0031290022176832053,0.0066260764946933165,0.0018776548923889929,0.006977955612551705,0.0008932568537505742
929,-0.005847511954928093,0.0068074349885916055,-0.0027335789553955647,0.004693769082241281,-0.0016578156451277583
930,-0.007300302714416422,0.008617449144786581,-0.0044229457680571745,0.002229234513459608,-6.789081797542012e-05
931,-0.007781122591892426,0.009825702078142675,-0.003291770247987585,0.0010400358600644779,0.0020473959022331316
932,-0.007673070319283275,0.008239907483461878,-0.0005515667133391745,0.00178614284194016,0.0009522849839424212
933,-0.0075421138437718445,0.004678793736855529,0.0025486452667497763,0.004167617382782633,-0.0017624026335672067
934,-0.0077853630835122,0.0010047762241993715,0.004702680714455227,0.007334748518860846,-0.003670835946629462
935,-0.007860671509368398,-0.0019390832827289096,0.005497760047251628,0.010191524330290545,-0.004208545059602478
936,-0.006597671106677378,-0.0032995935858747753,0.00591152997900979,0.011879696865582018,-0.0025905031211501126
937,-0.004793226361372857,-0.003771708559536421,0.005672023339735387,0.011804630844302768,0.0005494902956010686
938,-0.004583848221359772,-0.005014882661958568,0.0038672138370413403,0.010110936838143814,0.0036424913385725744
939,-0.005068469262035423,-0.006136248117085458,0.0022462787989068218,0.00913936447029372,0.0065152012184699045
940,-0.004424853279708044,-0.0061234867596005,0.002457717553437833,0.01039035226200703,0.007874769407766206
941,-0.003664090175338387,-0.0060456789258143675,0.0036986359778443116,0.012238632252162719,0.006774853464368163
942,-0.0035312227011680764,-0.005663344465209533,0.005119080583887177,0.01339395744480971,0.005856878169862428
943,-0.0032058512685186353,-0.003907640803652317,0.006068720609413221,0.013672886852363201,0.006872115750875453
944,-0.003016864838938147,-0.001115561106308794,0.005624044014414778,0.012713536132923569,0.007622073291195273
945,-0.003948264079522825,0.0018139194098043285,0.0038670987116719065,0.010814415821577019,0.0056610915877485435
946,-0.0053563460297329545,0.0033160901806030887,0.0018825166455254416,0.008839416700061192,0.0015706811414083544
947,-0.005180858653315497,0.002307370602803614,0.001179114746405011,0.007908627121227984,-0.0017436799386733057
948,-0.00404890071813056,-0.0019210907785434537,0.0008017053057540124,0.0072686752376210795,-0.004447778169998363
949,-0.004666649423210935,-0.008779027627116328,-0.002027922247875674,0.004763657330070467,-0.008473567449101833
950,-0.006281915263035804,-0.014471944687277553,-0.006085972765029637,0.001491250390597766,-0.011424588768946252
951,-0.005897472916804216,-0.015425813479312125,-0.007187781006001076,0.0008202736801349698,-0.00956469914715375
952,-0.0025651697288037447,-0.011424615051463168,-0.0038975257769956998,0.003622172796167826,-0.0025978423643029124
953,0.001183093316628739,-0.005597310430148899,0.0007926536791432352,0.0064325097526980735,0.005757660515707914
954,0.0019523741907116015,-0.0015322663801438383,0.0033797814597169313,0.005642944613453768,0.010715862802751521
955,-0.00014790555977052652,-0.000229403794068385,0.0036577719040479986,0.002492802258890228,0.010395304846503622
956,-0.002464057875952258,-0.0010688033238383985,0.0030991230662544083,0.0005070365843848517,0.007230157493178144
957,-0.003220131831092096,-0.00328871512376821,0.002598761661202893,0.0015722253056858666,0.005064272833017764
958,-0.0023261235654626327,-0.006382088996768162,0.002423039347427013,0.005648401063869666,0.00336826146966174
959,-0.0011305397081162955,-0.010428360392138684,0.001957784421177767,0.01018968462759978,-0.002139901780103244
960,-0.0007489575559697748,-0.01270666321410111,0.0007541974400454236,0.011431691025759907,-0.00999710602406035
961,-0.0015212582167167751,-0.012997203669714475,-1.4058458283891706e-05,0.011128775380754788,-0.01554005118231492
962,-0.0035015523374547076,-0.012009029616097051,0.00019942637878549342,0.009545462926646753,-0.016999843691075798
963,-0.006819300780914109,-0.012453994311417636,-0.00011678096116789478,0.00683467433725274,-0.01752012450942485
964,-0.009937646701791567,-0.01337277579638612,-0.0023492131735756714,0.0037258135857632757,-0.017824464915909936
965,-0.009998244905885845,-0.012131780225928255,-0.005077339252369957,0.0022880703110414007,-0.01573074210005497
966,-0.007116190396561269,-0.00968943124128695,-0.006702595806798128,0.003487340048606885,-0.012201591252506045
967,-0.004134913340698556,-0.008441374057602187,-0.0072117377999780545,0.006395747291187992,-0.009781778833630435
968,-0.002367545462119339,-0.008006752298084209,-0.006615532097853269,0.009542334230846237,-0.00807228146372102
969,-0.0010147172897132565,-0.00675341526264316,-0.004400225349839531,0.01249934490809992,-0.005271968549441991
970,-0.00013706471584079292,-0.0052437074526416536,-0.001508889671099963,0.014957194674901711,-0.002039892229180214
971,-9.547663771139035e-05,-0.0047044027509536455,0.0006819418938401976,0.0160387288715877,-0.0009131435319643773
972,0.00019265737062970243,-0.004058536917425539,0.0027202708525591052,0.01584762102541999,-0.0023428713956020896
973,0.0005809522715570385,-0.002615856429472304,0.004771324653309476,0.014953947244894253,-0.004724657563366946
974,-0.0002042093047946186,-0.001918491653467738,0.005521315799216265,0.01383546222140248,-0.006966113451645389
975,-0.0014354956818292746,-0.0027905303721598527,0.004481238790281177,0.012803213281726608,-0.007963064018837038
976,-0.0014475223400635536,-0.0044100394816171725,0.0024716468057359876,0.01145027113257898,-0.006865740907366818
977,-0.0003811122388219055,-0.0061320667989086634,0.00024732883772884506,0.009068277123334086,-0.004738945018746536
978,0.0007920962621356938,-0.006985859749342979,-0.0011628636120185408,0.006125536559097939,-0.0023428203798240084
979,0.001989689572163723,-0.005721483568253858,-0.0005515744595787404,0.00420698244434714,0.0002760620291779937
980,0.003289381825105445,-0.0030077433758550257,0.0019696055921626073,0.0038771452245900226,0.0024427072514134314
981,0.004391338884742258,-0.0005716865811344448,0.0052719796795544826,0.0044803456777823035,0.004056935689119051
982,0.004288383948305649,0.0004222038483674079,0.007666992515878657,0.0049874072491822505,0.004322280875424116
983,0.001967147096486657,-0.0005596628559646462,0.007678607069553819,0.005024095996323469,0.0022390855666298325
984,-0.0007587140263995254,-0.0019097378135240085,0.0065156259134445515,0.006526322621787169,0.00028614801686600193
985,-0.0009475767093239663,-0.0013760845732828703,0.006538027370241984,0.010750996784402476,0.0018088464950818963
986,0.0009411027221389939,0.000281537185795758,0.007268505248167202,0.014876187921025314,0.006615478745631628
987,0.003023075924776984,0.001419410790372506,0.00724800745091755,0.01622775651154642,0.011885116187381629
988,0.004628253493504476,0.0017109726836261505,0.006611059825221417,0.015410974275671575,0.014403584285085091
989,0.004864519810654105,0.0009447875259284304,0.005639883192065822,0.013616218165588174,0.01319085622286752
990,0.0032696320718301895,-0.0003823400347593846,0.004310264462468196,0.011244389392138567,0.01016643731064365
991,0.0009389637537779038,-0.0014388659183540906,0.002825074542273559,0.008431521390460163,0.007020512725194872
992,-0.000620541648229707,-0.0018515440818417284,0.0015868267007714998,0.005715777320926322,0.004877928104810592
993,-0.0005937441761385782,-0.0013423784931649429,0.001189771221996921,0.004279190504099977,0.00461146907774984
994,0.0005234011640811935,-0.0005880697326599233,0.0015962355419566383,0.004460526268739278,0.004877975913459201
995,0.0013592426192017804,-0.0005892192819189334,0.0018168211742407773,0.0048157275989696895,0.004115557592521374
996,0.0013184812336845837,-0.000996561441080482,0.001333846604070865,0.00401396166561025,0.003032369218938466
997,0.0011230345411933423,-0.0006220005304353473,0.0009476889204182131,0.0027268801606247887,0.002714028111294409
998,0.0012174046358541936,0.00044022146717089764,0.0011840747746842293,0.0019554342248155267,0.0027925230123826156
999,0.0009208725402359754,0.0005312883284360228,0.0013800985315615684,0.0012926036334128365,0.002062655374984565
