,AF3,AF4,Fp1,AF7,AF8
0,0.004993656280703881,0.0034180191387526604,0.00042595161253171555,0.005434779828633612,0.002589335279732814
1,0.006716632068504216,0.0059408509062505,0.000878568679985089,0.0032176015002665305,0.00183778741476604
2,0.005348390088358437,0.005230843476818756,-6.601873886953663e-05,-0.0013606814142977633,-0.0016817768519545935
3,0.0019665833059563805,0.0028037007185223927,-0.0019018158529712933,-0.007191878375300494,-0.005832971517774259
4,-0.0018038324320843204,-0.00011159417643159832,-0.004713587118582584,-0.013051727144480555,-0.009804909185509272
5,-0.005997508333201673,-0.004028065208300348,-0.00944798589364917,-0.019332690534410696,-0.01490373438829268
6,-0.00934693132808548,-0.008531339307863319,-0.014289563862598822,-0.02445687513541941,-0.02025943152656322
7,-0.008752629814465306,-0.011559883928056318,-0.015056750768279867,-0.024537138105091928,-0.023039009144178016
8,-0.004310097614381633,-0.012747010604411071,-0.01116383391817409,-0.019664771976546414,-0.023144826330745442
9,0.0012482028250626752,-0.013158932097930112,-0.005480196460342745,-0.01324346742608251,-0.021857959049125037
10,0.0045032326993806205,-0.014657794563621885,-0.001603565304966907,-0.008970168513241405,-0.0209354747503863
11,0.003140795610521357,-0.018383980311970062,-0.00161768671591606,-0.009025842605169193,-0.022645231240412147
12,-0.0008871810849118662,-0.0219261332906147,-0.0037459730543319414,-0.011451637811796558,-0.026102252972999673
13,-0.004600116793515978,-0.022728128331584652,-0.005388260127403743,-0.013626597358235258,-0.027750704450674304
14,-0.007055337239154585,-0.021216383816256745,-0.0058884126623388105,-0.014889480827703595,-0.025617609225315682
15,-0.007732137710537527,-0.018770451547433297,-0.005601460392652527,-0.01431071948827345,-0.02121130067371492
16,-0.006271765597272598,-0.016341474156434447,-0.005036969998537124,-0.01121481936715948,-0.0175877774704959
17,-0.00317450835110483,-0.013878249940233038,-0.004221576806825595,-0.0065564261802341026,-0.015144844786190208
18,-0.0009462502945200205,-0.01133585407366547,-0.0037598896093851116,-0.003287525274611129,-0.012981150943836367
19,-0.0018702210778410453,-0.009903080172362352,-0.004295421133313843,-0.00344463964593371,-0.011942675807000435
20,-0.004614327586597139,-0.010453829081990043,-0.004979495474336073,-0.005550082704416333,-0.012602246010575326
21,-0.006759792053877508,-0.01230359579973044,-0.005082035216366797,-0.008019913879828361,-0.014084658958710656
22,-0.008242321364402068,-0.014530308401491956,-0.005117758016037148,-0.010927148553669807,-0.015405035738380073
23,-0.009404225545202375,-0.016308741763062195,-0.005033910882351925,-0.01272253495114121,-0.01584613993990544
24,-0.009839257397201338,-0.017416294984246877,-0.004313556294826356,-0.012002785182588712,-0.015360221926168203
25,-0.011574361925234691,-0.019859934334926294,-0.004862621893278911,-0.01241203491571917,-0.015769401429045905
26,-0.016845270488004438,-0.02445109284325809,-0.009081410589664132,-0.017882127853632787,-0.018833846552007576
27,-0.022730164970461757,-0.02779913040510067,-0.015105680745953474,-0.025687324665239143,-0.023078037844757763
28,-0.023881508770498293,-0.02687034707711574,-0.017939402412886586,-0.029542118306781537,-0.02517968504773665
29,-0.019667725275665644,-0.023640554882042458,-0.01598828298125553,-0.02777680733243148,-0.024727671585333715
30,-0.013387921568504529,-0.021158942306629618,-0.011888732516104011,-0.02325411400096776,-0.023457341873317265
31,-0.007063125946618105,-0.019188761828779394,-0.007386204734895304,-0.01795607111273068,-0.02152575677414827
32,-0.001743804233057664,-0.017282400828655498,-0.0028975641350301286,-0.013093927152711397,-0.01919653622695733
33,0.0011207563399885654,-0.01704693160933038,0.0001380624910558918,-0.010028350706071625,-0.018597338519094817
34,0.0004030027933432224,-0.019998364498457693,-0.00036792513350960155,-0.009673841026758051,-0.021097279197854528
35,-0.002352027863131341,-0.024293820636447336,-0.0038174359025832023,-0.011090472260976711,-0.02406845611906757
36,-0.004127024288574509,-0.02701120928749098,-0.007519412773453393,-0.012769553701376961,-0.024708955971536935
37,-0.004236771571155066,-0.028126455620143168,-0.010189922602067102,-0.014655906855059887,-0.023665236223781628
38,-0.002522043411831618,-0.027781693467592836,-0.011005819833703754,-0.015471934793283435,-0.020745278045547995
39,0.0013089137172964762,-0.025726703448557386,-0.009546937273616158,-0.013876428587619182,-0.015170153297852262
40,0.004855963724102531,-0.023751196446187343,-0.007994470405195702,-0.012426454752401887,-0.00964968303947061
41,0.004845374602885346,-0.023598162095773794,-0.009171480281063946,-0.014569802657262185,-0.00765548381629744
42,0.0016649663554857406,-0.024672621069647717,-0.012129933262127666,-0.018866957759095783,-0.008896110621581898
43,-0.001703901796745,-0.02578186370568513,-0.01402412762277284,-0.021955908809752803,-0.010943406414747725
44,-0.00234551114802017,-0.025318109837442166,-0.0130704385558314,-0.022222324113426933,-0.011269692486823333
45,0.0011694694696562998,-0.022008727311483324,-0.008432466075906104,-0.018744424283171066,-0.008919355809195364
46,0.006407194925866107,-0.01810764906978933,-0.0019427176286539736,-0.013356041022380192,-0.006903065633334065
47,0.00933078998954489,-0.016655131212626694,0.002848674705422109,-0.0101300339122017,-0.007993771047887815
48,0.009066567228391298,-0.016695118676238473,0.004599332412244592,-0.010512439623074884,-0.01029646142313525
49,0.006926972305711076,-0.01578703740808683,0.0039981162778296555,-0.013117600039595468,-0.01150875438160257
50,0.0027409006253972627,-0.015037099309430993,0.0003045625523094728,-0.017831953228357327,-0.01298799428606858
51,-0.0021784358311424602,-0.015730686210908246,-0.005888715690286128,-0.023263665239894454,-0.01482407688620317
52,-0.004357718841543622,-0.0167272851871242,-0.010843791935964037,-0.025505348975413747,-0.015224860237354546
53,-0.004026967307938566,-0.01857947996055279,-0.013366254647273595,-0.02485492607173387,-0.015495788646858199
54,-0.003371057120590904,-0.021526130948983396,-0.014775555349869442,-0.02436584636186702,-0.016678093850188622
55,-0.002417010912157226,-0.023161878139398417,-0.015430776590673288,-0.0241192323856415,-0.01727008150056374
56,-0.0008746559607236622,-0.022844299325261067,-0.015837749797906756,-0.02314329796238042,-0.01722397464012924
57,0.0010112935370402872,-0.02210540974684026,-0.016430894365374635,-0.02164837428900876,-0.0174952457738549
58,0.0027917689019716194,-0.0219172501171398,-0.016545691318954964,-0.02007731574718486,-0.01813764683366824
59,0.004273267588124826,-0.022078237245611792,-0.01537919633510633,-0.017047470727855264,-0.01910050791443096
60,0.0054511523263855895,-0.02208425611869198,-0.013159340379457589,-0.011086724418885998,-0.021079115808748605
61,0.004837640256420484,-0.02248406207089199,-0.01224600072227661,-0.005807140992771647,-0.02479924406461067
62,0.0018489116743233525,-0.022917150826321148,-0.014114340948999576,-0.005107558741253243,-0.028377523106439928
63,-0.002000145595786277,-0.02215363121158414,-0.01753276868178622,-0.00801110021234392,-0.02928929316945611
64,-0.0063500890354651505,-0.021387405993534413,-0.021872265551706568,-0.013185297576770878,-0.028106690969498135
65,-0.011879773158549085,-0.02291553691023715,-0.027351734818329396,-0.020576389763209087,-0.02685153308585658
66,-0.017568906547631886,-0.026173584912613516,-0.03270527301414788,-0.028623886638251755,-0.02582875028892785
67,-0.019599032542009506,-0.027328879243937048,-0.034561899797223954,-0.03300784290717941,-0.023195133033336732
68,-0.015513702474326487,-0.024028255569812335,-0.03060566117598624,-0.03080521505285336,-0.018146911491323605
69,-0.0085349103997511,-0.019041262298480632,-0.023152636490603836,-0.02485224798662023,-0.013579543907242086
70,-0.0052040346201936375,-0.01764897655339385,-0.01796619924113949,-0.021682580884411346,-0.014369418064774483
71,-0.00811832090925502,-0.020761764574067396,-0.01781054099375299,-0.02378879012500301,-0.021004140386342282
72,-0.011665322208702367,-0.02217986993698245,-0.018297551049879446,-0.0250632709889725,-0.026961116204621483
73,-0.011470463930089953,-0.018630911638217253,-0.016236710992861777,-0.021070698648006706,-0.028507045101270844
74,-0.009957992234755294,-0.01470293539243217,-0.01392129356542379,-0.01479597088418698,-0.027909336279071904
75,-0.008847469401165972,-0.013727615226099839,-0.012628052405834993,-0.009399398442597063,-0.025536935025891525
76,-0.007135252284450247,-0.01392881157790274,-0.011202364709503063,-0.005048798371388377,-0.019575297028042334
77,-0.004878216120904345,-0.013326848455500173,-0.008854329819594357,-0.0011771114448342432,-0.011521207392401126
78,-0.0038519190267376486,-0.012553803440218005,-0.006734250956422857,0.0010999754699840326,-0.006415429215920064
79,-0.00444928362136173,-0.012429499823070587,-0.006049830194861829,0.0010840124582893902,-0.006613913897908858
80,-0.005464255682188379,-0.013041173170639173,-0.006486154105906901,-0.0002198372909459307,-0.010043075863705857
81,-0.006557999174215985,-0.01441922641214857,-0.007552989115307129,-0.001985628585208091,-0.014487958394227151
82,-0.008187326205104662,-0.015902560163781315,-0.00891297387530835,-0.0035692579968217286,-0.019152379148857448
83,-0.00945708649252568,-0.015937944076262152,-0.009108315739946303,-0.0033224313161445383,-0.022114126620080284
84,-0.009046519236844991,-0.01413727301176207,-0.0067840445505778215,-0.00029995105673891024,-0.02161869058938692
85,-0.008264684767839868,-0.012785713568180194,-0.0035509359496591524,0.0033769528601011738,-0.01989237800671445
86,-0.008698721840732752,-0.013479630050311112,-0.0014356692651823367,0.005614707899103035,-0.01973246351021418
87,-0.008937703481332715,-0.01454004440215888,0.0006701541255388987,0.007414542870969259,-0.020210230979329794
88,-0.008034662881273196,-0.014562926802575775,0.003487122270522587,0.009721646711169478,-0.019814442406108447
89,-0.008345555643278234,-0.015411317400763224,0.004468022726685472,0.011125306031796687,-0.020310055053254544
90,-0.010220152532967142,-0.017811499069921747,0.002995835922178579,0.011649681366822307,-0.022598723577596777
91,-0.010150122699577395,-0.01874291024531093,0.0023463179690288694,0.013594513922782341,-0.022924845180498463
92,-0.008000008409360885,-0.017175842629834525,0.003070372624262302,0.016156255285192465,-0.0190452233497125
93,-0.006972627808499114,-0.014996770242200292,0.002894201401748973,0.016532807844380555,-0.013374691811220793
94,-0.007633116497140672,-0.012858197210487653,0.0017295717565146993,0.014864438785493015,-0.008592617046999682
95,-0.009640230118179736,-0.011763118730989123,-0.0003426466988870849,0.011388043867857914,-0.006572681065318483
96,-0.014384599602851615,-0.014040860396248698,-0.0047510123221902985,0.004496799239204484,-0.008743138392764159
97,-0.02104747741138885,-0.018712011004119285,-0.010269369373957303,-0.004298827797394288,-0.013485049115169272
98,-0.024939673429410614,-0.020737860381701015,-0.012490501752342058,-0.009572806116296672,-0.016204011204734397
99,-0.023289621391997688,-0.017397082166085345,-0.009731421731401325,-0.008524560657208444,-0.014155377237843318
100,-0.017721563061821863,-0.010647617213751756,-0.004369410985176714,-0.003010917466837631,-0.007676873792221797
101,-0.011874539179101183,-0.004376000269336665,0.00045514735781858724,0.0030489777605371246,0.0012969523561513787
102,-0.009316270666303186,-0.001871606158460663,0.002106427492912192,0.005668643907183254,0.009216380892044428
103,-0.01079840757676879,-0.0032974659195269904,5.742492454592422e-06,0.004030992569859181,0.013065492647963962
104,-0.013832374060290921,-0.005967532943017565,-0.0035524721828531147,0.0010649127757723564,0.013005552246684243
105,-0.015498868684576525,-0.007352805046658493,-0.005598429436162929,-0.00028887386565268065,0.011733218115520605
106,-0.01522122571553306,-0.007688820363366246,-0.0053134764348929915,-0.00010187856459630671,0.011025746215006356
107,-0.014120380170507213,-0.008094046550103607,-0.003938976455896299,0.0002737873917485191,0.01095299847422921
108,-0.01305577676562132,-0.008118942597032983,-0.0027011473345646487,0.0004434622762390781,0.011327742541885072
109,-0.012428598219325952,-0.007722664536953427,-0.0022742278090480766,0.0005406710485118013,0.011670826841266949
110,-0.012981655859768935,-0.008656310858820498,-0.003848479483706535,-0.0001624880205953355,0.010585844027543274
111,-0.014118263901755223,-0.011093875536185679,-0.007575734365389251,-0.002231283863931026,0.0077013818653628545
112,-0.013237907496296678,-0.011864279734153951,-0.010707332723342856,-0.0038840016437294974,0.005973650540842628
113,-0.010655865755182504,-0.009837853104041549,-0.011777892782165534,-0.00436200613159621,0.007128535498979523
114,-0.008669615817779652,-0.006314760679006743,-0.011498557338342472,-0.004932147595648835,0.010013046823280441
115,-0.008430611592343356,-0.0025199032260635403,-0.010728607885739743,-0.006896052230906441,0.013004028612728367
116,-0.011477790193997459,-0.0017038608631915828,-0.011554687502748521,-0.011741292344774062,0.012984178425623685
117,-0.016403863673204927,-0.005051278522460215,-0.013792828700420041,-0.017603087704275242,0.009470307351784989
118,-0.018551808439148616,-0.009153389327265017,-0.013730775395542509,-0.01970102329749606,0.006712925266157166
119,-0.01714801945813663,-0.012014843145576569,-0.0104461316031316,-0.017488983520902834,0.006845361887761113
120,-0.015312824885359932,-0.013923749769292148,-0.006889672480472544,-0.014762209107018157,0.008475386323252725
121,-0.014325559043827134,-0.014641197095255565,-0.004820096097020098,-0.01361554401936497,0.010964440581996228
122,-0.013628417168413268,-0.014692548152521764,-0.003684632374345771,-0.01307555355914024,0.013711863462063968
123,-0.013241992308629488,-0.01563913234495498,-0.0026882658282905755,-0.011641024269284792,0.014913007985512828
124,-0.013531673549813583,-0.017778933415120417,-0.001925345467425951,-0.00973223427313459,0.01431075524808685
125,-0.014621025481100162,-0.02024941770145644,-0.002007342262656215,-0.009199551396156292,0.012727750205278028
126,-0.015276447455891493,-0.021648370530717175,-0.001894405861777953,-0.009445424592576003,0.01082230884625171
127,-0.014621269065116413,-0.021031961093981158,-0.0005226815221018462,-0.00936459709010189,0.009665279861932075
128,-0.013642598397971602,-0.0189984349828269,0.0007431175461707514,-0.010330068824584458,0.009175892105918073
129,-0.01216184891597975,-0.01581851392354111,0.0013997985601898284,-0.012236086333843977,0.008729493796835628
130,-0.009285352430139244,-0.011511532795013324,0.002287398069662455,-0.013252848224963344,0.008273704905108935
131,-0.0053702311130180876,-0.006621335059887864,0.0036413892428615157,-0.01226834635291671,0.007898897001954718
132,-0.001554600673578996,-0.001733476422906118,0.005329100429097278,-0.009013223349710935,0.007925746428586743
133,0.0008272514125194977,0.0018973012405958235,0.006408088977345824,-0.004848667681834067,0.00798341260845324
134,0.001898512109125937,0.0038491765489169,0.006582603081662074,-0.0007129443482408844,0.007609613861702993
135,0.0023567672944848554,0.004818492811095547,0.006697497531332908,0.003928248733836443,0.0068708640250689165
136,0.0009133975139035904,0.004188439047641632,0.006013228559606486,0.00736328605732959,0.004826530371928772
137,-0.002795319615277117,0.0017879730456435065,0.003953670643326163,0.007459785232110291,0.0014390774937158137
138,-0.00682497270706133,-0.0004492721800662914,0.0018905445242897246,0.004894004216499426,-0.0008561107356026024
139,-0.010320346957607656,-0.0013291185421222098,0.0003169649525502595,0.000663190243669427,-0.0007514251663217843
140,-0.013569362914609544,-0.0018025616174964683,-0.0014446993742125921,-0.004702778219685648,0.0003561498678762647
141,-0.015912509394784495,-0.002236300854178007,-0.0031899729282191163,-0.009825450138912778,0.0011601821634764713
142,-0.015526299809536872,-0.000336107577719839,-0.003111016173081925,-0.012140153474327906,0.0024126464444377696
143,-0.012203909868935247,0.005671948689517359,-0.0006250471021111611,-0.01090253774961534,0.004901299996589233
144,-0.00794223583545087,0.014204063255631826,0.002115927590416652,-0.00846253322970027,0.007909502837021168
145,-0.0038871862817033615,0.02268917938418629,0.0038395437548907783,-0.006147353409996932,0.010593828785308994
146,-0.000868074751115863,0.028886644776217177,0.004638036213286835,-0.004351660863609532,0.011959182852030603
147,-0.0005605627226802236,0.02982108681208077,0.0040980522238954434,-0.0041543628554382974,0.010818544703454136
148,-0.00341121819665808,0.023914431578948767,0.0021898498687291,-0.004945649903100043,0.007495872430824295
149,-0.008158637543156539,0.013180001135831237,-0.0008901988398943277,-0.005698785442598228,0.0037060756753672245
150,-0.012783029682827315,0.0022900919777403945,-0.004730239706538416,-0.007008814786811906,0.0009005417957599206
151,-0.014438785073055543,-0.003645297815771992,-0.007362174049548831,-0.008522527105812595,3.638300447297247e-05
152,-0.011654669644194126,-0.002960716623126755,-0.007165621046496924,-0.008601895415035914,0.0010720874743694148
153,-0.006104250853355634,0.001737612098099823,-0.0048313798924047744,-0.006715892548061761,0.0029402285597739035
154,0.00032120120424397494,0.008061731391261094,-0.0013210869078118547,-0.002662974556688101,0.005724067050384046
155,0.00598517583260778,0.014499717158959665,0.002507295518611018,0.00292680324075809,0.009501146905343377
156,0.007998348672138701,0.01820904439276347,0.004778897171260847,0.006508952936171185,0.012231488485442386
157,0.00536485501618096,0.017845404434206773,0.004739982071857027,0.005656391598784166,0.012462345119620789
158,0.0007981745340662784,0.01548412170013632,0.0036878691792222927,0.00230268773864,0.010965211261761221
159,-0.0017040083826742347,0.014693579757369147,0.0036353790285131903,0.0004127893198372503,0.0099800985748476
160,-0.000255967383846362,0.0172565057860706,0.005712503515067643,0.0020079806856802204,0.011277086944134459
161,0.003755396931412061,0.021098744563439537,0.008747231407963983,0.005124050944521701,0.013685723126273086
162,0.006812650576837044,0.022482601357393883,0.009853482045292109,0.006246088759219288,0.014205206617530835
163,0.0057511385685276506,0.019984915522892766,0.007117920668965321,0.003780079443345669,0.011583648338892135
164,0.0021674843834199936,0.01641728373738512,0.002683728586541464,0.00015140941346699737,0.008135908516604425
165,-0.0004170651679376051,0.014355963099113696,-9.799500506482347e-05,-0.0014743080248594094,0.005731226839518886
166,-0.0012198018751520935,0.013297629678729259,-0.0006521315751154809,-0.0007256763552077193,0.0034689722807413025
167,-0.00035981851049085535,0.012726596285888413,0.0003826586230571523,0.0014844202088053816,0.0011657209876462273
168,0.0007496061107897652,0.012285730650150097,0.0016557452609109007,0.0027585320768776017,-0.00021170241233808788
169,0.0002512867127396572,0.012068435292022287,0.0019791311003334697,0.0012566807838765711,-7.46411654475416e-05
170,-0.00045803655949704027,0.01411381606666959,0.0030174566426104574,-0.00017902613610843205,0.0023423349692703204
171,-0.00039572048209088085,0.018101561605720927,0.0054877295136082065,0.0007132728114153164,0.006328700952824933
172,-0.001259244156431056,0.020060359093114648,0.006787959257787009,0.0017867061862764705,0.00940454640798737
173,-0.002434457146832588,0.01852643149583805,0.006565466092424212,0.0020970823046992442,0.011468385432068648
174,-0.0028113893492142782,0.014753846964434153,0.005787875462034848,0.0016453194066695942,0.013350553264241826
175,-0.0033622291778181465,0.010147578681200583,0.0038265053744675663,-0.00033337156367505553,0.013475308225750214
176,-0.0035068551461472103,0.006943960797523823,0.0017828196679069285,-0.0022243598682855437,0.011358395603515606
177,-0.003021280666869694,0.005187010462018594,0.00043831135113815646,-0.0026425494178126925,0.0072709876397110285
178,-0.0041194999392522875,0.0026210158262145043,-0.0021804211771931825,-0.0033416309606673364,-0.0004105389192758308
179,-0.006890785453988731,0.0002899510900732192,-0.005862087740290276,-0.0052073709008084584,-0.010048567405237853
180,-0.009172896807008009,0.00031790296492207926,-0.008058579004004938,-0.006888762518023837,-0.016663997661240156
181,-0.008463087567804567,0.0025997866269835694,-0.006769574618797835,-0.005981003079937656,-0.01692119604913239
182,-0.003835663536425155,0.006054365851487934,-0.001959777237363965,-0.0013360943830854164,-0.011725412376306685
183,0.0004553034439330069,0.007645841138229098,0.0024364768182537386,0.002926718675380393,-0.007064484093983411
184,0.0004941467242441392,0.005854533006671887,0.0035357662902101945,0.002872175925121787,-0.006982813066832575
185,-0.0019705168789789533,0.0029912756949479493,0.0032559387730170452,0.0005580550008660487,-0.010086011368681477
186,-0.00480940217038246,0.0005972855660426715,0.0030000606873464325,-0.0016909149263159536,-0.015056826869824394
187,-0.007550544551890504,-0.0009604860950704453,0.0025165166314399137,-0.0036170939733983177,-0.020669138222448227
188,-0.009220025607140447,-0.0012768585760252658,0.002529261770724852,-0.0043014155442205595,-0.024314443292535137
189,-0.009390880506731671,-0.0007246284765104041,0.0029628187979898754,-0.004108824893396393,-0.02462961374493139
190,-0.008116281201921066,0.0010965739997435362,0.003226281957073995,-0.004247862037840436,-0.021881112172628107
191,-0.0052637516116505285,0.004803629816203422,0.003935670551957453,-0.0035163592142159017,-0.017412920839466713
192,-0.0012807753153453137,0.009430603374107928,0.0054972122206667345,-0.000345899521649465,-0.012558846321094778
193,0.0029348420460440366,0.013536340875738793,0.007689588879749572,0.003811887908553843,-0.007701172175305184
194,0.0059228661533947055,0.015568833459111073,0.009499546181212877,0.005500859508576534,-0.003985156747833983
195,0.0066631570092569,0.014642026604760655,0.009724732094370624,0.0035820167215742157,-0.0026523300760014743
196,0.006137616453508483,0.01151173350330303,0.00875365085356132,0.000611447574567396,-0.0034584655456106647
197,0.005349573838276486,0.007056563185277897,0.007517633556310916,-0.0010146437712956736,-0.006269807180371961
198,0.0045660334007508446,0.0025048919810564435,0.0064342936792022775,-0.0012478130535670466,-0.010593924278030385
199,0.004476666789718008,-7.512215485821721e-05,0.00572414043025011,-0.0012720072313652832,-0.014355265301131443
200,0.0047185535197794585,-0.00020803598955833726,0.004874853131574867,-0.0023539650470194547,-0.01591778748196527
201,0.0037760277053052885,0.0005260525808080815,0.002952257276247802,-0.004859561808216933,-0.01527393165130183
202,0.0022685709649714727,0.0017122600573085253,0.0010355626274885991,-0.006627343527554967,-0.013096594531968271
203,0.0030400947075820027,0.004746795058320386,0.0020040102539534083,-0.004191660204891058,-0.00998719751977644
204,0.006116074026324581,0.008985173707487686,0.005641872741148661,0.0018564260336587676,-0.007052058011791255
205,0.008718171092471668,0.012026733928497946,0.00863243132697489,0.0069717452364598115,-0.0052144931335340585
206,0.009786080994761881,0.013353903907821396,0.009286288504498776,0.008014220486870864,-0.004103032927676085
207,0.009574334838710617,0.013634889450402157,0.007802794923912241,0.004940727887913881,-0.003804222526096204
208,0.00895133457159701,0.013629095213772193,0.005408640270931572,0.0004892394403327453,-0.0045937707442581695
209,0.008484708764803664,0.013602867872222053,0.0034662841949500093,-0.0025724051262389198,-0.006023433001538241
210,0.008039724456455323,0.01338643252185833,0.0030239151626314446,-0.0028387031355014327,-0.006454112307475901
211,0.008829079243168773,0.014255796648818101,0.005595556978742873,0.0009317187601184929,-0.0028723365617754253
212,0.010585247152475882,0.017073777184419155,0.01001650374647153,0.006900788316017854,0.004423625203506268
213,0.01149958690970489,0.02114928867556883,0.013033061260058956,0.011501828945448742,0.011782687073362419
214,0.011784528782080627,0.024919263261313447,0.01359767633248744,0.013552501396028723,0.016703887870025816
215,0.01204742342994697,0.025806609078535485,0.012194598714222599,0.01335559154557623,0.017941943061341246
216,0.01337214066491708,0.024359611280065946,0.011092831097188845,0.013093646233802703,0.01700377722574172
217,0.016051696353126737,0.02327465241580101,0.012205530741897492,0.013989575621165897,0.016464712626658284
218,0.016857535463494385,0.021997516143741017,0.0134143735721376,0.01298532964297166,0.01477982644303655
219,0.013628982612781402,0.01909016660159828,0.012446005576654217,0.007919901579189197,0.009607111462020836
220,0.00830986216041521,0.015341413302981959,0.009682280737161224,0.0009692699615018366,0.0028991296323537495
221,0.003729290109923776,0.011348152789292689,0.006299210302157222,-0.0041052659201768265,-0.0022331205478889836
222,0.0014090216733451887,0.006752357929951528,0.0038961781230727826,-0.005300154199491246,-0.0048837805174481936
223,0.0024300561231686514,0.003692710490551064,0.004772969072171843,-0.0030890980098607405,-0.004444663694672484
224,0.006244113772123374,0.0044085947624362175,0.009211664991823482,0.00024112186410667674,-0.0009920571435472595
225,0.008913327225451115,0.006614524273606882,0.013549706621503925,0.0012863845289502447,0.00274941760401401
226,0.008024360405119769,0.007774874221535768,0.015031824371405824,-0.000736411588018763,0.005009445483005533
227,0.005510235507375411,0.00837719650195249,0.014730717138048134,-0.0032655922403066777,0.007065226614920036
228,0.0037030247733802566,0.009511462044048596,0.014339098656383982,-0.004667747817316285,0.010414814503602139
229,0.0035126489029694407,0.011684895091859184,0.014728876283191457,-0.00503985528652218,0.015316101416694438
230,0.004655128151831616,0.014461823313664584,0.01568238806475879,-0.004755897745897645,0.02025443970890015
231,0.006890660791996179,0.017424682557975968,0.01678800722704668,-0.00321944677862375,0.023467062974251576
232,0.009237600769947674,0.019532246657919833,0.017359515716699272,-0.0005997580959942561,0.0234754938240344
233,0.009103164882023724,0.018242101773430896,0.015534095934742684,0.0004433577014285895,0.018645594086135135
234,0.006004860761206527,0.01285942811812229,0.011054584284057537,-0.001153495108716246,0.010206428419298169
235,0.0033588990803102166,0.0065108687722736005,0.0069023664890161375,-0.0026241183193817857,0.0032410070129074687
236,0.0055447107491602655,0.003678121146623472,0.006825924084255944,-0.00047367029991625436,0.0023519585193460977
237,0.012984075979350146,0.005908908980057834,0.01132749628745031,0.005726797076008497,0.0064700709650182125
238,0.02098580529625281,0.010390479509837219,0.01692937848611818,0.012500566725440063,0.01037211192103785
239,0.02467813999088152,0.013175959120780194,0.019819420542225887,0.015928900422768476,0.010586117704836329
240,0.02370095550168345,0.01299777237031487,0.018717042560785997,0.01519377869563207,0.007140072701030412
241,0.020717698628076396,0.011314349910738982,0.014183116479236776,0.011410881459371662,0.001759361874535545
242,0.01744750353326121,0.010484411443900941,0.007880790240219277,0.005794009893737637,-0.003600815609319867
243,0.014135183517069525,0.012083297487427563,0.00234169695345299,5.278772290421714e-05,-0.007320140441467748
244,0.010386674396666223,0.014887944019492923,-0.0007362578337051337,-0.004146688877112743,-0.009057478032475787
245,0.006602812594574519,0.015866355903367095,-0.0009878722299102,-0.005694248895720827,-0.0098872715198204
246,0.003509045119452678,0.012522878295680249,7.394761354569398e-05,-0.0051696489545922895,-0.011670790066591562
247,0.00047962640948076747,0.005350605308200223,-4.2929751401741e-05,-0.004893155417762566,-0.015498497444693192
248,-0.0023023334394580404,-0.0011858239176236191,-0.0014411672008446755,-0.005383397049653269,-0.01971404630313611
249,-0.0025505602158260063,-0.002823049068449915,-0.0015636463877108512,-0.004432021766209341,-0.021230201577016182
250,0.0009595923811405551,0.0008255137380197962,0.001321872894868517,-0.0010143265305360219,-0.01894702158036168
251,0.006176269123883601,0.006831150733366062,0.006061083929366615,0.0031731350116182186,-0.01442648572874096
252,0.00995061879236167,0.01137025332866863,0.010609121728946024,0.0061316556997108645,-0.009669148158177132
253,0.010545330620396823,0.011869288114054105,0.01385652106143708,0.006735597542010926,-0.005901796015513389
254,0.009488046545243019,0.010151663194926835,0.016502465472775285,0.00613798891241034,-0.0018215990701007348
255,0.00928350513677538,0.010243188082255763,0.018248856723985248,0.005264069607605037,0.004317536796653193
256,0.009352790769815184,0.011954550088468813,0.015471957131220062,0.0016587872131635453,0.009652754112087518
257,0.009500021720173397,0.013706064124822852,0.007780306787478298,-0.004446247505202893,0.010723115853286648
258,0.01106444741171614,0.015291817613560583,0.00013724635939411673,-0.008896023130603031,0.008011506036803472
259,0.013299379167126882,0.015095146374773667,-0.004078295239350858,-0.009729644958270108,0.002880853303484324
260,0.014075330835029936,0.011646219478192388,-0.0061117509460828605,-0.008785843846460266,-0.0036680064222225067
261,0.012806611970271583,0.006331823089514912,-0.007862448122448434,-0.00876284766093051,-0.009529045361676062
262,0.011020025993808016,0.0019116101152673228,-0.008731865347860824,-0.010182759326384414,-0.012666458421303407
263,0.010809038631159135,0.0006536825719214287,-0.007375252160444765,-0.01136386418438108,-0.012213500897309423
264,0.01362471818178138,0.0035768657345887863,-0.0036111735743942597,-0.009856622535948257,-0.00864301177768155
265,0.01885264016566902,0.009129529217696154,0.0008834927183018894,-0.0054646476522521425,-0.004272232488378634
266,0.023033867654209245,0.014064860985306378,0.0030309937070871016,-0.0019354290693848638,-0.0013321826479594707
267,0.02284685895781952,0.01633092166211548,0.001276927519609697,-0.0028319962657861884,-2.2730707457462296e-05
268,0.019579848129519982,0.016677244834194044,-0.0021197538098801905,-0.006634509945132835,0.0011781343104728848
269,0.01719794642817328,0.01659780607723292,-0.004211749509813764,-0.009005356002611474,0.0031862645947144798
270,0.01594560349963295,0.014877242525122809,-0.005845044458776122,-0.009283577224877796,0.003964403892651657
271,0.01432887997893365,0.010573757073077783,-0.008273197346254998,-0.00939084482166674,0.002361832112410619
272,0.013833915083058798,0.006036555556170269,-0.009739525649459426,-0.009008707909858265,0.0004296583878796708
273,0.01408173116063246,0.0017496610384285375,-0.010568164597129425,-0.0093891009351439,-0.002413251750759413
274,0.01239334982131708,-0.0031485518471278933,-0.012734489888416427,-0.012952652605728443,-0.007998502876564098
275,0.009787706756311347,-0.005927677857397822,-0.014608735614114469,-0.01724044682491816,-0.012928255366847458
276,0.0077149521257999735,-0.005445582283997793,-0.01490605856031976,-0.020342955765585147,-0.013982753424770516
277,0.005089268244525574,-0.004922806013672282,-0.015289351275633063,-0.02418909751213887,-0.01284242296907398
278,0.0023391031760136754,-0.006258819106650926,-0.01641237189552834,-0.028533877126568775,-0.011225002476825105
279,0.0009923397154062551,-0.008526476387555085,-0.017746291832336024,-0.03111780718871308,-0.00949615126424756
280,0.000680605477482601,-0.010121093646473664,-0.018852400227745928,-0.03127520907974321,-0.008156348819049175
281,0.0004534816690532638,-0.01013875615500911,-0.01889546555603555,-0.029308855020554823,-0.008021487561972676
282,0.0015621457979211485,-0.007941308601926942,-0.01594256055295706,-0.02426752693644763,-0.008896974975443703
283,0.0052885345188009745,-0.0038687730906132173,-0.009446581010082025,-0.01602491657232302,-0.00915533597623229
284,0.009789636484108081,-0.0006489964269070045,-0.003157569922081286,-0.008435863031201668,-0.00879987303153273
285,0.012372598258615837,-0.0009590073360360738,-0.001353930931693416,-0.0058081568184911395,-0.0101683306565724
286,0.012539034868827327,-0.004632006604058679,-0.004247877687177758,-0.007861864732770773,-0.014441309341434555
287,0.011904118534594721,-0.008747867417744241,-0.008378779037731023,-0.010514287299392418,-0.019161861100615345
288,0.011972949397146524,-0.010402795802062333,-0.010191136103203356,-0.010464342806259548,-0.02077766482663217
289,0.012365597183866326,-0.009622120436223852,-0.009178236595458493,-0.007653641865611588,-0.01870981256941508
290,0.011737076548305577,-0.008140430512964678,-0.007350496579196634,-0.0041689429115068,-0.014643737781910577
291,0.010816666138027174,-0.00577136183341369,-0.00561672075198405,-0.0009114579224441581,-0.009191237867017034
292,0.011346238112100381,-0.001813096216965889,-0.00335365271723899,0.002905621717710501,-0.0030458869344812053
293,0.013784869300620128,0.003267910893465239,-0.0003517639562656905,0.0079278037222584,0.002317722086827662
294,0.016179107805811204,0.007690582169263815,0.0015662178988537301,0.012553132180984382,0.005545894210765514
295,0.015152198694741438,0.008901851631590671,-0.000362453397856163,0.013272928686655845,0.005180504949628003
296,0.011635858493041893,0.008002462262889354,-0.004886695555836837,0.010062124879901274,0.0028366247418531434
297,0.008560636643388474,0.007140339174063095,-0.008878161862926929,0.0052827372185147185,0.0015291208773292998
298,0.005444188151247672,0.005094275883647031,-0.012227508968104933,-0.00044954284419874047,0.0009157074216722257
299,0.0028860487876132056,0.002174124831433014,-0.014782140269431067,-0.0050095894073864874,0.0007336484502319451
300,0.0033738974560950192,0.0007178034912263995,-0.01518343757224862,-0.005483222900084688,0.0014789653144422544
301,0.005498144503175986,-9.077116443799357e-05,-0.014501384806481488,-0.0038038128970739942,0.00040344923379543983
302,0.0053825719478585434,-0.0027021146325868052,-0.01538296247321209,-0.00452295267572904,-0.004615321344125293
303,0.0026938214986570994,-0.006777715819257989,-0.01811145640428544,-0.008012220665338937,-0.011004218905732095
304,0.0012639855279680653,-0.008707057110362777,-0.019806753418942686,-0.009889993109220861,-0.014844059664308384
305,0.0032245584761355934,-0.00603345761789932,-0.018434410267071676,-0.007627963229748574,-0.01460162080224962
306,0.006449103932643545,-0.00033172698914712663,-0.014908627499808872,-0.003316105385385019,-0.01080048406564714
307,0.008369474206404071,0.005449540045701322,-0.01087093150737316,0.0005507478435964211,-0.0054090627699790355
308,0.008235741590613018,0.009280802086885991,-0.007817729225918231,0.0033571129191120406,-0.0011495688324273054
309,0.00650479804343432,0.010267914970936697,-0.006767512122287352,0.005176407513807695,0.0014193551923409587
310,0.003726793972838937,0.008258854270932127,-0.007736777232129586,0.005450814323090385,0.002491276354239591
311,0.0002736379152211809,0.00406965252337388,-0.010313767965884183,0.0037149901255964513,0.0008508577617313325
312,-0.002491427853747816,0.0004408635542855896,-0.013317597938810457,0.0017762765627650405,-0.002335363310949744
313,-0.003099139764853782,-0.00012901979215203523,-0.014749092971039242,0.0017462939972837607,-0.003753939728173547
314,-0.002192752782180751,0.0015878172224214118,-0.013978258732912812,0.0030590673519001223,-0.003133324201362207
315,-0.0008707798215261689,0.003415449427696907,-0.011911488071186749,0.004601776675451897,-0.0027595014571197333
316,0.00029553418240336083,0.00419078276494537,-0.009586937973127221,0.005818915025879947,-0.0040389106113021276
317,0.00043723873558484396,0.0038201596075428446,-0.00804033576181153,0.005973776210621364,-0.006852141761808073
318,0.0002141906736584566,0.00295837683502382,-0.007427746339054394,0.005414468616909731,-0.00997963049954338
319,0.0003338628483135973,0.0011789695435387127,-0.008034513045405601,0.004421864064132198,-0.01207471118556542
320,-0.00042139906658228144,-0.0019511958472876911,-0.010565863830387968,0.0023407548662392847,-0.012215693798034813
321,-0.0022569913158037836,-0.004881438742848316,-0.013880611806636375,-0.00034712339899827194,-0.010756835720955817
322,-0.004130849777320558,-0.006780610423553258,-0.01604917448120072,-0.0025361586027658604,-0.009985592849444863
323,-0.005236041111937985,-0.00741791842829804,-0.015910353012772754,-0.0037862217087728947,-0.010674136987435018
324,-0.0044938279372764445,-0.005263750626373633,-0.012837320184597057,-0.0037481847508804163,-0.010033707675698895
325,-0.0012267198202014467,2.3567547048092253e-05,-0.007406375204851123,-0.0018399697637482614,-0.0062550621320219225
326,0.0016951520083798592,0.0049292594074293395,-0.0031909920580152976,-9.434596231145755e-05,-0.0029347971977721444
327,0.00025377746031300116,0.00564658888900507,-0.0036371100301279204,-0.002025658307284914,-0.0039906847775154275
328,-0.004166541294214894,0.0024981047893424192,-0.007304745438247879,-0.006635379707441789,-0.007794076055099611
329,-0.00817102746989797,-0.0025694353920081114,-0.011482992846115484,-0.01094073056490829,-0.01188705126583739
330,-0.012536446762391799,-0.008914799199377314,-0.016188720703152325,-0.0158003127734071,-0.01618933678167414
331,-0.018419846495360773,-0.01553110104176099,-0.02070933780096725,-0.022064786403358436,-0.019199377931115414
332,-0.02261775744420295,-0.01940389651530912,-0.021367752272465474,-0.025647088450906363,-0.01736518682829125
333,-0.021624239171383737,-0.018207774632970443,-0.01616234312653515,-0.02277350984180899,-0.009463154760900183
334,-0.016816176785664973,-0.013498080381318292,-0.008033808870809607,-0.01552419862048553,0.0008691667076861936
335,-0.012173404210984949,-0.008738615651260356,-0.001428219919981322,-0.008100007426423968,0.009357171359790016
336,-0.010276956369872404,-0.006414420047317837,0.0011849806777179252,-0.003211854243353981,0.01483475431722556
337,-0.010992591639054037,-0.006901981609591021,-0.00020674768113937837,-0.0020426763586499147,0.0173794002854684
338,-0.011826314929299258,-0.007781669296474433,-0.002825492127674367,-0.0029720934113220826,0.017948054354676043
339,-0.012091126060330165,-0.007765923081745882,-0.004185385693293047,-0.004160888887354866,0.017341186171912094
340,-0.012965975273970415,-0.008494757265303873,-0.004674782849287298,-0.0052345087359059244,0.014841339876924708
341,-0.013286097652766901,-0.010254529270859689,-0.004849102745521191,-0.005059376800251313,0.010970227039767279
342,-0.011129110412796935,-0.011153572949636781,-0.004121734782557688,-0.0028440594305027683,0.007947766291708503
343,-0.007673520049066843,-0.01075734523539239,-0.0027942149538438816,-2.490312432308972e-05,0.006231536016715388
344,-0.005120146787929069,-0.009831261904413717,-0.0016814667627252481,0.0022183869519323994,0.0050059409471046815
345,-0.004153432613968338,-0.008840460773595543,-0.0015242000065390628,0.003855831063041232,0.0033604872514394
346,-0.005098761607570661,-0.00878000126978619,-0.0034591062065917454,0.004105331902263562,3.995961490842354e-06
347,-0.006272077180482467,-0.008611128959493794,-0.006163818939512849,0.00415164162806888,-0.0030422854850320367
348,-0.006241763792556564,-0.0069656070361885205,-0.007634032839157221,0.005441641549963633,-0.0026280431757718793
349,-0.006544154241341438,-0.00601564939639039,-0.008539928221209938,0.0063076405150593925,0.0004697211193222764
350,-0.008786788862504431,-0.008875348117154262,-0.010635646747343545,0.004491055591791886,0.002966594589776873
351,-0.012198157990275998,-0.01468073936945691,-0.013823217379254894,0.00040794147577708677,0.003952583339271834
352,-0.014017024596151268,-0.018781382990943455,-0.01569752054917904,-0.0028299646462329234,0.005425401428889808
353,-0.012175920857433332,-0.01747642183112366,-0.014319660614864232,-0.002730318629209912,0.008336391292932547
354,-0.006460436146561372,-0.010660804461875815,-0.009323005479026434,0.0016001593760399423,0.012380864284565947
355,0.0009019167851667713,-0.0020056232210608938,-0.0021808519554164904,0.008979857319023536,0.01691534700828902
356,0.006180716407997738,0.004062612746800184,0.004028840052065524,0.01593213523180879,0.020979166117682906
357,0.006599836688368729,0.005288823409037538,0.006161714211572184,0.018677894301952346,0.02293374556898245
358,0.0025257019349825744,0.00238450308752055,0.0041761869487079665,0.016401137477925393,0.02166080654809191
359,-0.0027287136460798465,-0.0017200521879638594,0.0013027403553651639,0.011964872942100555,0.018427803793733048
360,-0.006161812388616172,-0.004011765688100722,-5.271121407258029e-05,0.00842154993869752,0.016262302207548627
361,-0.007067800151048607,-0.003733062893432659,0.0004007233983752053,0.0069838321474905325,0.01683642810205762
362,-0.0061269159433519765,-0.0020152840550692265,0.0023915664698185624,0.007792826118780302,0.01956412891607857
363,-0.003868854336493899,0.0004901750972907031,0.005528619471857937,0.010490690523880858,0.023588739455106752
364,-0.0009121133852319825,0.0030484884603047004,0.008425613333675778,0.01390820350939077,0.026698301222571247
365,0.0010422569434059166,0.004196556404808849,0.009443867183697207,0.016045042408397575,0.02608728649728783
366,-0.0005070514623901315,0.0025517190350700645,0.007905533561603664,0.01445428119783046,0.021101585009447185
367,-0.005882526180046119,-0.001524798548901103,0.004908306835551377,0.008509104383325625,0.013720154174214046
368,-0.012122927585759804,-0.005385000336369238,0.002432912566354715,0.0010949896176650723,0.007116985383241491
369,-0.016005958669204765,-0.006541847997310769,0.0015029588061390307,-0.004140423832421459,0.003619332637385063
370,-0.01654486320571167,-0.004431183844381925,0.0022649816456869246,-0.006236939931539345,0.004170914629648906
371,-0.014978911714268761,-0.0001472076312351926,0.0038899550601015583,-0.006457612351406787,0.007620923534365038
372,-0.012489831101032725,0.0045611106003475305,0.005732816969199633,-0.004924392658637104,0.011632678666909946
373,-0.00980990412010703,0.007613442761924231,0.007805676917170596,-0.0008935133182872864,0.014341341493221272
374,-0.008368236541942657,0.007224127508551327,0.00918864518461551,0.0043583683288644535,0.014540954307089977
375,-0.009220852848473921,0.0037338314501584257,0.008668127406322196,0.008281560159184837,0.012516861586540319
376,-0.012703811170539987,-0.0009413498045433094,0.00560063272228736,0.00850256725735228,0.009357340026376178
377,-0.01789670839969567,-0.005569374743279256,0.0007917801818568452,0.004715134722226258,0.005742821682554132
378,-0.021770457634001674,-0.009103943424723988,-0.002832558192729911,0.00035144595825142345,0.00270772305653064
379,-0.02242424041598437,-0.01015105593116475,-0.0034936076616275584,-0.0011724467733356938,0.001425968491832767
380,-0.021006284105827652,-0.00914310459234052,-0.002227625176946632,0.00029139176751872767,0.0021203576559086874
381,-0.018130307703071148,-0.007801993762337311,0.000380206222340273,0.00420635686616027,0.004203129125618057
382,-0.013429266527964738,-0.007021204251473295,0.004603890880993171,0.01007008488102288,0.006770944308240507
383,-0.009245480901962146,-0.008018098258758153,0.008282877871112754,0.014393997883107487,0.008404836500940326
384,-0.008271960213521423,-0.011106377545214886,0.008855972639755625,0.01411070119806165,0.009295086209714065
385,-0.009779920642316121,-0.014368110574728178,0.007062463039475631,0.010926034707074914,0.011196395314014427
386,-0.011136021857829062,-0.015890560722010633,0.0054474266338479784,0.008571664035882874,0.013626083439031603
387,-0.010604719906173742,-0.014776677785318965,0.005692784416800179,0.009002071389359477,0.015048842204686311
388,-0.008290706982457203,-0.010861242972910145,0.007833857713222672,0.011189615063037794,0.016248609213307622
389,-0.006092377665682719,-0.005831810150841954,0.01026687341887435,0.012261298054377735,0.017792876798445698
390,-0.006480222643857955,-0.0024263677196654262,0.010831325853139485,0.010184446721930236,0.017902090237743463
391,-0.008222881385839289,4.816547475549516e-05,0.010711943026790004,0.0074545074359869175,0.01657274969600912
392,-0.007857237153843451,0.003750837518003696,0.012928198542152568,0.0082774973035782,0.01521771808092904
393,-0.005823587351609892,0.007128556245517918,0.016398107488963275,0.01168910660765475,0.013180941886181347
394,-0.005536169858100753,0.007001750059661108,0.017399723023458425,0.012981106410941261,0.009020111715756654
395,-0.00786162878407627,0.0032059065319836335,0.015110193448657815,0.010658336572423885,0.003476001541976055
396,-0.009735221863292362,-0.00045250099318079194,0.012797405982027813,0.008041108870662433,3.891586010837445e-05
397,-0.009252281572847942,-0.0006703433937535437,0.01305557143423283,0.007589279270205157,0.0002038437811864114
398,-0.00974515514086674,-5.05648015921304e-05,0.013548137081543139,0.006742218808750283,0.00017986191640146225
399,-0.013279380169239014,-0.0020258439490936455,0.01223121503320588,0.0037367333362262733,-0.0025153527774494752
400,-0.015589071447971614,-0.004255447731700491,0.011844945187551912,0.0020648259820617875,-0.004500049427174504
401,-0.014276041827085409,-0.0047422258645891694,0.013673659828841594,0.0037995412154464155,-0.00369537469469474
402,-0.011644608901193204,-0.004404631049293831,0.015727367803836913,0.007902054052690349,-0.0018735933434028676
403,-0.008350234889794526,-0.0022231736349362942,0.017796861235051236,0.014360075727339352,0.0007056876457709184
404,-0.004511905654734794,0.0014490327721280035,0.02004944476080028,0.021530746615166102,0.0035164675778639656
405,-0.001411966810144771,0.003516096876284006,0.021366145461040445,0.025918712893830676,0.004999735031840696
406,0.0006875746279508221,0.002771608189278522,0.021286694841104875,0.026200832045824088,0.006210151624493905
407,0.0010955023005934353,-0.0005649125414527148,0.019428122311844948,0.02267582059132009,0.008030122620189109
408,-0.0009549452180918384,-0.005227308916001949,0.015963648710781885,0.016889722717463113,0.009893936838718958
409,-0.00426870046757118,-0.008555265834273728,0.012326126585459445,0.011526505024264968,0.011637102915077689
410,-0.007590505096690774,-0.00925794707048542,0.009321112018628702,0.007687448384206554,0.012932559384892921
411,-0.010343233995666,-0.008661824681668135,0.007524392003120521,0.005513063972748806,0.013836369614948623
412,-0.010026572578290456,-0.00746227767234766,0.009180349467119259,0.006834380543010884,0.015758358095141128
413,-0.004629312507770992,-0.005239049539146138,0.014611088917593875,0.011981565384170343,0.018442237852547092
414,0.0028087528567139215,-0.004071878130182126,0.01889799070062892,0.01667539314589177,0.01767120322653665
415,0.007408805769388761,-0.006093225322616355,0.017618034004995984,0.01696969831805492,0.011081768318424843
416,0.007896319701478428,-0.009681009848668003,0.01289184665729576,0.01470729724893312,0.0025823002881556357
417,0.005843741991256622,-0.012215927010635818,0.00978844345032573,0.014048121403355965,-0.0030813838403678418
418,0.0029931021532056882,-0.01313037247895524,0.010153969944030687,0.015700689623231533,-0.0057920443632798755
419,0.0002971109791500492,-0.013568755887441518,0.012088089939470938,0.017255464801609558,-0.008150175940301206
420,-0.001960381035961257,-0.014044064130365932,0.013052825073459468,0.014559179591199956,-0.010287337133577757
421,-0.0030027732194157753,-0.01345979570798694,0.01339706154801763,0.009261918338772294,-0.00961765491695158
422,-0.0023033542522900474,-0.011739145822152568,0.014849265824410573,0.004995209966331841,-0.005934392469257302
423,-0.0004951688183463414,-0.010439779858560842,0.016489693319370623,0.0024083736065304354,-0.0022403946115460063
424,0.0019568029837004333,-0.009570552337810519,0.016997410640101667,0.0019222640541878297,0.0001370138852165812
425,0.005885772056695761,-0.0067985746846085295,0.017587974766269197,0.0030684421278455564,0.0034015190307909006
426,0.012004795977627132,-0.001383581740075013,0.019874696628022916,0.005688755053787808,0.008804019447574508
427,0.018559650648098967,0.0036213179532314896,0.023710098014007523,0.008877302029238058,0.01370862975891982
428,0.023315794434250612,0.006076090327987575,0.028232724201843265,0.011666459263473233,0.016638043105978106
429,0.025680953828297527,0.007351009770928721,0.03223915936660043,0.012082286238718917,0.019879920494782533
430,0.025481702724090317,0.007976662437587052,0.03389205881934256,0.008938252969852562,0.024656525612117088
431,0.022988215108335566,0.006284548124540847,0.03252320441579492,0.00411507196506706,0.02902306004638472
432,0.020070585855845216,0.0022748186837477456,0.029682555620679844,0.0003626966794109348,0.031098554479596363
433,0.018789143627529353,-0.0017070954052957545,0.027683398852015453,-0.0007260439263715634,0.0314483827558965
434,0.01920544235117643,-0.003826262543434648,0.027364057099787883,-0.000710455404131747,0.03160337610175863
435,0.01956130053567683,-0.004486986341914873,0.0269902014776356,-0.002758736901185747,0.031141169937404165
436,0.018088079773918433,-0.005368968714284828,0.024470081132094527,-0.004809342156394128,0.02840930135175091
437,0.01600428428476305,-0.006461527340446895,0.02121400315733576,-0.0058544007255807275,0.024566392843890495
438,0.015041321816836675,-0.007567515151002212,0.019280579087424306,-0.005226000442632239,0.02130559948360783
439,0.014189175725307342,-0.008996104648068947,0.0176249151906744,-0.003984557834671708,0.018306274724218943
440,0.012853795253280112,-0.009235000215677764,0.015471575757860512,-0.0048256357848744606,0.016276411265641857
441,0.011574824861698042,-0.00790408761855831,0.01360516860182495,-0.005416164968810481,0.0157116369615313
442,0.01157282685837032,-0.006085543151625687,0.013167404934680554,-0.003659017648531195,0.015916468369466946
443,0.013816925055138322,-0.004130033466554498,0.014794594084036562,-0.0002613337502747294,0.016953826877611787
444,0.01643936948155141,-0.002864154568118052,0.016765110647447987,0.000677813494241837,0.018781333875946615
445,0.017938088360554227,-0.0025119451390741196,0.01745104866995085,-0.0010627467640284174,0.02103473821245289
446,0.019607497770073853,-0.0017084563285277266,0.01802543515985954,-0.0020214465262923882,0.023292659537767515
447,0.02192115908137922,0.0006514527383466671,0.020038158316197985,-1.3337342616882288e-05,0.024832585517590756
448,0.023114654315002238,0.004860765177927042,0.02307040461936067,0.004764190682068598,0.02621895191272296
449,0.02175840014321496,0.010040537485007918,0.025116594222150773,0.008804924152786503,0.02916397225445356
450,0.018169845837376197,0.013339280397817939,0.024204455687063947,0.008950586347366745,0.032914369821027696
451,0.013983647410495823,0.012820656962735977,0.020704917384754225,0.005971850443568419,0.034418782872127386
452,0.010731735966919535,0.009433724486201884,0.017043356986568142,0.0033943081985299494,0.03258185804425335
453,0.008943191639842286,0.005163696239292508,0.014956053452611496,0.00306187086416957,0.02853836838846101
454,0.008095454395440588,0.0013393864275261884,0.014555246388546867,0.004756791149162328,0.02384029712303317
455,0.0073534309411623505,-0.0008940147310817922,0.015605615267882194,0.0073319916215960354,0.02116083088860331
456,0.006863777921906616,-0.0003972630527309725,0.018089010859846624,0.00949434061413415,0.022576960875412232
457,0.006355553429935235,0.001437846461509719,0.02072528448176543,0.010805889988167882,0.026043877399791214
458,0.005062152615198072,0.0021066878631045794,0.02203995305858724,0.010893695480761136,0.027771656687531853
459,0.002825504218746505,0.0013274695850728085,0.021629662661757205,0.009821036561949941,0.02667675088295593
460,0.0004084561875499152,0.0007960197688883137,0.020335067127973984,0.009084032332464421,0.025398630017644468
461,-0.0016852219020505044,0.0006525445758611773,0.019565200100631047,0.010394529313308875,0.025707892332739322
462,-0.004828892084720721,-0.0019521514151491833,0.018615555193776428,0.012167006914357277,0.024482594993116117
463,-0.009041173630206335,-0.00733749885213291,0.01687591235263822,0.013449435799136284,0.019909614463809625
464,-0.012256574625951058,-0.012027809155766275,0.015753564608197504,0.016173777137099544,0.015192890813130638
465,-0.013500879485471509,-0.01377450368088317,0.01612854247516919,0.020653760573456175,0.012971210121658378
466,-0.013134697892623951,-0.013104380453625402,0.017741601378866455,0.026023756370033017,0.01277584379821317
467,-0.011553675218896678,-0.0112612073456984,0.020001789623612355,0.03232662765595475,0.013234160704279676
468,-0.009075152894522523,-0.009422997139175172,0.022491974480357713,0.035824982716656927,0.013101925586545785
469,-0.007342202149596548,-0.009640752742401318,0.024080582574091118,0.037302343017769767,0.010899194792802878
470,-0.007270877068217849,-0.011939277710717119,0.024012175827897643,0.037341838036863854,0.007260576457129772
471,-0.008335726028288299,-0.014257393719445026,0.022761527352412193,0.03445331756364058,0.0043494518561541864
472,-0.011143128874733649,-0.016287174454442437,0.020246859997442454,0.029688363901194188,0.0023503396799992907
473,-0.015348912495348867,-0.017948423402777015,0.01704460414961052,0.022874064210516746,0.00084440866143257
474,-0.019429388192756428,-0.018991075482198687,0.014173798363883595,0.01507835566263151,-0.0009148320519365356
475,-0.021425963873543088,-0.019051369762611372,0.012817812742524047,0.009340738582115404,-0.0029292610815973004
476,-0.018468898745678596,-0.016819953027264634,0.015188553364947458,0.010779733402310823,-0.0029240584123782993
477,-0.011242532662263325,-0.012780500859023705,0.02042615609839548,0.017085298001089846,-0.000750282802117034
478,-0.004759025424181426,-0.008719304593386256,0.024002158133330887,0.02141281684434822,0.001172442194996465
479,-0.0030012056276561673,-0.005572686825714579,0.02295833811013762,0.019985067841707446,0.0010118768243361576
480,-0.006728566938479882,-0.004636992464375326,0.01744379167944973,0.011718392687775745,-0.0027904395836728453
481,-0.013406963773334803,-0.006449700583960401,0.010386002341669845,0.0011569014463700916,-0.008956520903017863
482,-0.01923296117286401,-0.009599160647712152,0.0054061540978094826,-0.006924171097092186,-0.01286585538601165
483,-0.02260979828907579,-0.012584380359494255,0.0031306889316973867,-0.012323692031719556,-0.012051278010160496
484,-0.024397328996413586,-0.014937794632535051,0.0020585245921294986,-0.014669587547004691,-0.008192296481086807
485,-0.025477737058141426,-0.01680013359832318,0.0017870111736504027,-0.015089469618652457,-0.00435256216317041
486,-0.025174616521705558,-0.01754894301379292,0.0031752818394694027,-0.013179376125237254,-0.002261698041780853
487,-0.023243138211601882,-0.016255167016577327,0.00559141044280451,-0.008419302574472492,-0.002267219193716591
488,-0.020132386534945486,-0.012737359645071798,0.007838132199133483,-0.0028041297465028923,-0.0030649102436022574
489,-0.016441208190323388,-0.008334793403156088,0.009964769709407342,0.002915369615227784,-0.002601785439188731
490,-0.01334297209603364,-0.005257930682677074,0.011875842857225321,0.007650167501461292,-0.0004756752565052629
491,-0.010915239092984723,-0.003928565093769116,0.013392630485346788,0.011516521844637875,0.003130957971595627
492,-0.008617782813988149,-0.003524846569918691,0.014347963000420776,0.01491025385306727,0.007562815553231062
493,-0.006178933205271342,-0.0032372641566511297,0.01464780509152635,0.018646651772112798,0.011499524653988123
494,-0.003698006133639064,-0.002826765162749098,0.01447842302638425,0.02233820280897615,0.014333088600740508
495,-0.0024811363807650004,-0.003337687597387325,0.013587976295330392,0.023843021376229356,0.015832226352957113
496,-0.0028417411337023695,-0.004773196486599228,0.012574339650901064,0.023724251548494668,0.016668769527601473
497,-0.00406671418332231,-0.0065289984683773285,0.012089954608346177,0.023169871199644494,0.016904217349281367
498,-0.0064531096223519446,-0.009019716807974908,0.011100708696507724,0.02221992165014328,0.014982445629083503
499,-0.009123476883924845,-0.010915941256399808,0.009491690015182764,0.021541832478163315,0.011689643787219638
500,-0.010239822120566481,-0.010252929158846315,0.00827019618317382,0.021404228061356525,0.009647887016985757
501,-0.010088260999496708,-0.008216362337381398,0.007001169760823444,0.020612744133917848,0.009059117150304908
502,-0.010257806294224065,-0.006950807237541168,0.0047807237097048936,0.01857175432811535,0.008603066842129421
503,-0.011543248933123315,-0.006361993723084497,0.002008066645269043,0.015381797610909673,0.007936079297478384
504,-0.013715668708420285,-0.0056313057702058284,-0.00019632417528922338,0.011376620789780006,0.006922356784803915
505,-0.015962325169437457,-0.004651975872899734,-0.0008700762519121863,0.008294403232135584,0.004502159469905982
506,-0.01711572572311247,-0.0027609788798842235,0.0005944834158928879,0.008229910334050378,0.000922756863440689
507,-0.015749385850999092,0.0012916519406164328,0.004399902802037311,0.012056304351421755,-0.0010700513470793408
508,-0.01285356356968254,0.006040163664095639,0.008740617097468149,0.017382763985340458,-0.001336883247542118
509,-0.011705315717292124,0.008187973567207922,0.01083516495415368,0.02032212682095875,-0.0025172486517879883
510,-0.01237444168403105,0.008037390681180992,0.011451533422698536,0.02130442545466907,-0.0033461046124181955
511,-0.01245527012523351,0.007882676547334839,0.012973291701442779,0.022867595325791547,-0.0009517672124781783
512,-0.010925920943558282,0.00857007513501511,0.015293318908492316,0.025168677847358465,0.0037987069887192625
513,-0.008658900329431977,0.009947072606645742,0.016651160838335673,0.02666358810050267,0.00829973793360524
514,-0.0070935890230394,0.011785521459328896,0.01646824401480037,0.02628885416739352,0.011562495811697212
515,-0.006652551119100439,0.01336187108833529,0.01564104380158321,0.02437998083781234,0.01338137038334721
516,-0.006903529818022578,0.012968098637818188,0.014680296734405166,0.021756632863319986,0.013253071365179897
517,-0.006614981206987831,0.011031720650455011,0.014143815576641697,0.019384512711791597,0.012329300924925747
518,-0.0056218569203736815,0.009543987083282383,0.013843373503475158,0.016822387627974056,0.011666042330954692
519,-0.005567025115610695,0.008550545156134239,0.01241719299072097,0.012624571863088812,0.01026755251005288
520,-0.007140819760978083,0.00655071317148449,0.009579390011449557,0.0068857991406545745,0.007524452790180168
521,-0.009477209966421273,0.001960654635527927,0.0062519405841440345,0.0008278728299094236,0.003571022658248639
522,-0.010978528864186642,-0.004409511844311473,0.004022198180613157,-0.0038988380893493794,-0.0007203567421116424
523,-0.009003268146588235,-0.008033989107910955,0.005430272109364173,-0.004518484753288218,-0.0017141087262226022
524,-0.0026499597701103135,-0.0059104742814440015,0.010987121168158585,0.00011382569912647289,0.0024931591848480765
525,0.004594736098583078,-0.0008360692176441917,0.017032367951293422,0.006137797218428588,0.007756397486737199
526,0.00909527663334832,0.0031696052273436893,0.020240979732984384,0.009301132477212667,0.01057925695664134
527,0.010249370706772478,0.004871992677660522,0.020371735730073007,0.009347507611996615,0.011984906486921422
528,0.009059443449236912,0.004643165954597728,0.018624614246907457,0.007824842382348592,0.013775511239694197
529,0.007793447635923937,0.004328042471989458,0.017577946214750253,0.007165904581523089,0.017299939911788107
530,0.008532474513615355,0.005815859388722962,0.019346197207843457,0.009671096705715716,0.02246302704037545
531,0.010809872494472461,0.008282602902089455,0.022753782479300072,0.014489470774391023,0.026616424628135245
532,0.012969722692159872,0.010070659812549138,0.02550915150307722,0.018460469579247442,0.028110103924827892
533,0.014051750131208685,0.010752142198361356,0.026828924371199426,0.019477461902341054,0.02753476675098599
534,0.013305476042926857,0.00971254275398757,0.026291820670361427,0.017183692695583293,0.024560014671092503
535,0.012171495815533742,0.00832515786597759,0.025021334844939454,0.014174030650547856,0.02047653924806021
536,0.013365623824894238,0.009943202104407405,0.025418327410117757,0.014093640350189642,0.018704592504720865
537,0.016060865595488055,0.013854518884926345,0.026870795312270573,0.01663680017077178,0.019058326021357413
538,0.017584149695656453,0.016144489018049817,0.027044793983354385,0.018954226707909874,0.01901224528284278
539,0.016548315264657262,0.014430586899519225,0.02511893181960445,0.018788563263768043,0.017254250936234717
540,0.01388209517559044,0.009839704064453883,0.022033990709699296,0.016322480577455938,0.01447871118640576
541,0.013203891174899243,0.006579916822693782,0.02007844371798276,0.014492208128932276,0.013694204302881326
542,0.016318737964546266,0.006552458270130422,0.020338761165780133,0.014776161503399414,0.01563841548855297
543,0.02091412733344122,0.008058075842016515,0.021597683966291,0.015912700965027594,0.018088119984659347
544,0.024052128810893615,0.009822209342813991,0.022000091490606596,0.016594596329623432,0.02027060199351592
545,0.0239302226320537,0.010857377790965237,0.02049650592443954,0.016135279362117127,0.021944330333081415
546,0.021476549137525034,0.010556308882110826,0.018723842329033104,0.0157727289686713,0.022617750160632236
547,0.01778930813505035,0.007825113296463324,0.017044846703352764,0.015126808367427209,0.02034223396842088
548,0.012736234149237984,0.0026509785914083615,0.01398108584662433,0.012061872076641814,0.014358651677967427
549,0.009240868872926815,-0.0007279527620414367,0.012045563365957433,0.009195005228436904,0.009429549844018576
550,0.009458891539964341,-0.00019031789647133024,0.01350842457139684,0.009169535194357412,0.008841693949408454
551,0.011465225713457327,0.0018373333881752268,0.016503089341433394,0.010518400903697525,0.010168999122644757
552,0.013465522809116818,0.003724099685079347,0.019546566869111708,0.012400208639611604,0.010238552584895488
553,0.015215572204878805,0.00538134705305104,0.023170926758084645,0.015680365010810157,0.008087512067515923
554,0.01626164174207824,0.0059759373546938955,0.026759033019708056,0.01926253225533534,0.0036134452151771763
555,0.015701871019297025,0.004963915754598269,0.028023624158086555,0.019347258568796613,-0.0030762461186355236
556,0.0145817708901285,0.004427571820690967,0.02710537743649638,0.015431853651564223,-0.00947291296861355
557,0.01568139017796393,0.006408571254575241,0.026739078245334856,0.012211764247202819,-0.012036482202530938
558,0.018504194865009538,0.009182684684971772,0.027411674036857406,0.010839223997558572,-0.010843514410629997
559,0.019000284611172782,0.009100860591950125,0.026261626130728574,0.006748101142005001,-0.009901701265408869
560,0.015310820196743286,0.004983180999379065,0.02057807302876769,-0.0015292729960104015,-0.01279719442740741
561,0.01004110439303776,-0.0003540213092370362,0.011698852179987394,-0.010104465862824596,-0.01848234436766617
562,0.007613738991095165,-0.0027554929202398184,0.004261337815072131,-0.015024197933367818,-0.022591821215877005
563,0.008977520485109228,-0.0016268046366228034,0.00024114642746051108,-0.017082663870380183,-0.0243615684921644
564,0.010472174617927122,-0.0003008932971527829,0.00032013960925148796,-0.01610467005436807,-0.024334227132551442
565,0.010185398500109452,-0.0006743594099438543,-0.0011223291107195293,-0.016266172516560064,-0.02676689128058589
566,0.010065757723052906,-0.0010157301494599425,-0.004603540161989767,-0.015319855390029061,-0.03030499427231543
567,0.010718480026587408,0.00026086839905134675,-0.006371570115372011,-0.009702362154921419,-0.030531388228012216
568,0.010697253399018204,0.0023495899164407822,-0.008357910212266763,-0.0054605415727701275,-0.030239808547706425
569,0.01094489504764276,0.005119241722086217,-0.007996633099784968,-0.002082059385220323,-0.029386085120925533
570,0.013629878046135444,0.00978887478411567,-0.0021134740712094673,0.003828264512064099,-0.025577249081783722
571,0.01694895904721552,0.01486451517791962,0.005844755523615727,0.009496533816086387,-0.020148471932539252
572,0.017025057227704792,0.017021593855290222,0.00866470982273213,0.008902922844988235,-0.017238378732253347
573,0.014021038676423214,0.0166924718444034,0.007167803887116448,0.005075695102014126,-0.014899193936452993
574,0.00945938120050933,0.015441484290090292,0.005634531943069804,0.001818125227007168,-0.011554831531298283
575,0.003769640633495528,0.013909310365881094,0.005013675164281269,-0.0013677014534951898,-0.008578440822553374
576,-0.00016785046993363268,0.015149514628563659,0.009035800752626137,0.0020933915302767895,-0.002766432485432192
577,-0.0004223765954302676,0.019777246748727585,0.011497564502926922,0.006267704878718697,0.004711538842163351
578,-0.0009586524813166346,0.022472106616547412,0.011835321200233435,0.010138989558088899,0.010924956917818522
579,-0.004703579755206782,0.020011233681438333,0.008984316362473809,0.010968979480883906,0.013529993535530723
580,-0.008153567221983703,0.0157417675497382,0.002400023653211998,0.005404058739890892,0.010392085466092302
581,-0.009337446560711971,0.012609735532196208,-0.0031527781695305387,-0.0003765992894343656,0.006699896999355084
582,-0.009884068743192762,0.011071623237629483,-0.006946945253111667,-0.004689935950637227,0.005335058297438869
583,-0.009745219264983505,0.012549495643018526,-0.010341853999088782,-0.009895115865896982,0.006047402492985013
584,-0.008740771936246183,0.015942306501114053,-0.011044480669691334,-0.011809341707485878,0.008906499510218095
585,-0.0074989889400816434,0.017773817510957433,-0.011144119698850862,-0.012064692237920508,0.008779891516783206
586,-0.004746827789723776,0.01842375728963574,-0.011289805165954691,-0.011724793706932267,0.006028257357468901
587,-3.895826653777382e-05,0.019261312933073947,-0.010435032457889458,-0.00971330184067407,0.004937997623959786
588,0.0038369834099333763,0.01886625421057891,-0.00824032276692649,-0.005199550553082885,0.006579697169346525
589,0.0042865842330065546,0.01613540657858683,-0.007413265268192105,-0.0022491960903563606,0.005902339702707325
590,0.002589399083176613,0.013324718581768815,-0.006842641827730781,-0.00027701675074824584,0.0027215223058358676
591,0.0019769902264491625,0.013693758003348032,-0.0026745915409185925,0.0047013675892694845,0.002734492308920133
592,0.0028190876331625897,0.01643276986149947,0.0029238189787951317,0.009495885094886684,0.004893654987795538
593,0.003953040777653674,0.01920142449486352,0.007752161128522155,0.01261560700646571,0.006209872391319497
594,0.005599483214527975,0.022084832784341913,0.012111691705611239,0.015489440742944914,0.006909558388136074
595,0.006712567117257679,0.024593069755551346,0.01563938548204293,0.01786442729071883,0.0075507182738780935
596,0.004478296129100838,0.024185601992797984,0.012490612057615326,0.013659177655200078,0.004988094986146976
597,-0.0012517361032027088,0.01996800868628105,0.006240561116482298,0.005723802406876202,3.851290608473411e-05
598,-0.007707907103583663,0.014073898557450898,0.001109297396018959,-0.002231164986642241,-0.005599601150235863
599,-0.012124551145070921,0.009442169767678909,-0.0033202955200883778,-0.010024928374453955,-0.01093402326625277
600,-0.014041082941214101,0.006835619114264906,-0.0049975119978001165,-0.014356088152239382,-0.01335768675251027
601,-0.014692346205025606,0.005475214613332205,-0.006586983140505881,-0.016991259767052055,-0.013901450414044681
602,-0.014077590050024574,0.005611811473217204,-0.008754228506880662,-0.018246696729080504,-0.013718991754848192
603,-0.011176908472682342,0.0077454355561191015,-0.00919537515226875,-0.01634608934258795,-0.012503304143748754
604,-0.006602972476030073,0.010835188257516068,-0.006469425792507392,-0.01112957023103241,-0.009423860711299598
605,-0.0019333151480485395,0.013524636046451276,-0.0036059956390368446,-0.005997993960368548,-0.005797246399315463
606,0.002991668540332854,0.01614330649751095,-0.0006033147310527904,-0.000811705836400183,-0.001462676624963793
607,0.007532210104810488,0.017991835488471497,0.0036400696337672606,0.004946161948868474,0.003462441655902541
608,0.008595155011870954,0.016782234882484294,0.0046136335769071,0.005949705404864837,0.004910270318086116
609,0.00548156716947355,0.01322552326948899,0.0016211066910754768,0.0016230809662923173,0.002260117830009792
610,0.0011465918383426095,0.009692716934681253,-0.0028243143660148877,-0.004406535274022414,-0.0016080446108227768
611,-0.0023016899335762974,0.0059544821682060945,-0.0075467985227789195,-0.01046259100896053,-0.004839231369423902
612,-0.004416702553029636,0.001724144384399325,-0.009475105011416757,-0.011728445501101211,-0.0051343162437834655
613,-0.004957670501043021,-0.001660319254003254,-0.008763145333742676,-0.009644944008896867,-0.002645569107109966
614,-0.0038271560408927306,-0.003148461232340302,-0.006586889660885885,-0.006051922648525329,0.00150163708033235
615,-0.0008090020418938409,-0.002226918407144475,-0.003352932632665797,-0.0003355082249441727,0.007083123379665628
616,0.0027462858047172293,-0.0004185191426101306,-0.002058087761984059,0.003781027371329841,0.011250709743167185
617,0.0042832490744680604,-0.00047067548614344824,-0.004208323279458936,0.005268880364384939,0.011009693195743702
618,0.003032819643510687,-0.0025248594287439123,-0.008761079852609745,0.004676047158255256,0.006759073578590529
619,8.702340100311155e-05,-0.004535529494023653,-0.013858019928223102,0.001980987095000165,0.0016884159746697344
620,-0.002481985946361928,-0.00465705275476936,-0.01824385834340275,-0.0031758753455176634,-0.0006061018767459157
621,-0.002712081158597549,-0.002441731067976054,-0.02008209072100625,-0.007145338485547933,0.002496634441290996
622,-0.0015780942797480567,-0.00017973036943209707,-0.021186847659045986,-0.009785156347266994,0.00808024909715229
623,-0.0023799183810481114,-0.0009136471038821643,-0.02587346080935257,-0.01550346662207533,0.009804743380992251
624,-0.004877264471624357,-0.0031237354508307337,-0.03294998853151877,-0.023156290873809496,0.007299606836411587
625,-0.0062346585074706746,-0.003829731059389646,-0.03950006414783519,-0.03061825785762929,0.003816456751397267
626,-0.005885491117230825,-0.004404491706814757,-0.0450961193444369,-0.037068294247219,-0.00022949215892779197
627,-0.005020589842619082,-0.006668135252352864,-0.050027607613577496,-0.041886463141796136,-0.004772599954924422
628,-0.004816572586243959,-0.009080927702732274,-0.046830163722678356,-0.03930255035960627,-0.005348535674294865
629,-0.00487817067471825,-0.009575507106014895,-0.03994844991151912,-0.03291036278357021,-0.0033303426471512883
630,-0.004198601363042697,-0.008439995842244644,-0.033429223835030775,-0.026205662926066187,-0.00205326474418415
631,-0.0034813413921352654,-0.007349228636552277,-0.025921389896496,-0.01922634773241813,-0.0015050650432859235
632,-0.003478130805912014,-0.006734218442742219,-0.021608065564759592,-0.015726799185881483,-0.0016539380037895706
633,-0.0031843865091659104,-0.00573905809392789,-0.017000312585586038,-0.012043533795726402,-0.0003528218045554747
634,-0.002463833195203337,-0.004810431288869302,-0.009877857545375046,-0.006251030022182213,0.0027998366579583497
635,-0.0018435911914358519,-0.004293143457438636,-0.0017595047651338402,5.689006713869543e-05,0.007683016101971183
636,-0.0006708186510165746,-0.0029025705480203706,0.004639976268495315,0.00560238857143796,0.014563068579771592
637,0.001475963614980087,-0.0001354223198275565,0.011375249156989257,0.013052122702083283,0.023022269813807433
638,0.003980818503236071,0.002762168562972846,0.018290156698976403,0.021708771129530482,0.029303544346959948
639,0.005720734025886732,0.004599473312677652,0.022407583055724704,0.027907209428641624,0.030359538959193532
640,0.006956352492403444,0.006521695791869417,0.026944228757401326,0.031171116123967058,0.030038428833456823
641,0.008245335460577877,0.009412607101758518,0.032285832787077896,0.03777658349030062,0.03252626851916723
642,0.00911524955720944,0.01293357831180062,0.03781461048868319,0.04439803071611686,0.036242602699087835
643,0.009758746790323965,0.016834438404166922,0.043463696805040794,0.05078258172173743,0.03848231314068352
644,0.00927627526661792,0.01775245059852448,0.04103520471351401,0.04837257878097688,0.03502273512045637
645,0.006503975600617682,0.012647871923111646,0.03350146828624741,0.04031915185524231,0.02710339192057178
646,0.002870124551223599,0.003915109246516517,0.025864929518396196,0.032437598311104314,0.018932332591361088
647,-0.0002485619416512442,-0.004473918237158421,0.017636450604323364,0.024958692107078868,0.012181599455978253
648,-0.003547088725759766,-0.010792839550346656,0.011830957223109617,0.021133240344357776,0.006828720669229244
649,-0.007533859467253732,-0.01475162064779616,0.006403334923657667,0.017964748377980826,0.0010406537731393883
650,-0.011680312550066478,-0.017008966757038158,-0.0003647176236076048,0.011975570857103619,-0.005509759084454607
651,-0.01616321140839371,-0.019414179400130342,-0.007817707929418128,0.00302024850958059,-0.012210193775067832
652,-0.01903978320280132,-0.020685339084684996,-0.010727188586723583,-0.0026717062439829057,-0.015742965119091557
653,-0.016883586991021757,-0.017476277805135745,-0.008127184313853465,-0.002708127360894335,-0.013999502171503569
654,-0.010381313037815804,-0.010601614568283313,-0.002566453161553386,0.0006133561456088302,-0.008430752935163835
655,-0.0028643218076582068,-0.003166685973016066,0.0037207377012459476,0.004912030289716984,-0.0011395328806705143
656,0.0025100713286599556,0.002042213126344995,0.005994659093576237,0.006040167738403122,0.0044963317285562346
657,0.004930163270005623,0.0037842319738613677,0.004401887036986704,0.004988116524614471,0.007087014869880543
658,0.00615724140098218,0.003074521592875376,0.0011961700900536033,0.003887843692132326,0.006797265683584694
659,0.0064184021438791925,0.0004885020363360631,-0.0038203987795872208,0.0007467242679354171,0.0025123657687011456
660,0.004773940485329721,-0.003204971906926116,-0.006875622768368588,-0.00240291776996111,-0.002978398706100673
661,0.0013586555179977001,-0.005985133269159414,-0.009037237656568334,-0.007210060333419737,-0.00803307542920685
662,-0.00237148109168331,-0.006581410814172185,-0.010839544844537335,-0.012816823690549114,-0.011246284483408338
663,-0.0037404777941286325,-0.004690165029582535,-0.009499426959892431,-0.014604360061217582,-0.01025585712731102
664,-0.0005579676919922101,0.00021253849215587884,-0.005515931577459215,-0.012625897037027855,-0.004593975622598616
665,0.006209818619414077,0.0067720633634482195,0.001017732606739906,-0.007293472576650363,0.005105634870037552
666,0.01169692515890641,0.009679813607129769,0.007098083687412458,-0.0017049541832343637,0.012865436717495763
667,0.012952746852363448,0.006679256735961872,0.010396164448047463,0.0021495706515305044,0.014351408172696025
668,0.011666958430974395,0.0017402511832867163,0.011054983222458042,0.004345299111975202,0.011061718531753728
669,0.009646803858753746,-0.001818332373649186,0.011248899809362195,0.005785370634497187,0.007413644561520425
670,0.007618543784097876,-0.003489612334281582,0.011066458720849251,0.006110776252406926,0.005020865321446785
671,0.005439182414341254,-0.004028321388946078,0.008807586726914809,0.00467174382397253,0.0023099487863200295
672,0.0025628966789691433,-0.003921343650185744,0.0051042087983150354,0.0024543535170136977,-0.0011674105196895575
673,0.0001525261146154264,-0.0023973723035916774,0.0008712997398126122,0.00015753554883580467,-0.005526077961633112
674,-1.0897835951917742e-05,0.0003493707244347757,-0.0018671611798519738,-0.0007715553808929882,-0.009035193596566534
675,0.0017058122137619688,0.002267137113504683,-0.0019686763691280995,1.4415858973213884e-05,-0.009502658645834095
676,0.003798734647988668,0.0020313529714881995,-0.0008922473486358772,0.001218839840708576,-0.005477492703716479
677,0.0048029362794265035,-0.0003767294292860501,-0.000658475957108369,0.0016848221646832903,-0.0002809923250146105
678,0.002964559259094469,-0.004411995195668032,-0.00275494545365036,-0.00031866657478309287,0.0030654371932274972
679,-0.0017072825075768873,-0.00857053503723738,-0.006686213555676418,-0.004429589407812012,0.0042572549504462445
680,-0.006185448867802983,-0.011128303931746868,-0.009797100318227753,-0.00689538790598101,0.0025349283932571314
681,-0.007946210246400808,-0.01180902814246296,-0.01030901323972011,-0.005893278202696104,-0.00028521190457053605
682,-0.006849139258849468,-0.011271124193703585,-0.008786139306740088,-0.003310238365295019,-0.001989752716995371
683,-0.003696347848522692,-0.010065427837557156,-0.006059046894824978,-0.0006873169353322884,-0.0019238301172441986
684,1.3522997919973939e-05,-0.009025353019714149,-0.0023458191618283024,0.0017358644440827729,-0.0008725231535037559
685,0.0034427822137137847,-0.008272122022780453,0.0020478795972054017,0.004621239963190941,0.0017480810682555276
686,0.005143073672936525,-0.008209882705579789,0.005123202472615047,0.00704383444742454,0.005106221116570076
687,0.003608395273813886,-0.00936828332272301,0.004436753542540968,0.006434567892678684,0.006607994702392075
688,0.000946685831020424,-0.01068711604020053,0.0015947981218937945,0.00384402881791504,0.006953174301722424
689,1.5223752730335284e-05,-0.011597977488842824,0.00019827475143794054,0.002512698524907387,0.007423590079953544
690,0.0009661679084193586,-0.013061370025286123,0.000907200254373957,0.0032185014407667316,0.007813364401448674
691,0.001679432171023763,-0.016248210667608308,0.0016659088977129626,0.003817999610070128,0.007342673174232836
692,0.0011396987914869662,-0.019969110705491927,5.3865393525401515e-05,0.001402985494323656,0.0031883025319117695
693,0.0011369954924734765,-0.02150697715025651,-0.0012249048006753105,-0.0014706364940194408,-0.00034852614340905746
694,0.002803345465207648,-0.020640561881457613,0.00018744616707482215,-0.002716795896693284,-0.0014369870860563689
695,0.004936552045345332,-0.01939928445951126,0.002736088797500524,-0.0031159073055720883,-0.0033922559698057074
696,0.005570040236118,-0.019513969407976988,0.004131035593669464,-0.002952348400485602,-0.006021427299461334
697,0.003951974921809752,-0.02054390249894749,0.002516514754570684,-0.0037763491451043543,-0.00965459724290292
698,0.0009771929114583905,-0.020824680577724426,-0.0009763150178148794,-0.0057980306146277055,-0.013745856087755524
699,-0.0013803252470946943,-0.01954859247906573,-0.0034437001930047255,-0.006973187706604321,-0.016391487050165007
700,-0.0016737707575809877,-0.017188307468352447,-0.002921235117456422,-0.005546901144488624,-0.01490712664712198
701,8.559471867859599e-05,-0.014336240559660266,-0.0008804405846554908,-0.0031097799682952036,-0.010347633772668088
702,0.0039030789296840523,-0.01077117916848812,0.0013434976516734382,-0.0007171845537395977,-0.004326975113943414
703,0.008760905482330654,-0.007209415420849705,0.0030416034624912935,0.0013395382697871927,0.001067171934681181
704,0.012588387189623972,-0.004858901547364491,0.0031539083245728833,0.0017835215762132723,0.0018199119013227166
705,0.014724691855086569,-0.003795927161343037,0.0020579909547845604,0.0022009892441148945,0.0005866272553006698
706,0.01497773499074329,-0.00421038368804365,0.00034660753740552603,0.0024014960959014755,-0.0016463414190889109
707,0.012994110293470631,-0.0063901004499486306,-0.0026353634925190177,0.0007690424931463207,-0.004480039812108029
708,0.01050092184955581,-0.008299239265682061,-0.0031998909424705104,0.0009280135920422882,-0.0023532079946723006
709,0.009382406509446193,-0.007797982131316118,-0.0007037553277470417,0.003487528223665017,0.003493320715166137
710,0.008576495123330176,-0.0061566497126356095,0.0019635444719934628,0.005689520904282467,0.00948103347664073
711,0.00636293054632469,-0.004988549701465095,0.003352830904869112,0.006050900317607522,0.014920795384787416
712,0.0028157128553382175,-0.0048222043604150755,0.003042107176316684,0.0035307124564972355,0.01695053345556896
713,0.00017810662867122316,-0.005904754544555555,0.003002424790933936,0.0011484787110080134,0.017512102346295695
714,0.0009598588209983806,-0.006869979360899311,0.004933582217719787,0.0030626211151880602,0.020545095336163197
715,0.004402051240239106,-0.006911517372499421,0.008280151920609834,0.009833232958143607,0.025396309682421618
716,0.007353566360257701,-0.006966403433132604,0.010809212937034586,0.017326450634441354,0.02758337554222529
717,0.008009022651954011,-0.007539033025719386,0.0122495741570437,0.022674591412433217,0.027990835254921277
718,0.006083831795523877,-0.009171493666352941,0.011972514807178725,0.024086276292629924,0.027856145748811553
719,0.002260486199191994,-0.011956504152206338,0.009528660276089564,0.021706663763259377,0.026975897657950578
720,-0.0014248489997023552,-0.014878917346888948,0.008096282002629438,0.01985365312869427,0.028236479028520306
721,-0.004296968828257784,-0.017750202896145824,0.008832526896564913,0.019717531287492193,0.03072867816652156
722,-0.007820000993578711,-0.020817369045969706,0.009904263126708794,0.019038194844893254,0.03127061417505205
723,-0.0114673206506853,-0.022983560967412258,0.011285316302764511,0.018332118620908545,0.029979073138680028
724,-0.012777645590647323,-0.022219779840049952,0.010946756218326185,0.01697928275279064,0.02403996618519989
725,-0.011365921612064062,-0.01698518330556606,0.011528991293001235,0.017732880794291837,0.020210454465144845
726,-0.008820344437415799,-0.00830715532228868,0.013469779680553842,0.02006779737657258,0.021875274211831813
727,-0.006588935936842618,-0.0002642361517760599,0.01388012307870049,0.02079704898389504,0.024156145539713837
728,-0.005092758562863559,0.004344186632982063,0.014236138211691434,0.021364107222194558,0.02736913021904825
729,-0.0032953024087713865,0.006150751351037165,0.014627508573148072,0.02138422167776409,0.02927916033718021
730,-0.0009546767462948649,0.005611250263955857,0.014366144705649774,0.019993721944272694,0.02719554777700943
731,0.00014726292062491644,0.002107355689182256,0.012695143532892654,0.01729354588314665,0.020612010724729814
732,-0.0004794191518677732,-0.0029652100356230395,0.011555710132125058,0.015944688733104225,0.013758057567564165
733,-0.001935700737436771,-0.00696536818192796,0.011110848472933666,0.01583490592732511,0.00878782086709185
734,-0.004131201652699958,-0.009199951949614434,0.010753413920579389,0.01564110462407317,0.006386390644401025
735,-0.007049081797483622,-0.010749584419063766,0.010617417213715627,0.014972582259255766,0.005749745412809864
736,-0.0087777897005703,-0.01084718007879623,0.009761873801732279,0.013514477204956367,0.004658244591955416
737,-0.006855313922165817,-0.007119189968285114,0.009682188829704865,0.01368258915313248,0.00583733507026028
738,-0.0030873154190726644,-0.0015787860783794733,0.009229093801670089,0.014189014632411122,0.0075912858296021055
739,-0.0019013908570441,0.0003755140853124979,0.004995869336746292,0.011355185197234,0.004903382105884184
740,-0.004207440936333398,-0.002408151135936338,-0.00013176730892233335,0.008127086025727658,0.0015651224922093416
741,-0.007557373237257253,-0.0063848336021429565,-0.003495150478644297,0.007342973065630363,0.00014628659503452664
742,-0.010492909714835826,-0.0092548929135544,-0.004509827846815394,0.008935287415924092,0.00033507168858456317
743,-0.01300107276282553,-0.01080305012174322,-0.003469056033894867,0.011576427399871471,0.0019015069895130636
744,-0.014732725024650152,-0.010688426023940982,-0.0022726393849048826,0.013442944755640934,0.003426344730227134
745,-0.015076345275031749,-0.008819275331620514,-0.0007986758095958737,0.01544275338121716,0.005299263420091299
746,-0.013936872534117848,-0.005845036982666957,0.0013737483486769766,0.018457688952287533,0.006482161273660047
747,-0.012560155651108141,-0.002959702143266804,0.0028984497787129986,0.02030574572339639,0.005452949457976573
748,-0.012132399682644951,-0.0012389137001725746,0.0018290050846560336,0.017979945881821578,0.002063942971644169
749,-0.011245680470485919,6.627874564408211e-05,0.0005088931838555233,0.01406126333964277,-1.9952236149321314e-05
750,-0.007896494434170743,0.002346832982816147,0.001641157997244776,0.012683196035464294,0.0009558572744155222
751,-0.004053079727859537,0.0038130725680543607,0.003442859399673356,0.01369805332511845,0.0007238491842317218
752,-0.003454559318830405,0.003125641598659929,0.0034561726177271676,0.014675914098707095,-0.003299511284302303
753,-0.006341373854316102,0.0022957304634408883,0.001417031671489721,0.01365549823941354,-0.009965262938735323
754,-0.009475568428085534,0.002845901557458105,0.00012952542945184097,0.01201556854927846,-0.01655031265225392
755,-0.010168311489641542,0.004958582391106729,0.0019080565239090693,0.011981197774714241,-0.020101259474136164
756,-0.009521020687486724,0.0073480795168972945,0.004985870350861059,0.012370569475578448,-0.020029651752477364
757,-0.009726803904139132,0.00803966915356631,0.0059738845736061075,0.01086738668874794,-0.018565715117054758
758,-0.010049576951161614,0.007500248905751211,0.004112458029200702,0.008165454463556918,-0.016638694498061813
759,-0.009096723481658547,0.0068558471252454685,0.0008166493719930909,0.006210837437417364,-0.014410999027520174
760,-0.008042286471155893,0.00523955754848707,-0.003157593476455433,0.0049217893099366165,-0.014378604460280395
761,-0.008501150400696744,0.002926945010519885,-0.0075214367226901216,0.0035001871706857204,-0.017235655370570275
762,-0.01019587704155926,0.001472892762013989,-0.011442636462156583,0.002400918025393069,-0.019927484651333552
763,-0.01083995578843487,0.0011901385668650587,-0.012652099501079862,0.0043137962584395085,-0.019738663920273482
764,-0.008653989524049117,0.001575384262526426,-0.009679386064045035,0.010284229493674444,-0.01680741087403234
765,-0.005777863091985683,0.0011245895517443879,-0.005429509584532603,0.015284736490783742,-0.014268665204749339
766,-0.00469450745082543,-0.00038486096900899885,-0.003251167650315682,0.015248905682751368,-0.013835610422399412
767,-0.004020689974790688,-0.0007405700381598935,-0.0020896514254480224,0.013178318148446267,-0.012620413693883044
768,-0.0025842811224790546,7.693077479094956e-05,-0.0002457407165887416,0.012390514005850544,-0.009861541248707268
769,-0.0008712773874435109,0.0007333449389140593,0.0020695926644556718,0.01299639248278169,-0.008425316654196284
770,0.0016987724748320902,0.0021631117409844705,0.0051121728835966124,0.015376080023629255,-0.008389989418441395
771,0.0048066939200850315,0.004873832180721241,0.008160630089864977,0.018838981601831235,-0.008288041133966762
772,0.007233923986263577,0.007845315942971673,0.009528507049009025,0.021686004074211205,-0.00769674791905725
773,0.008388285600754167,0.010101588187469285,0.008473733048196675,0.022903868494017796,-0.006800643208427022
774,0.008824855865614295,0.012228241062118896,0.005906987840050546,0.022718341791170667,-0.005664370888123084
775,0.008893800930533973,0.01495320726800358,0.0032488142378407615,0.021516119127335295,-0.004679680548943181
776,0.006531595029991896,0.01614932443027085,-3.852641183057194e-05,0.01799091454635463,-0.005317745670044362
777,0.002468196337974366,0.015191542664883819,-0.003044946809528186,0.014064994135534503,-0.00637919187402752
778,0.0003046191536421795,0.014994534506228783,-0.0034478010324182845,0.013609687813668031,-0.004676204098574651
779,-0.00020340123266820445,0.016309629362998523,-0.0025473016948693943,0.015560713852004924,-0.0011135712690733329
780,-0.001128897302899425,0.01719811241827098,-0.002639065256525804,0.017086653751048817,0.0004882362847963988
781,-0.0027049463380774633,0.016502891576765433,-0.0032347174763469886,0.01768310960246815,-0.0008603096684085676
782,-0.0049743374323443605,0.01435683009012139,-0.0038410698774631108,0.016998259586441262,-0.003722330121965134
783,-0.007577867290631011,0.012257089381664445,-0.004878552823489591,0.014277573644336699,-0.006819630457717802
784,-0.009243889994276696,0.011212980834159619,-0.006050626158687809,0.010266704795682492,-0.009099882795557295
785,-0.008443127356567359,0.011131119664812072,-0.005928591885022252,0.008096839761863012,-0.008668094922064473
786,-0.004419788299072216,0.011859928338652598,-0.0031489583495419014,0.010388704848243922,-0.004407743005571679
787,0.0001385440550740603,0.012016273501571355,0.00012000390081120105,0.014405275943845311,0.0005852232119257587
788,0.0016260181626349362,0.010598567902537314,0.0006512103960783956,0.015468430375263171,0.003063335668792902
789,-0.0005828684628511148,0.008179124990991363,-0.0015270027825252132,0.012709509896395028,0.0033132625919740336
790,-0.004607893310283447,0.005654128444214339,-0.0046121531515328495,0.008214124415137771,0.0022756366258905626
791,-0.007825675522387774,0.004113673552860562,-0.007145338783114754,0.004120653759150831,0.0010425392498066548
792,-0.00901936790462934,0.00425135108406926,-0.008694230240471399,0.0009525357861589936,0.0010756230456824385
793,-0.008624012387698238,0.005486849215482332,-0.009295985084696673,-0.0016339402678574332,0.0016319342409342114
794,-0.007236298659742367,0.006762094638392788,-0.008945284029049169,-0.0035394585098115854,0.00032881386831397813
795,-0.0062729109720439805,0.006789894264987484,-0.009039398991413131,-0.005912780308282191,-0.004123316813772823
796,-0.007579979414298889,0.004793113383201857,-0.011144716886188255,-0.010641668013277344,-0.01047795208393183
797,-0.01037005589289517,0.0024991400869844548,-0.01401650739151084,-0.016501557178899742,-0.014967173717300213
798,-0.01171956564861292,0.002526776049496801,-0.015234306769806858,-0.0201704717186227,-0.014949102418310595
799,-0.009750213553386528,0.005499515910471382,-0.013568866746567857,-0.01982811563515711,-0.011297419382515442
800,-0.0057064616287506665,0.009426447160720075,-0.009765326021046126,-0.016556917585595177,-0.0068771581812394015
801,-0.0015182869718829127,0.012589833538301273,-0.005392718624783027,-0.012010047952964216,-0.0035804577489396243
802,0.0019517449796181087,0.014678500405060243,-0.002015129432431035,-0.007888523601564671,-0.0020542309421762704
803,0.003404932794188425,0.015301424098069175,-0.001588621986339722,-0.007448778355081426,-0.003782198413676187
804,0.0034745723285929953,0.016475318508214633,-0.003712553544852137,-0.011394249195836354,-0.008144776816877645
805,0.003215434166781716,0.019606098009828543,-0.006715377069604069,-0.018051277071534165,-0.011979702000917457
806,0.002446029693337776,0.022014741577768244,-0.009745042247599851,-0.02519333429556547,-0.013372767302614798
807,0.002783036527197928,0.022262882116653202,-0.010586684118682209,-0.028555619528622418,-0.01167885024713238
808,0.0035348339587050297,0.019970010191441418,-0.009223333779778577,-0.027591724668271395,-0.00922510153347076
809,0.0014991615951434984,0.014549702821519976,-0.008605459989627374,-0.026042880865545178,-0.010177599266500695
810,-0.002693322325021462,0.007855933270205692,-0.009010983970894657,-0.024846385323961852,-0.015295919112937576
811,-0.005394646676885042,0.002688946571437771,-0.00827283132332516,-0.022326067481959682,-0.021481568608293852
812,-0.005116099811086783,0.00012862845678172162,-0.006008735599197184,-0.01870038015541844,-0.024504822993835523
813,-0.003298761963500751,7.460412124817117e-06,-0.0033305241048415955,-0.015443181404825328,-0.02113457897582712
814,-0.0011988065676983846,0.0022151277345764577,-0.0004184249309408199,-0.012899269935252063,-0.012175554538039429
815,-0.0009909540005843688,0.004773356110567532,0.0011885528543275367,-0.012967436731024951,-0.004316152049685546
816,-0.0044606685509128,0.004955772325955791,-0.0003951700663212529,-0.017442025075917578,-0.003634287742870867
817,-0.008485645200830014,0.00354664277679721,-0.0031696654057282968,-0.02345342692341937,-0.008896996569682842
818,-0.009737101768193288,0.002161442724525944,-0.004444584703483471,-0.02730758769101479,-0.015208371618505601
819,-0.008818695579293052,0.0003807498645700747,-0.0038898833761390863,-0.027619981002381482,-0.019161240475187954
820,-0.007023882421797664,-0.0014696588569992003,-0.0017925143171299486,-0.024227787487875695,-0.01897895000247282
821,-0.00559640544237115,-0.002570153954834704,0.000854885042660795,-0.019240039689791728,-0.015691348051281914
822,-0.005009786284446881,-0.002519274562088598,0.0034255762088013274,-0.014601895954358818,-0.012036707926171144
823,-0.003762118938101024,-0.0003337628161594153,0.006677810031624729,-0.009654023948889723,-0.008737822612085935
824,-0.0023964088509853495,0.0022189530540994064,0.009167591003890675,-0.0058030068934451385,-0.007361881728933603
825,-0.003250166132283738,0.0019029039250598996,0.008396505319929443,-0.005781523264890421,-0.009932906762197508
826,-0.005787895507092513,-0.0008584813642714505,0.0053112028608691235,-0.00782568360704211,-0.014831833535380368
827,-0.009176014409655604,-0.005423059050236193,0.0012796321390647636,-0.00959719090185866,-0.02084756480916981
828,-0.0141708713177279,-0.012475427730129598,-0.004060733950109815,-0.012121921671010553,-0.028810528497763655
829,-0.018786754909017857,-0.019268641504582084,-0.00866333273688562,-0.014494738630141411,-0.035891023745304604
830,-0.018595558508355946,-0.020519208250334372,-0.008090455109152699,-0.012836566804358967,-0.035650123654016
831,-0.013460295387638975,-0.015064877917176506,-0.002562237958223594,-0.007228674390286262,-0.027711440588736383
832,-0.008922973361740564,-0.007187500563290272,0.001582370092715094,-0.0035058899083598273,-0.01963909949641988
833,-0.007764157061928115,-0.00040444776472443666,0.001248710012615148,-0.0042427474262558785,-0.015189798391664516
834,-0.006832975462981661,0.004471813335861098,-0.0002345380580521301,-0.0052503004018420885,-0.012334486654937776
835,-0.004076136522848275,0.006404052552850971,-0.00018830832022518918,-0.004089749728194126,-0.010685647661611973
836,-0.000413723479842784,0.005212581523016816,0.0015216511483046467,-0.0018286624667722983,-0.009938615665465975
837,0.002760372200995625,0.001786756742290747,0.0035528125965973256,-4.292667291987034e-05,-0.008846731671388403
838,0.004519487213281693,-0.0028238881519687797,0.003576688630302858,-0.0005577794643469009,-0.006894741273914644
839,0.004192216343455365,-0.007917237805762424,0.0006115596308714169,-0.003784857926469629,-0.004782610213076286
840,0.0016131677560498037,-0.013098822610229348,-0.003997396318907079,-0.00819408237647317,-0.004112283104409115
841,-0.0012861530068242082,-0.016612046004512913,-0.007523905636405121,-0.011515717364412509,-0.004512755841268568
842,-0.00266531067525483,-0.017132697004702276,-0.008681382132007597,-0.012890663412082101,-0.005213074298645559
843,-0.002332539073464633,-0.014792308403358618,-0.007457329158857198,-0.012459220669000058,-0.00641753921423654
844,-0.0016598338377868023,-0.011135333625994247,-0.004649003515807494,-0.011442197180597923,-0.008338050389430507
845,-0.002966702439175329,-0.008966895047679035,-0.002769277239997217,-0.012347246234952213,-0.011270457908494892
846,-0.00593420614487262,-0.009156429968710822,-0.0027853842582436584,-0.015086642162331375,-0.01480428731767462
847,-0.007910608213160008,-0.010024306665595355,-0.0031206525177482824,-0.017079408708488477,-0.018044505804930576
848,-0.007510255196819047,-0.009855834686101498,-0.002378888327647363,-0.016626527511047266,-0.02020401029447521
849,-0.004687047002111098,-0.007445625687874544,0.0001620445570114033,-0.01316477146960635,-0.019471920340349672
850,0.00010855241705679458,-0.0031604737084036452,0.004223325583803125,-0.007265644789636947,-0.015544915559273703
851,0.00479548605148207,-0.000217132181899219,0.007371313430965824,-0.0019055767109100157,-0.012934998009283803
852,0.007395381062399336,-3.954436116459373e-05,0.007533100197183017,0.00019977911087914527,-0.01445036373515445
853,0.009293120523773905,0.0006357373378853163,0.0064875431005743745,0.000581908130747044,-0.016053546908066207
854,0.01293775385535998,0.004633134595034884,0.007241512248033344,0.002462965734010179,-0.013733787257036705
855,0.016485897827866264,0.008843114034373233,0.008609753432982052,0.005047415138648156,-0.010687267597803852
856,0.014780535633978482,0.0075768719070722955,0.006693465162598523,0.0039028498473084572,-0.01261791157585781
857,0.007094501694486075,0.0008763805460270631,0.0010091062045248787,-0.002301886774011824,-0.018565748111105358
858,-0.0019183965478011254,-0.0069427800635536805,-0.00562202062603979,-0.010155814094203196,-0.02294477309989692
859,-0.008652269256938627,-0.013509706186787117,-0.0112111461921024,-0.016818190295956156,-0.023513335160646808
860,-0.012111572399022504,-0.018638930961447718,-0.015029395686733343,-0.02167871419606367,-0.022516639965237454
861,-0.011954220199135654,-0.022136450415978864,-0.016478014261739348,-0.02406058756297436,-0.02271432167664255
862,-0.008678713690938002,-0.02365027937441908,-0.015793378687726654,-0.02310878697219605,-0.02483855118148507
863,-0.004474928335945347,-0.023762779214858455,-0.014240901979174832,-0.019269254585888556,-0.028370704166636743
864,-0.0011022440833689537,-0.022873323168104514,-0.012262336638351978,-0.013863782930489616,-0.03216177748217801
865,0.002586186635864925,-0.01976861558259519,-0.009002666518097844,-0.00758937297491355,-0.03435010585799959
866,0.006622398279367338,-0.01498668121776138,-0.005360243672774291,-0.0024461694213607056,-0.03527018498154832
867,0.008154458326215292,-0.012056611121496667,-0.0037045878446544285,-0.0012303853710733529,-0.03693661448074236
868,0.007453755393759589,-0.012134556244736827,-0.0037718909551176893,-0.0030582712739687825,-0.03850710970768769
869,0.008660756254753859,-0.012121106354112928,-0.0029081337458513627,-0.004489669938538659,-0.036813178652290564
870,0.013654095824327793,-0.009348682184584251,0.00037340610291902027,-0.003948908639791052,-0.030939714435779066
871,0.019247851278491605,-0.0056362033330223426,0.004404768287101285,-0.003493566492592499,-0.02463519014462137
872,0.022373344490688587,-0.0037284003770351546,0.007250157815517797,-0.004704538854784994,-0.021378869695883054
873,0.023596852169749164,-0.003350265390411649,0.008738756990837628,-0.005907790333684044,-0.020604394446028608
874,0.023636026365672812,-0.0038370417010429123,0.00874134115241487,-0.006442431527840857,-0.021556107779011797
875,0.023217269867747237,-0.004352633469956368,0.008381853554150288,-0.006469017921867184,-0.02351030754502588
876,0.023729446420672474,-0.0035268648615161893,0.00902889185917542,-0.005330614478497289,-0.024821897704337723
877,0.024855363504380158,-0.001243838712938001,0.009675509603448398,-0.003978591064862969,-0.02497552012444141
878,0.025539492857349445,0.0021854243641798786,0.009383379155252832,-0.003924261972175287,-0.023348859712461114
879,0.024471015830931787,0.004661797039640834,0.0076152816542919,-0.006246391751365167,-0.020384874060116378
880,0.021356237268822194,0.004169607827745226,0.004372319648961938,-0.0107014534027158,-0.017469383195807358
881,0.019015402404289766,0.0028574339765033347,0.0018763916890998874,-0.014326364191099556,-0.01399180575756289
882,0.018480589218914944,0.0021942186007127005,0.0006408894385114455,-0.01584857138521083,-0.010287030168695496
883,0.017201342276431806,0.000714881019177928,-0.0018155821624564286,-0.017372817609490474,-0.007716636324586286
884,0.014741295377360849,-0.0010196113966034741,-0.005760633096938741,-0.01942908172198121,-0.0060357602898680335
885,0.012198887054790622,-0.0016455056798704375,-0.009327025781281424,-0.020972235161539784,-0.006091060590097251
886,0.009399436050265149,-0.002171348620652327,-0.011682934832880326,-0.02137385781811642,-0.009157516069511198
887,0.006662831141450749,-0.003271073575360081,-0.012658699064586767,-0.02017222449283499,-0.012719966176921631
888,0.004785786652958825,-0.004373033838573665,-0.012825263996474271,-0.01829944160457225,-0.013866513751803847
889,0.0043968552399632765,-0.004857816070834953,-0.013086008322364912,-0.017067140053883986,-0.012510183080059191
890,0.005302181928442662,-0.004677682034923117,-0.013603685220494372,-0.016825733936590124,-0.009511306467453214
891,0.006633737141283167,-0.004459531894198581,-0.013693743083142643,-0.016976222268665096,-0.0061691790972302875
892,0.007070262734394702,-0.005397993503097295,-0.013241869260972065,-0.01699698703113522,-0.003958496252188012
893,0.0052653658266714,-0.00789255847883523,-0.013160589586938632,-0.01730217642851375,-0.003302756894128573
894,0.002003515076825514,-0.009603904537390658,-0.013416999114698644,-0.017877257717562423,-0.0028248523087012057
895,-0.0006780909159407961,-0.008410772490192585,-0.0132546534525473,-0.01752408899616663,-0.0012020656174487057
896,-0.0009272464338187235,-0.0038714379076932003,-0.011402620884340506,-0.01407596904160697,0.0026031194825657873
897,0.0024496384282774045,0.0035718243912540547,-0.006631915948098907,-0.0065580169788787696,0.008202404215620962
898,0.007817871649216067,0.011114438512746811,-0.0006695854254740129,0.002113318451063302,0.011613289883759752
899,0.012379841787658767,0.016645636905279995,0.004252044656378725,0.008449613846794277,0.011311843864775665
900,0.01611262503090903,0.02144626134456921,0.008718241352800206,0.013007805717540668,0.01157409222888649
901,0.01872270985303118,0.025341163973145182,0.0120401926627471,0.016572678289873376,0.015031382845207782
902,0.018685234285751105,0.0264488845563206,0.012167181476478035,0.017914256903625272,0.019152584442418265
903,0.017370371238272952,0.02582408024399746,0.009737302328107805,0.017221562441504273,0.02064061089180009
904,0.016212132084673456,0.024894792203799542,0.006075199811355836,0.01492773555599809,0.017920505347409882
905,0.015144654640542616,0.024446404357353006,0.0026632789832881465,0.012102808179361532,0.01251374640604322
906,0.015221607508572885,0.026071245105249965,0.00200742883119679,0.011362760018376479,0.008251161325130471
907,0.01706826583548541,0.02882333251860309,0.0045130571530367135,0.013354159011021476,0.006699888177595363
908,0.019075257744531567,0.029335102585477495,0.007266003271889317,0.01600819912199601,0.005805248633128262
909,0.0182240150909886,0.02564051445693991,0.006441526804582833,0.015749460720259165,0.003171056989847628
910,0.013786611645819943,0.019088519732051754,0.0015222899486691587,0.011153844116700761,-0.00039954587664149926
911,0.008566737853336415,0.013098041569344514,-0.004060817154308825,0.005354580225123159,-0.0028603118297612327
912,0.003635312666531375,0.008686194886089713,-0.008872120981498813,0.00021747593126988365,-0.006409708978829162
913,-0.0019844131465311474,0.004577963561519995,-0.01426557720214248,-0.005475584959333783,-0.013224410376667363
914,-0.007073184643140499,0.001097632862058954,-0.019378515100789306,-0.01097637929028769,-0.019017245662783993
915,-0.009660000501908383,-0.0011278906880556807,-0.0220986353996425,-0.014087815554456182,-0.020063322313774105
916,-0.008913085978078909,-0.001824321446604036,-0.02168747331327398,-0.013861273180581477,-0.01733305000994027
917,-0.006070188462333178,-0.00023131106973718783,-0.01901851352174955,-0.011229894438614744,-0.012238514646378096
918,-0.003130821772251515,0.0036926698748723594,-0.015275167688883678,-0.007213428517348081,-0.0055274454613801855
919,-0.0007486894525432502,0.007981762463230322,-0.011376550770232537,-0.0024290245449457826,0.0012488070830195454
920,0.0002253468985483409,0.009572157117167093,-0.009256093780959406,0.0008730797970030339,0.005580554875426674
921,-0.0007703051513256177,0.007459947408276137,-0.009823057499110771,0.001289998110063502,0.006042598888596194
922,-0.0032478165148706706,0.0031664964654375414,-0.01143548009809433,-0.0002743551965629282,0.0037889956280150764
923,-0.005226705969375991,3.45259108507087e-05,-0.011383334428957023,-0.0013188507566741874,0.0022424757243518878
924,-0.003886701356211341,0.0008689256029947403,-0.00832899922768924,0.0007549607413500539,0.0034347997720654637
925,0.0008299474757597107,0.004662811129051837,-0.004055385120558051,0.005071797376473758,0.00619601206472213
926,0.00640245258696554,0.00871072872021059,-0.0008817957441323894,0.009329961229748352,0.009318310090460191
927,0.009820014952952734,0.01098599093254221,0.0004799526019309496,0.012543192551352143,0.012496443779174493
928,0.009696128529121578,0.010918550556329528,0.00042134643544010494,0.013864555561334927,0.01600395983865919
929,0.007231935104892083,0.010536227001084125,-0.000406143092742141,0.012357574769312386,0.01994738746374295
930,0.0035402698837225075,0.011274415181623119,-0.002040456024357491,0.008048557766784311,0.022699007779161118
931,-0.0011425850313201225,0.011487599049506634,-0.004474130087537833,0.002428805798065412,0.02312600329565693
932,-0.005697300976258267,0.010120770468723325,-0.006734869253980583,-0.0023012094622038657,0.02261635273343119
933,-0.008480776707660212,0.008219125461113159,-0.007642003054754514,-0.004220000120637937,0.022372023918169167
934,-0.008992173440279638,0.007121328214166295,-0.006943564393835312,-0.0033078292579152677,0.022266799778292486
935,-0.008314362446068363,0.007139309177672017,-0.005790837520573061,-0.0016154218809700926,0.022144286834349297
936,-0.008788043411107229,0.006235055919774876,-0.006194808377977184,-0.0014896166095678257,0.021074213147752145
937,-0.0111795617527073,0.003070459400120987,-0.008481362925633255,-0.0033318883111965987,0.018710544369134673
938,-0.013804679363170336,-0.0011269384123522846,-0.011160603961184092,-0.005754251505208932,0.01567397233457318
939,-0.015083844357912234,-0.004781279117929255,-0.012794924022673829,-0.007397464666589127,0.012097200382671829
940,-0.013953329945436271,-0.00585336524055265,-0.011978501395894526,-0.006793852003798481,0.01009398660472819
941,-0.010944743462236962,-0.0038185570620225227,-0.00916393661273876,-0.003989928159225965,0.011423338401587928
942,-0.00793972159473258,-0.0005785541642908712,-0.006524614155689836,-0.0010589683570846112,0.014011476224314616
943,-0.0057077048789212,0.00282597821984458,-0.004633185204084351,0.0010774893678294289,0.016205696002639804
944,-0.004974918599239187,0.0050410199823576396,-0.003320403515245459,0.0023212281602110595,0.01813123256446021
945,-0.006680130265845591,0.003938532773689087,-0.0030271077847450387,0.0021765858841628818,0.020017656208213094
946,-0.010666079464486484,-0.0007573665150341608,-0.004151673725836351,0.0002790346958519623,0.02130651201093674
947,-0.015228733097352903,-0.007032566562220099,-0.006686306532177506,-0.0028168902611907186,0.02051183937432706
948,-0.01832244799408958,-0.01195491408783188,-0.009892139689593337,-0.005515660247103078,0.017959271813190337
949,-0.019787148289733904,-0.014334750526072412,-0.013002100402988773,-0.007154434082704683,0.015773270388357883
950,-0.020174639654383854,-0.014742963384952477,-0.01548664200905989,-0.008139338586986724,0.014950354974403088
951,-0.02016605864102217,-0.014251902153601498,-0.01714024149687438,-0.009139831714376295,0.013754590997216695
952,-0.020747231413238997,-0.013804793058106916,-0.01810420201492831,-0.010970080003553078,0.010326070300048569
953,-0.021156623661505714,-0.012772786979716975,-0.017859736710933348,-0.013314847833229908,0.006785524472766629
954,-0.018827833296986098,-0.010044924447902913,-0.01486852665192861,-0.013335633495999205,0.00623151968495434
955,-0.012573257999685315,-0.00637156780301101,-0.00854572025316076,-0.008779491012768951,0.008541103176303253
956,-0.005021013890773168,-0.0034929224996723333,-0.0015046628319148963,-0.0025489741321904143,0.011933370927582383
957,-0.000267732095493276,-0.0019951772432846666,0.0025576787435924626,0.0007013577987438551,0.015023501464367883
958,0.0011592414036543602,-0.0010982187877795013,0.0030300479125994787,0.0007409253893777842,0.016372697485259297
959,0.0012819020757022259,-0.0009861727311952352,0.0014532493982542182,0.0001379899339957687,0.013784924165122395
960,-0.0004383761094727807,-0.0038544598426779792,-0.001966284297008371,-0.0005763679307361677,0.005934879403632937
961,-0.003530541956795699,-0.009653809647578539,-0.005921002249800828,-0.0005995134452465583,-0.001872502808627736
962,-0.004129768559024695,-0.01342819608571463,-0.0067951867431809525,0.0023779929166029006,-0.005419029302380922
963,-0.0015815934069204184,-0.013044841623439697,-0.00467490231489072,0.006464125427821831,-0.00503586895254747
964,0.0005653834251282428,-0.011435022854508014,-0.003056604264332646,0.007524313238899741,-0.005479285698755076
965,0.0015982500880066136,-0.010328752198041937,-0.0019482493680728727,0.006065412691477396,-0.007945534642662141
966,0.0033448841109783712,-0.008507471597378968,0.0007237874953807455,0.00517582797125063,-0.009973357820958354
967,0.005356612594272698,-0.005340589256771394,0.0041111963822023775,0.005206538014485684,-0.010594446928245613
968,0.005227992468400038,-0.0026954255190844625,0.005594988687725189,0.004146307089273983,-0.011236388674517362
969,0.0029984774885721205,-0.0013624879356166596,0.0048124226208478395,0.001455517523100379,-0.010902770374685814
970,0.002240747578852058,0.0008223022452945178,0.004509261984628824,-0.0003164711924612573,-0.005713645849793033
971,0.003723356623456922,0.003149033275375915,0.0058176908349955375,1.5014973935185845e-05,0.002527052197460543
972,0.004019707414867803,0.0019305659912216677,0.006405163742449161,0.00010370181945906308,0.006822535053494923
973,0.002286231982195953,-0.0028401704479938832,0.005245673591166124,-0.000801833673478704,0.004885979171697627
974,-0.00020635906904202934,-0.008459639557055625,0.003005835404072365,-0.0020248480997509767,-0.00041384112621819515
975,-0.0037071774883694997,-0.013561394903954763,-0.00038414202871314386,-0.004547585510531069,-0.006588979069013034
976,-0.006804223921120581,-0.016446139713562697,-0.003465176605900905,-0.007104205842773343,-0.011305859838150746
977,-0.007199747607034463,-0.015082457814896087,-0.004064603151009103,-0.007135834308424963,-0.01236053705087024
978,-0.005233677797359064,-0.009977413921035069,-0.002210283379718816,-0.004863047484648374,-0.009957804952616254
979,-0.00177063791544457,-0.003412952925567303,0.0013136219159491486,-0.0011348656064459112,-0.004966511739432237
980,0.0011754813981457418,0.0014109581488899775,0.004245376425662288,0.001860219593912505,0.00023852635901536588
981,0.0012509074146647174,0.0023068588984175315,0.003866675988282264,0.0017071182576843822,0.0018732973751621326
982,-0.0005492078053247284,0.0004900750174802136,0.0009374173464204463,-0.00048352382300247056,-0.0004115373775591867
983,-0.0018732565582001987,-0.001318219130019914,-0.0018143225415239489,-0.002159963628156649,-0.0036639298548551114
984,-0.0014936082482678954,-0.001455930816753593,-0.00257019000179855,-0.001818975505650417,-0.005130327930634534
985,0.0002158350055128178,-0.00037000390874333193,-0.0013915390897516822,3.168171452475339e-05,-0.004843504913229744
986,0.0015560034863680967,0.00042979240717576616,0.00015560341950771777,0.001180300217424442,-0.005022392649815315
987,0.0016376090450309483,0.0005514998769940949,0.0012375027558130284,0.0006897184299163347,-0.006053434853172476
988,0.0006998059433695135,0.0001627067540371591,0.001868266597413928,-0.0005896271663994175,-0.006566900590250041
989,-0.0009683350556848694,-0.0008378912555807936,0.001852356196675488,-0.0018548904219079627,-0.005850578351288238
990,-0.0026409245622561403,-0.0021002926609322743,0.0015034728996434574,-0.002334866672377266,-0.004331203154017196
991,-0.003359603433232631,-0.0030271798698568056,0.0016162662282761782,-0.001192200568566153,-0.0031977700971859966
992,-0.002852171523149732,-0.0031766647238348905,0.002522978663428618,0.0015652947786841888,-0.002700028512624724
993,-0.0019161581617079947,-0.0026279399527524296,0.0035738487059213354,0.004341689767320126,-0.0020508616983068453
994,-0.0009957975612509499,-0.0015516435684453558,0.004254671049535124,0.0057727491196886355,-0.0005625705660872822
995,-2.771768562140889e-05,-0.00040153781900852017,0.004541041096559811,0.005851258134617036,0.0009594076158594085
996,0.00030477341422712243,-0.00011526728693274217,0.004009720794372434,0.00465162750197078,0.0009681021613810194
997,-7.271161782017671e-05,-0.0004856247017789235,0.002846524506153487,0.002826221570205439,-3.073331786007002e-05
998,-0.00021801412003285664,-0.00040210668641349793,0.0020857608829643773,0.0016345232119030313,-0.00046006428491577635
999,0.0002823867119021059,0.0006227565094128619,0.0022340310136048373,0.0015661490692464879,0.0002427472501119423
