,AF3,AF4,Fp1,AF7,AF8
0,-0.0057260854449006915,-8.903816246610163e-07,0.002639577472780793,-0.00522482000266,0.002448163006333389
1,-0.005193859670653305,0.002892188342190672,0.003700163325165758,-0.006043429089548832,0.009031695173862857
2,-0.0037748826055849375,0.0038117213754428965,0.004873501255050595,-0.006921425487582678,0.01115880275952564
3,-0.0024069330014985266,0.0026563748181743303,0.006448462519440838,-0.007456226006966367,0.00837112828352717
4,-0.003112796442596258,-0.0003148947270145415,0.007525757971069275,-0.008477171165254094,0.0030282169406986924
5,-0.006405626642343852,-0.004404050265334409,0.007613252854187592,-0.009882216515710498,-0.0006297864624235647
6,-0.011104628615112555,-0.008979211551612737,0.006930704995115648,-0.010406502713778312,-0.0007980835845141944
7,-0.01579621013965113,-0.013360846773363997,0.0059003340750752335,-0.009378227328066969,0.0005012854228402823
8,-0.019782480803283053,-0.016738635247378692,0.0047078158790265475,-0.007667714698920133,0.0016145086657515348
9,-0.02232937436179547,-0.018533708594927676,0.0032207513415597588,-0.0062164701638776805,0.0026736171436783735
10,-0.021660485548420042,-0.01797899609132731,0.0025443317247093476,-0.00406006651743063,0.004376267716247932
11,-0.01753270598390023,-0.014548494290990475,0.00411771850974669,-0.0005914774276047131,0.008139597650442318
12,-0.013064881639718676,-0.009438744431616696,0.006716666099102349,0.0020394247520851053,0.014660598058781612
13,-0.01108732730018794,-0.004994339468542823,0.007990570619888861,0.0019127965857346119,0.022098080032407527
14,-0.010503229822868962,-0.0017291245595143173,0.00827836789709229,0.0006214569313191799,0.02770129658778084
15,-0.009616024347810524,0.0007585081892038046,0.008912563321959905,0.0002575762767887424,0.028760026268585395
16,-0.009505798121085698,0.0018659562114372728,0.00920270998876267,-2.5053657299258376e-05,0.024762464314611682
17,-0.011234280155367376,0.0012097337236995236,0.008710468160050763,-0.0009400738635155842,0.018307557431422223
18,-0.013917456588951603,-0.0004667806179410831,0.008006682276937575,-0.0015932487357155074,0.01166742045531746
19,-0.015865509517134165,-0.0017798917767199401,0.007219450229362867,-0.0015947390804277595,0.0061060897222067045
20,-0.016046948280489727,-0.002267337596218211,0.0066826125779580305,-0.0008556009175145036,0.00230867138744353
21,-0.014955593947776622,-0.003011301693432393,0.0064472051785546295,0.0007034669112134311,-0.0010419421709612455
22,-0.013807479370801339,-0.004650540231606177,0.005870393188287806,0.0023084187614104425,-0.004269873410805784
23,-0.013857697998959473,-0.007150989661479965,0.004399923604467119,0.002263939200059568,-0.005623844166266251
24,-0.014851977653509586,-0.010049861420611445,0.0029760154501714017,0.0006084718357315009,-0.0044545968156267275
25,-0.014984597785773197,-0.011883745029390031,0.0032487825696622427,-0.0005873970366533162,-0.001628292132442562
26,-0.014176836792289984,-0.012189648939172142,0.004747791237912502,-0.0008653524500247351,-0.00026961476946590765
27,-0.01378790625152306,-0.01082569728076907,0.006187497225266932,-0.001106033434660595,-0.0012069229185017512
28,-0.013914485192597772,-0.0074883029634727335,0.007366899493828219,-0.0013012263001092668,-0.0013256190087765054
29,-0.01380448343220113,-0.003872512530142621,0.00813045533540133,-0.001036615576265478,-0.0003702950988322055
30,-0.01315391012244378,-0.001845234389552286,0.008395090239486577,-0.00020790390254462937,0.0007973994224055548
31,-0.011186979435622737,-0.0007250958690358402,0.009265264940276187,0.0017449744774207863,0.003943695140328328
32,-0.007203847447451758,0.0011356761721280793,0.011503255037543719,0.004861499714694746,0.010076140739250705
33,-0.00325921897092624,0.002773035197718186,0.01329340824506343,0.006738246245252008,0.016949043437163802
34,-0.0020276264122904833,0.001967618454975438,0.01265598814894301,0.005382989387592873,0.021715383590531528
35,-0.002921794859585589,-0.0006080130648164596,0.010297834330481571,0.002328553382639278,0.02398394786772716
36,-0.0037655974872237716,-0.0028592680074791725,0.008159722201453596,0.00036183670831700106,0.023995349819008742
37,-0.0036432643873818547,-0.004189467727987358,0.007453402771985524,0.0005295406177292002,0.021685651151532547
38,-0.00235448859181775,-0.004806442873369462,0.008457771529156687,0.0026136083812741606,0.018010562731966197
39,-0.0002295441244840738,-0.005345375155940048,0.01035055143933634,0.005966343286144975,0.013213451887188721
40,0.001018217033087403,-0.006467342666787786,0.01147603840942395,0.00863814413566255,0.007518577950557136
41,-0.0002937197901610509,-0.008130076022787026,0.010408493318710502,0.008293471710734635,0.0023414535153032643
42,-0.0033800659989965394,-0.009736927254249557,0.0075677450075524845,0.0050977156868104116,-0.001694389700498607
43,-0.004918467345770809,-0.009616122824733784,0.0057170604245224375,0.0023294193180345164,-0.0031022795200880337
44,-0.003588498678644788,-0.007287561042900025,0.0057230369037510895,0.0016523684651111525,-0.0004531795276348859
45,-0.0023824503670391364,-0.00505028032028212,0.004942214094012628,0.0003741800769515667,0.004305840960310176
46,-0.003110626480126219,-0.004010408146515257,0.0026902812031049626,-0.0026528286496389788,0.009126401271713021
47,-0.003711598636631122,-0.0028333299348506733,0.0014939161572923411,-0.004607356182617793,0.013717178360673057
48,-0.0031932404267058867,-0.001836231011219726,0.001997588495772762,-0.004536885175541209,0.01593282057995633
49,-0.002861187435425298,-0.002067749501663127,0.002437923004960146,-0.004361157411390845,0.013953771496825555
50,-0.002990749997990796,-0.0020743875079378958,0.00235592321189601,-0.004664228185437093,0.011078117323228682
51,-0.0032594827916096357,-0.0014151591735405715,0.002239061441191047,-0.004662277935236169,0.01087550950346034
52,-0.0035496857075218834,-0.001649344887203992,0.002196472452550777,-0.003943722813870274,0.01253037023322213
53,-0.003586044398093764,-0.0030443823970696345,0.002850138660789959,-0.0026238896752678645,0.01418496983615676
54,-0.002789222293638928,-0.004120059032748034,0.005042117563028072,-0.0007370952935255298,0.015845964378670717
55,-0.0009748436897093855,-0.003615971971744421,0.008034235364396722,0.0014583858019215298,0.017993575300880495
56,0.00043355091673095,-0.0022898872182716343,0.009692964578939778,0.0026634113217398024,0.02053936215592451
57,0.0012182030854691879,-0.0011465470713239892,0.009670016088451784,0.002972729743593557,0.023460024874983287
58,0.0027787215809146476,-0.0004438531278569203,0.009406679949598953,0.004106342346645233,0.024911864846620852
59,0.004638657343145986,-0.0004178041660943972,0.008881658139144316,0.006010985278288732,0.023211817929167395
60,0.005020170727385559,-0.00038537173595277574,0.00678346353829085,0.0068370857225222145,0.021383370322700112
61,0.0035193482660902187,0.00023548415783718554,0.0035219135269766587,0.005953531304335417,0.02181665294955435
62,0.0014642126126021317,0.0013676706427014588,0.0011822099600894457,0.004956125264886067,0.02242683827966106
63,-0.00014406659296506812,0.002957011874698985,0.000530162347541869,0.004864324137637913,0.021618400715140502
64,-0.0013933210766192928,0.004546883284960943,0.0003800943333437801,0.004624735083708074,0.020141516290511075
65,-0.0020766932577675626,0.00538156184269309,-0.0002603233255351282,0.003657576724566066,0.018246423309932133
66,-0.002383890625155561,0.004340698198742318,-0.0017682958573297233,0.001979963665646965,0.014940143113812707
67,-0.0029978587373249866,0.0011676906489018677,-0.004413440703389458,-0.0005493723054110562,0.010250897786926045
68,-0.0031276216862670516,-0.0025041096133112434,-0.006968417916891595,-0.0021637171837237197,0.005305592471531774
69,-0.0022793045904112926,-0.005275639278726626,-0.008480334570857272,-0.0018812621327338375,0.0006477892886654516
70,-0.0019462840297365853,-0.007394327054659428,-0.010102069762126784,-0.0017590407870215787,-0.0036658524628051777
71,-0.00295493805497328,-0.009123209739151924,-0.011928612803684303,-0.002744947959448044,-0.006748025994149901
72,-0.005075347312454411,-0.010156292408453864,-0.013408539699013466,-0.004452068365802964,-0.008400088013153919
73,-0.007621017611330551,-0.009973432478466254,-0.014555837037772797,-0.00661110380823884,-0.008074845238175855
74,-0.008623677081701394,-0.007774508310051674,-0.01398106372141907,-0.007692794234708243,-0.0036510649733415544
75,-0.007038830272298575,-0.004350888785237341,-0.010786289722817385,-0.006278965839391218,0.0035378244357064806
76,-0.004781241984901304,-0.002051891462808682,-0.006869411653361916,-0.0036419810885081785,0.009173746726962218
77,-0.0037512152132753063,-0.0015915722918083723,-0.00425844259326054,-0.0018268214540608989,0.01138077736799624
78,-0.0032510952199352253,-0.0013870467083126861,-0.002779064529274626,-0.0007458514247986137,0.011840393375382119
79,-0.002383619579446397,-0.0001222516774497392,-0.0019469547545112574,8.20878377389275e-05,0.012975172126577365
80,-0.0014374924075644766,0.0014674662417936124,-0.0018103026447068905,0.0012890104401855759,0.014004053057865985
81,-0.0005724167234311094,0.0021730346209960522,-0.001981209035028041,0.0043725525934248865,0.012526456828144183
82,0.0007368387706614218,0.0028838572859688242,-0.0017961344733376343,0.00922634899063162,0.010954894951872657
83,0.002705173670760535,0.004734944562066464,-0.0012201144872356214,0.01378684065290942,0.01328023131540235
84,0.004369068935226846,0.006705176709224873,-0.0009472516182806682,0.01657487740156739,0.017932061806170872
85,0.004963647195577205,0.007918244841603254,-0.0010484951140693264,0.017862283899863413,0.0215531439845382
86,0.004415971157538113,0.008110262870003902,-0.0014749972640368035,0.018045506872962875,0.0226505550370092
87,0.0023624465963538377,0.006354554997883703,-0.002854007003510931,0.016450830689728087,0.020779503023969623
88,0.0007509329735811936,0.004092539800975813,-0.0038587004104393653,0.01467172710491891,0.01804460955713579
89,0.002213867952660238,0.004268507341073458,-0.002947602099232198,0.01527699536376492,0.016936618822481445
90,0.004773817072958212,0.006631154519087963,-0.002243955155903612,0.016541037325851295,0.0163331233566075
91,0.005749744238802011,0.008909115329885286,-0.0035460465215896475,0.01615526360622534,0.013591491741484801
92,0.005189321905743421,0.009333129543312196,-0.005818261695221635,0.014433765481467643,0.007872459919140134
93,0.003585016832971055,0.007845676129077961,-0.00821055685211817,0.012208249267868919,0.0008674389420068549
94,0.0012108931823923766,0.00591261419736835,-0.011032216666178134,0.009872809489916364,-0.004671828003600791
95,-0.0009188375749232693,0.0047827683496089535,-0.013801190795572278,0.008286429814830782,-0.005369315948742212
96,-0.001391624558329956,0.004201148216811095,-0.014907575371696118,0.008975558750711704,0.0003673892514601957
97,-0.0004021657991390416,0.002833717700953469,-0.014381040358076339,0.011130191080391384,0.0076148790993736904
98,0.000747053536837931,0.000568208303479692,-0.013795314038571684,0.012064017581422072,0.009461587431527233
99,0.0016120359583335598,-0.0011864257423401655,-0.01334059751255648,0.011255323780958408,0.005146124797698916
100,0.00224370409558208,-0.0012556972078342824,-0.012431885974341857,0.009883899118457738,-0.0005157761931139971
101,0.0020864522085939563,-0.00045956457863744653,-0.011556611187187225,0.008727179249340033,-0.004705820294403878
102,0.0009016928003073485,-0.0004367292723050937,-0.011129718213687457,0.00845642524989498,-0.008059228694894456
103,0.0001570766242428793,-0.00014944138755316628,-0.010209046553937973,0.010000863293118745,-0.008450662364901758
104,0.000636587525104542,0.0015647027512044119,-0.008624933322981804,0.012788570904567373,-0.0037993829964358614
105,0.0015709330232121998,0.0034289094069001776,-0.007575239900485035,0.015001928499794445,0.0026159597296212356
106,0.0027883374086567245,0.004770810838170508,-0.006987329515537996,0.01642727554132831,0.006698897766286362
107,0.003823294559115503,0.005525483017385868,-0.0065204651006790385,0.017545664965482974,0.007416345150559054
108,0.0045479637836352725,0.006129778935550813,-0.006153741591861084,0.018726403025129977,0.007180506499882353
109,0.0055303965316738975,0.006822572401013729,-0.005530548923082966,0.01999217439281553,0.007920584353587999
110,0.006303887126684934,0.005792190266225416,-0.005241478186294688,0.020527847733582127,0.006341784284168958
111,0.00650460191744036,0.0031315247323518924,-0.005485113296860403,0.02043237169876548,0.0013649245148442404
112,0.006783053971578907,0.0025052977326401023,-0.004941784932531497,0.020581462588101073,-0.0009664916745367652
113,0.006838471810396994,0.004446303717209157,-0.0037706876506444467,0.0204525712571011,0.000985562582308384
114,0.005899961629074834,0.006137838264208215,-0.003330812338417408,0.019018118323547707,0.003726441980309058
115,0.00540913214708829,0.007157792574637626,-0.0027006978270627123,0.01770165730554697,0.006847811067751052
116,0.006665343732816966,0.008233526878587053,-0.0006971066821092176,0.018302710973913054,0.009056033912172292
117,0.008564968488466395,0.008950365675993869,0.001810525450283842,0.019897177086875346,0.008283193689040227
118,0.00901138887930762,0.00781600660902408,0.003111301568774698,0.019925755769749094,0.005661879409117768
119,0.006828487507546998,0.004086217716569846,0.001980197404954218,0.01721097644593971,0.0031665542225236716
120,0.0035846311988432284,-0.0007892668062481633,-0.0008866016871133361,0.014118894390143438,0.000647819449284011
121,0.001468273452535013,-0.005264433593471807,-0.003948191873207803,0.01314796161131914,-0.0032292338629210074
122,0.0004943866044336388,-0.00889795152290902,-0.006772872876614899,0.01351072841449394,-0.0079335924482479
123,0.0003066528486874702,-0.011056490364047745,-0.009230853821886247,0.013882129752335727,-0.011623822025111795
124,0.002075670076893977,-0.009798455933612876,-0.010018928846409337,0.01512302261064033,-0.012705659947358679
125,0.006722083167822887,-0.004209141287233111,-0.00785599563333975,0.018415957610761792,-0.01012063247695324
126,0.012259899148270517,0.0021977025600995793,-0.00445233809102701,0.022120728523956277,-0.005186380146782966
127,0.01585554303461045,0.004762081149085065,-0.002572794143131305,0.02384660039022369,-0.0013530895491485086
128,0.01696656089408894,0.003015706418475502,-0.00276226164519404,0.023387137918996537,-0.0004867654999878472
129,0.01623629967060651,-0.0006421154725980566,-0.004258797770603955,0.02133416839284959,-0.0018778928727468227
130,0.014972533249707333,-0.004041424140355515,-0.005569517691603226,0.018971413453711092,-0.0042691301515498355
131,0.014796567120854245,-0.005187267309836711,-0.005205419965192647,0.017819778306505,-0.006459917992384518
132,0.015583702322737087,-0.0032959932806062332,-0.00353037593245397,0.017394959790249496,-0.007734673053324464
133,0.015106646930655034,-0.00107206529467199,-0.00293116197966172,0.015617755439608626,-0.009255353894324109
134,0.012568576719010599,-0.0005388474850948799,-0.004500994471711577,0.012246910113177183,-0.01094441640383325
135,0.009946266226725372,0.0006803190179462834,-0.006593361813884036,0.009103669973582884,-0.008559816322197671
136,0.008583017412736883,0.003995469111592298,-0.007587310234535911,0.007228265608884255,-0.0002821003758482292
137,0.008841205555205534,0.00812496106248767,-0.00677499163774895,0.00697063589004866,0.00987419987791924
138,0.010013716062661089,0.01141675925789806,-0.005098470378018881,0.0072471161412940915,0.017144692445380375
139,0.010918213958344107,0.012478040513390394,-0.003855909450681909,0.006958548123514963,0.0195867544212912
140,0.012274401562652889,0.011685184848989581,-0.0021842910217544044,0.007740581768127251,0.017781022382475094
141,0.01367632791868266,0.009766671800218747,-0.0002151999745034773,0.009462974085129637,0.013261406743611707
142,0.0136116708948798,0.007078585029740572,0.0006483375737888831,0.009951842694578276,0.008261314738238018
143,0.013325036450618465,0.004753374974631691,0.0012856043232947916,0.009935382647513216,0.004660854975747705
144,0.013084859198025947,0.0027876724586738955,0.0019445051699895602,0.009838951685022223,0.001966196677688036
145,0.011886285355049543,0.0010506411901677873,0.001843085096746242,0.009200637383285701,-0.0011519255915773553
146,0.010573134585035417,0.0005999719503476381,0.001968783927943527,0.009403658867611858,-0.0038318991249908407
147,0.009651404186065766,0.0011233811563049275,0.0030114088321746427,0.011335235133040165,-0.004830744405821271
148,0.009619291627264973,0.0016823948716329538,0.005046379407242466,0.014533799040127814,-0.004512078090526948
149,0.010286450832233495,0.0016540984688260098,0.007261362385412239,0.01684062027377223,-0.0040237380616337335
150,0.009488337686464511,0.00039085464382161933,0.007290671803707176,0.015344093791063234,-0.0040837908304469156
151,0.0072618376415682995,-0.001110753957186604,0.004853258753853622,0.010720474154447301,-0.00346607239111164
152,0.00587865502665541,-0.001099796210689288,0.0022695677041574356,0.006242807683003906,-0.0007996537262670646
153,0.00579161047049057,0.0005194886425069778,0.001125460573116287,0.0033328948582756826,0.002346799037427757
154,0.006557296122673413,0.003513981247829599,0.0020481633351806185,0.0023832043828452237,0.004400651872525937
155,0.007651523073628367,0.007586521115385704,0.004695586078940058,0.003265257959840408,0.005613633304027232
156,0.008435861262916549,0.011675248811309718,0.008189578692426341,0.005274497393921338,0.006003876365014043
157,0.008429709537039858,0.014641358080793563,0.011432405682478568,0.00729563253293102,0.005959483845059156
158,0.006817045327961696,0.014912593483041013,0.012796349398948798,0.007328471883649243,0.006023244695876265
159,0.0038551054610248586,0.011480347157334802,0.01192263269620245,0.00503379345279477,0.005195261852515426
160,0.0019129707804233414,0.006764653863319882,0.010624291931193785,0.002921951702598943,0.0036196753694484073
161,0.0029436051075486603,0.004491165735327154,0.010982278880600025,0.0035300444155551445,0.002834946515601323
162,0.005119817285938376,0.003719132885943315,0.012230524798634372,0.005978669247210783,0.000644634085586381
163,0.005578687200895976,0.00221611268837695,0.012511723751227452,0.007401727396113745,-0.003045887931642954
164,0.0044519557237161144,0.0008990136044420387,0.011997060212474753,0.006705389130092076,-0.0040824027115264555
165,0.0031870102972709237,0.00010304966213435256,0.010790566564817302,0.004269432141264999,-0.004350609960776331
166,0.002964225388000577,-0.0005531068746884306,0.008967995571789317,0.001492975456620413,-0.007047055681677199
167,0.004632566186631562,0.0006259014380551344,0.008181329917727033,1.5869086119950045e-05,-0.007033462566780102
168,0.007459881770040951,0.004697044339363946,0.008888457969929058,-0.0007117503272246721,0.00018505809873455527
169,0.009205903561783836,0.008958654784399464,0.009132113956916094,-0.0026770919618818675,0.009061695992455864
170,0.008750988049448011,0.011086144399858503,0.007758710394009325,-0.006230466221175265,0.013300359659746687
171,0.00660655140488735,0.011674918743555042,0.005490552533822832,-0.010111116594136878,0.01404178913804676
172,0.00246801988523349,0.010756332964311935,0.00252295511021436,-0.01428843733110602,0.014466081098597207
173,-0.0033729000419472606,0.007303602359058494,-0.0013170322973100877,-0.01880177508618658,0.014017425779738364
174,-0.008107879253123455,0.002267899065253733,-0.004812235215738926,-0.021861776508379917,0.010562692923367261
175,-0.00987252642828174,-0.0018880995696998089,-0.006758327359734297,-0.022639568268302216,0.005167123087367833
176,-0.009978032517285492,-0.004899752505420891,-0.007511130306540069,-0.022456531425531143,-0.00012261996798709727
177,-0.009907419346302805,-0.007392272986597678,-0.007286126682970366,-0.021662025732781153,-0.005099771693514121
178,-0.009462206762833913,-0.008765043748373846,-0.005727137963984022,-0.0191901043041458,-0.00980377964458771
179,-0.00869253862456289,-0.008931563326401657,-0.003943142543216922,-0.016066251375661887,-0.013453173818275946
180,-0.0073670670047978,-0.008193755111058229,-0.002767840129170248,-0.013637304100093797,-0.015234386046816286
181,-0.00413741754146684,-0.0066898229798362414,-0.0006364561328942332,-0.010569388709380822,-0.015565153679992687
182,0.0006184208098031118,-0.0054016582693260234,0.003429303450860104,-0.006318733903846976,-0.015902373534735937
183,0.005276247045446181,-0.00481327659103328,0.008320377794996153,-0.00192319183777612,-0.016279088960810657
184,0.007504496920306895,-0.0048379087775909145,0.011231376059569195,0.0008120602237078741,-0.015488974597722662
185,0.005682307296218659,-0.005351670138058465,0.010516161089557106,0.0002900822812897378,-0.012752930670842834
186,0.0024422758307542816,-0.004963270763620781,0.008624693029982724,-0.002168630993522616,-0.007893088506716951
187,0.00035550483856626035,-0.0037595146631337582,0.007452569700893652,-0.004769730563841393,-0.004869184607846532
188,-0.0008608293134711633,-0.0033381302804778743,0.006438355066325237,-0.006960709850949471,-0.008636445690617727
189,-0.0015878903519032422,-0.0027699125071843473,0.0055043643739070836,-0.008635498327781882,-0.014697171989757993
190,-0.001634526757017972,-0.00041738513315884863,0.004864136029771676,-0.009874059127947315,-0.014867864291121588
191,-0.0014616091993831734,0.002350608994933302,0.00370789818963029,-0.010872339792185192,-0.009890188175390236
192,-0.0022194100152020018,0.0037446111318828385,0.0013930174040832982,-0.012303257321346519,-0.004434834228548436
193,-0.002480278996676909,0.0048243972599930655,6.300191339583433e-05,-0.012417343386260571,4.547126678380293e-06
194,-0.00022878127551397164,0.006165188152748647,0.0016400607031041034,-0.008782369214706048,0.0018592662702159076
195,0.0029311520449864536,0.006029152274134129,0.0043583357792209105,-0.0030801723369878074,-0.0007021877199155846
196,0.004928470651723232,0.004583094704605157,0.005803536256099961,0.0013105017502536213,-0.005526075838020558
197,0.005938767769578099,0.004259391903783169,0.005669543164628062,0.0029115198765963706,-0.007987885524964405
198,0.006045323440250351,0.005479469974111733,0.004676995280541703,0.002284044908836498,-0.006423936287071171
199,0.004386722042517531,0.006719145787445753,0.0031842561959650956,0.0006444607191995135,-0.0026688889107169943
200,0.0015623725881563585,0.007090895309218489,0.0019394584623766407,-0.0007662258635090448,0.0012171568750373141
201,-0.00047759892287480693,0.0059325296286779515,0.0016595879290418132,-0.0008990280298757006,0.002666809263226817
202,-0.00045108603392067514,0.003619909180265082,0.0021846055906492414,0.0007463480971244906,-0.0001998950084181286
203,0.0010178978050893936,0.001855986457159339,0.0029440283226437125,0.0029979521835951273,-0.00487068212104605
204,0.0022398003291641605,0.0008689634570880204,0.0036604688131873383,0.0041341567896730075,-0.007444701647295533
205,0.0034327030101681715,0.000374108832555463,0.005227493004056314,0.005076894607010095,-0.006138002602813369
206,0.0057683981848080604,0.0004882816403633337,0.00791128346349515,0.00759470961964935,-0.0020167078876888113
207,0.008165055798035298,7.149925098131105e-05,0.009573318052967466,0.010760185310570727,0.0013163676694448142
208,0.00853090819334305,-0.0012671680299104376,0.00844196774823782,0.012408607224555597,0.0020178020613190717
209,0.00692228789654372,-0.002174031838845046,0.005959283391533416,0.012447184907233368,0.0008646002489280075
210,0.005160153683225788,-0.0018637141923162326,0.00434529705176086,0.011911156010845525,-0.0018609416069872437
211,0.003983885903218944,-0.0005319020844105103,0.0035550866305749623,0.01034283781646541,-0.005280870625356205
212,0.0031821100613423775,0.0014623912198815938,0.0030734195623219706,0.007234325065299561,-0.006989944499385979
213,0.0025889714583872602,0.002804237262915891,0.0029027528863997338,0.003286326552971603,-0.006892971309099284
214,0.0014934354664634642,0.002166187412952264,0.0023321151417273703,-0.0011234794775652006,-0.006927663755271541
215,-0.0010010950060918404,0.00041557995139532956,0.00045354685310427433,-0.005930996252791757,-0.006594287774145126
216,-0.004583832295669238,-0.0011558865623871315,-0.0025643858137879313,-0.010114902749434922,-0.005382285903880023
217,-0.007257795331510044,-0.0018019078225914428,-0.00488119641419387,-0.012065738459789596,-0.004169727055510293
218,-0.007612131128874405,-0.0009735076221245464,-0.004723303106070859,-0.011507745614868777,-0.0025833482269136073
219,-0.006162563586989638,0.0008780340898858897,-0.0026913749737676224,-0.00980213447299182,-0.0011536144219773308
220,-0.0033582866361030247,0.003513471114653473,-0.00031882105190405,-0.007476365087914837,-0.0015654598785420778
221,0.0005524880670510405,0.0067771225056020715,0.0017542050684872792,-0.0038477393196434543,-0.0051967585459246745
222,0.0039501384331531554,0.009395628730528701,0.0027894167828947216,0.0003350728826895971,-0.011908801079707713
223,0.005800763140961804,0.01020341897769236,0.0024198667324421756,0.0037413905892993526,-0.017834256315872363
224,0.006080950762454836,0.008663704180385763,0.0007589853522660429,0.005600113353806049,-0.019392451408090292
225,0.0049413355010721315,0.005456915956698976,-0.001736981206376506,0.0054666270061141135,-0.017876790169032538
226,0.0040122005559231405,0.002713883647426021,-0.003007047934262646,0.004875721710749332,-0.016059495552449635
227,0.0043698142083696745,0.0013972439467068729,-0.002293386214612648,0.005303454213255292,-0.014987621577700646
228,0.005200616158314607,0.000673374944337767,-0.001546030284724642,0.006144528481819399,-0.015478496614060335
229,0.0056424040701788,8.737729750158409e-05,-0.001885417864407573,0.006642667100612483,-0.01750821139009743
230,0.005198000983699216,6.212127915665368e-05,-0.0030380781467674012,0.006233419934455195,-0.019083336595504766
231,0.003363094156684713,0.0009413489218356949,-0.005098362413182113,0.004087400232547592,-0.0184370895452881
232,3.782195938739913e-05,0.0024095442806119412,-0.00819742557871443,-0.00012856871354158486,-0.015098806350968599
233,-0.0033341937618897605,0.003412611409317696,-0.011022286350554505,-0.005073606649310138,-0.00986461084726537
234,-0.004346500650776851,0.0036880243125888314,-0.011801506299338016,-0.008538325214401817,-0.004432487482621731
235,-0.0021531634596474647,0.004235896656662381,-0.01041782375722097,-0.00980777305884357,9.573049489171765e-05
236,0.0009790376937254006,0.0045546883115313705,-0.00857857816577513,-0.010432545322640584,0.0020569515844001463
237,0.002002976366577742,0.0030832305448927097,-0.008144013528718044,-0.012268795253247035,-0.0003945923160613471
238,0.0006441297786784919,0.00025653514652286384,-0.009504284913020508,-0.015328876744311942,-0.006024412114688276
239,-0.0018356949782083597,-0.002842457397383112,-0.012012961167858915,-0.018734038434263783,-0.012230349682622765
240,-0.0043790436938891605,-0.0059938373715933855,-0.014501379947220115,-0.021266414870183124,-0.017970627594021477
241,-0.0060785259183922325,-0.008778531887717052,-0.0161422533545986,-0.02152769220874049,-0.022814473896448178
242,-0.006724700623747944,-0.00991039019375087,-0.017037450765686378,-0.019631624944624056,-0.024932724578139255
243,-0.006839230938236041,-0.008413984725719746,-0.017350498858612805,-0.017291752526424797,-0.023207862451939242
244,-0.007168137447122943,-0.005492497274226856,-0.01691044914490513,-0.01596824531495957,-0.019282370819839287
245,-0.007855965128930543,-0.002700102273770277,-0.015516235118330814,-0.015960907222181193,-0.014151953632360293
246,-0.00881480828393993,-0.0010115692638061563,-0.013877582795552606,-0.017265342415868454,-0.00891825647037142
247,-0.010321064321286483,-0.0016113443332452777,-0.013291430138290823,-0.019593101688763787,-0.006414487770767882
248,-0.01206892410696983,-0.004361760109354642,-0.014042966333450625,-0.021712370336209832,-0.008462385599894063
249,-0.012812359924490337,-0.007427986568557642,-0.015103867446590265,-0.02186636761597198,-0.01386263774172907
250,-0.011978273962808109,-0.008756727510773232,-0.0155462117283773,-0.01962850033789054,-0.01829733497144455
251,-0.010415437197060168,-0.007905378840857962,-0.01549635975340718,-0.01627449514952546,-0.019246876946589293
252,-0.009890145617975339,-0.006797038275204869,-0.015933880945142854,-0.013748116387489573,-0.01953516381177691
253,-0.011171814967776703,-0.006721762135016215,-0.017272188169997454,-0.013073540483722172,-0.021926979973556967
254,-0.012911985941206749,-0.006764710769371982,-0.018924134429716206,-0.01327992984812815,-0.025636721881954174
255,-0.014400778235936877,-0.0065256272364511,-0.020836281121492908,-0.013849371414343375,-0.028220117207907725
256,-0.015666160225665988,-0.005383881299343932,-0.02239854840856146,-0.015105796946125294,-0.024788786499473248
257,-0.01623368619828243,-0.003161327092203855,-0.022421570111904175,-0.016286729937265425,-0.014846714329752573
258,-0.016326059389619518,-0.0020572775741310653,-0.02115540989664501,-0.016280023234637796,-0.00654936205369702
259,-0.01611111321872032,-0.0021620573285347122,-0.018934192628155672,-0.014738079395873176,-0.004793763384121243
260,-0.015594626303930643,-0.0016870243374450772,-0.015795710323170176,-0.012489069652167492,-0.0066296815341970895
261,-0.015613970075416274,-0.0016443061966783966,-0.013162876629578981,-0.011068616488241938,-0.007437492347155493
262,-0.01613263362351396,-0.0037199960280712673,-0.012214907904782977,-0.01066085828992623,-0.005436527355998547
263,-0.01597410944879802,-0.007249934806381189,-0.012306148894315234,-0.01023291276541781,-0.0028463142905704587
264,-0.015175831758413642,-0.011267065714289303,-0.012969106377385327,-0.009859597789169935,-0.0034049376924964046
265,-0.014622205569255212,-0.015548956437215851,-0.014059036996677893,-0.01039374972900242,-0.008053430734295708
266,-0.013912065207837136,-0.018845340032137663,-0.014352935426381651,-0.01112044539733442,-0.013864445990982636
267,-0.012753175266139,-0.02043121173563318,-0.013693077585879435,-0.010735583657801027,-0.01844333575060263
268,-0.011969171912576031,-0.02156221327004695,-0.013401191895954576,-0.009249369999984077,-0.02216061744180088
269,-0.011168224069071146,-0.02279115443548304,-0.013306540025401391,-0.0066867229410457404,-0.02557031532656849
270,-0.009251922035579126,-0.02291168283084776,-0.012137889142336754,-0.003075764740641293,-0.027296757913690812
271,-0.0072482951037462625,-0.021217933189746307,-0.010412326460440898,-0.00040020902556383377,-0.025850063726994655
272,-0.006131642220335399,-0.018499027152831596,-0.009384060547897383,-7.445460172560743e-05,-0.022665769572872703
273,-0.004268825464122995,-0.015622725346472504,-0.008385737986463103,-0.0001226243925274286,-0.020316605515589403
274,-0.000902894534410177,-0.013264464667170585,-0.006700103723284774,0.0010862762458561633,-0.01954493793900572
275,0.002251651800512983,-0.01192665249090511,-0.004940116818411366,0.0026021917558663042,-0.019647096571062284
276,0.003123844904426493,-0.011433542453940317,-0.003939545722622028,0.002530105641560633,-0.020160349843966575
277,0.001167174332346185,-0.010966574418813633,-0.004191408239002593,1.4961083920910268e-05,-0.021666647452236013
278,-0.002254796020134204,-0.010201551933804462,-0.005486518014038438,-0.004119026288840769,-0.024431637696505627
279,-0.004503715350190083,-0.009038000823649438,-0.006157726978569942,-0.007953241698682584,-0.026033356296079405
280,-0.0030989332231707036,-0.006889832006777227,-0.0037133976917434626,-0.008800806994942015,-0.02456052780884898
281,0.0007663667274112614,-0.004386706719906368,0.0013307174231448698,-0.006391780576562197,-0.021728117177820944
282,0.004010508042712766,-0.002116162911691172,0.006140732316431731,-0.0028972908697351505,-0.018265982860774563
283,0.0061634487196570165,7.78769443290898e-05,0.009378544595022674,0.00045042235450543154,-0.013906769637118092
284,0.007333203793940776,0.0012371580591469759,0.010264078905739878,0.0022412198497365346,-0.00999728960999363
285,0.006427087616547283,0.00022044617129585143,0.008470843765166406,0.0008776778989875832,-0.007995009943319894
286,0.00447448240273857,-0.0021315914747994523,0.006671950480462504,-0.0014915216060335324,-0.00820119897827897
287,0.004620979281756824,-0.003476138326279608,0.008296596182646719,-0.0006389627661154236,-0.009178562777183773
288,0.00663237882276148,-0.0029435599080004614,0.011978455547233159,0.00265058898234741,-0.009421874841250632
289,0.007046375076905415,-0.0017133476721145333,0.01333090083072763,0.003514889852488049,-0.008847484076712635
290,0.004619936753397295,-0.0013343672084774143,0.011119038622725012,0.00032256747759899416,-0.008746785919367889
291,0.0014234314994194352,-0.0021217638490045737,0.008325020868008537,-0.0036552949980519257,-0.009904310915630725
292,-0.00018783342604690204,-0.002882182460897987,0.00794419166915521,-0.005207802410664215,-0.011383652614651902
293,0.00014435457752096068,-0.0026377782453388785,0.00933488859594651,-0.004940263603500877,-0.012716800188024197
294,0.0005822445905611173,-0.001969378536116654,0.009654965847205505,-0.005636052177482472,-0.014814591928547689
295,-0.000565748407765864,-0.0010924569730909784,0.007765258664988892,-0.008706349655315365,-0.017339648914065284
296,-0.002561990169616065,0.0012739451922021735,0.00561478270632909,-0.012658147319696913,-0.017896154170283497
297,-0.00403482090882902,0.004892218723801031,0.005186872373058213,-0.015305196691664476,-0.01534846140967422
298,-0.004369745608867235,0.007758693248252655,0.006393617398481747,-0.015722755496979626,-0.011227585834664487
299,-0.0036272278381040595,0.008278870349003122,0.008194058090586757,-0.014172830402513424,-0.00860947359439386
300,-0.0033374228967619534,0.0061396143756403555,0.009307872256503175,-0.012298209692220344,-0.009145714449278296
301,-0.004271065383681634,0.0030201657744041875,0.009365788618866682,-0.011146330873716062,-0.011432034121432623
302,-0.0043111132928139876,0.001548950840233534,0.009802040177163114,-0.00924566463352256,-0.013243310149356357
303,-0.002093886215778093,0.002257357823361267,0.011595758884042334,-0.005692924374167076,-0.013594676290330556
304,0.0008449420661102751,0.0037076869435138664,0.014050294872109894,-0.0021417295517870485,-0.011046547100041057
305,0.0028466584354741174,0.005722736186621764,0.016709167713415855,9.259425095364608e-05,-0.0023284251491011354
306,0.003696025510132696,0.008344336157300397,0.019579388259680097,0.0016401347803743783,0.01052875526142681
307,0.004424553602573329,0.010799374743887745,0.02233528680580099,0.0035764606783351333,0.02021133790442578
308,0.00545021880168545,0.012998221712373973,0.024043539168444095,0.005299839602997365,0.024028920403906483
309,0.005329677103634283,0.014492924004481347,0.023738627179679325,0.004997704761401795,0.02396131780517082
310,0.00321115456762027,0.014568214812816645,0.021670168324464723,0.0026982370517306094,0.022617206772584914
311,0.0001417155062297208,0.01321474054939595,0.018476845655559557,0.0001346279999543885,0.021199499619267665
312,-0.002663748745382145,0.010818124368932763,0.014521966878620103,-0.0019543779889549737,0.018795154964104582
313,-0.004438302574296985,0.009023659598476475,0.010883593428234074,-0.0036864197154876013,0.016519348984103482
314,-0.003977486763101305,0.009781779535874809,0.009384822421527378,-0.004058341033417491,0.017341286427479886
315,-0.0015880892950127094,0.011638012436507831,0.010214035825347374,-0.0025031369304611066,0.020022316969890118
316,0.0004244491011722288,0.011733892674897307,0.011489711112376233,-0.0008335434144819014,0.020976723305949074
317,0.0016247860042054537,0.01031639298632997,0.012400508500682817,-0.00016542689198660693,0.019635569209096367
318,0.003537525597924906,0.009136284797766526,0.013573764562963806,0.0007630090729747321,0.017841023207916463
319,0.006257767251205649,0.008634459061997595,0.01460711394357705,0.0024415776577154246,0.016803979191456722
320,0.007864387720864337,0.00863770431491216,0.013625189126369956,0.0028040944985848163,0.016789053311660668
321,0.0073925339250876,0.008952299088552504,0.010200438949926878,0.0009862728946902412,0.016969338639408936
322,0.005813226910003323,0.008128995755406682,0.006198247499145554,-0.0010548191573013395,0.014381499419512646
323,0.004534782336268622,0.005687582054193773,0.0036211700769414983,-0.0016541524017407332,0.008945305449440954
324,0.004784095639714402,0.004026103471208252,0.003866862827512152,-0.00029506950300029616,0.006018104148991766
325,0.006185461943133484,0.004491900858681328,0.006728712146628068,0.0019514614356265392,0.0088800750970863
326,0.0071086555400933175,0.0057283817523447736,0.010706411202638861,0.0036578963799324153,0.014585087378498826
327,0.00692862812556166,0.006702090598069117,0.014677634597963653,0.0053039945649182366,0.018561003762228953
328,0.0061013743326840016,0.00882147818860912,0.017512170937486495,0.007099388702228489,0.020895049631527197
329,0.004761206267031956,0.012993933227451739,0.017828710732323175,0.007752926657476836,0.025018688184805155
330,0.0030157105835744527,0.0164296467000907,0.015946395136527944,0.007136812778447437,0.030397662096374005
331,0.0012466387869373818,0.015959601865311673,0.013939200529006811,0.006253868792839773,0.03363682893676561
332,-0.00040716512128655146,0.012087399054232444,0.013008438180798235,0.0053678026915762655,0.03423615191584468
333,-0.0021062105396262264,0.008016435457468003,0.012484887751355893,0.003964811681823362,0.03405855333901768
334,-0.0038950381143582815,0.005698085861022441,0.011559382759525519,0.0020799105199789934,0.03396621961106527
335,-0.004196290126783461,0.004957130678637792,0.01113011219354471,0.0017394203478932413,0.0334929545032852
336,-0.0022864418519822766,0.004518064872706944,0.011615849029002985,0.0037987628627421484,0.03180820977640174
337,0.00040527209959239377,0.0035568403871202225,0.01220454148070728,0.006430742738366685,0.029684284326786783
338,0.002754673004366545,0.002273352520597233,0.012630544696147198,0.008066239647677012,0.028727319960202842
339,0.003811327828855584,0.0005634880224984853,0.0127576583258161,0.007844159884662017,0.02830247844389403
340,0.0037398851515735485,-0.0013154861966528353,0.012756205403786558,0.006007678206060547,0.026578032343301236
341,0.004036840608486878,-0.002663809059687521,0.012947115910413802,0.004021723854300473,0.022626795690963587
342,0.0046571426037541825,-0.0032870757879185737,0.012587344299509405,0.0022111365259477743,0.017419036785114743
343,0.004118376339139741,-0.0034605901324397882,0.010690213812538896,-0.0004057000286739614,0.012428301333476088
344,0.0026284928683397335,-0.0027546567097796303,0.008113441691130636,-0.003298112269640874,0.008776957518137288
345,0.001987519174884863,-0.0006779158188795683,0.0069312261306730795,-0.004158524054841898,0.007316849461319213
346,0.002203488865142763,0.001728616947544955,0.007406954312079471,-0.002768895713759658,0.008521079869989998
347,0.002015086427128524,0.004633899640473579,0.008415601427430662,-0.0011921459937214043,0.013208672596315602
348,0.001772101060860695,0.008918333266962512,0.009690243711634749,0.0005058949506563649,0.018302470021607006
349,0.0015861555539001533,0.013314133962281698,0.01038227239219899,0.002411113182615292,0.01963078232824615
350,0.0007031725156043045,0.017500074598995895,0.009632437851388372,0.0027739663996604533,0.020873180878269438
351,-0.00023607466465898458,0.02187036149054775,0.008788405510745842,0.0019427681326633964,0.025436262661050948
352,9.866830310352702e-05,0.025395969678249808,0.009663403340260947,0.0021828235051178395,0.030241074931658393
353,0.0005857587895615751,0.02651141010272248,0.01118258794075676,0.0026179758150515885,0.03262133956413467
354,-0.000757710473621049,0.024541053852316124,0.011108742434070161,0.0010759821699765908,0.03223158958270067
355,-0.0020970721730251556,0.02159542599706485,0.0107721983928516,-0.0007399086010728155,0.03093215268593102
356,-0.0009053460018716158,0.01981731453796717,0.01235544100863436,-0.00024882883264687846,0.030647329116762337
357,0.0019333017181718277,0.01847508564334467,0.014881950260684436,0.0022652822748112497,0.03042868385242515
358,0.003964333811053025,0.015952571676235157,0.01589737413654649,0.004742877024464176,0.0284384004720726
359,0.003431037398351211,0.011732967557995104,0.013823288114820842,0.005388101683889946,0.023592532783967498
360,0.0005722163180369448,0.0066730128328275655,0.009575599106831121,0.004158561612460261,0.01637599962209937
361,-0.002082113958360859,0.0027111725657131005,0.0061672376586378265,0.003049251886823008,0.00966804212060726
362,-0.002188126214479968,0.0011162543908409502,0.005222632924401056,0.0037998048896318694,0.005938115749252384
363,0.00018425055940108392,0.0010481169934761026,0.006158305263196883,0.006402944930323608,0.004301757534138293
364,0.0025062218586867344,0.000309642308486883,0.007269833305233871,0.008850401851888543,0.0018310937659230817
365,0.00237533873443279,-0.0019417349853568819,0.006625098006311381,0.008366475022296092,-0.002588199491222959
366,0.000525776535353011,-0.0036453610747662914,0.004335115305925475,0.005118824250300327,-0.005742087612130767
367,-0.0009828253910029643,-0.0023112321400657492,0.0021502281633874296,0.0015083385052343068,-0.0032774113577198607
368,-0.0012343363982610254,0.0024357564697039015,0.001417919529556212,-0.0005789977557081095,0.005031981233126121
369,-0.0011763961376627641,0.006963102227682091,0.0014871253423994462,-0.001246649982798333,0.013613415186470426
370,-0.002200026967596379,0.006714527059834762,0.0005914357808958561,-0.0023996747981906976,0.016376446267295203
371,-0.0038278164089219652,0.0027464715869720984,-0.0011121517941788653,-0.00495588307352634,0.014144694518198178
372,-0.00447724787029854,-0.0002688737481124483,-0.001827289135586742,-0.007546505239829687,0.01209590602372574
373,-0.003926007313309853,-0.0012215011014116695,-0.0008893746939479374,-0.008483931998211108,0.011310183548645306
374,-0.0035391707801189633,-0.0021831241235219607,0.0006448347044169505,-0.007809114775669154,0.009823520985640084
375,-0.0038528284857129455,-0.004044362201469013,0.0014733754645648064,-0.006180876010426123,0.006459140095265086
376,-0.004504544591386985,-0.006307171707106526,0.0009509739044131463,-0.004156657109346788,0.0012277422144273515
377,-0.005188510461717729,-0.007341859362796766,0.00011245387310437187,-0.0017470077214111653,-0.0015062152481525209
378,-0.006649545947263904,-0.006225686229763399,-0.00014429958147430054,0.0008417939395320755,0.002112619014154507
379,-0.009209943115249699,-0.00402146044741567,-0.0002911534121217691,0.002697052223715813,0.008384779746100706
380,-0.011039407674842194,-0.0021018811680814553,-1.9951413390884068e-05,0.0041708623031463735,0.011711906194446889
381,-0.011849550438398146,-0.001336673229050276,0.0002149740333755929,0.0052053286182430014,0.011128530609425273
382,-0.013016321315760903,-0.0017528066841732675,-0.0010878920001999436,0.00491877616254256,0.00803439811341709
383,-0.014348608225012941,-0.0027235981274510244,-0.0035137775672504806,0.0037961494664348547,0.004100566006952768
384,-0.015169663720745161,-0.0035822143168975987,-0.0057333490514929475,0.0023320278757398777,0.0011375402496787248
385,-0.01582431460831306,-0.004175406775203389,-0.007357656723164349,0.0006272925621136687,-0.0008353922095671592
386,-0.01673367884416593,-0.005344716385278474,-0.008484697409426641,-0.0005347919420382548,-0.0034354805324059616
387,-0.017041230197630985,-0.007208644244896945,-0.008769480637798994,-0.00030696475717431474,-0.006539801159683883
388,-0.015967326842292965,-0.008018497203876372,-0.007764080119194618,0.0009876675789159378,-0.007175692552914229
389,-0.014556148057576185,-0.007079314878432236,-0.006333758616730869,0.0017192440423861636,-0.004454502774017464
390,-0.013371211024010886,-0.005151002391418285,-0.005604526869957618,0.0013579301970413108,-0.0006977026005905614
391,-0.011545345429021647,-0.003273238770587352,-0.005576549567247957,0.0013028167062097702,0.0011173463790826912
392,-0.009114219966846802,-0.002587219945341491,-0.00617280199163178,0.0021823309073259766,-0.00087218904930146
393,-0.006812780835448758,-0.002377835690190888,-0.007274673085510898,0.0034706641590316616,-0.004574041689643715
394,-0.0051913134578632425,-0.001767047361903655,-0.008864334869665948,0.0043213746961907485,-0.007683265680208636
395,-0.005350036667459247,-0.0019277338605051474,-0.011729174349269718,0.003325402085355792,-0.011101727374328671
396,-0.007267073213053978,-0.0035161754553224662,-0.01536902460973662,0.0008023822271601258,-0.015440043198600052
397,-0.00918834685989724,-0.005413336866676518,-0.017872852585240077,-0.0010625217996753707,-0.01998170657357417
398,-0.009705885060299463,-0.004951914862238508,-0.01819408907291047,-0.001165619826494606,-0.02252107457337382
399,-0.009385901665239756,-0.0006558287327734813,-0.017172307291988646,-0.0007378692125791914,-0.021729517724084255
400,-0.009283152085021673,0.004687524882229237,-0.015904671251331638,-0.0005383163385740756,-0.0198598783153028
401,-0.008788482441263904,0.00665014295550463,-0.014247089411885589,0.000560919988792927,-0.020346630939635683
402,-0.007617739240207186,0.0035973370279636613,-0.012383779140615489,0.0022121321297913785,-0.024094610461970378
403,-0.007176984424996524,-0.002248209911739381,-0.011158021265940692,0.0025061822130019178,-0.02683539701241259
404,-0.008382308344417989,-0.008363852354498215,-0.011428300459996127,0.0007126631630715419,-0.02593128118263282
405,-0.008974655407292786,-0.012828943504512682,-0.012417099184513496,-0.0006099515879228823,-0.024186252765327862
406,-0.006455480894883832,-0.013956188118649791,-0.012249970479748917,0.001430038660473628,-0.023226463505337417
407,-0.0024343414580252965,-0.012196483204287789,-0.01122043732976241,0.004864915003896685,-0.0205499052170012
408,0.000406366702116795,-0.008662987340045234,-0.010365867266380278,0.006164138089019244,-0.01344791112295591
409,0.0021909579214093055,-0.004183146053859489,-0.008953402468956703,0.005405506915644943,-0.0045251806569826065
410,0.004217594697267411,-0.00028648048563773563,-0.006273905903567868,0.004456247984377256,0.0019071493528216303
411,0.006396365153918738,0.0018573148774612765,-0.0036346326075165835,0.0035146598304554508,0.00554665517624719
412,0.008085410305064515,0.0026019240464926663,-0.0022636342211793674,0.0025304657044505114,0.008234901408142764
413,0.009122269683111184,0.002573174042490098,-0.001992671426796747,0.0026840379177620576,0.010774088885634641
414,0.0089782178564796,0.0013988606435248814,-0.0031239382902668233,0.003496391378142095,0.011592239528157144
415,0.007392146322247171,-0.0010278942660057978,-0.005370948259139261,0.0034758297242111014,0.009049773083546053
416,0.004416487487595663,-0.004263219480524545,-0.007659333576819249,0.002328523973789792,0.004136888318713977
417,0.0014479405620777836,-0.0070234537396148145,-0.008987539146781456,0.001232853145981278,-0.0003297616073834836
418,0.0012537441670803858,-0.00784560282379557,-0.008256103653752914,0.002079948885749315,-0.0029507627602607983
419,0.0031089650362471615,-0.00767652597560415,-0.006210946537390302,0.004475046204770389,-0.0056186066255315345
420,0.004070773142910696,-0.007542473917388269,-0.0043878726441465375,0.006587836347489083,-0.009239609338424529
421,0.003610642279818198,-0.007005465456479045,-0.0034213323409816735,0.0074556485310520795,-0.0124410480561458
422,0.0033564638110561416,-0.0056573114345464005,-0.002908330141201768,0.007690118771999702,-0.01427008907588433
423,0.004512403393222156,-0.003941821687183206,-0.0020914636653014134,0.008706647697657287,-0.015488826799659424
424,0.006198812897873639,-0.0030609179499628846,-0.0013552088407865384,0.01021341559397465,-0.017433638029401562
425,0.007045941265814919,-0.0035746273895747873,-0.0010780338621903343,0.010662551906052057,-0.018951438964479348
426,0.007094235123133662,-0.005084397538681121,-0.0007271727403677394,0.009789164350156383,-0.018756436092547058
427,0.006510614687030501,-0.006008076655189087,-0.0003456643318032173,0.008080340109042433,-0.016351247056908318
428,0.005173859665450002,-0.004703611219703984,-0.0006020968381713422,0.0058638972750743035,-0.011353673644584499
429,0.0035703506523745592,-0.0022936611575109104,-0.001724254866817979,0.0038013363918213226,-0.005484804934132746
430,0.0011912053509691713,-0.002053801001314645,-0.004199905674601895,0.001186230174709574,-0.0009053885630767733
431,-0.0023711911914016605,-0.004913423934042399,-0.007911875701618675,-0.0029258141015661237,0.0018324724122076594
432,-0.0050778725669641854,-0.008149011001181759,-0.010775001076819887,-0.006795339281811364,0.0036864241183165963
433,-0.004775633563633511,-0.009444852136199416,-0.010795230141811099,-0.007911665524961115,0.005464836310069357
434,-0.0024095846620796803,-0.009621089285177131,-0.008653012155386962,-0.006597893772861157,0.006583310480400644
435,-0.0005490601110301319,-0.010360490716208506,-0.006576368572638217,-0.005060407243932947,0.006303914907417288
436,-0.0008360263908604503,-0.012301189931482798,-0.006007811717308019,-0.004644949259289846,0.004896496290887602
437,-0.0030474952508230675,-0.014480214841600923,-0.006451514583120813,-0.005076603485979479,0.004383577275019258
438,-0.005552567607159198,-0.014938320311090372,-0.006483349723467515,-0.005192658190304749,0.006069013299779593
439,-0.007382605291061483,-0.013606002218193143,-0.006062844457244262,-0.004677013856565275,0.007884777054557864
440,-0.008361523160876667,-0.011961056664047422,-0.0053907637878985604,-0.0037600868392319215,0.007875676513900476
441,-0.008846723742147894,-0.011025094636407683,-0.004135175755737406,-0.002816711772783184,0.00699770616371825
442,-0.008690519354692049,-0.010395678063119118,-0.002171050084439986,-0.0017661463163410101,0.008431731879994691
443,-0.0066893414230487815,-0.008388214257577254,0.0006310794004636016,0.000333110045533208,0.015103123264380054
444,-0.0029016673232568958,-0.00468542242651044,0.0035426614061344606,0.003185251365916449,0.024727195312518203
445,0.0009802039105164702,-0.0012970240980412027,0.004913142983480622,0.00492683280160757,0.03025116428205258
446,0.003506984619396878,0.00017895153801677778,0.004178322770972204,0.004375616258239829,0.02797401906670097
447,0.004910741252785947,0.0005327521794814014,0.0030135498715092757,0.0022446116483731166,0.020843963300782583
448,0.0064478162564950234,0.001072346782565093,0.003405968648924807,0.00033008328126275826,0.01295681351405664
449,0.008045545776326489,0.0012027056153846528,0.005159612503752718,-0.00019110245007527234,0.005969153426305246
450,0.009060999428147327,-0.0001128478121061348,0.007264335924712072,0.0009633959233880723,0.0008697226390568438
451,0.009327852529683607,-0.002355442030251461,0.00917236455946551,0.0028470903055717255,-0.0012306708305905862
452,0.008264498051710327,-0.004304671272725195,0.009998149259323961,0.003465005502660579,-0.00040610625268914217
453,0.006425100104506629,-0.005487336659937433,0.009583935485364722,0.0025106697958646937,0.0014490280969737756
454,0.005436567147975427,-0.006214386585816033,0.00899172374846802,0.0014763283532626583,0.002888985086067186
455,0.005404599760231885,-0.006999588892759164,0.008962269749947018,0.001318341751020836,0.004257761967041866
456,0.006172904416425797,-0.007846021132072199,0.00947307496254298,0.0024687124871067135,0.004842602421996059
457,0.007965892677930325,-0.008212756224903804,0.010117423276955091,0.004363396523392002,0.003169230999214581
458,0.009816357694664648,-0.007208918888250362,0.010619115538440003,0.005317965144340805,0.0010684883418874904
459,0.010654155835594906,-0.0039513679867468265,0.011041320497000627,0.004718166165282193,0.002224677715990721
460,0.010033642728045626,0.0004063804505154147,0.010568380665584248,0.0025341201167371845,0.006529042853310157
461,0.008060442432053021,0.00275563161446041,0.008108260213731077,-0.0014265955711184857,0.010100756382422953
462,0.005034141809044587,0.0009280584393234451,0.0037790715953076696,-0.006683057607730442,0.010655335415041364
463,0.0019186221587531725,-0.003914183603894884,-0.0008529785766356194,-0.011233314776510118,0.009875756399246415
464,0.0003793539732386801,-0.00853462946094189,-0.0038061514083727356,-0.012518635090913355,0.009612265705826703
465,1.32351274532881e-05,-0.01172625337964348,-0.0053127935365202255,-0.010868237728580076,0.00799438937144553
466,-0.0009310704288313657,-0.014725616854680096,-0.007236087459754643,-0.008757396811928497,0.0016502070401753924
467,-0.0016109666236484215,-0.01691697948574661,-0.009326742767722628,-0.006533165323103874,-0.007855970379323595
468,0.00034058679126712483,-0.0156071424327464,-0.009222443400944148,-0.002692956969258458,-0.013889059060754542
469,0.00433404160397655,-0.010999452297848,-0.006427666546125598,0.0022433367896586916,-0.013279632335993765
470,0.00794709638747012,-0.005827960855217047,-0.002714137838926238,0.006138070515160041,-0.008919317640383478
471,0.010477757197746112,-0.0018250128227644711,0.0009201538404576495,0.008406422162725915,-0.004284632579713825
472,0.011427396395447782,0.000246781658384012,0.003613704076227076,0.008762439819883895,-9.621443978747008e-05
473,0.010810308495153725,0.0011404372681420322,0.00444424525685507,0.007021992766756872,0.005070269457508629
474,0.010357034810904768,0.0022962576300132494,0.003978489130864395,0.004728702104414305,0.010822289491604145
475,0.010183655905929073,0.0031593945124136083,0.0023801117091093696,0.0025802842835022967,0.01461247212428499
476,0.008623178434253203,0.0018526491673198184,-0.001081980819898277,-0.000309155095201278,0.01500747787532101
477,0.005757848882228536,-0.002148530293878439,-0.0052031383805366625,-0.003249952406100235,0.011823779771931123
478,0.0034400633899323942,-0.00673473739859471,-0.007679598882484285,-0.004136036454086479,0.005956333522659635
479,0.0025507606120727653,-0.008791270937653884,-0.00836369393703103,-0.002927006676768974,0.0005591164250207855
480,0.002647877713850733,-0.0076863744491767125,-0.00828440391361203,-0.0010240124435301388,-0.0015933863224987241
481,0.0032128173706348837,-0.005527438286742091,-0.007906433857017297,0.0014080959725711226,-0.0015378426749254209
482,0.004247518204691228,-0.003232101252274279,-0.007386121373032758,0.004601863044106731,-0.0004376217043947796
483,0.005469736434002274,-0.0013116975403552292,-0.0071859130185385695,0.007513222169164705,0.0010036683741704573
484,0.0055186044328704754,-0.0013749667920824504,-0.008276624281570026,0.008235020938689268,0.0003441758064451814
485,0.0041204379099823735,-0.0029153976194685465,-0.010332036311414645,0.006662567160532897,-0.0033559774793757834
486,0.003038398785480084,-0.0033429056124323407,-0.011295887732020905,0.004896267955427359,-0.0075914007494970025
487,0.0034068558014849165,-0.0015963561904870248,-0.010182892477667136,0.00403648072976336,-0.009595687581561842
488,0.0046158896485573,0.0002480003899657043,-0.00821936966557827,0.0032933587838952926,-0.010310671932268848
489,0.00529557473269672,-0.0006166843037207511,-0.006800889511315829,0.0016542976524069552,-0.012398203219310764
490,0.00458949993169916,-0.004122477449421279,-0.005942810540916693,-0.0008013425452594872,-0.01477566559714786
491,0.003911927492824327,-0.006908640949997305,-0.004396993867216223,-0.0023522170845185425,-0.012932897715879212
492,0.004548137973671105,-0.006797892002742767,-0.0015832274424924762,-0.0019858597051078354,-0.005761232846205138
493,0.004589208764737821,-0.005132254995974844,0.0010275233623382996,-0.001576356468919233,0.002444742455778457
494,0.0028845294008270936,-0.0033638422445558163,0.002305718609371646,-0.0026954385913648205,0.00767028074906922
495,0.0009317608878620437,-0.0016848222550081566,0.002416679924406474,-0.004563552288299613,0.009323522087389345
496,-0.0006446017047087113,-0.0008446673822016477,0.0012640992505253846,-0.006056409095687386,0.007970831373492622
497,-0.002136414904645393,-0.0017093529767956434,-0.0010076693178992168,-0.006461196051636903,0.004218843513693031
498,-0.003411894328737339,-0.003928280646539432,-0.003818291400683773,-0.006063012292344318,-0.0009085773671446713
499,-0.004400146078979873,-0.006334159998292133,-0.006362238802961813,-0.005885731339849348,-0.0062539603412652325
500,-0.0046328979447197525,-0.007614160955512067,-0.00719918569778403,-0.005518745904507184,-0.009722955670909144
501,-0.004020589130630861,-0.00765546038433845,-0.006438533525460495,-0.004631202465264024,-0.010116147941550552
502,-0.0030621916449305757,-0.007799530992435509,-0.005560320456427002,-0.0035356842581201237,-0.01053993802909401
503,-0.0015332359323390178,-0.00912368796554309,-0.004511165751144948,-0.0011631523176276527,-0.014906179310283055
504,0.00020353490118788124,-0.01073093345533851,-0.003026791588222112,0.0019362994270774418,-0.019638273298496683
505,0.00040407310614044574,-0.011517310666478164,-0.002447113486009557,0.003007295335005164,-0.019574521695622817
506,-0.002271681667845119,-0.012365426497173817,-0.004284467351579367,0.0005658762375184863,-0.018170545404740703
507,-0.006696019064373984,-0.01361941764526941,-0.0078014164154563154,-0.00461876549626618,-0.02025504590007648
508,-0.009983323415388136,-0.014188905602435789,-0.01034386482748345,-0.009922218442541722,-0.024853456287354615
509,-0.011067192065974361,-0.013076910501252243,-0.011015954556459168,-0.01377811900901558,-0.027332615142895013
510,-0.010567656889571236,-0.010216491712604088,-0.010826593630460223,-0.016133407288102662,-0.024458364046362747
511,-0.00882256138187523,-0.00716025344613055,-0.01028642317091802,-0.016677512642038178,-0.0184659226953254
512,-0.006764144285507751,-0.006010963383817743,-0.009840776219079007,-0.016235168033815132,-0.014221677771051142
513,-0.0040339691245382305,-0.005869917255471075,-0.008591103157582401,-0.014527301010410758,-0.012448159522694027
514,0.0005105726808992275,-0.00405675650978668,-0.005140824018481505,-0.01040522407758095,-0.009873253613452428
515,0.0043013590348906765,-0.001625386305485395,-0.0017124317768308875,-0.006666304430347515,-0.0054603104916768055
516,0.004253192420748701,-0.0009580523904806444,-0.0011310363204309836,-0.006474607245547998,-0.0010797486419768596
517,0.0014469886749310093,-0.001487704660321095,-0.0031926217787524983,-0.008980348240475921,0.000916073543303308
518,-0.0012956214722682398,-0.0026429362014092515,-0.006242439915262316,-0.01153384301066516,-0.001770628255288196
519,-0.0019345199111313405,-0.0046842769998434695,-0.00786717837816765,-0.011785591007056593,-0.008161197143775358
520,0.00046251534509737514,-0.006649991950429526,-0.0063997879912574065,-0.009051487328472115,-0.013867329343734528
521,0.004672244754914208,-0.007930760164628315,-0.002706464463275188,-0.004714219957489009,-0.01651853298133331
522,0.008111127625162739,-0.008473303908576126,0.001269871200833594,-0.0007831190973672077,-0.016251642873916203
523,0.0088846691912369,-0.008867372968404272,0.0036885178817349608,0.0007354951193030583,-0.015910850458074218
524,0.00687930894432687,-0.009897272784692757,0.0033960465303848036,-0.0007659687093764696,-0.017747830467223124
525,0.004296584062898407,-0.010101794185703774,0.0013382389749395616,-0.002739516571155275,-0.018150535252846257
526,0.00322187783843347,-0.009358104239967129,-0.0008306029946190035,-0.002634943924095923,-0.01648768029072941
527,0.003281217898516079,-0.009645103874236994,-0.0024387166031512877,-0.0009682464882148066,-0.016671699038722475
528,0.0037376896087787065,-0.010187484496424407,-0.0030867520778910295,0.0011354049824006806,-0.018115623088777087
529,0.004272753081626415,-0.009348687695622856,-0.003259758449331159,0.0033600102781213195,-0.017929153836214344
530,0.003347430232014754,-0.008253133988467483,-0.004649089611305777,0.004572833319471099,-0.015794750830540293
531,0.0011860187075338929,-0.007745068115132046,-0.006655843121667402,0.005063674562801832,-0.013126822579012147
532,0.0005123395056609036,-0.0061542519225509015,-0.006727195243022962,0.006798826309851958,-0.00986157311573499
533,0.0015273194672956775,-0.002897621708494102,-0.005343568137330097,0.008724719921875844,-0.0049539771476869235
534,0.002077284496614702,-0.0003398035534606769,-0.004903439069455509,0.008589556366514449,-0.00042119850292705695
535,0.001449628247678586,-0.000535374895321414,-0.005771347567716084,0.006995130550755515,0.0007862558816775702
536,0.0003795432729989142,-0.002880455030313562,-0.006974162425328135,0.005438678925075267,-0.0009838048094841035
537,-0.001355870185841261,-0.005253582602072393,-0.008767894260490678,0.003187856012650251,-0.00361718032294757
538,-0.0042011908491364,-0.005823922269781862,-0.011489356155557117,-0.0004371352853256368,-0.005768574542997646
539,-0.006945533060145824,-0.004895564200623033,-0.013847548085900318,-0.0029736112105575724,-0.007966660017636651
540,-0.008040723440295475,-0.0038569548372388456,-0.01445530909493189,-0.0019016099054100521,-0.009642992704245656
541,-0.007197558183336537,-0.002692484237199779,-0.013289504431360084,0.002139622796616948,-0.008173230279937653
542,-0.0048337203880761,-0.0011878040410481386,-0.01086066392973071,0.00754067491805526,-0.005012535319945763
543,-0.002061057027706984,-0.0006614397853728195,-0.007955015901943809,0.012684922002576524,-0.004536437251169222
544,-0.000751074908204894,-0.0019396572500767937,-0.005956909150076687,0.015212661325339933,-0.006561491582569176
545,-0.001672169790390827,-0.003901542198713754,-0.00556890845942451,0.01410212302374587,-0.008606477099368692
546,-0.0032760408975415255,-0.005020150560259589,-0.005817378644885768,0.011042925549516995,-0.010782806092355091
547,-0.0034018633793054024,-0.004675086847149292,-0.004935013273392908,0.008984287664023843,-0.013486068130429954
548,-0.0025491174231914576,-0.0035868609996505024,-0.003276071762990027,0.008264711191332976,-0.01556163471876441
549,-0.0024507729662439897,-0.0023568483985997473,-0.0024618098957070564,0.007054038400336083,-0.01481821384923123
550,-0.002644257531159708,-0.0008124669669138226,-0.0024706807112893896,0.005314661445166445,-0.00954308947728383
551,-0.0017770533618903018,0.0006764662695460283,-0.002492956148686633,0.004030957941138839,-0.0006928660260052153
552,-9.650811651925971e-05,0.0010098858752956169,-0.0023253248596926596,0.0033336391970843005,0.008114120496178573
553,0.0012593396976336372,-0.00010990460676409688,-0.0021042489680512294,0.0027330046687964286,0.013670489454849683
554,0.0019845338392596172,-0.0017572157280488117,-0.0016401336213415182,0.001557529058623609,0.015479772567261522
555,0.0018737046294737885,-0.0039298771322047775,-0.0014421869485318137,-0.0004357628391544458,0.013525115888118881
556,0.0007284222843739824,-0.0068368383013995915,-0.002595057071903814,-0.002654027728896523,0.007556634104094109
557,-0.0005967760715134046,-0.009172256579456488,-0.0044173884344359225,-0.0041985658817458695,-0.0003023307382526448
558,-0.001066391429574851,-0.00901031347397872,-0.004876813551275712,-0.004637247215310615,-0.0039005270168555903
559,6.695179591912147e-06,-0.005935096823795246,-0.0033570008547293383,-0.004027063153581065,0.0002877802511234793
560,0.0031834321199822753,-0.001969893906080649,-0.0007887416064290095,-0.0021020354609646032,0.00711117054750063
561,0.007599238595320434,0.0014361231256951052,0.0019155796017066235,0.0008812007763984507,0.011569714589618205
562,0.010871982062701645,0.00463280179494014,0.0035964829420761643,0.003267295892700121,0.0135156536626954
563,0.01189947019773826,0.008207158758956654,0.0033939884329180973,0.004179411533777674,0.014333529405256364
564,0.011526763659389852,0.011647167654623203,0.0017832294116508086,0.004173068592533264,0.015178480290322916
565,0.010104656684542909,0.01220420387001797,-0.00013869608527299768,0.003431400463125114,0.013926661012609412
566,0.008000516833691823,0.009034921949012155,-0.0009929290771357054,0.001980317484721324,0.009105337140753282
567,0.006645768636600875,0.0062979543738671704,-0.00017363112819525605,0.0004062543157480936,0.0043238417905478175
568,0.006319298367557562,0.006707062009726634,0.001223080522952556,-0.0006749958104789953,0.00207565020110063
569,0.006148685254109705,0.008561647464992156,0.0018175097703312171,-0.001093039997822811,0.001962413010818704
570,0.005501403223083208,0.009593900566061478,0.0009511939480723771,-0.0016345313761913691,0.004329044763468369
571,0.0046776990521991595,0.009286216700948691,-0.000461678278069695,-0.0024688353445666065,0.008691036904323293
572,0.004861115625775492,0.008353427101917847,-0.00039571768883236324,-0.002392141044868658,0.012215189751175918
573,0.00577986271908617,0.006652817855111611,0.0007727428139707897,-0.0018320129944774568,0.011777083923720273
574,0.005754644603838437,0.004192578556536955,0.0008332925761414631,-0.002219125999863582,0.007691000770791388
575,0.004073832499635602,0.00173403506936729,-0.0008004382772164209,-0.0030481971429797824,0.0024371701299945726
576,0.0017022567510447083,-0.00016717873223068668,-0.0027214596152695526,-0.0023230657711854025,-0.0025863503299949574
577,5.945501188351922e-05,0.00020811111528817484,-0.0030150256287920564,0.0009408514466133721,-0.004619426462528995
578,-0.000778040351621454,0.003456274130445795,-0.0016648026280738789,0.005062505579322851,-0.0022361547857739513
579,-0.001053510811142061,0.0068734744059929746,-1.9385586264528956e-05,0.008137747128591184,0.0007562545121004507
580,-0.0004716940122263874,0.008163642497844417,0.00140167013788878,0.01013731295819614,0.0019221183179661244
581,0.0009803345462259055,0.008049212649541686,0.0027085068861942506,0.011724980013034226,0.004355189146022268
582,0.0030029465558254875,0.007890803619171797,0.004026509731090267,0.012878696525087188,0.009128106085102972
583,0.005354395035186054,0.007507897311522889,0.0057387321281719686,0.013482074293588563,0.012000394295832672
584,0.008346163736555742,0.007270149695876187,0.008557201872258483,0.01461431794811871,0.011628241027948051
585,0.01174277489224514,0.007987827223836811,0.012489387849116207,0.017287655148386257,0.011213578782935305
586,0.014530609748066567,0.008362586952294528,0.016310808243026644,0.021173005111213634,0.010876367105655553
587,0.016399094929422948,0.007893975973464066,0.018803814183472958,0.024909583761751335,0.009348669046516156
588,0.016897619188562037,0.009203213485873446,0.01940855715807979,0.026537536596797227,0.010301171046099379
589,0.015206028048564251,0.01312966474851292,0.017899093880292018,0.02483014254219434,0.015320479869158167
590,0.012043741018116717,0.016764614234400798,0.015007092086121762,0.020837862962308377,0.019271594394206545
591,0.009158379129995559,0.017994449932890677,0.012118575605560365,0.016850239226736882,0.01863887389874942
592,0.0071833770335153055,0.017513074481700995,0.00971718282304119,0.013613500394537183,0.015676861284098013
593,0.005906935915966162,0.016371465087530363,0.0076637655466792,0.010530801292851765,0.013051385460629485
594,0.005495824905398427,0.015069457064122969,0.0062665990489065545,0.00747868710474663,0.01121932626278822
595,0.0058499184146421305,0.014380476537838634,0.005909678100975141,0.004784663861776329,0.011229607139607075
596,0.00678099796885541,0.014799487815312774,0.006743233635485111,0.0034375066807743183,0.013897805866839752
597,0.008115984191068053,0.01578307327776898,0.008439192423792706,0.003611315347044122,0.018165659634602385
598,0.008882229085677531,0.01582237083943755,0.009976845991012336,0.0035154552660601073,0.02134385339250357
599,0.008668333618429572,0.013709346685812382,0.010665546703487424,0.0024081154505401926,0.020873555964076577
600,0.00788806823635038,0.009767791375443082,0.010521004624053183,0.0010736464971480848,0.017760751203610557
601,0.006819114792049561,0.005864470564832784,0.009398037092803827,-0.0001869868456774545,0.014856606742001937
602,0.0058384837034323525,0.004018594746024914,0.007318926349460629,-0.0011215183459235255,0.013303193139971522
603,0.004860278706797031,0.003951876027967964,0.004908250958331796,-0.0016545099891212371,0.01197546520421042
604,0.003122211587937755,0.004023781357817641,0.002596197902515533,-0.0027839317391595694,0.009184735727244858
605,0.0014010337782793434,0.0043418798363843965,0.0008972572553630372,-0.00403270156299427,0.0041740590514305325
606,0.00176408522020552,0.005943641377191476,0.000625614332676865,-0.0029868205927294418,-0.0016950543064445044
607,0.00360106217262088,0.008845558521997691,0.0015449286430943218,1.437570652459695e-05,-0.002879971191872995
608,0.004338932724933365,0.011343679880588571,0.0022488074830912274,0.0016736386794854792,0.002327898151145461
609,0.0035028538075790087,0.011279213248265144,0.0019979305192578682,0.0006552426586379943,0.007124106594797813
610,0.002778440103762838,0.009914363732692673,0.0016519288280501885,-0.0010432608335889308,0.008581346427985507
611,0.0026368061556578397,0.009553267442955676,0.0016524959642983611,-0.0019546627691815798,0.00974184573168727
612,0.0016211228285029071,0.008740933279021021,0.001325869262239547,-0.0025285914853087456,0.010414714371714578
613,-6.258789943907308e-05,0.006371143826828369,0.0009910475181158654,-0.0026640934017938675,0.00884863112468509
614,-0.0008688834259237331,0.004274093222274179,0.0011105444769869792,-0.002433809621116607,0.006003833570613061
615,-0.0005120053920921748,0.004334849028265702,0.0013852168646021595,-0.002766912429762602,0.004198290235389266
616,0.0005189148345311565,0.006865449734355405,0.0017562943687829875,-0.0037615206207575647,0.003929878780553921
617,0.0015016964912148785,0.010402514391420625,0.0023655651336190347,-0.004593687974370766,0.00371345967599391
618,0.0019379115018188123,0.013061670619862095,0.003516758003176126,-0.004524666574206262,0.0026123002198006184
619,0.0021016472704651753,0.013854005145873862,0.005670959366620022,-0.0033771547877148346,0.00016640347510023292
620,0.002979525666512667,0.013878992093335903,0.008889016246474292,-0.0008965457787347185,-0.003022705786412597
621,0.004641132351359131,0.014366686225285408,0.011769733102931224,0.002652748452162385,-0.0062369467192824974
622,0.005648153257719327,0.014544470844832506,0.012510634043610535,0.005527246334582472,-0.009412696539933098
623,0.004390857933154845,0.013316407485925212,0.010554495617033597,0.005582440210313489,-0.011230750836647256
624,0.0003245653001423451,0.010108991363885865,0.006532855797442753,0.002277990705092467,-0.010729628053571165
625,-0.00424141693587162,0.006146786699955184,0.00297786476307037,-0.0013678784133325816,-0.00842137030291847
626,-0.005257539416122725,0.00426610679282128,0.003189746906917319,-0.0006416232355885109,-0.00482101575265688
627,-0.0021074795082668754,0.005515609787322802,0.006815786865418211,0.004656783489560967,-5.854817398837365e-05
628,0.0017937341164539111,0.008335008136915891,0.010471649830755185,0.010221601540837113,0.004831304821450807
629,0.003990342604380631,0.011052397980511174,0.012664642110562974,0.013268402469707237,0.008579662976891625
630,0.004199390258097183,0.013459110249544975,0.013744964416503412,0.013707174050675099,0.01107286986097837
631,0.0019202556945823548,0.015419446764329553,0.013049494717770798,0.011410597152176825,0.010737203687890213
632,-0.0027678356788867504,0.01644893080639374,0.009765883073725995,0.006488629433611568,0.00597470908923962
633,-0.007467715193285465,0.01751221324185894,0.005963712199907772,0.0014268559696405266,0.0015419219365858303
634,-0.009688779124628705,0.01830246042047487,0.004736879015975025,-0.0007959413817763315,0.0018410197713944292
635,-0.010163071801540776,0.015722788014536346,0.004932701542261551,-0.001211519437225148,0.0033016644962360537
636,-0.01104608214930156,0.010416175234421137,0.0031849191296339503,-0.003192724451198276,0.0046800253834425026
637,-0.011869752221863485,0.0064956606790722085,4.8508788493760576e-05,-0.00620111013667945,0.008772310167601254
638,-0.011482725735428112,0.004938473177263207,-0.0017869755634715662,-0.007365977686622114,0.0143704091480823
639,-0.010453502105831878,0.004659434606277421,-0.0018279418966022046,-0.00649669828252702,0.01817634061697751
640,-0.0090040318893197,0.0055161818440656535,-0.0006313514640204322,-0.004846111973267463,0.018694772757594933
641,-0.006783545094791757,0.007119269932793824,0.0014509405849109452,-0.003064958740818842,0.015979047264242156
642,-0.004740457404208185,0.007934024146101065,0.0034972726684740327,-0.0018806176045143802,0.01081983952126455
643,-0.004709333266851967,0.006377839613795925,0.004251752955235267,-0.0022835948847260076,0.004654901106250433
644,-0.006909055440179374,0.002545784217358835,0.003392925834509326,-0.004261937269099405,-0.0011664212460849473
645,-0.010022818147890859,-0.0021539804661803576,0.0015867401893433985,-0.006654864050208522,-0.00601641281642129
646,-0.012964251819665656,-0.0070177317263279,-0.0004499713549977689,-0.008189721948560621,-0.00983354245220111
647,-0.013704268639701374,-0.010858580226283603,-0.0011333809780989868,-0.006973860522089038,-0.011643264574895397
648,-0.011242285937798897,-0.011960250965934921,0.00042678066014886106,-0.002667128336306352,-0.009503250659800625
649,-0.007344893676953224,-0.01002967314915143,0.003089476165896923,0.0025152862211633435,-0.0028605405946287754
650,-0.0040054909883424274,-0.006495492555144938,0.0056002564574719055,0.006450890237398112,0.005462061171493137
651,-0.002829381372254774,-0.0037208395831107395,0.00703412289778461,0.007539858348744064,0.010552222314461172
652,-0.003580038694575144,-0.0021268718862485617,0.0074641860238212595,0.0061465652535770705,0.01080463664964757
653,-0.004874986291758935,-0.0009619732578124842,0.006976593348639225,0.0036172161828503936,0.00884451405157616
654,-0.006447818850925455,-0.0007211618957089326,0.00498800312249942,0.00026137565127290637,0.007442374610065186
655,-0.007708642204609498,-0.0003752569926493916,0.0029081790250462957,-0.0026654097631630845,0.009344787155882295
656,-0.007972402891910865,0.0021113905615626396,0.002691497325712637,-0.00397962679632247,0.01454402483933591
657,-0.007443248156248323,0.006123336730376446,0.0039277277294384036,-0.004330688301164283,0.017828187570890885
658,-0.006400332085163337,0.009264455964753353,0.005255338637724932,-0.00466699968218197,0.016301735887244942
659,-0.005055971456416896,0.009635291140707634,0.006063975537079259,-0.0049943451342776895,0.012741902306705993
660,-0.0036973767352026826,0.00675759913315974,0.006371875316010164,-0.004854213520503375,0.00965437505453805
661,-0.0022087746281321944,0.0015617132350623888,0.006236975226953909,-0.004114700067393678,0.005417439279791674
662,-0.0007809124374837452,-0.0037427397819578905,0.005484233918379815,-0.003450164657911208,-0.000833118024035022
663,-0.0006749372183124457,-0.007302143853255257,0.004207997774721253,-0.0039856263629226675,-0.005405803951528303
664,-0.0022765793318616093,-0.008971088782631902,0.002890617884916992,-0.0056156748225410225,-0.005931025382187766
665,-0.004557270576947889,-0.009204061453072697,0.0017659788981755707,-0.006967642508693173,-0.004465221783505659
666,-0.0067655763935702525,-0.009381523745304071,0.0006301048579078659,-0.007015006611611948,-0.0048407585642991175
667,-0.008499460906276516,-0.010754496351471014,-0.000985893497509271,-0.005903061101456199,-0.008507862350912032
668,-0.009274638468117966,-0.012495519952001339,-0.0029136311897093783,-0.004396723940005764,-0.013331275851576493
669,-0.008855364537507555,-0.012964439008879615,-0.003576731140890987,-0.0026448480663889174,-0.016762377935023408
670,-0.007751414549262002,-0.012183575908588696,-0.0018057371782710656,-0.0003058015883315437,-0.018539431431532735
671,-0.006797412957748991,-0.01133040602711667,0.0009762409185284065,0.0019502592679476946,-0.01936955214148168
672,-0.0058189082946901996,-0.010172580805784261,0.002881569232687883,0.00318450584915009,-0.017899677155515898
673,-0.0043922299440884455,-0.007998518770953592,0.003820727195210135,0.0034658023883983023,-0.01328914043780678
674,-0.003484984917261832,-0.005753993629606095,0.0036877992401485125,0.002658553817981691,-0.007965423727250226
675,-0.004073060592874436,-0.004735312210468589,0.002170565559001172,0.0008384477005240404,-0.0040126300846606115
676,-0.0051541630249083824,-0.003925495576432025,0.000512377216264329,-0.00046424084459903203,-0.0005312211801744125
677,-0.005451066232782685,-0.001976632883968622,-0.0002511857987322932,-0.0005057842509668654,0.002327687029415388
678,-0.005266553449781961,0.0006429772396095536,-0.000679439452743746,-0.0007183760651140488,0.002798290553816219
679,-0.004703516258827569,0.0033165166949845207,-0.001034684172895451,-0.0017413821484383838,0.0009128035654211962
680,-0.0031402660799310284,0.005431038595051138,-0.0010349666425573008,-0.002260927185237418,-0.0027303763579531147
681,-9.551165244288822e-05,0.006902908519642223,-0.0003315465333579664,-0.0009593207027852361,-0.005715798870570405
682,0.004292786118668181,0.008439500572243984,0.0010484188670009575,0.002278645500732115,-0.003995657607744029
683,0.007442815527546721,0.009353855013459651,0.0011790164935268875,0.004997959583749281,0.0009970428466403742
684,0.006767193154972479,0.009247994921411179,-0.0015581705392734588,0.004379799942150927,0.0038429467688163533
685,0.00243989775758597,0.008823643425501333,-0.006905775791773845,-3.314043061017479e-05,0.0019875084275909074
686,-0.004030326864772086,0.007853099991610733,-0.013779517555335083,-0.007302553964730012,-0.002635225352742332
687,-0.009235297974942333,0.006834979224133611,-0.018850945219920784,-0.01383993643547399,-0.005564155389533535
688,-0.010394734446121255,0.00662240361241483,-0.019322397772580276,-0.015915684998082456,-0.005595311786092846
689,-0.008161589996728228,0.0071905173138407325,-0.016372237015521863,-0.013894524617990487,-0.004340041253555383
690,-0.004575382541703656,0.007725021404394904,-0.012643789563097146,-0.010554522279785462,-0.0017799108650185336
691,-0.0018499707591220554,0.006767104436412873,-0.01008749665049264,-0.008203268987223651,0.002116512928955983
692,-0.000849230957877246,0.004410204685086593,-0.009444933487397646,-0.0069194012983187485,0.005338852845862837
693,-0.0003631372460429709,0.002836201427042122,-0.00974584105067818,-0.005613743689977366,0.006270485766896708
694,0.0003191134051731769,0.003275192024975891,-0.009892488322691875,-0.004611011511327986,0.005292068102556483
695,0.00037486185480005424,0.003769745452261146,-0.010280978233486686,-0.005202774867933895,0.0022397898970281955
696,-0.0005245737883037993,0.0022416530033357016,-0.011001539428173725,-0.007209675566456906,-0.0019052790130340285
697,-0.001741344625019347,-0.0008359484186853262,-0.011332732426884005,-0.009288112628617833,-0.005087929699301886
698,-0.0020351403268005514,-0.0036094158619384394,-0.01085374121379194,-0.010057265250636866,-0.00843507425658854
699,-0.0011538121899251524,-0.004549604634112419,-0.00966246663198506,-0.009351232023870056,-0.012008854907871975
700,-0.0005773625021332445,-0.003982606440953546,-0.008532537124626845,-0.008700158580325221,-0.013683199244168906
701,-0.0010012664734442094,-0.0033156097008376893,-0.00852455327151698,-0.009374832366387677,-0.01428942448023329
702,-0.0016435603240092054,-0.0026549479077839803,-0.009996684213050083,-0.011377567858339457,-0.014476539507106622
703,-0.0013224839480353145,-0.001117027710501997,-0.011514269591531793,-0.013026215502570767,-0.01266227562247538
704,-0.00047900667467702836,0.0009413805764844224,-0.012187095555037475,-0.013522940298149275,-0.00850314322010251
705,-0.0005386002891739625,0.0018563793985130193,-0.01279895399824542,-0.013943986027804792,-0.0038374541034412427
706,-0.0007076747089881853,0.0006677046456937617,-0.01296178713225984,-0.013715321298065635,-0.0014461129802314195
707,0.0002449174153298463,-0.0021964023523533068,-0.01229101284806901,-0.012199800868573554,-0.002910197423070885
708,0.0009363198627356731,-0.006137805631864061,-0.012102167204365105,-0.011087338450947715,-0.007528575238011106
709,0.0010784612686507383,-0.009387306318055039,-0.012288565401975133,-0.0103733380199738,-0.012551285053341856
710,0.002570973342507165,-0.009160438105474115,-0.011492938945991488,-0.008182416802661322,-0.01544786651279788
711,0.0045501203138218465,-0.005083103701521189,-0.01042057845162156,-0.005340793180075147,-0.016099262413000606
712,0.004250085858448841,-4.229870652221283e-05,-0.01045264462155485,-0.004077579127402083,-0.015993349247573133
713,0.0013358011472207017,0.0025154952804660744,-0.010966725258661499,-0.00395891782351642,-0.016638727223654302
714,-0.0016101749950713118,0.0028044977453046873,-0.010148169964922035,-0.002785347411273284,-0.017571082729049312
715,-0.002909283047818067,0.0032094976578591413,-0.00793547880824318,-0.0005126346948409251,-0.01769653732622742
716,-0.002839888335356591,0.004915698766493358,-0.005327392738532043,0.0015879948162260014,-0.01692641503049543
717,-0.001543118544099182,0.00873741141622882,-0.002434141146701319,0.003062517382743006,-0.015313760996152377
718,3.790467904741261e-05,0.01410896873184879,0.00015160846514851605,0.0032403846540168487,-0.014334103770824967
719,0.000804750511450898,0.019168405254498297,0.0017361431438456898,0.0020264789406969222,-0.015439554645777854
720,0.0007034454829380249,0.022770127449251013,0.0022533605578204034,0.00015806604368021813,-0.0168684485543569
721,-0.00022011718556227868,0.024931918274730094,0.0017606100947020768,-0.0024141171901666527,-0.014982438303570307
722,-0.0013428067756658566,0.02630007304237201,0.0008212021772234956,-0.0056851207568691465,-0.009620824516886547
723,-0.002480960833818072,0.026388642821317927,-0.0007004700608973494,-0.009296616790905625,-0.005731492382653495
724,-0.004294496280661982,0.024404148519740026,-0.003095512899701773,-0.012646065763930956,-0.006336128401655158
725,-0.005334470631561167,0.021889013354855796,-0.0043815151666622915,-0.013591686543148705,-0.008570009556275883
726,-0.003627393012206729,0.020964363910092505,-0.003103162576367477,-0.010637986566859029,-0.009200334502072832
727,-0.0003127848015792737,0.021217661851293562,-0.0007819592935770957,-0.005210446482342505,-0.00862977069892867
728,0.001691676166971153,0.020605062371139626,0.000285142962247142,-0.0006427391520203705,-0.008326339380375322
729,0.002011264643856433,0.018432683923153035,0.00010754440229720126,0.0019185912848213387,-0.008881529753561272
730,0.0023306564352250513,0.015958492201248245,0.00019100403976903704,0.003865849551532457,-0.009863405213982135
731,0.002828609637188208,0.014731224862525307,0.0007981529402288852,0.005231950644685781,-0.009671861846681793
732,0.0031977760102263556,0.01509590936957733,0.001979714181459896,0.005872538787852375,-0.007772163476731119
733,0.003464434695072194,0.016415262582795163,0.003576482962266327,0.006139220030860214,-0.006066977261156332
734,0.0030290382250841657,0.017001417367012255,0.004029738499633164,0.00552216611570976,-0.007841243884353363
735,0.0015171287845640849,0.014933743023259718,0.0020867588784987414,0.003656318179310251,-0.013575268842746457
736,0.0005851457892505023,0.011201618464481707,-0.0004147759066231896,0.0020926542561276154,-0.018996392823855436
737,0.0013602155887526878,0.007688786601753546,-0.0012605043816391556,0.001870989421878979,-0.021580601164945326
738,0.0029058521239016147,0.005164838470481489,-0.0009022198001418531,0.002143500585161259,-0.02258960199432169
739,0.00446958446049714,0.003943922322600676,-0.0004193969958035966,0.002433763943987304,-0.02329392855416977
740,0.004696470365794185,0.0032603870700345676,-0.0010636452575831224,0.0013976577734001587,-0.023032921633598023
741,0.0033412818940816258,0.0035104447573344427,-0.0026453414458250373,-0.0012003296282205793,-0.018402189736960242
742,0.0025543545987622303,0.00595572639725182,-0.0027168996748709088,-0.002486352691515963,-0.007944484382257276
743,0.002597379110397399,0.009663962286628629,-0.0010032865383686588,-0.0021190359368368997,0.004764973496358073
744,0.0017592814408125363,0.01284139192116079,0.0004845340229274146,-0.0027641621065059596,0.015152281656793403
745,6.71319659214847e-05,0.014886900942384774,0.0013828427783568256,-0.004648522547357143,0.02010272299507551
746,-0.00138424058670874,0.016014154234557168,0.0023889709889753034,-0.005995001534464245,0.019489523170556668
747,-0.0025775315961685838,0.016210404762319393,0.002978297459862606,-0.006232678501843001,0.01473102239113378
748,-0.0033229913095915173,0.01526129748690618,0.0026717840363988023,-0.0053535050351124335,0.005817067207170012
749,-0.0027828412439421246,0.013951435436523683,0.0025086707535250516,-0.003184879819520523,-0.004704357036209933
750,-0.001464774347742306,0.013341732063864799,0.0033607379714171476,-0.0007498809715047638,-0.010656386962510945
751,-0.00020582712394879636,0.013115861986820057,0.005003061698675198,0.0010825946535234028,-0.010255508487529388
752,0.0008583006280540646,0.012057176379887858,0.006566366280773866,0.002062549907125514,-0.008098240630463797
753,0.0013765196238963088,0.00952471328396136,0.007489761224622184,0.0018724592446878504,-0.007452717330002068
754,0.0009621242909710835,0.005531517180366387,0.007570578132925037,0.0008675029988826241,-0.008128709408790574
755,-0.000204283664923074,0.0010665377770159065,0.0068515443510680975,-0.0003764956676878536,-0.008850365340445105
756,-0.000915249501798708,-0.0008229659966818718,0.0065640026063106425,-0.0009348937688360565,-0.007173642051842984
757,-0.0008097171905254981,0.0010709055677705296,0.007145843064073536,-0.0007880042823687898,-0.002112884293516133
758,-0.0006557458863790676,0.0035647457054255533,0.007687955225518604,-0.0009983626929323264,0.003621438764512036
759,-0.00022963161429396858,0.0036635761103519485,0.008074253070914007,-0.0014050018692608498,0.005852196609836825
760,0.0008524919870019735,0.0009909488525971246,0.008725224912127452,-0.0012918529637393403,0.0024750308585589484
761,0.0025518031269326346,-0.0024536036620987243,0.009954522673494538,-0.0006285176085563101,-0.003928600283518381
762,0.0037380886922476933,-0.004638074893159865,0.01067282466588083,-0.0009244383322509079,-0.00846616059122956
763,0.002694781794706972,-0.0061620880342022006,0.009192747886413971,-0.0035309464001040502,-0.008490877967455072
764,0.00044338312670589273,-0.0077287653519433385,0.0066580657490231555,-0.006683319618045844,-0.004149924402103666
765,-0.0008309958467622214,-0.009216138226242884,0.005214457602425924,-0.008170316746812057,0.0015588867402577423
766,-0.001151902163123719,-0.01117389521534206,0.004892102921503217,-0.008286583918676774,0.00454976978913268
767,-0.0017544975070912729,-0.013872409969703804,0.004618206945776988,-0.008298574971293481,0.0037888255326606066
768,-0.002465021958633187,-0.01645484373745572,0.004195348427615784,-0.007571618513588447,0.0010579299910962571
769,-0.002844010148341867,-0.018098232666530236,0.003406707889760337,-0.005410833050258271,-0.0012404115753158614
770,-0.0033949607633504512,-0.018577900947631867,0.0017553772244152184,-0.00307846219233607,-0.0011039525902598432
771,-0.003315593463913363,-0.01776284602670194,0.0005097607751005844,-0.0009010392432634575,0.0014025366300901606
772,-0.0023078072518584415,-0.016627925122494766,0.0003226727787335522,0.001054747467467622,0.003958268486576375
773,-0.0012981674467111776,-0.015757828931904375,0.00029534889490647614,0.002234148946593437,0.005647454042055915
774,-0.0008211352840194066,-0.014399172198062304,-0.0004807268027847915,0.0020246589871634802,0.007384144382966216
775,-0.0009555908312397146,-0.012565620796826162,-0.002303229673138958,0.00010283333916377856,0.008345020338038217
776,-0.001055251423897666,-0.010635890070497384,-0.004007534705241898,-0.0024512126318186776,0.006908480654282412
777,-0.0013892694895310533,-0.009162136381721602,-0.005242406488252081,-0.005277740650837721,0.003070221741588834
778,-0.0025436407952805326,-0.008587422713103835,-0.006211458475827112,-0.008159697490343627,-0.0013288793338813731
779,-0.0031934408024832752,-0.007317373364702486,-0.005639644136793633,-0.009423170515728772,-0.0021063142117750903
780,-0.002409449913624475,-0.004414580964090951,-0.003331188887760312,-0.008636926082380442,0.0027179350262467
781,-0.001795184878456355,-0.002286787119344907,-0.0013738879700205622,-0.007651827564850986,0.008481007331594119
782,-0.0027129479862059145,-0.002555471447364246,-0.001308879077293888,-0.007941767686316357,0.01018972984827415
783,-0.004163471921395928,-0.004188391717503705,-0.002286908641735008,-0.009034614663012435,0.0079577117589194
784,-0.0047076065733224984,-0.0058044521562766885,-0.0027960139056359633,-0.010160683663215164,0.00459051210301998
785,-0.005131010804614304,-0.0075253263916533805,-0.0031096300363758463,-0.012288624021764314,0.0014335788258158892
786,-0.00670841583525378,-0.010105911598031318,-0.003646249346462844,-0.01584203072523344,-0.0008908259354643335
787,-0.00801433204054559,-0.011856363497050533,-0.0028623519305908283,-0.018340293271319013,0.0004642857694701455
788,-0.007308852449430633,-0.010849663804986222,3.391360236105758e-05,-0.017690621668187353,0.005185599506544329
789,-0.005809595702712119,-0.008886477894439644,0.002841709948503242,-0.01547222976642333,0.006869027250307446
790,-0.005590422532590211,-0.008443749950824937,0.003630168421952271,-0.014501090640302264,0.0031712151834527545
791,-0.006336055055576294,-0.008951402907979161,0.0036056166889242894,-0.014403928498536282,0.00010992289207711576
792,-0.006503734046266126,-0.008966094695140573,0.004612893073585191,-0.0126078858253468,0.002857892265967464
793,-0.004951574991772891,-0.007671245488900888,0.00751135655579995,-0.007644737365532156,0.01060175317257178
794,-0.0014940377462410567,-0.004517080138861266,0.012365047566032565,-1.952002261311481e-05,0.0199079601470232
795,0.0016290338781084163,-0.0009176342186511742,0.017193729291176293,0.007554950336855806,0.02764596249771063
796,0.0027852192552925955,0.0009733713043516241,0.02027944790464782,0.013025015264053377,0.03182488122519801
797,0.003020935321218682,0.0004975983415320051,0.021609759272750773,0.016414220612850798,0.03191874735532855
798,0.0033520666418188827,-0.0026013936782174384,0.021319752016955584,0.017781173631508863,0.02755377762554747
799,0.004471437457989868,-0.006728980368838571,0.02060889361148533,0.0176578205711755,0.02071439081776906
800,0.00530449085084797,-0.009190403248268555,0.019471376780959265,0.015443278459326307,0.015472371704054695
801,0.0038385999512852193,-0.010187086865518544,0.016064579419081283,0.010206118273900342,0.012010404585556491
802,0.0008509433879439913,-0.011288847159311884,0.010966242523781098,0.004366115910240434,0.009039749444277451
803,-0.0013425058138102047,-0.012715587404728328,0.0068209890434226495,0.0011251057255988238,0.007436406534750907
804,-0.0007254568582339675,-0.013093078889177823,0.005865710157356077,0.0018672126630478387,0.008685874740623935
805,0.0021474761988768487,-0.011967930467656698,0.007644266618493235,0.005072689381426008,0.012238780334293485
806,0.004969445055563988,-0.010408317698140152,0.009978667278619752,0.008282225506968971,0.01528753278596738
807,0.008055719913076222,-0.008183782552511698,0.013216979432628685,0.012738311960700247,0.01685863066330169
808,0.011482121935702269,-0.005127995828218025,0.017425290441514793,0.019140563700465404,0.017419451653437085
809,0.012220465350229557,-0.0018959241453988247,0.019722123990727473,0.023700399340766093,0.01868722154011394
810,0.008815514478506974,0.0007334864826232787,0.018588522269874858,0.02387794723301963,0.022076007734447026
811,0.003987164494454886,0.0017057429666498503,0.015355811435078194,0.021206309111575516,0.024858686791850562
812,0.0010223908424438098,0.0007156452524482601,0.0117953676580199,0.018292893254720815,0.024163609071208927
813,0.000436361066072498,-0.0024151425724322022,0.008980136746926345,0.016415009679383304,0.019762920782259556
814,0.0006679922580172371,-0.007462057636725326,0.007071414829194294,0.015111230008588768,0.012996603290835445
815,0.0005212516630264683,-0.013005839879243484,0.005564951739888643,0.013608724997544999,0.005956329070685391
816,0.0004231110177794233,-0.017058455962860604,0.004691492769908848,0.012180520967307555,0.001017500981719461
817,0.0008569001629778535,-0.01848575614690357,0.004857583955203908,0.011471579887431176,0.0001813878903732822
818,0.00038108846494032693,-0.01870414541131801,0.0046918009729258235,0.01038649737693242,0.003106990941650886
819,-0.002115840971846329,-0.019767617549504644,0.0028979982948147635,0.007832107823034277,0.00752457034102397
820,-0.004575697738061395,-0.021144997215655208,0.0011141124466776155,0.006474479692834429,0.011765151927021144
821,-0.004357965171527492,-0.02086648369354333,0.001790264129605852,0.009185772760977097,0.01604400097309587
822,-0.0022838837700734937,-0.019305451983934987,0.004133466574096149,0.013451565022818605,0.02040674904081273
823,-0.0008813807847221204,-0.018802239460406007,0.005688307775174521,0.015012964709897587,0.02274369131719175
824,-0.00019844090212285513,-0.019678118775371206,0.006139388643779169,0.01365121498714653,0.021470906914517453
825,0.0005084978956360776,-0.020953759207465505,0.005872871542769103,0.010824531836464472,0.01681672082069478
826,0.0007991209073127964,-0.022299572592758263,0.0051783403341719055,0.007323248948138046,0.010413240720194509
827,0.0004133611855510188,-0.023179488875044816,0.004814567901460891,0.0037516518891046124,0.005278931949693468
828,-0.0009332730345405607,-0.023751913837022062,0.004451114528920528,0.0003267297707412873,0.001967812857245815
829,-0.00255950942212095,-0.02440830532848208,0.0041641893512432155,-0.0011431858211751488,-0.0012681369751884105
830,-0.003040883443436073,-0.024693420222833783,0.004471730482201068,0.0007981717084726563,-0.004179346319756136
831,-0.0026086260111573543,-0.02417543792048847,0.0042929529248817,0.003611324996011572,-0.005531926373430685
832,-0.0026750777986649953,-0.023267975453333478,0.002697677841884624,0.0040657423747002056,-0.005627017530614463
833,-0.0037650266899144718,-0.022517286711533722,0.0006192841693066653,0.0024853692695137857,-0.003918341206193668
834,-0.004232241429318653,-0.02121592918437474,0.00012267335102360933,0.0021362208552516927,0.0012446514809844344
835,-0.0029080189136763764,-0.019402225981445767,0.0013466631272899027,0.004481093768953103,0.00710867699971079
836,-0.000559591804867192,-0.017828848594717638,0.002710121803523189,0.007933433220769564,0.00956242048075643
837,0.001517338298793023,-0.016597812788999442,0.003323087956947576,0.00995630287509034,0.009116897203755666
838,0.001821595056361747,-0.01671392092892361,0.002466466614309255,0.008652841197224698,0.007578298043811743
839,0.00013218910400983975,-0.019179119690822744,6.855817270755589e-05,0.00500222562562168,0.00553507441260626
840,-0.002108723732301049,-0.023173450121039864,-0.002671064176918701,0.001447525962292153,0.0035369395535111187
841,-0.0031808054856328613,-0.027226604866493302,-0.004017408305380429,-4.671105910091637e-05,0.0014631719980375704
842,-0.0029345826073400734,-0.031122866542496776,-0.0038679869273465766,0.0007130903749481036,-0.0022586998119696563
843,-0.001507316398893158,-0.03431644560607876,-0.0028539446613248527,0.0027933700939157657,-0.008425094995223781
844,0.0014044777309999649,-0.035562162524212126,-0.0008620409242521773,0.0058053068377040655,-0.015744587005068037
845,0.003914296148486918,-0.03450639259825804,0.0006698994131520268,0.00787448597368191,-0.021020421898299686
846,0.004571048824663928,-0.031401503833982713,0.0005805075101955778,0.007756563742403603,-0.022077229792836495
847,0.004369587100742304,-0.027807891621441684,-0.00042015664571928623,0.006987863725078118,-0.020810030853794268
848,0.0037394074174196407,-0.025680846750743745,-0.001897024306800569,0.006387579777844012,-0.01900888778357556
849,0.001955679978989189,-0.025799339720725015,-0.0039647704630641515,0.005310981519894414,-0.016911859645221596
850,-0.0007126352103295635,-0.028018921381945085,-0.006379896101168893,0.003931946729891525,-0.01623543052425704
851,-0.0025434340339881715,-0.030325264505452497,-0.008031742022423268,0.0034520183498440685,-0.016239905411854206
852,-0.0026518618966376462,-0.02983088010116599,-0.008020264102802007,0.004090555652641082,-0.01181199749549826
853,-0.002495686799262663,-0.027405958730537833,-0.00762479345139067,0.004139991773550988,-0.003640979304811302
854,-0.0037410040134536185,-0.025999952136326353,-0.008902130972962233,0.0019380730570812395,0.0016355952835214046
855,-0.004865302881802606,-0.024661143069580404,-0.010722811015037663,-0.0008737341775796961,0.003660737422174528
856,-0.003944779310868409,-0.0213351336511435,-0.011041228081825933,-0.0019299757373588797,0.005330818026088151
857,-0.0020151008262376236,-0.01702953738399519,-0.010348348571504384,-0.001798934497697228,0.005670337063738177
858,-0.00032316888280943334,-0.013845205137916754,-0.009486699026625087,-0.001325553710660315,0.0035198789972893997
859,0.0008904898242903567,-0.012823633203643095,-0.008765641351825684,-0.0004462739655436491,-3.6960238409741485e-05
860,0.0018552934308468225,-0.013433400358146386,-0.008242500447842988,0.0007771095779159407,-0.0025590859145779316
861,0.001939448354320072,-0.015230168395400544,-0.008579894603181598,0.0011429813729002664,-0.00317177682928012
862,-0.00024035750357528088,-0.01852324086680644,-0.01061315198930692,-0.0003626377257210619,-0.00417610198490858
863,-0.003991714588426857,-0.021882369706012237,-0.013436840443165773,-0.0028023361711844445,-0.006951600447707641
864,-0.006812756249938037,-0.02200680009696129,-0.015400606946109978,-0.004921955372043594,-0.009207953085627394
865,-0.007275018928407023,-0.018031590572825655,-0.01560048257515766,-0.00592159661193738,-0.009414627472284502
866,-0.006185011804399643,-0.012346413195072225,-0.014361080352543838,-0.0058425917506102504,-0.009485368641091986
867,-0.005412814864315124,-0.006875395771627787,-0.013381794262087512,-0.005971551703399496,-0.011194478664631313
868,-0.00519840204523772,-0.0012185732443291478,-0.013189928166800218,-0.006436797034731116,-0.013244902012057495
869,-0.004354842316808241,0.006039210262783894,-0.012365082916764728,-0.0061278674745435975,-0.0127313181787546
870,-0.0036091432807849534,0.013713550521951638,-0.010887621425311094,-0.005689353330550538,-0.010120434205746225
871,-0.0037780337884976175,0.019340883711884638,-0.009024616878566993,-0.005532328077599686,-0.0076818160364567276
872,-0.0041087005500749655,0.022666437425638754,-0.006559114385684261,-0.004783677727702037,-0.005411175168758078
873,-0.004308431063113303,0.024449372331200935,-0.004701605369247649,-0.0036754447523872844,-0.003101627033038476
874,-0.004658342069154951,0.025393430142795062,-0.00458534392959644,-0.003113336090596279,-0.0007950849986656891
875,-0.005087360395755058,0.025919230841382018,-0.0056282386774752224,-0.0030961588447554955,0.0008797924670874917
876,-0.005022896092135007,0.025834049906141816,-0.006392185469198999,-0.0027687319771317535,7.0190499819104494e-06
877,-0.004003586094000087,0.02568063231224538,-0.006233358900259939,-0.0017903200138306566,-0.0033037870827178225
878,-0.001845544849452406,0.02678225178170823,-0.005168740740448058,-0.00015980936330428028,-0.006614909708925433
879,0.0007187166713591941,0.02904401278631759,-0.0037639279256472817,0.0017143498226942049,-0.008831645623995906
880,0.0027796202958607712,0.031077733456351432,-0.0028354312208986048,0.003152143418078258,-0.010775136475239417
881,0.00459256520993128,0.03209049267529624,-0.002143818876848024,0.004593363927307827,-0.012601496023966059
882,0.0063302515189551465,0.03273415645741762,-0.001110376509027529,0.006560463413377777,-0.011972362919664832
883,0.007127409818850613,0.033734210349642066,-0.0005013953578829027,0.0078064182061619875,-0.007034472164320523
884,0.006385823996578211,0.03456818289788889,-0.0016346176563968614,0.006734922136537817,-0.0005248854390231594
885,0.004666115203043268,0.03350382987466149,-0.004388639210029963,0.0036284742225203503,0.0025144307230640516
886,0.0027094588507535077,0.029243991508878357,-0.007278933693608453,-0.00013648312900536185,0.0009249342470178415
887,0.001303945455649544,0.02337933107098841,-0.008728640527617395,-0.0030007007470218535,-0.0017777334930054035
888,0.0011803049592142576,0.018416998793371386,-0.008537853843962375,-0.004233603158520898,-0.003725992786233004
889,0.002076456837491107,0.01504832329088944,-0.007681156143678514,-0.004575121765675604,-0.006898280387891007
890,0.0032803038147515002,0.012757801531803102,-0.006498311852751452,-0.0041199218100317235,-0.012903034644878431
891,0.0041519479030123745,0.011680826605827116,-0.005186177003425409,-0.0029898065624382715,-0.018454742421017717
892,0.003847927970168587,0.012274014435893637,-0.004599855507734122,-0.002973573349892266,-0.018988666852904325
893,0.002739421618231377,0.0142425064387253,-0.004570196938464227,-0.003951267586796076,-0.015212839147729676
894,0.0026260869742798015,0.017724168532212682,-0.0040274372829008824,-0.0034158107984205437,-0.009138663165399491
895,0.004044405407733299,0.02213846153403959,-0.0031206444161976355,-0.0011750434104411162,-0.0024854486704933426
896,0.006556251364119121,0.026018171663555176,-0.0019675351520858906,0.00140134640891702,0.0023097103156127425
897,0.009436299927263817,0.02860405644629557,7.328015450437208e-05,0.0036339388484716594,0.005013996066031603
898,0.010507266611216674,0.029040973635710635,0.0019768327491971353,0.004098069543147936,0.006348520608984466
899,0.009163357389944057,0.02737762247140406,0.0025161861993983504,0.002336266360491866,0.007038942015591291
900,0.006918035382493312,0.024564762992372948,0.002000309553002395,-0.0003420695405843128,0.0076244268578476455
901,0.0047140320346508524,0.02118050551790672,0.0009018610995764381,-0.00264473387317581,0.006810313801224062
902,0.003648896298678895,0.018175107938957463,-0.00035090867256228563,-0.00334159337209967,0.0027458881781348013
903,0.004223825234563741,0.016186606364697,-0.001284543354116396,-0.0021437268315881368,-0.0033410944106264406
904,0.00550609209072485,0.015080987641812644,-0.0013320055651413769,0.00035602726697457046,-0.006726953926589394
905,0.0061645545377421946,0.014221444026049327,-0.0007789229829312124,0.003220144459124511,-0.005756836228620498
906,0.005328513827079988,0.012746155043242582,-0.0009525593952999788,0.005155954379380383,-0.0039015389778643446
907,0.003636207989807852,0.01108676052044764,-0.0021918683924016117,0.005688889041672113,-0.0023613938525627923
908,0.0029055031588065823,0.010517917111491136,-0.003188292187500498,0.005862948008735048,0.0013509847568349714
909,0.0032636118758414246,0.010131835448032875,-0.003327778866578323,0.006423064294467101,0.007052369610743155
910,0.003244411178004279,0.008861168652972925,-0.0032370022037674904,0.007237977034512596,0.012207209424638632
911,0.0034292458730094946,0.008947713027045492,-0.00269951453529476,0.008716609091790244,0.01571560183450606
912,0.0045897304625378285,0.011557149979681153,-0.0019320175354695895,0.010061859739627171,0.01694376610866608
913,0.006113426094948541,0.01461795483743391,-0.0014361534615492796,0.010147717669241111,0.01620716487181133
914,0.007828792761274005,0.016056960481791775,-0.0003414980647863838,0.00972218262277129,0.01486153529983923
915,0.008312996433072088,0.01438216877380535,0.0005651030148971516,0.007876602826977646,0.012672780153528638
916,0.005833971415804621,0.009974434431093897,-0.0007385652146217695,0.0024647250832616576,0.009417937362436398
917,0.0021467083936219642,0.005841316637268053,-0.0026982621565216484,-0.004256101234207208,0.006975619226398794
918,-0.0005815006482259072,0.002815994756445325,-0.003403392859936014,-0.008820101827051447,0.004816902412922822
919,-0.0024284431936903595,-0.00016529672338972865,-0.0039000242231143774,-0.011363408543127992,0.0014611900333770169
920,-0.0024780521040401976,-0.0016915683113240339,-0.004022140094485027,-0.011874209171726957,-0.0007770160070258322
921,-0.00042827554457775864,-0.0010072418372569474,-0.0030192876685208613,-0.010272144556979206,-0.0012113870366934256
922,0.001423365928719014,0.00047337003214015873,-0.0021376478943579275,-0.008484872955818007,-0.002590462630790671
923,0.0017721761059310574,0.002205531409543094,-0.0022880138465185456,-0.007539095153314694,-0.0054115267547257305
924,0.0012392974449264998,0.003919594843864162,-0.0027009623226814466,-0.007003509942982352,-0.007721762942787253
925,0.0006089186029462392,0.0043972551007131835,-0.002624343179159756,-0.006356289965521695,-0.008799236924016818
926,0.0002782289208490109,0.0035898097640447175,-0.0021895094846558416,-0.00531416826712959,-0.007473984652041185
927,0.000360005467005077,0.0035143057591030726,-0.001032609581825636,-0.003960724260139691,-0.0020025584965562854
928,0.0006848092702047415,0.004731776566099169,0.0008960526477610536,-0.003126130504100073,0.004700851202804815
929,0.0009102901096974141,0.005513272658936314,0.0022046397740860023,-0.003979954263042198,0.008021040280399565
930,0.0006252434189372414,0.004730037646953941,0.001848402835891703,-0.0066724305135570285,0.007495643002811913
931,-0.0008592442154340751,0.0018168011289419598,-0.0005393105495144327,-0.010702224466981757,0.004312856439123009
932,-0.0031347679948232586,-0.002824820328677716,-0.004289646012787851,-0.0146373402720998,-0.00038458735332758343
933,-0.0044783512757243255,-0.006835019221405907,-0.007285831956692708,-0.016086715677893087,-0.004348684742579275
934,-0.004131888130460634,-0.008993150520493312,-0.00779247334397142,-0.013699624453554474,-0.0073749211675288445
935,-0.0026678715689020813,-0.009680920937127663,-0.0060015252836537,-0.008955128897858773,-0.011411301070637548
936,-0.001225024098084107,-0.008574798415823318,-0.0036535440455079124,-0.005631753101489277,-0.015132509608907956
937,-0.0004850264777813701,-0.0063969315473705905,-0.002136828550843931,-0.005418867459311015,-0.01595886842179773
938,-0.0003534230035882659,-0.005365609312346794,-0.0017780832760083405,-0.006752699366154946,-0.014266354415786308
939,-0.0010740954401001874,-0.005759397897201792,-0.0023567239714834126,-0.008595828353047558,-0.010632956909922362
940,-0.0023471957111064565,-0.005381284807626725,-0.0028559698279848303,-0.010807830121446847,-0.004708819438937811
941,-0.0029312731744978674,-0.0033120098325795534,-0.0021093026174331853,-0.012320968357752609,0.002111018825425811
942,-0.002129755528060539,-0.0008051849547762058,-3.3654981396083364e-05,-0.011840051984443838,0.00667233728571899
943,-0.00020508619637009246,0.0011840887302312713,0.002580158919338092,-0.009292521173841835,0.006552479777245278
944,0.0017994210881964925,0.0021213229934868736,0.0045606473363253965,-0.006129072688542043,0.0015675073724083876
945,0.002925985622675889,0.0023417319244270194,0.0050537677874525335,-0.004090147347003541,-0.005202631530370335
946,0.0034179790545192583,0.0037827942047231294,0.004612994497191754,-0.0032369166617076737,-0.008776252671857629
947,0.0033814301486084033,0.006516249986247988,0.0035724545552444347,-0.003006463866898289,-0.008003823595877894
948,0.0029212084199055403,0.00841314327849938,0.0019789083081170186,-0.0025967516940161193,-0.006883595551917364
949,0.0031801319289039157,0.009124968912014498,0.0011153269687631908,-0.0006102368886424545,-0.007571973554821464
950,0.0037218695887099684,0.009745398486105346,0.0006998757136438363,0.0017244382021412371,-0.007349123080594555
951,0.0031837258791638664,0.010233289386442041,-0.0010522427133461776,0.002056580946572319,-0.004391787945210607
952,0.0016488116449655868,0.009884318645995257,-0.004366062524811366,0.00045646027108289653,-0.0006282941149283853
953,0.00020193256465081606,0.009061416612216086,-0.007394296969245154,-0.0012702696904794307,0.002356980432232414
954,-0.0005071578637040753,0.008463771860183593,-0.008581190205552487,-0.0020244126384214365,0.005202522924850268
955,-0.0008057441945153024,0.008226083008754402,-0.008344698387502186,-0.0021559309907424338,0.008139916764522196
956,-0.0008975260516888672,0.007563372781664681,-0.007621735686402418,-0.0016346569845188186,0.008728274566990796
957,-0.0014089752868490515,0.0054348580237426865,-0.007599841396597968,-0.001078338689110732,0.004712152357713637
958,-0.002873073317562472,0.00222206725378176,-0.008621262392462296,-0.001597436963031214,-0.0019745791947619923
959,-0.004551592694084689,-0.001478060257941327,-0.0094215009959494,-0.002535437003342161,-0.007658867520218297
960,-0.004498142253037634,-0.004930080916333412,-0.00782564848562748,-0.0015805405592372688,-0.010794120704193453
961,-0.0030592719812771014,-0.006724581728711176,-0.0050514054710816235,0.001151340813295301,-0.013075670787256943
962,-0.00199135071735885,-0.005533587117768421,-0.0023439087207825114,0.002857542822567785,-0.011751277992105564
963,-0.0026705099864780648,-0.003419146061585483,-0.001121256488799008,0.0024050563024491166,-0.006869307530531666
964,-0.0037025439516934224,-0.00242893517157813,-0.000625179461745909,0.002315057478623619,-0.0016683878490448667
965,-0.0026951720929951142,-0.0020429484999747384,0.001095863824273192,0.005311849219909503,0.002703053269999959
966,0.0007989580142000663,-0.001610125393966712,0.004820132119983409,0.011345840512625322,0.006045873053238483
967,0.003968314654241744,-0.0017834140995835132,0.008326692294124895,0.016830389470888114,0.006718858040404241
968,0.005530149728634029,-0.0016818572272631316,0.010341629201536482,0.019769483316058836,0.005516059459823871
969,0.007224741622095635,0.00039047624740785403,0.011942846963860044,0.02165091478809569,0.005944646955476189
970,0.009054578395388835,0.0033800985473978187,0.012923880988018856,0.02276256905453412,0.009535145072716812
971,0.008941892497553778,0.004825334331750856,0.011964163619236919,0.021198041232399475,0.013862295184170896
972,0.0065801021802036055,0.004397836448221007,0.009350588384706754,0.016762995138868985,0.01560524099570054
973,0.0039286290238523605,0.0036912737545642905,0.006911319347590315,0.01206614617525974,0.014045355462140297
974,0.002167357349939966,0.0033443718369970633,0.00561935758964516,0.008926864181533307,0.009865217731851207
975,0.000905882575911645,0.002714810602175008,0.005281222776020299,0.007035660537031686,0.004655257078155899
976,-0.000684120385152864,0.0008935880459949027,0.0051324496267352625,0.005114816569126234,0.0006717868371602189
977,-0.002192734737662954,-0.0015048010729893583,0.004722646425884791,0.0026175230223502454,-0.0006355042635911641
978,-0.0019910537251296816,-0.0023202547695269763,0.004816211690424602,0.0007197131778123624,0.0009671068573748675
979,-0.0007957334858553304,-0.0019163251551195964,0.005004823631963799,-0.00042288696734714133,0.0031714817479155475
980,-0.000769786994849772,-0.002506345341896622,0.004059985174148764,-0.0019037675914656592,0.002951398177223621
981,-0.002033039683087725,-0.004146654698898979,0.0022752759678426227,-0.003777846790678345,0.0005654352018103365
982,-0.0032799654409465945,-0.0051440161050606585,0.0008421327155244511,-0.005087636511595832,-0.001055041840916551
983,-0.0032526854891774715,-0.004495619913795105,0.001021865800742629,-0.004689500690443766,-3.428123146452453e-05
984,-0.0022257106854804017,-0.0033962382740830264,0.00234662494628418,-0.003210913765595198,0.002039030499097359
985,-0.0015298785365879324,-0.003440954160278209,0.0026921091369330598,-0.0025899332574961,0.002361303362147484
986,-0.001248651771579928,-0.004004541761116271,0.0014476448574605926,-0.0031526633389338202,0.001028659677242895
987,-0.0005552748498583419,-0.004068030818678054,7.576951848246857e-05,-0.0035789958414065874,-0.00024007451761950068
988,0.0007300690184796842,-0.004158114602153187,-0.00013982099834502763,-0.0029702538699964876,-0.00128226637828721
989,0.002107069001271998,-0.004394303609442585,0.0005425218871023045,-0.0018273078865671565,-0.0020904316153472413
990,0.003349974031132722,-0.0039863503158159095,0.0014647720351474,-0.0008489090369880492,-0.002201149531853387
991,0.00420405493194749,-0.003245466992790944,0.002317167254062326,-0.0004029055701096282,-0.002259904970238326
992,0.004857518284404493,-0.0025409329905405533,0.0032802855460042557,3.7138991344824795e-05,-0.0021609336670932494
993,0.006090984257299946,-0.0013209489642402026,0.0046971465453070765,0.0015326873742114193,-0.0008095760314938966
994,0.007029077349058511,-0.00023720345064116047,0.0056005229124092655,0.0030945016274306738,0.000562007505550218
995,0.006205046101381526,-0.00037010275596684314,0.0049877305728072766,0.002968188604310823,0.0003024560247905528
996,0.004117616208102046,-0.0011110246441091197,0.003575106370608012,0.0016657943468384286,-0.0006003699417607946
997,0.0020959176647509965,-0.0015375473279116147,0.0023014859052572926,0.0006085342554200315,-0.001211818018169831
998,0.0004679112454936089,-0.0015678932973533666,0.0011441083119430795,-0.00023507457930705122,-0.0012785041369832591
999,-0.0005575686668924813,-0.001314943206877317,0.0003241494955370102,-0.0007876125038199557,-0.0001965501958371521
