,AF3,AF4,Fp1,AF7,AF8
0,-0.003222256723928571,-0.0034962400131359206,0.007638941969120618,0.007732566760771905,0.01144592893693541
1,-0.0016943470019505256,-0.004673867237530326,0.010225130826697827,0.009339800183525695,0.007904815998360359
2,0.001053305643593594,-0.004803503903024402,0.013465704168811257,0.010027348089518764,0.005758023596817558
3,0.0036710939884487654,-0.004298658657793945,0.016201825490807835,0.010254246212240357,0.006236010337653361
4,0.005376714312280421,-0.0033663221648720723,0.017314874561615273,0.010970773062202064,0.011346594777469262
5,0.0066778452415781585,-0.0021724463604213015,0.017230665629881847,0.01434193855632998,0.01994727755486458
6,0.008204829779881241,-0.0015376205314635365,0.017717871966272333,0.0214614335498225,0.025532418953706275
7,0.009955579394186233,-0.0017071704497065257,0.020575807257357845,0.029403572930243174,0.02465691561800176
8,0.010511804541930158,-0.0031704372530741215,0.024514811630707612,0.0330438300857855,0.019390390136145318
9,0.00821353211154913,-0.00645971607829443,0.026002857403221287,0.030355983643428997,0.012315031416230424
10,0.003996602580405511,-0.010066054859682955,0.024027874517416514,0.02419579391501781,0.006140425746840242
11,0.0012060883253415284,-0.01121153727657734,0.02155734908311481,0.019617873736271288,0.0042139103927008705
12,0.001927994385830319,-0.009260590684866236,0.02116685540012261,0.01898641631402638,0.006717627757954419
13,0.004502364439394295,-0.006291894546837237,0.021690651176632963,0.01979714837452077,0.01077926522888226
14,0.006880620101775553,-0.0035901385846040094,0.021746472704299278,0.019568215368115278,0.014947481103418928
15,0.008356177275921098,-0.0016049905706992833,0.02091031633021685,0.018176348269021567,0.018402418720057916
16,0.008157949192785412,-0.000944414253101162,0.018640161112011392,0.015935928809441897,0.019836537983294638
17,0.006883861705862045,-0.001411761674579099,0.015971959380801072,0.013567831152197644,0.019565947855395047
18,0.0056116039405032184,-0.0031091606203560583,0.013397327682830466,0.011036218622182193,0.018168488652796
19,0.005097874640370795,-0.005531827629270438,0.01075146769610645,0.00893676754885691,0.015858076991818213
20,0.006555690369868479,-0.006529132958898794,0.009824492284707548,0.009387607694752546,0.014282203061931462
21,0.009223497343851608,-0.005887355457021987,0.010815198729684656,0.011988356445785638,0.013212736627969209
22,0.01035964542417357,-0.0058216092416035125,0.011114137461091201,0.013189401087442458,0.010070043547045578
23,0.00907552883096137,-0.0071890558450091666,0.010060738851866343,0.010848748404422076,0.004854379780156566
24,0.00687606703244127,-0.009135587903804919,0.00938329980503994,0.006569718849497612,0.00014965207356986
25,0.005214960226429076,-0.010444094606070034,0.010136154379115164,0.003013289292344502,-0.0011663335849214772
26,0.004451942749866788,-0.010403019644331593,0.01246392065484052,0.0016482076698685862,0.001948973755035584
27,0.0043296957896283884,-0.009681960898486615,0.015737051011335646,0.0033376684670199954,0.007032043780758091
28,0.0045677090047847825,-0.00911854268921318,0.01769600069742531,0.007753089860373996,0.010867703585908307
29,0.00489663253345825,-0.008686415370984007,0.016261990863594946,0.01206996595391934,0.012611633158731074
30,0.005091487722074977,-0.007946396369702279,0.012235053786669042,0.01314957186732201,0.01346906095737654
31,0.00541035725177949,-0.0065680871935259,0.00850736704351727,0.011129487933401239,0.014258286219898105
32,0.006712343660849178,-0.004805669373019406,0.00759985687317928,0.009680557185264574,0.014202137050379307
33,0.009079691622682682,-0.0030153829762041735,0.00976590248114093,0.011207875125089962,0.01329130576110943
34,0.011419896090954298,-0.0011842934517027862,0.013423164240937206,0.014225359722202536,0.012719071624937068
35,0.012984384467972104,4.267680186619187e-05,0.016636096496841026,0.016362250674632928,0.011789352769372454
36,0.013880180569660672,2.3471044913562076e-05,0.01802407648189614,0.016900115922308327,0.009214675548669147
37,0.014249387142896908,-0.0003030202880844089,0.01771093611234368,0.016533643307323407,0.007077663149383458
38,0.013603833883326222,-1.9048357445696856e-06,0.01635538440777681,0.015544061823661049,0.008001660845912813
39,0.011851451722383331,0.00013426597053702076,0.014782449621613611,0.014082453670617093,0.010439644483133692
40,0.011139932964965203,-7.982978708872265e-05,0.015340770135764296,0.014436332630040943,0.012331589420548881
41,0.013252587128856106,0.0006437062481688666,0.01887144495495122,0.01765883376718024,0.014202299010973533
42,0.016128804321102773,0.0020543207062994023,0.022677273657791635,0.020636082952312073,0.015208735621847814
43,0.016635009048862705,0.0028565400127272744,0.024303732335557847,0.02134437495968185,0.014272853476411497
44,0.014345700883316501,0.0026301073600720213,0.022890769683710618,0.020745765085119963,0.013075789556322924
45,0.01121997073840308,0.0010829178369154686,0.018428937310756247,0.01854251598136229,0.01256840280665404
46,0.008939752080732957,-0.0017703559547719207,0.012258854310680287,0.013225435163321659,0.011641075416917793
47,0.007258202531895717,-0.005001876774166882,0.006552741849275486,0.006139861731808824,0.009869059919719808
48,0.005648200238400696,-0.006649915542324423,0.003841927832765736,0.0023750906091824647,0.008946080794818134
49,0.005063696164988173,-0.0052190515755755,0.00596018880474158,0.005955367354418087,0.00962865392709717
50,0.005381484369876234,-0.00254668074877768,0.011003041345695772,0.013289658078297137,0.00932902939693438
51,0.004425133134030915,-0.0019624727268071286,0.013866782267008453,0.015956540498487607,0.005832688472537792
52,0.002319760814528508,-0.0038530554697494396,0.012301811538146435,0.011731558687656839,0.0001863264862453092
53,0.001678326144688437,-0.00574303284685575,0.00916147083160396,0.005520641124942358,-0.004590316227901299
54,0.002459478776057008,-0.006100731892767243,0.006721085714872031,0.0001850441053929527,-0.006500280636904816
55,0.003135765815480338,-0.005458498416469636,0.005254930834531462,-0.003970389524607745,-0.006032051600120562
56,0.003915531895712998,-0.00469233675440909,0.005409420514037446,-0.005779114467289009,-0.004935114551566401
57,0.00516587083047979,-0.003816416540651072,0.007082623389424744,-0.004747834823171683,-0.00401850916664411
58,0.007370079451584846,-0.001533188257344141,0.010121886348738838,-0.0005236096946770947,-0.0015688513080346694
59,0.010267492996811938,0.00255326906153849,0.014150670001566409,0.006297126452185663,0.004249800506356596
60,0.012065170681136389,0.006512306362558063,0.017684988052467793,0.013120106911462655,0.011325368824313004
61,0.011851017839490262,0.00835932769775914,0.019239447854377357,0.01785708602964787,0.014407491947792731
62,0.010424861287986534,0.008338515638419686,0.018226813021932655,0.01977731297784486,0.011998424367278356
63,0.009505877746910581,0.008833557486509911,0.01602202271032948,0.01937396985115024,0.009775370621977938
64,0.0100311005581614,0.010947555669856734,0.01426977547009877,0.017580649987767413,0.011919533130040051
65,0.011203702076897597,0.013429425620322939,0.0134908459935725,0.015341804059060164,0.016322714107608292
66,0.01153030261712039,0.014990049847238575,0.013660376830268977,0.01317096161949675,0.020107895906590324
67,0.010896441900659063,0.01509479852331343,0.01430451614373061,0.01045426387211929,0.021030656110716698
68,0.011189259932925672,0.014344554038526072,0.015564550611783573,0.007601332666680831,0.018545058772940805
69,0.01297460511127369,0.013456922334112229,0.017260849871821554,0.005727000324159664,0.014997529863694235
70,0.014092083829142597,0.011975611666125752,0.017703331038321668,0.004365912957691399,0.011981360829319708
71,0.012974431967109455,0.010022344431401596,0.015843923987956168,0.002721117396626312,0.009802837240751957
72,0.010329953779935556,0.00885486281296507,0.01242154119672142,0.0007659536292163153,0.00844435113425472
73,0.007370481394731777,0.008686730572077103,0.009255151753000113,-0.001012133410028752,0.006940483805665796
74,0.0055151606805932405,0.00956789388546842,0.008293394611110809,-0.0016750243570693342,0.0060076528431945945
75,0.00548704856004085,0.011252576962975151,0.008798475193784834,-0.0019094997779354197,0.007014587176627479
76,0.006189559633670928,0.011537312698309972,0.007853473563649281,-0.003242722901679745,0.007389573131929602
77,0.007579670828093553,0.010101473891150735,0.005875991995725145,-0.0040776813754313645,0.005080394329694033
78,0.010063950789505696,0.008979861711329218,0.0061929056405764325,-0.002589958098121654,0.0014273286500959448
79,0.011923900697672313,0.00829206456521992,0.00865316231909897,-0.0007088865626379527,-0.0029266486813593396
80,0.01136292282047895,0.007020022106838027,0.009138115465842938,-0.0013955808850511992,-0.0069998069123984935
81,0.009032264310499687,0.0053773806477670424,0.005980478711355273,-0.004598316414532452,-0.00865536996142306
82,0.00725674169299115,0.0047836973840835765,0.0017190251584049527,-0.0074261459551843495,-0.006437918292159283
83,0.006580268927088021,0.00573593850759547,-0.0019800403446100204,-0.008568322706114984,-0.0012144770775858343
84,0.005445921092586811,0.006401479900560598,-0.005115858368093003,-0.0085130523333526,0.003321253652395517
85,0.0034913380618587678,0.005385315167613313,-0.006564555600602002,-0.006267524338111665,0.004552318257415969
86,0.0019389647234687832,0.0037374834935754477,-0.005836019574752984,-0.0010735497990539975,0.0029547029124485096
87,0.0008711274972349565,0.002211694636350891,-0.0046955780687519995,0.004696802843388787,-0.0011127479722714713
88,-0.00030460548713005613,0.00037674550159528294,-0.003201358454463229,0.008540301870272198,-0.007120752842950211
89,-0.0006279294316556995,-0.0017051090451983943,0.0008331706455265231,0.011636805310109289,-0.012736802686768403
90,0.00045017322517962755,-0.003910868088574628,0.0057056928190690045,0.014089730868916047,-0.016523857016045928
91,0.0029150198750981108,-0.005228981037731515,0.007870681793779862,0.01284857235935913,-0.018497132739730148
92,0.006957254870077502,-0.00442434448321475,0.00776308256942331,0.007099992672937867,-0.018821077709296388
93,0.011316238275680924,-0.0016306089084897272,0.006891349587099578,-0.0010243086634828035,-0.016790281001750805
94,0.014656769115592083,0.002149170397214238,0.0056322015338129364,-0.008538344584446978,-0.012653409740080708
95,0.016790970562885282,0.005093164923191917,0.004523061452816939,-0.013964078495088038,-0.00928590518118301
96,0.016882519804902397,0.005176007889375782,0.002785041540279791,-0.019163179311994197,-0.009667421830175006
97,0.013681935981187481,0.0010302605262241958,-0.0018129023580200877,-0.026292812484627174,-0.015435229578754652
98,0.009492635993615958,-0.0051698650363314605,-0.007871220517993301,-0.0321909893255387,-0.023431586482632424
99,0.007681751873667963,-0.00861193802664221,-0.0113447309684771,-0.031042016641496587,-0.027021061479928766
100,0.007318962136807576,-0.008436897057527733,-0.012310187668307455,-0.022842828486160274,-0.02472701586760711
101,0.007177943904079233,-0.007017859652546477,-0.01311976400002961,-0.012821751931013644,-0.019428662028925403
102,0.00813004235062564,-0.005433879516045766,-0.013736462186240441,-0.005582133251163087,-0.013340908326251828
103,0.009906200414888317,-0.003898329539194366,-0.012797228717313367,-0.002669181329506099,-0.008454382706264767
104,0.01137962730694454,-0.0025339526377707055,-0.009356466810951149,-0.0021087143179768157,-0.005752401124990966
105,0.011678723862659264,-0.0013982210840263521,-0.004501585149986249,-0.00012958811838097132,-0.0042976006381570675
106,0.01083621996589815,-0.0004641146055995393,-0.0010007018340573634,0.005032825530560477,-0.0032411500421775145
107,0.009556882209104934,9.564774977062199e-05,-0.00016502234960964133,0.01019086109427365,-0.0032770508183414277
108,0.00807195918664219,9.647993413412676e-06,-0.0008269321364797997,0.01050100343603954,-0.005039565557337463
109,0.006657302319888396,-0.0004223685043454556,-0.0007797265247686643,0.005744974061858698,-0.00798519419440945
110,0.005017409595301104,-0.0010416891060003196,2.0537179636868298e-05,-0.0008841868527600583,-0.01170666026464421
111,0.003355278180885605,-0.0015809528658798882,-9.68861117182944e-05,-0.006744364776240266,-0.015272755700212847
112,0.002730315183919806,-0.0016113070473300199,-0.0019147710339130117,-0.011148246759789497,-0.017028708691862807
113,0.0036464491352307896,-0.0005854354954803008,-0.005212897375680945,-0.01394672566712712,-0.01612253326089166
114,0.006511502055020254,0.0019066303962628965,-0.008135959118307563,-0.013848382720563355,-0.013776211696088062
115,0.010384145220015044,0.005003870196055786,-0.008656074057024857,-0.010715916801929707,-0.012365751342578704
116,0.012559394260916628,0.006955749253211398,-0.007504506472264698,-0.006715925662535562,-0.011935996712271536
117,0.011389711202189286,0.00651150653224314,-0.006870124156046805,-0.0036370453973150548,-0.010761469142914643
118,0.008469922146614791,0.005613149841899007,-0.007099846685659187,-0.00046611626980087373,-0.006391404556161784
119,0.005965974583638419,0.006649244004523635,-0.007689199472342045,0.0033101782937458627,0.0018224561669098866
120,0.004024908354538449,0.00805991627297649,-0.008981548002448032,0.004446927815282837,0.009866664507946335
121,0.003171826639691037,0.008759003157521423,-0.009810913647614588,0.0011523451458925974,0.01505587895552158
122,0.004445491868777615,0.01019471943438642,-0.007783160263130412,-0.003632211584372828,0.01874953598347361
123,0.006107426157171693,0.011468796766483292,-0.004464410934397941,-0.008319091366890439,0.019880859452216862
124,0.005186242040676937,0.009870005810050602,-0.003883310028636735,-0.014780813849996044,0.0160300906680704
125,0.0019417947445829434,0.005812434561852081,-0.005952326418263381,-0.022531316765961047,0.009317677844662977
126,-0.0011908363346178855,0.0016524630530404157,-0.00734527890410846,-0.027423986994040046,0.0027099615946632595
127,-0.0026577853376551818,-0.0012645698489715718,-0.0056754762936574756,-0.025482405909972847,-0.0025237220218116046
128,-0.0025503609982395503,-0.002968384928282474,-0.0017374505344187586,-0.017771443052968232,-0.005777575128331406
129,-0.0012581685176952931,-0.004022480312416436,0.0016513772530062027,-0.009292878914512215,-0.006529726283287048
130,0.0012319734800719368,-0.00419113994866378,0.0022491428716298525,-0.0030581524705343113,-0.00395513719345682
131,0.0036959806468220722,-0.003043792920717754,-0.0010948600513464694,-0.0006808158662015596,-2.7320335164829704e-05
132,0.005158597986008997,-0.0004572459835907323,-0.006815446620757523,-0.0022019787202083286,0.0017091565986141655
133,0.005697449630656615,0.0025322664240812745,-0.011760108520501942,-0.005291382832011622,-0.00011088153450955818
134,0.004061103651641275,0.003243876128106103,-0.015621556261780613,-0.009508975375348864,-0.0049295056560376
135,-0.0005377447887139123,0.0009195311128121542,-0.019896557586870017,-0.015794243192741746,-0.009963325681055225
136,-0.006131817346406605,-0.0020796951514036664,-0.02386098877586604,-0.02288076663421987,-0.011948629765611285
137,-0.009685739609692398,-0.00359359666833072,-0.0249777953769195,-0.027924651582472832,-0.010387958153156858
138,-0.009584411618084628,-0.0030236408538942376,-0.022332601601490934,-0.028914932671862084,-0.006029236761535139
139,-0.006796399491447598,-0.001414269911833403,-0.017890113836317927,-0.02579311382609914,-0.000974582794117716
140,-0.0029412342756988752,-8.784509606041147e-05,-0.013962607070399152,-0.019584197729048694,0.0017795510876439154
141,0.0008242411821282815,0.0007376262128045158,-0.011606979044426077,-0.012537880845358087,0.002011997613549052
142,0.0030301477010432434,0.0006174863098328863,-0.01123066964788949,-0.007931344001705929,0.0004853225491487331
143,0.003684162096786723,-0.00034820252515285207,-0.011781518311331302,-0.00651062109799453,-0.002146752419678563
144,0.004929034004708426,-0.0004333105764873082,-0.01039778695139868,-0.0053873818585663666,-0.00319532112551409
145,0.007222823092651744,0.0008782022198915178,-0.005715411694956894,-0.002559816357151606,-0.001192366721831467
146,0.008735623687587998,0.002447984377766507,0.000378482256723001,0.0011291672882356952,0.0015535215935990336
147,0.007666013147695027,0.0027041034662467927,0.004407695497119963,0.004347066116860078,0.0017102056895561743
148,0.003443781858881415,0.0009305716303418379,0.0037051389163029777,0.006201278082412553,-0.0010411966034704638
149,-0.0012270629665100008,-0.0007668382324797034,-0.0004529965656522852,0.007495830147586677,-0.003884990545040874
150,-0.0034431883106949873,-0.0009010907882962092,-0.004495157434845131,0.009214813579395648,-0.005919106019436679
151,-0.003510145091071459,-0.00021663128007320883,-0.006265680986991729,0.010050701334425255,-0.007813874563770175
152,-0.0021280509214334493,0.0011481384360804844,-0.004744816710096913,0.010675850200562992,-0.008069407038859258
153,3.0248315734603504e-05,0.0025788936490762364,-0.001341168880632491,0.013569578410086193,-0.005947811647955388
154,0.001479654178321389,0.0030109351831866514,0.00018395917957227958,0.01657522018991316,-0.003307755983947881
155,0.001744762512370368,0.0029913466021928895,-0.0016918110213881687,0.014812766170067519,-0.0012667678068168323
156,0.0016074409487223608,0.003004855763526261,-0.005291802405117269,0.007264250897490907,0.0001941217513432222
157,0.0016468914770679033,0.00240677721735056,-0.008507239697375948,-0.003363404668576203,0.0005186445481600277
158,0.001709576561394272,0.000860762386149642,-0.010269896918012791,-0.014272865766278868,-0.0016418753717599363
159,0.0016592825931860508,-0.0011914785230539768,-0.010866761184480225,-0.023322152954891057,-0.007023254730876141
160,0.0019427749556015664,-0.0024480860796036253,-0.011086699030335241,-0.02874642765571992,-0.013472470590744197
161,0.0028623754884008574,-0.0016750903601275057,-0.011289705661623482,-0.029950633111241708,-0.017787356780656943
162,0.003724373233266893,0.00038335983823095193,-0.011968715054418112,-0.027770540609612565,-0.01959207752724436
163,0.003607986284722302,0.0023217607498052504,-0.0132133667670613,-0.023470637080474758,-0.01924865031690251
164,0.0020879977935487374,0.003162862810597622,-0.013846590750052673,-0.018258436646336657,-0.01626829770966975
165,-2.8424219805363453e-05,0.002601969026376881,-0.011837972075813689,-0.012309641068680039,-0.011021058493342105
166,-0.0008283315541228188,0.0029249771680531513,-0.00625975512142847,-0.004647127882925216,-0.004161134645616677
167,-9.304415595837212e-05,0.005945758780191989,-0.0002280210853009137,0.003338741539762734,0.002121215898081864
168,0.0005806037887425037,0.009564297816388897,0.0013450772666492687,0.0070631075468304974,0.0036943758683463937
169,0.0006340087511822691,0.010835997596247331,-0.0017623364051500823,0.004249744212952846,-0.0011736727303706112
170,0.0007657683283970038,0.009219297851180362,-0.004550927236801617,-0.001633008908807371,-0.009051305569890792
171,0.001536449199520206,0.0063418510584547245,-0.0034193148697142664,-0.005310945112663341,-0.014592005298250388
172,0.002404883862664402,0.003889263525036236,-0.00010995163269120946,-0.00531612943113818,-0.015575776352420441
173,0.001808704892353726,0.0026193302568121584,0.0016542740530404638,-0.004060971608322364,-0.012606382407601537
174,-0.00022049777804974396,0.002461500908473015,0.0007349756064366521,-0.0029344754888053905,-0.00782084295270698
175,-0.002191994646134095,0.0024951259512455246,-0.0017912393572822422,-0.0019451684286521922,-0.0046682162383727705
176,-0.0032581509534759037,0.002663491144993759,-0.004105417200739556,-0.00151002527743188,-0.004042495557909664
177,-0.0032166769060338538,0.0035986872179547126,-0.004588049165846602,-0.0011351856895289833,-0.0036198642699088353
178,-0.0024465787575758736,0.004957366927173723,-0.003814700159945151,-0.00015933754895798617,-0.0018535071237096596
179,-0.0008606439063071282,0.006149411841350662,-0.0030046951963998533,0.0017448760408711522,0.00046077316352103904
180,0.001554670099437009,0.006969289418825784,-0.0025984666519042565,0.004103199325870831,0.0017384902078772353
181,0.0037461837335628855,0.008067373476997135,-0.0031857061526071435,0.00591163995326116,0.0016677290028406819
182,0.004326124990634682,0.009240547241914763,-0.005025766509367992,0.007681495428457402,4.1851350707839305e-05
183,0.002875724760713667,0.00850052687158991,-0.00745201015002148,0.010741870709075946,-0.004690078853074515
184,0.0013931617317499542,0.006339393354051675,-0.008947406900327406,0.015030572938363128,-0.011736240536206453
185,0.0017304648758830906,0.005477578481822022,-0.008480151138085151,0.0175492561433667,-0.016807250148082858
186,0.00267702977576187,0.0061881361178626314,-0.006957525714934089,0.01536459659045779,-0.01686827840258838
187,0.002722400081180994,0.007041515271097192,-0.006175200125126869,0.010569135216264224,-0.01259622242163613
188,0.002973686231672861,0.007710814053424542,-0.006222754870458666,0.007141832069805806,-0.007381801046398662
189,0.004472076804931425,0.008198632000408709,-0.006269618061068721,0.004219626837395894,-0.004872358012419993
190,0.005161435225379714,0.007669845817382526,-0.007233747900617236,-0.0019345900603156177,-0.006458376919656692
191,0.0033157326147168573,0.0061425284253780014,-0.00944870595782723,-0.011146879237595338,-0.010554029886371018
192,0.0007827088124167554,0.004690143749268242,-0.011244347639193852,-0.019282717391091587,-0.014827307684555037
193,5.121871726842385e-06,0.004217133669878953,-0.011608576565576718,-0.02306936545109293,-0.017417780816344815
194,0.0009325303659129317,0.005365206484481515,-0.010661528391811514,-0.02222466767797264,-0.016849057054094382
195,0.0010967472811697478,0.006729509121994376,-0.01053879336375401,-0.01925522241851736,-0.015362499955766397
196,-0.0007047300729437441,0.006543942421021589,-0.01313899590722266,-0.016570369909180496,-0.015686463402484467
197,-0.003004502036498988,0.0054147931213231375,-0.01659446298061213,-0.014701170099745356,-0.015784641830862464
198,-0.004085742610673156,0.004639734801485539,-0.017952771850247937,-0.012777161580257585,-0.01345888805103261
199,-0.002621296392802095,0.005072847409615335,-0.016213748302230886,-0.00909661691255955,-0.009562875900327663
200,0.0009465163601386945,0.005550794802912276,-0.012490258553145506,-0.0041237929263217505,-0.007125730356717884
201,0.0045697295302282205,0.0043086148069914,-0.00812435229741032,-5.112203018369021e-05,-0.008337270240430676
202,0.006329434554610049,0.0032369879545413923,-0.003823597923298501,0.001989353724859314,-0.01102349429833826
203,0.00475264973350703,0.004383424814237773,-0.0004668716516346243,0.0019520033326282805,-0.012174254164896207
204,-0.0003195994689054802,0.0058336302065799305,0.0005962688230037496,-0.0005426574168923965,-0.011561551528866993
205,-0.0064962591380285355,0.0057549016295518,-0.0008319045933766032,-0.005350197822829448,-0.009839590720624028
206,-0.009897755107440802,0.004982745462495984,-0.003069104639541359,-0.00980436311396852,-0.007291062995481602
207,-0.008976110055644658,0.005299896691382984,-0.004921384334225979,-0.01085952848057059,-0.0035369985731577725
208,-0.0056307670192916985,0.0069189111494862635,-0.006507579109104141,-0.007282969434304659,0.0010082485933363367
209,-0.002261478709849902,0.007933901972007197,-0.008028121647888613,-0.0007202589776813049,0.003919125654013782
210,0.0010464004153414226,0.008308949477335546,-0.008451300101484174,0.004753437034924121,0.005184661011392264
211,0.0041787642979493455,0.00929279380062124,-0.007746673929756908,0.005413315232676954,0.006520823229136905
212,0.004350545521209232,0.009144353918333929,-0.008735171341447356,0.0001937270464618495,0.005582467180757161
213,0.0009776655625203367,0.006408779136767252,-0.01184431920661701,-0.0067840943606027595,-0.00029054685512535977
214,-0.0025328417963458457,0.0025972187410129707,-0.0132625992007818,-0.009496584656198933,-0.009311660825180174
215,-0.0038484720892320344,-0.0009647037476015245,-0.01100019430310094,-0.007626322512940547,-0.018102740524868842
216,-0.0036976608738993116,-0.003568509224004853,-0.007499797034563646,-0.005909743850065163,-0.02346766954552963
217,-0.004254509397661537,-0.0041894484406781495,-0.006098633274809812,-0.00781444595986816,-0.02247759392793116
218,-0.005949086138464313,-0.0028264814766734954,-0.007096848622967529,-0.011809234077237035,-0.015729780969482715
219,-0.0062224736037492494,-0.00022584842012190199,-0.0073094165105681425,-0.012963339144826967,-0.007468741450192724
220,-0.0043629323445347635,0.002106995413599925,-0.005270340808689859,-0.00960895143172678,-0.002028275648979561
221,-0.0029049769164632834,0.0027791776808491473,-0.003403551054144535,-0.00521536565401335,-0.0008691020091104321
222,-0.0030239154619509886,0.0028343012690687057,-0.0032323896044629194,-0.003869162624263948,-0.002046652852824733
223,-0.0041418461273745955,0.0034437858278707914,-0.004078337934240559,-0.007080188190695386,-0.003975789426928364
224,-0.005570872805105496,0.004430521050979879,-0.0047921487922245876,-0.012590062907575729,-0.006146914456786385
225,-0.006670779994720614,0.005068327246423146,-0.0049991232037245896,-0.016777233177432137,-0.00856572201298237
226,-0.007323240022042933,0.004384498968151207,-0.005756778807811948,-0.01818027537845155,-0.011393343781663484
227,-0.007764955830854068,0.002532570300872645,-0.00744303866646812,-0.01698317622949014,-0.013071520353354849
228,-0.008800547876853672,0.00013924012671436508,-0.009361513474406455,-0.014015068130822515,-0.014017731571147756
229,-0.011015183288806967,-0.0027483580959680523,-0.011006452750940988,-0.010574820145434862,-0.017906826778528038
230,-0.012177220584119554,-0.00461092970787175,-0.010657280354741835,-0.006009907573097414,-0.02432750161506351
231,-0.010480012001133781,-0.003271203569022593,-0.007209307376010216,4.33586513083587e-05,-0.02714239542472679
232,-0.0083927956846658,0.0003777788794816929,-0.0027450280833922415,0.003523407212959439,-0.022279588069237237
233,-0.008071514757655565,0.0035665327695092158,0.0006139496811574575,0.0015576724491019702,-0.012047423004249219
234,-0.008472946685031775,0.005549589847034697,0.002914228411070965,-0.0029443895372192413,-0.00027722605648781095
235,-0.008841325863657646,0.00701988951738236,0.004469643479958521,-0.006687013674129689,0.010427095495628433
236,-0.01056879643759756,0.0074585087603360346,0.0038505670395301995,-0.010094592812551753,0.016395041042170072
237,-0.013660237067139097,0.007072792248173457,0.00016688512362020904,-0.013845390797278105,0.01686441582553412
238,-0.015585824950115382,0.0071798695857477925,-0.004400693205557535,-0.016355925640668935,0.01491573572698555
239,-0.014840112048532276,0.007982586222633968,-0.007096495607220019,-0.01615338991600555,0.012202080850937068
240,-0.011751395162368552,0.009141780221315399,-0.00716084014801821,-0.013352821493524914,0.008838633566100028
241,-0.007778789505557469,0.009391099814025989,-0.00573062593065065,-0.009456574889393565,0.004660512064369283
242,-0.005015364270105735,0.006649404725128756,-0.004859236690600092,-0.0063589711958724916,-0.000873428043579101
243,-0.004524926235762649,0.001729822586631099,-0.0059205724158241,-0.004702888129271136,-0.005958619218730252
244,-0.0053992907051422035,-0.0005246965470686558,-0.008521470402171537,-0.004076486091839681,-0.005810658073491643
245,-0.006025276016682308,0.001737128269458791,-0.01093437350745614,-0.003958135507055047,-0.0004921689271702645
246,-0.005749381062453824,0.005556603992076992,-0.011198634928733658,-0.0038720007754818636,0.005272830668975188
247,-0.00495777681631675,0.009305279143145714,-0.00895513054236309,-0.004047872074864649,0.009681571254563346
248,-0.004174214074401507,0.012644899619223215,-0.00540533193380817,-0.003882252594983844,0.013451000928572559
249,-0.003881544563474829,0.014533309573179186,-0.0019917778406350565,-0.0008331594358936505,0.017664408067542884
250,-0.004528310804252427,0.014408495122380073,-0.0005523542566301305,0.004912223387808473,0.02164377648649945
251,-0.005609117804506516,0.013150153953082378,-0.0018115444107317808,0.008906264834886844,0.02317775795448628
252,-0.0062873486848464746,0.011841593227954942,-0.00432176552587087,0.007879234533208995,0.021274537276812597
253,-0.006952900870021496,0.010180433201293842,-0.006527700254058804,0.0029113999247277313,0.016154653660294345
254,-0.008201231108279021,0.007616443124840483,-0.007294728174337875,-0.0024751051445635755,0.009361560111196586
255,-0.00896973464473134,0.005032358703695273,-0.0049398464701203605,-0.005867642274782177,0.0038468452711961356
256,-0.007698847891944629,0.0038632535057764386,0.0009686157844646839,-0.007021212658432008,0.001899534995539724
257,-0.00461161770782516,0.00478382046881634,0.007461713388887848,-0.006958977007333245,0.003925075837590784
258,-0.0018011644591570497,0.00677252263323245,0.009754958551984492,-0.008166084270148938,0.007576354275614894
259,-0.0012942207101894654,0.007005657994092354,0.005509610963907093,-0.012468491337104561,0.00850780815878669
260,-0.0029349846009416353,0.004903722559540976,-0.0022421823525338026,-0.017036157752764545,0.006110376079451134
261,-0.00512278801448767,0.003270979680756057,-0.007804721859796246,-0.016946079900993533,0.0037452733087309856
262,-0.006660655398917386,0.0028821066096592417,-0.008494659260471757,-0.011549855207006922,0.0022206296679894177
263,-0.006846853081444875,0.001811834214913171,-0.006550711107929883,-0.004318104701985414,0.00033064776644195265
264,-0.005794525541916401,-0.00024629393906434914,-0.006478381778222011,0.00030925014467185686,-0.0014753460115320472
265,-0.003675173069979213,-0.0017858692405419115,-0.009868169415873235,0.00021881321896208183,-0.0039370731054545385
266,-0.00048618846941918384,-0.0022860779879090194,-0.013811363883330282,-0.0022744490467246923,-0.009787626947984856
267,0.0027612057246272454,-0.002104564484566494,-0.014659670266762969,-0.0032852243142972577,-0.017554523784911756
268,0.0044633393837964835,-0.0012778556641775704,-0.011878806554946383,-0.0011581603442575006,-0.02102783832317896
269,0.003847469245725053,-0.0004213161380507953,-0.008258600699521373,0.0020767316048151984,-0.017399583053973537
270,0.0019951783835687586,-0.000575042364292681,-0.005980833084279146,0.0030051639128044804,-0.010833092358803196
271,0.00034345629485814426,-0.0018446261039029895,-0.004584640358335679,0.0009199201650135898,-0.005993532503514437
272,-0.0009913404025516537,-0.003233985510255915,-0.003086890138740438,-0.0019577745949111813,-0.003101160363400432
273,-0.0023322266903765126,-0.0038460327107200406,-0.0013002185210995517,-0.003252063578157977,-0.0010153776405512523
274,-0.0037149961604365125,-0.0038310620517179044,0.0003201426809082226,-0.0030895969940612496,0.0007345183989315206
275,-0.005035412414308219,-0.004096550798557398,0.0008226888184679637,-0.00386808907789826,0.0022830557424655695
276,-0.005258993441568487,-0.0052741352035239235,-0.0005344327766852284,-0.006014473918189462,0.0017180488779678
277,-0.004440494778809321,-0.007381828189152602,-0.004451471569706634,-0.00825138757977087,-0.002947491430469048
278,-0.004024199426631954,-0.009487372779383876,-0.009860194085137133,-0.00961764449058184,-0.008956789205761992
279,-0.003725196895787704,-0.010265473349903437,-0.01364468085039349,-0.008488430214659492,-0.01231270595357266
280,-0.003238138476322642,-0.009826618400286903,-0.014704645811412075,-0.004528793394085571,-0.01296795480519821
281,-0.003370633643737807,-0.009081182346815,-0.014031835518214929,0.0002602145032511824,-0.012189424104494107
282,-0.003352889409938152,-0.0076143662672090336,-0.01164431916973219,0.0038558655361597203,-0.010361231227225619
283,-0.002089743539331341,-0.004769653414002049,-0.006871056089946308,0.004971173862177421,-0.008881513741892895
284,-0.0012783886736743159,-0.0016581667723142084,-0.0004576831251580969,0.0032133705173099025,-0.009518218684437316
285,-0.0024801797935003647,0.00012090191813222082,0.0053539161811895445,4.70762904907781e-05,-0.012279298215995582
286,-0.004266672658048952,-0.00047317111305800863,0.007897456885355937,-0.0028538225847041434,-0.016192325338795156
287,-0.004878914448144672,-0.003161159849301051,0.00638070029515499,-0.004923976316261248,-0.018781261973332766
288,-0.004196083733984447,-0.005804157019125467,0.003573689874098519,-0.005000193020195901,-0.016591091591876238
289,-0.00360751525691034,-0.0066380654986267365,0.0013242616803798293,-0.002834716833276848,-0.01009312874735538
290,-0.0042205863121221295,-0.0053751608312014535,-0.001249325740713294,0.00044116296804463153,-0.002427280044325012
291,-0.004286282942803037,-0.0022941470454689475,-0.0030810934610020204,0.005153467906223057,0.005648604795376369
292,-0.0017917327223998004,0.0012332390300886975,-0.002463450136563358,0.01118021660870683,0.012834855371286277
293,0.0008711267694514428,0.0023752458262380964,-0.0012831003977489502,0.014977350473103408,0.015598928961092634
294,0.0005961757802027031,-4.430318720821655e-06,-0.001704158127080358,0.013528960718217665,0.013424345481663422
295,-0.0012308941837257934,-0.003497843624308111,-0.002385347924072314,0.00969585052965081,0.009600525167108102
296,-0.0031697118035642472,-0.005899638005477368,-0.0023934197707545586,0.006935891015672758,0.00637125884397033
297,-0.005673734319921078,-0.006388687894230946,-0.0021002687856971915,0.0043709277646248315,0.00354967258784043
298,-0.008521770873582343,-0.005385876434210068,-0.0019098303039993103,0.0005768008553343183,0.0002207335848362927
299,-0.011380030352876299,-0.005676841863771697,-0.0025649050317986728,-0.0034215027681790437,-0.003617176019198503
300,-0.013526686554422697,-0.007874611650338668,-0.0034132301284215717,-0.005622697415944001,-0.005988532975659258
301,-0.013625386120516154,-0.009048487974952528,-0.0036141705842435575,-0.005825833066748441,-0.005150362402208882
302,-0.010494709578179561,-0.007999869976185818,-0.0024976239335955624,-0.004326916178017687,-0.002006492255329125
303,-0.005101731105329326,-0.006394917088855265,0.0002991116473364899,-0.0019433010250115134,0.001097147809303243
304,-5.520687153286745e-05,-0.006265510689802499,0.0032739359580602496,-0.00019036345684348276,0.002363774194178794
305,0.003402593735171829,-0.007600305370295143,0.004751534973379474,0.0012110535883434407,0.002370714128226166
306,0.004337606476515959,-0.008333886477972802,0.005367625136826292,0.0026121850576833346,0.003030092513457819
307,0.0019332546305630735,-0.007632943683392569,0.007484627955714622,0.003658662890112506,0.003637126863142543
308,-0.002378549216935214,-0.0064237655664101095,0.011258340050007537,0.004805480053896287,0.003378731268595881
309,-0.006065591193207237,-0.005571217600501199,0.013385394393866235,0.005883636208879955,0.0037424064518676125
310,-0.006631589469735143,-0.004876021129341853,0.011939281538627817,0.0066306857499865875,0.005462464241934919
311,-0.003056537010437264,-0.003916335560183626,0.008577097031873053,0.007707317316411099,0.007670464410972489
312,0.0024379223553749768,-0.0027018322610152965,0.005259814231210869,0.008803590360218877,0.009978619477970496
313,0.006916297698021654,-0.000567237473705508,0.0026749484277210646,0.009486367151044523,0.0134129055381404
314,0.008822436658469542,0.0015812649732117247,0.0006719690077881839,0.010005109015560763,0.016988569830135816
315,0.00834092121562668,0.0019398223666297484,-0.0004968360354749267,0.009686577093253499,0.01900509263272794
316,0.007684342516716973,0.0015896467439972457,0.0007512657027529782,0.008657931078674767,0.020170051678921278
317,0.008050173398574709,0.0016645794149369609,0.004365416128522386,0.00796054188858725,0.02064156540899253
318,0.0073822386536528325,0.00022136464231705107,0.007253509596553732,0.0062811864594607926,0.01887886722075747
319,0.004198052671607429,-0.004201867746259655,0.007794029999963443,0.002318388669375206,0.013552768444069517
320,0.0008112639999887048,-0.009036958660659514,0.0075604180901579585,-0.0021394594657912504,0.006328209445877156
321,0.0002889106973010413,-0.010903065113275164,0.007894840904953683,-0.0050038964080342556,0.001298601771404303
322,0.002371174538110896,-0.00985200209040204,0.008866748709403008,-0.005680807133619435,0.0003089129035898892
323,0.0047765375171468566,-0.007346383617446375,0.011017585107363673,-0.0036959778605271444,0.002159954498860624
324,0.006122768817684309,-0.003995471408794157,0.013910095784633038,0.0002438853942063686,0.0044482916229807296
325,0.00609135825249148,-0.0005019941839491385,0.01521084969403254,0.0036325658401874955,0.005700207776607228
326,0.005151596759181312,0.0026141422131884004,0.0141337463281913,0.005397435036147161,0.00678066882411373
327,0.004137227891714144,0.005195873647665537,0.01214992103663164,0.006938739498698512,0.00900743948243626
328,0.002767422356164214,0.006498263819127256,0.00954935353472507,0.008989764104102531,0.012355993167145926
329,-0.00016930084175880092,0.0055887676126883,0.005193273933449127,0.010267754178037932,0.015054780038813503
330,-0.004277035178394605,0.0025166063596949117,-0.0003091464839895798,0.008774042972942622,0.015288979439561935
331,-0.008012207196206041,-0.0016222008168816752,-0.005369440464174412,0.003135577132292435,0.013145143337322255
332,-0.010574372070832292,-0.005064725110066211,-0.00874195194136088,-0.004633253549512528,0.010262084586157535
333,-0.01167268806957816,-0.006703123892202033,-0.008867177720727815,-0.01043845879905331,0.008164964705874809
334,-0.01121115450659023,-0.006840461487205851,-0.005553859682350759,-0.013151367070686714,0.006563864627513329
335,-0.009687732825936933,-0.005783668770723546,-0.00044579066510118615,-0.013654027126274414,0.004678259270996415
336,-0.00807208536774694,-0.003929385732637008,0.0042986561223496535,-0.011983026567326535,0.0029730647560914933
337,-0.006477070257984484,-0.002109831397890667,0.006924461912987674,-0.007881649707380567,0.002197760304812133
338,-0.004091481291885715,-0.0006509382143615318,0.007437683719751118,-0.0014074714893087647,0.0020604035220591387
339,-0.0008111129727036313,-0.00017697587431169268,0.006771319170340705,0.005402650790361268,0.0010557217514417046
340,0.00200792374079212,-0.0015094241180007345,0.004838876085565894,0.008271153458476182,-0.001288198408757456
341,0.0028438982544947504,-0.004432856467862857,0.0013795098796792063,0.005529861631375313,-0.0037935124666933287
342,0.002047699142090471,-0.007360008690736749,-0.0025435876739968353,0.0004343697586591326,-0.004769999457588002
343,0.0015751087073811248,-0.008020672750956729,-0.005200617955411872,-0.0028981724873207945,-0.0027836023719119626
344,0.002534196532783321,-0.0063523465274174665,-0.005531887539875184,-0.0032218914588400334,0.0009178127440971736
345,0.004512262550149408,-0.004476808489462535,-0.00390811852870007,-0.001934930149021224,0.0032145286133192083
346,0.006402840544173413,-0.003610366579742308,-0.0019072701338603577,-0.0009337040310688643,0.0029009338432872413
347,0.006482401414159159,-0.003237249824400041,-0.0007043490028506721,-0.001138242100566648,0.002256596587576605
348,0.00484994939877593,-0.002300679334698987,8.993792352054949e-05,-0.0007400114856614799,0.0032823816357335257
349,0.0037125895591669945,-0.0016194003278662173,0.0004992348379200478,0.0033359279959698346,0.004030838768172
350,0.003377964085671628,-0.0031483877898239535,-0.0009003426510185094,0.009717554138894732,0.0029588040001148814
351,0.0022992562495188855,-0.00672734837562577,-0.003937784353498406,0.01289108374165666,0.0013555698740584225
352,-0.00044103725026054343,-0.010040128947739322,-0.006514587856559329,0.009596874392056205,0.00042547977511752527
353,-0.003627692859986083,-0.011025415723655906,-0.0072731918822427875,0.0026153901976417216,0.0007153242683513673
354,-0.005042344558117755,-0.010181343907902339,-0.006108326864557731,-0.0033631598168715397,0.001506995378764723
355,-0.005216084373161891,-0.00945724478291115,-0.003348358193136067,-0.008001469629821362,0.0006739078484985443
356,-0.005926855132939336,-0.009622001921912645,0.0007297889576780312,-0.012659085964209728,-0.0030116575675727428
357,-0.006550645614498116,-0.010151234497467793,0.005859050614945587,-0.016224544887900337,-0.009085139912540058
358,-0.0066339231700149525,-0.010511941289095108,0.01088016579858304,-0.01706396639579822,-0.01578118133545576
359,-0.006894295595263085,-0.010841066967706389,0.013296301766919906,-0.014481421293070998,-0.020555047593616836
360,-0.0067577841117816145,-0.010477368914244356,0.011918810832076814,-0.008741781195347015,-0.020375054028879732
361,-0.005668725773978696,-0.008347639485327362,0.008232336911695693,-0.0019709200290002043,-0.014210537016179824
362,-0.004763181321658541,-0.006055006129607574,0.0034539626343185006,0.001700743082254095,-0.006378755351618949
363,-0.0046423436040122995,-0.0053954447242316825,-0.0016054324624460087,8.833303278356214e-05,-0.0014689698803745494
364,-0.004302478674915289,-0.005426437580311631,-0.005598354742355953,-0.003764378269114289,0.0006536941957133672
365,-0.0037556013938804702,-0.005016114622732287,-0.008415298459192706,-0.005978675206235467,0.0018337750038073342
366,-0.004016378702245883,-0.004017011803845894,-0.010113805007196696,-0.006173385924656061,0.002820591640202886
367,-0.005297063026354059,-0.0027811533250146738,-0.009449444518709913,-0.005132872028090886,0.003453257917924537
368,-0.006834349166282268,-0.0011562439932604658,-0.005133011934017455,-0.0014325758759610259,0.004655605588427922
369,-0.007351192946110454,0.0015591060031670274,0.0016098553701681853,0.0051276049606476665,0.007805776280686378
370,-0.005861002203411715,0.0050013737816482235,0.007053716278259711,0.010648468799732184,0.011989279512659186
371,-0.0023304865395319748,0.007248542416510147,0.008702212047828587,0.01243023960075137,0.014161111736040132
372,0.0009714391613951795,0.006016698583487905,0.007089628603989388,0.011720518039325266,0.012407881756467792
373,0.0012976850359284016,0.001803572008080839,0.005592543427051114,0.010139851495296932,0.008983355557675588
374,-0.0008601486698108611,-0.002436288806563117,0.006865923923687356,0.00743364414595392,0.007322320698857415
375,-0.0034531534365947894,-0.005525903886316944,0.009130295793315054,0.003733092720068545,0.006947118193246208
376,-0.005813699341292668,-0.007561410680889178,0.009053706331451476,0.00023988781092901764,0.005915650669915942
377,-0.007517886348442752,-0.0073687491218650866,0.007135440026106861,-0.0011156906485984695,0.005487445550549801
378,-0.007438018352585855,-0.00456616242665114,0.0071168141430652575,0.0023156323318128925,0.007348557724297054
379,-0.006171180226904103,-0.001661782570048452,0.009346017418978484,0.008908498932781984,0.010018964659008525
380,-0.0058229116125116465,-0.0016709318156293998,0.009798389503717869,0.012947484772766672,0.010848578106213922
381,-0.006636469261444798,-0.004398930267315091,0.006341168632788741,0.012756911684453743,0.009674189757017311
382,-0.006602600083874023,-0.006646466001522449,0.0015270278567950772,0.011608108638694473,0.009132072224316745
383,-0.004366669221325879,-0.00675205573255172,-0.0016572323308488418,0.010909825550459098,0.010607754604341008
384,-0.0011537657413137586,-0.005494069841943276,-0.0028939001154025023,0.00883259218648776,0.013483204752597868
385,0.001010401130768384,-0.003525666048649773,-0.0027733630797209825,0.004844491584452337,0.01678745372563953
386,0.0011793207491980382,-0.0018123436141934657,-0.001811768449350129,0.0011541349513176592,0.01824710251986217
387,0.000285648838921103,-0.0008654017669867052,0.00014251669956417623,0.0011228379309243509,0.016577940567541
388,0.00021208260942177364,-0.0003047378870221519,0.003555877372875019,0.006613937075942827,0.013099895867383552
389,0.00048488866282559047,-0.0011033233859388972,0.006998769738263942,0.015859535492597734,0.00959385126036732
390,-0.00028496961825868485,-0.004012650856598998,0.009443359166676695,0.025422203312854025,0.0074362855257166655
391,-0.0009487455911388048,-0.007692854876144289,0.012699421550080086,0.031969740829337415,0.006491271447686001
392,2.8522925252765253e-05,-0.010802926874472825,0.0173020401599773,0.03287653771582967,0.005523504366929341
393,0.0032510303976237536,-0.01220070233846539,0.020797432582403148,0.029238381911211045,0.00495859418120899
394,0.008534888017546136,-0.01134422568464398,0.020967313161629107,0.024824640697433047,0.005735632291220884
395,0.01324250659499791,-0.010066162373783698,0.017600026625157493,0.021592651689147677,0.006198583106777028
396,0.014502538956755235,-0.009611424782963488,0.012573148944633338,0.019933396415165967,0.004377357410186196
397,0.012982895637380452,-0.008419242395744769,0.008461816202681695,0.0207589844318423,0.001951455108870449
398,0.01043184932261205,-0.005751759863108653,0.005554168397188648,0.023408873468120213,0.0015707109567148555
399,0.007492027051662922,-0.003091710743065859,0.00299058983805996,0.025590436143644764,0.002720970872256012
400,0.005551532577912522,-0.0013471389407901141,0.0024259418052079732,0.028048941045619794,0.0033679516025583085
401,0.004590512625986477,-0.0015025764265061026,0.004263405698271186,0.03204307529867564,0.002136212610681234
402,0.0022904394575376926,-0.004413146906883258,0.005135074620257544,0.03509712921622729,-0.000630898252596593
403,-0.0014009105389754624,-0.007801363679657156,0.004144491073115254,0.03465390607065928,-0.0031431951325392323
404,-0.0035689603618916667,-0.008801258435856382,0.004328731430975233,0.03127378160910549,-0.003919304559548262
405,-0.003139901948553173,-0.00797607541512209,0.005784257816628285,0.025623250156287587,-0.002731716418034998
406,-0.0014729272855048092,-0.006586010787927128,0.005858678437492845,0.017191418682627867,0.00010963408044721223
407,0.0006699736519826179,-0.00468741634332738,0.004387610918112342,0.007044213398416647,0.0037050798513824303
408,0.0030481303663493454,-0.003332286784565107,0.0020381278346794504,-0.00250459230911697,0.006018659741931106
409,0.005393937022817478,-0.0031624050202373895,-0.0005394341155678787,-0.007886097611181576,0.006236896538716556
410,0.006560813249137886,-0.0037078332144793646,-0.0022861229426322967,-0.006881063454770184,0.0037015192752134145
411,0.005315083622812275,-0.004449574662642305,-0.0031776362540144733,-0.0023212650191146386,-0.0020447128900502242
412,0.0029127288981157426,-0.004822710020712901,-0.003332372438132369,0.001944132187515936,-0.008422615001304111
413,0.0011237916266203247,-0.00527407334561115,-0.003060118579413479,0.004021316267111232,-0.012599138581175331
414,-0.00018508089997307903,-0.006226243741587005,-0.003393286634436924,0.003042400434289343,-0.012209418725978163
415,-0.0010875290359930727,-0.0065224378269729,-0.0045287534889483705,-2.0318164547270585e-05,-0.005572739197003562
416,-0.001282085772566137,-0.005653378844898213,-0.006076752259985315,-0.0031719353404388883,0.004108177978150051
417,-0.0011426310109782884,-0.004773046889629804,-0.007704026902762396,-0.004829074181561272,0.01058021451807469
418,-0.0006377241954775746,-0.0036641086529047118,-0.0076222314114638865,-0.0029611034270335687,0.011770650642339495
419,0.0002969167154584941,-0.0006415143623168854,-0.0030195810694105254,0.0033806534498893267,0.01110112268908806
420,0.0003568434593575643,0.003013300817215805,0.00580155725560752,0.011083968433998285,0.010450929836324289
421,-0.0009170637622537842,0.004114036740608841,0.014468143508367304,0.015711432709259322,0.007982040007605178
422,-0.0015167972060223902,0.001944427135560364,0.019422950547502357,0.016277816434799842,0.002830504406150431
423,-0.000352849927545549,-0.0021135631128747193,0.019976602587252576,0.013900589319008519,-0.0033096072588433036
424,0.00196201643460256,-0.005475822318259572,0.017152012730871666,0.009812287789649411,-0.007478692982549869
425,0.004456204298118355,-0.0058373679990746125,0.012280691024458322,0.004913930743369669,-0.007222727178435136
426,0.005859509058894832,-0.003601280275526944,0.006274268362315278,-0.0005542295854964907,-0.0029936575365828322
427,0.006941597432706762,-0.00038125595127938225,0.002499865994221508,-0.0031270737308435105,0.0014577873278105813
428,0.009344402173389771,0.0021741490414818277,0.00380612823487797,0.0013877961386683832,0.002499295954100793
429,0.011551985506683219,0.0018844664967125235,0.006567016283695369,0.009236595123581225,-0.000513332402313907
430,0.01140999632377318,-0.0005351132641736948,0.0063260548108798765,0.013015162168614985,-0.004059255409909251
431,0.009121562492724524,-0.0021962236697753035,0.0033592322314595115,0.01065530788316166,-0.0039027056671978077
432,0.005790090589252135,-0.0032749216761576946,-0.0003028868129765807,0.004754821313834635,-0.0012890248444957007
433,0.0032196410937885534,-0.005431198783253958,-0.0026548144120928305,-0.00058537812030244,-0.00031029950453175935
434,0.0032760313263967495,-0.007679738650940711,-0.0018386363619261386,-0.0018681758793214162,-0.00046438244213819053
435,0.004622087813971309,-0.008101456441998193,0.0008154909344503169,0.00036210686530118065,0.0005300889068840768
436,0.003719505504963829,-0.007535253359714465,0.0016402646989959267,0.0014355908205785624,4.242894195481087e-05
437,0.0007958000436875041,-0.007618584266657885,0.0012914685643642203,-0.0012461957317485349,-0.004425982258505713
438,-0.00028352111340096506,-0.008186314712888575,0.002993880055247143,-0.004497602285516413,-0.010383104084492412
439,0.0008370712604406842,-0.00928091971256374,0.005497188778972111,-0.004831831969365153,-0.015036314413729407
440,0.0004306706746488437,-0.01068680243413066,0.005929843301061783,-0.003210710426023928,-0.01746693140891011
441,-0.0020692695330519627,-0.010804014146820393,0.004844280946763057,-9.779040294741824e-05,-0.017952758301879645
442,-0.004067449805834105,-0.009626641044687915,0.0033926787345008244,0.006519343749092564,-0.01855771489231711
443,-0.004475957593065072,-0.00817492192579761,0.0013871101704862887,0.016352175092600972,-0.020194395856795326
444,-0.0035880321632672358,-0.006287827426837644,-0.0012234334350919448,0.024519138629256955,-0.021272969425628573
445,-0.002841463501032605,-0.0039382777220884615,-0.0038853791629330676,0.024343679625368042,-0.02081987866283986
446,-0.002584845379803361,-0.0009386090826327806,-0.004783693647323276,0.01611927064359953,-0.018534586951428737
447,-0.0012777066403685492,0.0028077700737230873,-0.003447541945002776,0.007041626742827884,-0.014889575961644537
448,0.0006536480404603425,0.005726525242558294,-0.0025592135329235246,0.0018602573451023724,-0.012137924918795428
449,0.0023035790451273208,0.0068557142657420375,-0.002948894906678238,0.0017410578078159674,-0.011123952675094327
450,0.004626613535011795,0.006729003252352566,-0.0026370702053708744,0.006164434587062011,-0.01064134832936069
451,0.007277523863206667,0.005200089010698476,-0.0013772105166717649,0.011744431403190833,-0.010417523637624458
452,0.008627366288021366,0.002633350721116391,-0.00011039836228587557,0.01383586697311147,-0.0098177530884358
453,0.009047632929877824,0.0007992192672224219,0.002125514579559132,0.011496137867391698,-0.007060969562144762
454,0.00966085433584506,0.000901550340159908,0.006746636717909615,0.008470497840422751,-0.0013266288026353241
455,0.010259343498166843,0.0030972536086732176,0.012713905433577486,0.008653219195341457,0.006906032119746318
456,0.009524775640318114,0.0060369432366672105,0.016758825002701556,0.011080895755284932,0.015134891280481098
457,0.005920706188805688,0.006974277480716334,0.016305281743257558,0.010805215050523278,0.019337978093701715
458,0.00038041184491170255,0.005154230821726465,0.012574484886596888,0.007461537882477596,0.019158237819633613
459,-0.0030657945106056317,0.003128689080332718,0.00968656998097596,0.006415586333488103,0.019126188603645667
460,-0.0022143100401444214,0.0025289254910429585,0.009548087785575978,0.008369259266066752,0.02064252445553475
461,0.0003070200374787587,0.002056159090732706,0.009636946658903914,0.008691531768410012,0.01888252101406416
462,0.0022675742743815813,0.001496582495784779,0.008119495527026153,0.007125786579157655,0.011229167047352995
463,0.00417672399662372,0.0017018474334324725,0.007211424911377481,0.006606986571121608,0.0005867540604904554
464,0.005926867288790637,0.0019465088798642086,0.008592625146946949,0.00623854618701279,-0.009201351611352384
465,0.007132211550350452,0.0015490832698552646,0.010036506467242213,0.0037217180404969254,-0.01588188242736014
466,0.007795136660439681,0.0003127601168604213,0.009391977636726286,0.00035433761464652517,-0.018859311134668082
467,0.007500954911610275,-0.0019017096221457753,0.00769201863126111,0.00014021671352359232,-0.017950716491746156
468,0.005996279732762023,-0.004334810984173876,0.0056845170861320946,0.0043111009353033174,-0.013814486649794153
469,0.003585403096162722,-0.006284993822954423,0.002244054674722311,0.008663966394033695,-0.00887395552278794
470,0.001524029598171764,-0.007665147361614454,-0.0020850820223322322,0.008807674338407285,-0.0049607822826591265
471,0.0018741649934225463,-0.007825794841938839,-0.005057824592512194,0.005099579637886888,-0.0019819721762751796
472,0.005314426098628756,-0.005925265261489663,-0.005658890478560597,0.0019588339359909003,0.0009139652345864301
473,0.00997842409138465,-0.0023289420967438665,-0.0036650613247462605,0.002271359578439611,0.004065947139208968
474,0.012689467272479745,0.0005034852367135054,-0.000672110572217557,0.0026272479239890316,0.0049505354407174545
475,0.011431705729925603,0.00046228516354522456,-0.00023339915923121078,-0.0010560835191532614,0.0016091586609241664
476,0.007023735291409612,-0.0010026705127205442,-0.0029344703801402984,-0.007321574872419721,-0.0030189026805253734
477,0.001909454755452738,-0.0014153134449463786,-0.00615236167312044,-0.01252737748779075,-0.005882213391863102
478,-0.0018120690169083566,-0.0007860126206355685,-0.007822959499628747,-0.014798767741071875,-0.006893715999739553
479,-0.0028636412886281653,3.2800847087895316e-05,-0.007203820985142281,-0.013300026935566537,-0.006685868254797028
480,-0.0012301868035254919,0.0008539096598819681,-0.004767473688675863,-0.008093387841231928,-0.006454354165688795
481,0.0019100977694027261,0.001320095125850805,-0.0017432479696366371,-0.000779833520137699,-0.007598277301812271
482,0.005177055546097723,0.0013152684903263347,0.0004227748543988116,0.005524959085198765,-0.009660664785989396
483,0.007678586119266219,0.001420885527636089,0.0009541788033547519,0.007737953518613803,-0.011171239719220313
484,0.00944884301610109,0.0018960529766002846,0.000327725012015009,0.005496127591270483,-0.01199055358225744
485,0.01093837772058027,0.0018204574032553206,-0.000399807528267854,0.0009590689685081533,-0.013240498396185203
486,0.01156526155728517,0.00047521378160337885,1.0159066350041171e-06,-0.0030086704513053743,-0.014647698834289742
487,0.010077816887646687,-0.0019729792398769912,0.001154196448855791,-0.00503127657201345,-0.014740165640803117
488,0.007004277206290449,-0.00455965793589731,0.0008974149295801889,-0.005906951542010904,-0.012935176488685196
489,0.0033324746429292,-0.00601844943484248,-0.002006072267479515,-0.006904984489024767,-0.008807512550168586
490,-0.0010881798889792803,-0.006119872018906826,-0.0061080689362075615,-0.007562010176064817,-0.002263065407047405
491,-0.005332161552698748,-0.00477708885157346,-0.007102496753131688,-0.004771926634743885,0.0055276526975108105
492,-0.007078485268297555,-0.001624442051266343,-0.0007798658529867042,0.003787541869473696,0.012585952846291134
493,-0.005690223224266171,0.0015738582158163895,0.010232590729296052,0.01369602399892988,0.016063870030070645
494,-0.004025375243652109,0.0016094182920884312,0.016563382722161964,0.016293260622432866,0.014131776123308263
495,-0.004972317141487055,-0.0009762112091877964,0.012845817690354281,0.00905557794769156,0.009163519387037949
496,-0.0073008676195778135,-0.0021046536168834377,0.003594438097576978,-0.001815362935235898,0.005547983124835447
497,-0.007515443238663167,0.0001483365809992387,-0.0037175173183050577,-0.009397555557672892,0.0050440582293184415
498,-0.005161615239243567,0.003863418788116366,-0.007233637282798595,-0.013631949586319875,0.005637404907354389
499,-0.0030712196733394294,0.006307084971302704,-0.00935666385145319,-0.018392500224235265,0.0044621030986686525
500,-0.0025019422810460216,0.006827397162849929,-0.011155861000610865,-0.02428122627087517,0.0008372212607690629
501,-0.0021762550607761543,0.00639625405547236,-0.011360609990662117,-0.028909665116968568,-0.003409468506463709
502,-0.0015210730677570469,0.006099162621537403,-0.0092293867410496,-0.03139981598016743,-0.005831637740636341
503,-0.0011279534943920675,0.007263385304226158,-0.006114918334444708,-0.03259549797501436,-0.004735573233696562
504,-0.0016541788043278733,0.009982727852174586,-0.0029713193315102963,-0.03233488440845057,0.0006194107315511502
505,-0.0029181072363281377,0.012496205600040972,0.0012838538068388732,-0.028864812638680584,0.008307245245881147
506,-0.002873017377125267,0.014049684349122326,0.006747469478043242,-0.020801069082711798,0.014615089434292279
507,-1.3715543369407577e-05,0.014476223154476591,0.010219923918345532,-0.01037690196084219,0.01732303441595943
508,0.00427707627051361,0.013083364570583617,0.008988280865291343,-0.0027647842342937512,0.01639301457402341
509,0.007389440488344589,0.01019233333193626,0.0039647814718168405,-0.0015319003047311577,0.013106756317198444
510,0.0078536542719509,0.007264742788200123,-0.0019382115334744623,-0.00581472985495372,0.010287833320926735
511,0.005973383545196204,0.005646936447907374,-0.005226680758486415,-0.011249746436961097,0.011379554732723887
512,0.0033021580239888243,0.005742685286751959,-0.003705772193841593,-0.013614374182551469,0.016951598408888765
513,0.0007756556559721658,0.006456436126459695,0.0004906944087055102,-0.011998161658555039,0.022554226938498092
514,-0.002084085802108613,0.006190464744489749,0.0027949370535006865,-0.008313323890331464,0.022732138928110626
515,-0.004321228912945505,0.005396092505066188,0.0018140542096025292,-0.0030236155434269205,0.016849634660688083
516,-0.003625945460835468,0.005221548937759045,-0.00041493715832129416,0.003988066894306348,0.008213620360465058
517,-0.00059047819556473,0.005755133213546598,-0.002736995656167584,0.008904497531143259,0.0016194386324743868
518,0.0020804002203087834,0.007190595310816671,-0.005255560538678342,0.008493205540403564,-7.468078779171408e-05
519,0.004152279732802191,0.009519941125698341,-0.006680683553740246,0.006219578518964038,0.0009562615601635587
520,0.006182618567473729,0.011126448998583439,-0.006404992129865273,0.006258666017850767,0.0005890680366287723
521,0.006794712286037827,0.01020841186953658,-0.006457546395244376,0.0067242178575712625,-0.003111467437028399
522,0.005542185068229225,0.007412594814974623,-0.007944939435630207,0.0044388198683707955,-0.008518828560409482
523,0.0042926296130476665,0.0049069176247296216,-0.008639211872448628,0.0003213146567263309,-0.012799005741644337
524,0.0036162752168234346,0.0035730094425144997,-0.006159802517121806,-0.0039935554492076175,-0.014977452868944328
525,0.0014439129441322638,0.002284416540086705,-0.0014406893226733884,-0.009426727210267917,-0.015605946379168815
526,-0.0021620027634959445,0.0004467804475240307,0.0033731772745488288,-0.014472323356529425,-0.014732745122051555
527,-0.004782458399500292,-0.0013757471790570549,0.006824371465639555,-0.015291515699716613,-0.0122399675509555
528,-0.005759155583448331,-0.002293033860511694,0.008195121453805186,-0.012698379490244808,-0.007543633210841592
529,-0.0057802597110981685,-0.0012032754606119593,0.007315487971015832,-0.010869484522360341,0.00037904941555981286
530,-0.005725479402400029,0.0009332848409541255,0.003606260366770802,-0.011857750449446038,0.00890870795232343
531,-0.005941213484987004,0.002500369378136231,-0.002322446585635234,-0.014436708996096026,0.01447929672177716
532,-0.0057196464456348945,0.004037179285708065,-0.008047701561503279,-0.01618328023593454,0.017460655007868416
533,-0.004813572537477368,0.005966337296799372,-0.011712198077532954,-0.015575076570275685,0.01847205802394968
534,-0.003960507803343515,0.0070079336692647175,-0.013118687038933952,-0.012774353749416026,0.01661448759822252
535,-0.002815191212938921,0.005789910274583914,-0.012480887833090419,-0.009003154891920714,0.012032138057574252
536,0.00014199228599285282,0.002819039981976833,-0.009490319873014082,-0.005164347248419921,0.006598637983531509
537,0.003416084644424059,-0.0006062232969526328,-0.005432671680272582,-0.002504751813977304,0.0019942147326921906
538,0.003937329703133344,-0.0040960254254579125,-0.00245965028754786,-0.001859199504048536,-0.0018671428015450736
539,0.0018620252316816316,-0.007111092577753061,-0.000814682930544554,-0.0015377518533874796,-0.005145018681024874
540,-0.002201633468717786,-0.008392758797479057,-0.00017486201524201798,-0.00030670555362768195,-0.006033668949611849
541,-0.0074989901166915875,-0.007415972987947928,0.0008266953648525018,0.0017150211524065125,-0.0035544525584181186
542,-0.011125346071085881,-0.00593082881158633,0.003085731701653997,0.005520020679973733,-0.0015336518758830339
543,-0.011178607735818523,-0.005555604570414465,0.004547389681217109,0.010872030086702652,-0.0036506872528314378
544,-0.007570921145059426,-0.005312947705979716,0.0049157542730422785,0.014475288845005036,-0.007753678162447644
545,-0.001619864193732655,-0.003882659125051402,0.006656015018186769,0.013148575292720822,-0.009872083998749758
546,0.003703035754294855,-0.0014962130685696473,0.00998440925483961,0.0072094448007434695,-0.008407233889648974
547,0.006740914458962082,0.0014678441240625066,0.013287782473166407,0.0019465951464901986,-0.003394045289549485
548,0.00786020739903193,0.004598500300055966,0.015622619218937442,0.0028316204794459807,0.0034677243275239725
549,0.007010270887387989,0.006839303267313355,0.0167088185997501,0.0069202261144428985,0.01000754406882434
550,0.004560302238902448,0.007762480303209785,0.0176597636398587,0.007156039126215446,0.015088358096708516
551,0.001927145889672663,0.0075800348331413105,0.01920254521428982,0.001903494659715318,0.017062467701127227
552,-0.0001448827976896516,0.0069284274444261894,0.01970422408695885,-0.006207978269066301,0.015576987887720214
553,-0.001263659355550299,0.006484682391938397,0.017953046035165284,-0.013395530494667527,0.01281654298698194
554,-0.0004147704394846431,0.00684507351874431,0.015381014303579433,-0.016054077023060918,0.011657629317955161
555,0.0021567977460218335,0.008284802984199249,0.013321544160053466,-0.013727159102625364,0.013620466414695413
556,0.004813068500286347,0.00980065753582521,0.011538976262813869,-0.008456799415861948,0.016889455992848364
557,0.007356106384711266,0.0108652197704187,0.010463634424891115,-0.0018074074735890742,0.018734568489677625
558,0.010150598551133637,0.012247542135472795,0.01085603819184178,0.0042512988778759375,0.018657305086410246
559,0.01121906254206458,0.013184675565847917,0.011269203426147355,0.006063252270814185,0.016906654743469113
560,0.007883881669381757,0.011194979353706025,0.009327829696613693,0.0009623198735887914,0.012826738894739955
561,0.0011323465753709434,0.006354651033624239,0.006571393733891919,-0.007801523010455379,0.00747130865480104
562,-0.00505488212736764,0.0019902613408362747,0.006577262497120926,-0.01297020886803708,0.0036462578319433466
563,-0.008456597938806609,1.4581093633302432e-05,0.00816575901360643,-0.012197417955630169,0.0015453205464383906
564,-0.009293973578367793,-0.00022735774524685384,0.007479353531514686,-0.009320990199650285,-0.00032412835548654187
565,-0.008291083353016586,0.0006481498608873577,0.004076891065525156,-0.008137493974533387,-0.0018114406141088205
566,-0.006377753048217551,0.002291712630653513,0.00010330687397511007,-0.009292759817841213,-0.0025878968652343973
567,-0.003939195192129405,0.004533114472900934,-0.002458070044678869,-0.010538654445607152,-0.0021083685134094133
568,-0.0016357237954432529,0.006826384067350874,-0.0026448051588907947,-0.009971344291931097,0.0005652258236887923
569,-0.0007846492266182112,0.00787010116956729,-0.0014023021184914088,-0.009135835096699504,0.004499218790605473
570,-0.0014683890680662426,0.007415951475772914,-0.0008651130848400363,-0.009865880788191636,0.008249391613363482
571,-0.003223708288576931,0.006159434986804367,-0.0015641604507317442,-0.010774243137531283,0.011067866882317853
572,-0.0051319271478148685,0.005020654943255517,-0.001286071111106544,-0.009567747337270118,0.011920939370417645
573,-0.006292844711768593,0.00486569218761909,0.00054284050533166,-0.008164475796766183,0.010663758017113554
574,-0.007080696728072426,0.0054317443599530835,0.0012132311111177367,-0.010675904115696275,0.008871386971433056
575,-0.007365976777602044,0.005839124673688579,-0.000386804911744168,-0.016023562907985758,0.007660028582971262
576,-0.0073976855999099015,0.005651530756789177,-0.0033537888187667357,-0.020610020654034337,0.006841445834320542
577,-0.008138599769429494,0.004924932101488082,-0.005947106171309572,-0.02230276875018593,0.006185064151751045
578,-0.008804840387844112,0.004076119935981001,-0.005347654008601573,-0.018176462756869856,0.005499918478812931
579,-0.00797088359350176,0.003181329124321644,-0.001712266917122927,-0.007990438051033213,0.0035523665722748893
580,-0.005875891510408061,0.001489104072534668,0.0008714004663616695,0.0022265220749557208,-0.0010465871282063191
581,-0.004312702322547586,-0.0011471652365588716,-8.065643407796622e-05,0.006026270248603188,-0.006615473921886463
582,-0.00422047038317021,-0.003248668094186452,-0.0030397698605230776,0.0027667606980965056,-0.009071437885406078
583,-0.004883487588002102,-0.0037993088219627534,-0.005456659930613807,-0.0033523318973328812,-0.006938629305434304
584,-0.00523590949153242,-0.0028062893222535142,-0.006129113608365085,-0.008224585199479675,-0.002600600710574754
585,-0.005244122992378997,-0.0003652349380615264,-0.005658612481964906,-0.011844986913466592,0.0004428575555977496
586,-0.005907605943954441,0.0022128105456312177,-0.004919648843545287,-0.015547218291058701,0.00012531102098688676
587,-0.006548672291491805,0.003668740186148315,-0.003330727657041924,-0.017429463072288785,-0.002148015384849782
588,-0.005031387825042176,0.004213364644964255,-0.00042124025715487706,-0.014696804832233326,-0.003645337016820918
589,-0.0013495975002098847,0.0037828880190486627,0.002796464315382079,-0.008240779429984389,-0.004664378887853524
590,0.0016877359325055536,0.0015781536336736436,0.004287109134271018,-0.0023349023756332153,-0.008072431421270792
591,0.0023010217368998995,-0.00196674317989472,0.0032502781676990687,1.370533079004137e-05,-0.014356414738510721
592,0.0022605604998752024,-0.004895358471275482,0.0016355979013762435,-0.0010471014815984637,-0.0195181597221504
593,0.0027616992190635133,-0.0069570655790356034,0.0011873434261907465,-0.003937272676193393,-0.02041309825919115
594,0.002615523695998352,-0.008946193754280036,0.0015621264344041661,-0.005900792000619461,-0.01738060969535562
595,0.001268814942382111,-0.009591911696812706,0.0012213648797453924,-0.004681662607141323,-0.011843030259144717
596,-0.00048746789314275393,-0.007340193510529126,-0.0004980739850891806,-0.001548297485354316,-0.0049608856623076574
597,-0.0014763717709087908,-0.0036615291053456837,-0.001549423230879214,-0.00010796456727482245,0.002190595565826821
598,-0.0017556433581085822,-0.0015878031613319858,-0.0005006708230180647,-0.003246483215024295,0.007675842515038919
599,-0.002032799778558069,-0.0010157113461072764,0.0008152253869432475,-0.010394002004012935,0.0099543945275413
600,-0.002522843546915726,-0.000426733146787372,0.0003764232644345113,-0.017924849497213895,0.008209646425712482
601,-0.0035327964723776972,-0.00028571949176884264,-0.0019882670211344143,-0.022812812950876768,0.002461669511297047
602,-0.004775379182391152,-0.0011416015426183501,-0.005556986336554478,-0.024388160889726392,-0.005474294174178057
603,-0.005908800098915663,-0.0029017209369628524,-0.009499427690924975,-0.024068449438771147,-0.013797907331309051
604,-0.0070156824844343655,-0.005123698323579213,-0.012778911508036226,-0.023468045529981274,-0.021166269060696203
605,-0.007544480828421517,-0.006659547401737827,-0.01405074259337827,-0.02214297212842769,-0.02567714355806085
606,-0.0072801895192537045,-0.006895279179717247,-0.012858489091200525,-0.018559543314261802,-0.026029905275022316
607,-0.006556410582340223,-0.0063615144240951,-0.010760482796165085,-0.013054593574964335,-0.0228957221108146
608,-0.004934911495274743,-0.005773111504252503,-0.009771715554114378,-0.007808731152064306,-0.018439977852154087
609,-0.0020891979226862097,-0.005157595611522008,-0.009740067012872996,-0.004594383757316467,-0.014294613427102759
610,0.0015901880775906433,-0.0036741659957018266,-0.008602866295859306,-0.003585660523021327,-0.010871938676142594
611,0.005308944828802783,-0.0009255756865131678,-0.0048801328720621045,-0.0038873660415577266,-0.008394431112682505
612,0.007960548053622535,0.00187838013606336,0.0010810285209515095,-0.0046225676684609664,-0.006780057517322185
613,0.00929863069758224,0.0032081137572506834,0.006629710277913687,-0.0048978408919969196,-0.004785266247560406
614,0.009442558442575244,0.003057666880338007,0.009236077433524897,-0.003994015372067673,-0.0012828148950302686
615,0.008034127709365412,0.0025758669567591203,0.010062225819293115,-0.0021219152695909215,0.0029151422593273785
616,0.005891368122333266,0.002760039591119953,0.011062716563679442,0.0007325529164880623,0.006204844359265741
617,0.004550423305234073,0.004266714899717155,0.01119544351524696,0.005022708420445149,0.00878730416283744
618,0.0035560608269655726,0.007160323618088748,0.008382032803798248,0.008978653047024786,0.011746057481529782
619,0.001238376802456906,0.00983427549812585,0.0026593627634142153,0.009283129708526856,0.013579515589217299
620,-0.002154859818267523,0.010015517830495,-0.003820459582949006,0.006568157956057726,0.011568772843862166
621,-0.0039689987010991705,0.007991755361703915,-0.00852244698740747,0.007007042849682202,0.006641460254434488
622,-0.002350703420073881,0.0060724981113266015,-0.009933181786016586,0.012735407491702929,0.0019757060679692186
623,0.0011418822583572864,0.00555508157635134,-0.008477663158974946,0.01658573826520464,-0.0010050313683800192
624,0.0036589084615093964,0.005799617545666455,-0.00598056379627608,0.012947237956663981,-0.002217247119464061
625,0.004548866419670841,0.005075477379336981,-0.003972067055374644,0.0049126918169673595,-0.0027105652112532725
626,0.005129647432983121,0.0027720212986792133,-0.0028917284189741593,-0.0011265555503272523,-0.003596403377160113
627,0.00620844616385971,0.00017586294875584927,-0.0026285063819483563,-0.0023139044906050213,-0.004060737058460423
628,0.007075270988273831,-0.0015968586567218625,-0.0030580326653296586,-0.000906531879032357,-0.003254681901839699
629,0.006324331187294323,-0.003295491867007979,-0.004230409687779894,-3.674865920665516e-05,-0.002724960228146145
630,0.004270754999785032,-0.005667848806283058,-0.005619935003603184,0.0002284849637242644,-0.004774880402533036
631,0.00331150488511862,-0.007256464407946464,-0.00567905948923574,0.001816163792445137,-0.009226285635399172
632,0.00423707208141424,-0.00705147688799418,-0.004055230532536118,0.005354322517433657,-0.013513664127910581
633,0.005794634396800369,-0.006399551942395279,-0.002216901339285733,0.00965378997824282,-0.015995551235750097
634,0.007727607758995101,-0.005809703360770929,-0.0006737133167272081,0.01389782571432495,-0.016462315872802932
635,0.009758220016477422,-0.004867727298752419,0.001469337880348119,0.01742394877547132,-0.015231717302365593
636,0.010986754967079952,-0.003774246119243382,0.004838993919020321,0.019566148976895487,-0.013193507105897976
637,0.011926337467542129,-0.002120339581290824,0.008499461535278188,0.019818478831948965,-0.01067865549647494
638,0.012531732393636958,-4.5615473710257404e-05,0.010173905198760366,0.01647483830565279,-0.008369982699080356
639,0.011525910874377274,0.0014060797898136682,0.008894743021157316,0.00980562298466229,-0.007704712888247449
640,0.009520237030658426,0.002401307977407622,0.006874125376327987,0.003961407490295001,-0.008276049745251908
641,0.009053970487890833,0.0044624989946513375,0.007703016414613866,0.0026407464845038197,-0.006368490100926487
642,0.010286080835827152,0.007087299124766646,0.010400430241508295,0.0048769083625959464,-8.217960129224921e-05
643,0.009969266824410928,0.006888382901941904,0.009468403164206203,0.00605678173127801,0.006300193739047938
644,0.007012489988206976,0.00257445969490505,0.0035670755800659188,0.004162128520373937,0.008091190912924675
645,0.004368999034240845,-0.0032274363981162433,-0.0032563692126271644,0.0023234877136165313,0.004883281457324404
646,0.00457396082278733,-0.007713523583566977,-0.007694431759133208,0.002332975079378307,-0.0016924647646770975
647,0.007024694372624782,-0.011032751381558665,-0.00841095658313592,0.001142289392248968,-0.010349451820698784
648,0.009694196364857317,-0.014011588888627859,-0.005458037874665082,-0.0026135618154365225,-0.01862881367953167
649,0.010670310720741523,-0.015813146417061327,-0.002275832156236387,-0.006966633976456428,-0.02275468400473964
650,0.009667329168657025,-0.01543540622715272,-0.0015697420236354738,-0.009575135424252828,-0.021420461421892148
651,0.00791740229147345,-0.012903436493906162,-0.001724421320057743,-0.008227357132078983,-0.017202208871423107
652,0.005604434538850317,-0.009504282035465612,-0.0020071130102229397,-0.003993682336383018,-0.014211254127219486
653,0.0028006616729965195,-0.006742855779968518,-0.0032633679818200585,-0.0009002845176541501,-0.01460756022035338
654,0.0006079885628507059,-0.004951234810945784,-0.004395179811605581,-0.0008817261033092972,-0.01708231411689702
655,-0.0006028717210448829,-0.003990018908351814,-0.004527989507953415,-0.0028516850353646956,-0.019693222811551253
656,-0.0017752482119852498,-0.004555317449637544,-0.005665756717150495,-0.005191574883809818,-0.023162956137623092
657,-0.0026062181631686825,-0.0059028564098724465,-0.008332148535755493,-0.006403690797616849,-0.027043349456348117
658,-0.0015986527292948635,-0.006086260966876024,-0.009659251848889073,-0.005547963586861091,-0.028267794961648114
659,0.001031715845283617,-0.005480285587335622,-0.007549568234457668,-0.003058001559025861,-0.025937591512328082
660,0.003838163669788991,-0.005600590836599288,-0.002019109288977692,0.0005114951539821913,-0.021329458541786462
661,0.006119191418837757,-0.0062334495779552135,0.004658451983784369,0.004967116266781378,-0.015147326074077979
662,0.007194199375803081,-0.0066421673336752845,0.008594563017188313,0.008940416953311402,-0.009069407737160121
663,0.00497622289784399,-0.008254533248047594,0.007684340260561448,0.010071436357360127,-0.007140586684425801
664,-0.0004990140535465222,-0.011767021086568887,0.003747287575006068,0.008271809633946374,-0.00989231400995854
665,-0.0050330889670226,-0.015003891908762907,5.5946776614259103e-05,0.006272488883802197,-0.013507431259054896
666,-0.005926919703809835,-0.01641275036951826,-0.0025464972415957772,0.006000218472856429,-0.015511267545325988
667,-0.003981226528816725,-0.015915116968822734,-0.004751168702021559,0.008467724184665877,-0.014601892040770215
668,-0.0003607139375806419,-0.0135571297672359,-0.006286615821332335,0.014978189912419029,-0.010098652732761556
669,0.00358436178492157,-0.009937108059548278,-0.006959923736589642,0.023682200010320797,-0.0035166582606238448
670,0.00695094290022333,-0.005765874054873937,-0.0070765359572925795,0.028846177495215525,0.002500449769215044
671,0.009648990231081605,-0.001514809799865671,-0.006720987189032617,0.02639374451821011,0.005788370610401755
672,0.010933704697489461,0.002141055106311797,-0.006033750144802216,0.017729536347210646,0.005917709816905309
673,0.010207345179780862,0.004816767936144174,-0.0047901184852580415,0.007306045703840467,0.0052411460067933935
674,0.007827749925207027,0.005857211898490038,-0.0030612525974269863,-0.0018011435244659913,0.005650007970732043
675,0.004573199294901997,0.004827131174892294,-0.0019684819624552594,-0.008859126501820042,0.005330884027535329
676,0.0014393014115371386,0.0029851116771785016,-0.0018809531315601838,-0.013570823575947044,0.0024950544971153485
677,-0.0010419691377338098,0.0011745109223265896,-0.002056508249010694,-0.015188655252017017,-0.002545594354307626
678,-0.002466441968969812,-0.0008475509323060352,-0.0013538201605411628,-0.013292672564459016,-0.008398414691149117
679,-0.002283114817398058,-0.0025465317131757176,0.0008134425212105134,-0.008975591827678365,-0.012013767632545852
680,-0.0007336012031759957,-0.003227443296723135,0.003589408369828349,-0.003836294771650266,-0.011560764706181175
681,0.0012002344607561066,-0.0029027638962344387,0.00649026829821384,0.0018669845894522658,-0.008520404390739209
682,0.0029331571200703495,-0.0011166133913059764,0.01093201443214353,0.009001455059241811,-0.004091432989745753
683,0.003833378658877656,0.0017034706063522441,0.01666556808770962,0.016622409455322205,0.001160070144710206
684,0.002599182140074481,0.0028580760818718957,0.018965584151127483,0.020526920698037895,0.005086925727260772
685,-0.00011320981492217597,0.0017357410851486493,0.014182467742693402,0.018192161601842134,0.0072353126223988285
686,-0.0012961303420529699,0.0008319006062221027,0.004361216371170636,0.011922948749196544,0.009789755658009538
687,0.0008615534269754157,0.0015577273060155235,-0.0052373141910340495,0.005653296716221392,0.013902817527698612
688,0.004371442546447404,0.002771418355332188,-0.011167787451022572,0.0008293570381877928,0.018243881484315702
689,0.005563034195504931,0.0026352993326658526,-0.013899355379671794,-0.0031673013843988964,0.019451775712932266
690,0.003548638853863886,0.0010865388478808289,-0.014952100402788633,-0.006510026144402827,0.015885728435749702
691,-1.7276042749744263e-06,-0.00039961111703147004,-0.014635727845364984,-0.008743913227585363,0.010350937444438213
692,-0.0035575464111702077,-0.0006643676281285975,-0.013090595046309076,-0.008838306247932273,0.0068775517448896335
693,-0.0058878420458569536,0.0007010115653671195,-0.010497919245910195,-0.005798655937532615,0.007916698519566794
694,-0.006342363202547293,0.0027361879290214142,-0.007191763537989266,-8.442093116300444e-05,0.012638776573799203
695,-0.0054518147114203455,0.003880026501825425,-0.004352377190543887,0.006033315657638744,0.017653162631884146
696,-0.004149200598490091,0.003895793415082754,-0.0026721459073267982,0.009360930771587858,0.02073410501721047
697,-0.0028399348166891518,0.0035179274913765086,-0.0023551017198802826,0.007651082857667359,0.02117521517678109
698,-0.0010751672802289869,0.003838779784978674,-0.0036342794303790165,0.0023046815682968777,0.019353841315167982
699,0.0009489131006264799,0.005258926414386434,-0.004836175448074115,-0.0014653013868425877,0.017042287994677437
700,0.0021639426967633895,0.007079679809303838,-0.0026275494363093036,0.00021070265954159184,0.015789304161613102
701,0.002306185683375082,0.008890187792961947,0.00392135289673484,0.0054353163949397475,0.015857580994138688
702,0.0018804252664779992,0.010795376792158999,0.012135366202146145,0.010136286719457018,0.01721810452718446
703,0.0013785194320176568,0.012784089315283936,0.0184373666998002,0.013961920847264046,0.019293428203944453
704,0.0002132034207977196,0.014205283807327903,0.019375476041188094,0.017304804272855797,0.02047169758167018
705,-0.003156104890132704,0.013790909098265303,0.013430399401215862,0.01703757487912594,0.019648820864823415
706,-0.008415366261164388,0.011229194149425466,0.004093635412266961,0.012753125051689096,0.017307400520944025
707,-0.01311813543742824,0.007258463670727638,-0.004013749198929257,0.008784048022405405,0.01433290494278684
708,-0.01519840147039708,0.003211786925374214,-0.009744224743563177,0.006628480080375845,0.011787491639925518
709,-0.01410017000967447,0.0012674298133961172,-0.012860983248018336,0.004195850824449529,0.011558710200343408
710,-0.01109567992892063,0.0020161022400779246,-0.013072739487029583,0.0003092953281619857,0.01289614227626637
711,-0.0075849982947400005,0.004132531111844305,-0.011098155387476176,-0.0037188346781785475,0.012618908636831697
712,-0.004002249291187631,0.006686275314416721,-0.00809274369797052,-0.005869436067603313,0.010548435798619069
713,-0.0009463195338087775,0.009183916955699147,-0.005290510895446851,-0.005385397130028371,0.009676118537451877
714,0.0009701821298674989,0.011045176237795846,-0.0033094177880390804,-0.002248544112989978,0.012402172740649897
715,0.0013177215928623128,0.012041221141065383,-0.0019721509102298275,0.0028656870633486297,0.018329986948700534
716,-0.0008033528688867454,0.012039466472438757,-0.0013249253919208807,0.007326408835154125,0.024465833539515834
717,-0.005126800111362297,0.011086456221479978,-0.0017706442968849346,0.008516729121923302,0.028207798357073145
718,-0.009155774210358642,0.010314914473766968,-0.0036454683913381457,0.006582950025317115,0.02963568126880405
719,-0.011032596138925325,0.010955925551332738,-0.006182622690222739,0.003406283515470489,0.029956175945866394
720,-0.01113324443042941,0.01273977492303559,-0.0070768022216683634,0.0008918884615885228,0.0297490618651438
721,-0.010625634713276752,0.014088067083962723,-0.006205415962653198,-0.000430813017295995,0.028742420293837508
722,-0.009475943063758773,0.013771234336865733,-0.006146654347052174,0.00016146650450038,0.02622223927221271
723,-0.007295603375529137,0.01219152165081223,-0.007629497461521026,0.004440751461181259,0.02203935026925867
724,-0.0055933324240866325,0.010456551203936022,-0.009836172762821782,0.010677162824618405,0.01747328202592505
725,-0.005479565705568035,0.009647099813640649,-0.011677068628271661,0.014118676006995793,0.014765992978040363
726,-0.005899112431514874,0.01065118661609052,-0.011050362712290897,0.01427806610275216,0.014451513788070707
727,-0.006714459565700217,0.01229566163546844,-0.00851819149937199,0.01449443865975807,0.014353626326583175
728,-0.008877601770890822,0.012403437584970657,-0.007951912494369022,0.01462725926429297,0.01270913122723128
729,-0.011251899165280393,0.011395790639633398,-0.0095996947433789,0.011418482492156575,0.010726241757547697
730,-0.011728920984217328,0.011079031525741412,-0.00965393440010743,0.0037399776627534582,0.009450040744035357
731,-0.01086775850732458,0.011447580598258369,-0.008223966424221161,-0.007245569353190407,0.006728954913718553
732,-0.010484726078172637,0.011603394168834436,-0.008692300891308857,-0.019084893318662477,0.0008537650258302257
733,-0.010312028095427946,0.011639663135474657,-0.010531659801583756,-0.027491669131330332,-0.006259658134328797
734,-0.010097189201845541,0.011782132639755128,-0.011701853073484226,-0.030296332352726385,-0.010976715883495258
735,-0.011187418386021818,0.01162287365037684,-0.01329462974515609,-0.02912168498168021,-0.01139989549689668
736,-0.013271417933762871,0.011380893262856427,-0.016059748846129148,-0.024766446332434612,-0.00798234426199574
737,-0.014556413880152256,0.011893372353468911,-0.018360392933788713,-0.018135281070376884,-0.0016736900501780703
738,-0.014503674860415473,0.013159072884000153,-0.019090555617384604,-0.013388331924523392,0.006069046610759313
739,-0.01343062037288251,0.014324297750693823,-0.018379542383512353,-0.013629691630141274,0.012454789898746375
740,-0.011737904067609248,0.014723571586321035,-0.015880482827318413,-0.016665976452877533,0.015266498198658275
741,-0.010221627998479421,0.013892987546451557,-0.012010666989998205,-0.0188363455728506,0.013939539718797671
742,-0.010066570511602096,0.011822050440277608,-0.009496746415821182,-0.019769975260697212,0.009204142039738189
743,-0.011682407419221408,0.009185274305666019,-0.010978407641368362,-0.020379475961245324,0.002989765659905009
744,-0.013942988163506828,0.006246868294397667,-0.016498914206358906,-0.019378119324252298,-0.003165067133484132
745,-0.015049229931174407,0.0034607239120521298,-0.02334078503127707,-0.016049927748202727,-0.007720004895213118
746,-0.013821557297300339,0.001663188752668499,-0.028305693501836447,-0.013081477083182885,-0.009281614719147322
747,-0.010814171944373991,0.0013217450935647116,-0.029976329629158683,-0.012616287075659531,-0.008513623906880265
748,-0.008298880711981137,0.002188067660677388,-0.02882485815294217,-0.013380613684993258,-0.007335625855684919
749,-0.007180054644328491,0.003413570101770968,-0.02484718225208621,-0.011434669704020154,-0.007271412998709095
750,-0.005704873884812303,0.005291221511592615,-0.017174224404659492,-0.004529473300105033,-0.007834852289472116
751,-0.003252053848041703,0.00828593625750729,-0.007952457916471152,0.0028761936444569973,-0.008062856128175613
752,-0.0019336791869496678,0.01054003135546746,-0.0017432697530010356,0.004200371315189863,-0.009988676327899643
753,-0.0037329608697640004,0.010199945702700039,-0.0004957595142224643,-0.0008375099857354884,-0.015630338457780786
754,-0.00842463251086877,0.008061637872009772,-0.003330977839782588,-0.0077289974082534055,-0.0226261420193968
755,-0.01360553162867451,0.006393544725074271,-0.008312530812362537,-0.013246382726221397,-0.0252076904388814
756,-0.01627454532035355,0.006397922731149102,-0.012586738651601004,-0.015691849868358233,-0.020052012925349916
757,-0.015950498788009127,0.006738657037813219,-0.014944531823750332,-0.015135647336501693,-0.010438709045843882
758,-0.01446517174922113,0.006095066123925903,-0.016509729392373322,-0.014110002278009143,-0.0013228211018920819
759,-0.01315019762281014,0.0053174054770221794,-0.017569674724039804,-0.014562580407320665,0.005837493964019582
760,-0.012172922500306391,0.005652404741184162,-0.016503331635329837,-0.014642543954356088,0.011761473731029754
761,-0.01114068355453349,0.006627909445057356,-0.012443740057545548,-0.01104848292966983,0.01609484824831295
762,-0.009452824759023037,0.0070609990417678185,-0.006745425582047146,-0.004651509861295572,0.018549473393986896
763,-0.006899093761718388,0.006977420881023292,-0.0009221539569801909,0.0016328863290866276,0.019967031641869984
764,-0.004596838893750593,0.00663029636769048,0.0037335507371934907,0.005885416214859632,0.01958592487229161
765,-0.003990956852072091,0.005736344041496318,0.005068234865675545,0.005977642386786903,0.01619172550837372
766,-0.0048280493349532475,0.004162144336816834,0.0024602980091214337,0.002165494894551041,0.011142519693403595
767,-0.005831951934917602,0.001915215725379042,-0.0017275279340302665,-0.0034253841265116398,0.006383926869227545
768,-0.006587217281956594,-0.000510873012468759,-0.004750729765316371,-0.00945739340442356,0.0017771790832394573
769,-0.006940509787629368,-0.0014483702241240375,-0.005307717336105336,-0.0138744208953036,-0.0021871158551724948
770,-0.0067711987766552835,-0.0006344118931121203,-0.004376335448610195,-0.01552250059331934,-0.005089493327766502
771,-0.006961898939365974,6.434118139027206e-05,-0.004018354347084685,-0.015818631290592147,-0.008824546772695653
772,-0.0077716241846437165,0.0008376966118549236,-0.004154492893153548,-0.014743394258053792,-0.012410874659700574
773,-0.007890442840434976,0.003241052522081657,-0.002902591107685897,-0.009446537504748493,-0.012339314106538758
774,-0.006883919317498566,0.006310719105549408,-0.00018186998023002833,-0.0001542845529809086,-0.00866770207036946
775,-0.005600967390250685,0.00790511321217441,0.0019274423769507693,0.00820872492360523,-0.0038728843000278277
776,-0.0037546621826633174,0.00733463041352367,0.0029283897760198686,0.013188200280639863,-3.004612688375613e-05
777,-7.41038471061896e-05,0.004935378663394207,0.004364666317971097,0.016794839538921674,0.001202701390848557
778,0.004790515160294751,0.001965862758587736,0.006236016598962156,0.020284386029466646,0.0008613283303564639
779,0.008279186634590412,7.618539331395305e-05,0.006829923527523767,0.022985011782167875,0.001654261362879892
780,0.008473324215500297,-0.0009227124896580224,0.005225549114599269,0.022579111523322214,0.0034247827312243154
781,0.005575949068171898,-0.0017392439164603082,0.002390120875873893,0.016370717216526113,0.0047853730799546045
782,0.0024323911698193638,-0.0016910931160241702,0.0007292121074649525,0.006849032859766193,0.00547423743303435
783,0.0016694023329222158,-0.0014213218796688934,0.0007845888004870872,-0.0011947918916088167,0.004032687742665214
784,0.003085584296874541,-0.0027119900247760545,0.0007677422921040867,-0.006927880521269737,-0.0015212810839889742
785,0.0046142961757110945,-0.004929573727212731,-0.00025349159436558323,-0.011071182006078784,-0.00903453359310146
786,0.004274278390645767,-0.006479032003410641,-0.002025120377695007,-0.013761624036122916,-0.013101771868176305
787,0.0020011162074907774,-0.007564857766039688,-0.0035256121944186765,-0.01484175782698152,-0.011220624072504492
788,-0.0007105227088010169,-0.009035486251058196,-0.0034321815399297735,-0.013082178041992423,-0.005464456021097845
789,-0.002310264352204266,-0.010699564382527914,-0.001629961646738793,-0.0073176711397862386,0.0007197728773078067
790,-0.0023846766893283623,-0.011533007992209444,0.0006654010992204507,0.0007351801686774164,0.005615089132625873
791,-0.0013222069225430559,-0.010529727735430641,0.0032893922995851314,0.007637016922113706,0.009290050068117634
792,-0.00016018242114092024,-0.00864063989431899,0.006311317613837042,0.011161326262960325,0.010381854600611314
793,-0.000895091780818151,-0.00868495789941017,0.007249359083480784,0.011256544224037256,0.006728360481639729
794,-0.0033519388675400975,-0.010765679653159641,0.005563000722587339,0.009204663758172776,9.275022215909569e-05
795,-0.004604889178047593,-0.012198710153545487,0.005094180747476622,0.005219281874571472,-0.005857040927144556
796,-0.003625063307146869,-0.011873463728163112,0.007119315503234632,-0.0003746819477471245,-0.010337354397094024
797,-0.001896601563739843,-0.010082111624907067,0.008821877353849768,-0.003865545800870928,-0.013359656215077292
798,-0.00045167687214063145,-0.007424463076336757,0.008793749957469957,-0.0015774654477466398,-0.014083853772373391
799,0.0005116491585512747,-0.005220500218821499,0.007722107301221067,0.004390991365829821,-0.013077540965047887
800,0.0015640762163329361,-0.004100628588860222,0.00656009057306523,0.009392935833318123,-0.01137472723015013
801,0.0032108070705375866,-0.003859187529440776,0.005858403768614127,0.011797805233097827,-0.00877271770751946
802,0.005135856368749072,-0.003961343918449213,0.005657373868232819,0.01375755234916926,-0.005002406666343034
803,0.006503704155346307,-0.004160877544708405,0.0055279022526271504,0.017259728806316026,-0.0015109248377487964
804,0.006018830666354328,-0.005558842483636644,0.005039871992582299,0.019641698644347592,-0.000462034595879501
805,0.004544053844453474,-0.007922702908883722,0.0048651432070411635,0.017684221061079,-0.0011696972121817027
806,0.004325313656602987,-0.009589891842483864,0.004917351236447654,0.012724321941075879,-0.001961435587234109
807,0.00510092768284905,-0.010958151116198443,0.003163695643037386,0.008115590234277374,-0.0033483448830680185
808,0.00564863432734628,-0.012982559272017158,-0.0006593514343328604,0.005815549410730607,-0.004820138199294201
809,0.00602059004540635,-0.014477259092197008,-0.0036441656323406056,0.0065130419008029745,-0.004008310397526217
810,0.007094099332762939,-0.013705797062882184,-0.003468981568997811,0.009432423181593395,-0.0010189971690438655
811,0.009906953086391428,-0.010937423161527179,-0.000589405895082786,0.012084219716473011,0.0013187371622268166
812,0.01407822682350605,-0.00812278384399471,0.0030836489258029014,0.012744430721776476,0.001204037400695209
813,0.01856621986303731,-0.005834639142320593,0.00686960647031883,0.012595680676497975,-0.0004985198084522567
814,0.022693287342606318,-0.0035797160254850634,0.011014063181432885,0.013201601023597537,-0.002384173359436348
815,0.02463412579656522,-0.0021844122428786765,0.014501665979024081,0.014352022611013713,-0.004237387826147728
816,0.02257308394656313,-0.003097830827687666,0.0156233503515256,0.015836431804381178,-0.006806491558437197
817,0.016806519104863457,-0.006748905651492523,0.013531360852550267,0.01746826217492082,-0.011601383638580508
818,0.01001977995786527,-0.010794701004694627,0.009956990138612851,0.019096797734452307,-0.017555692864527198
819,0.005075561319800736,-0.011852133277479289,0.008699774611667772,0.021362898365051782,-0.020068063114280103
820,0.0023612133860931184,-0.009866778145602644,0.011550293638954526,0.02411271346917125,-0.01687711868435408
821,0.0019898811938538594,-0.007439245880108971,0.017137120491451278,0.02753714210237933,-0.01026229594747516
822,0.004750543519865312,-0.006831537128771562,0.02253077960714872,0.03262004686477902,-0.0047300506456059484
823,0.008817788059452204,-0.008720096048864291,0.023537617045217417,0.03676119426374069,-0.004437345603931476
824,0.011513482581417765,-0.011313849688241196,0.01856170835322849,0.03581726862650963,-0.009010085012560195
825,0.01298755685424905,-0.012306831930381661,0.011150772246176254,0.030288174852760398,-0.01401881816371734
826,0.014336688669460492,-0.01092196436170883,0.005600771128636993,0.02349172440070677,-0.014556593934630584
827,0.0146058372373808,-0.008454868558002846,0.002828051197737705,0.01648310114313474,-0.009639498135380425
828,0.012729318734925117,-0.007043730520937388,0.0019515012284114011,0.00982832213684497,-0.0038029394690351865
829,0.010284628437784275,-0.006973293184488581,0.0031524638557631347,0.005885227285752427,-0.0006888966262227242
830,0.0093626177502304,-0.007545118684153111,0.006042975024917571,0.0049606309890954025,-0.00033933096909370355
831,0.009887877991514592,-0.007880317632307962,0.009030981535777345,0.005037856272956481,-0.0009744166009605313
832,0.010496423446040326,-0.007169395953176293,0.010881592480462391,0.00517123514401954,-0.0004998351948046993
833,0.010978251521274737,-0.005516364682812013,0.011511235156973327,0.00533628486566914,0.0015097260178548449
834,0.012180457259553799,-0.0030248624598328373,0.012658472296312406,0.005729552686243367,0.003832551016426441
835,0.012929160074155847,-0.0010760465096510572,0.014444009160976044,0.005141760146617293,0.0035645497875634704
836,0.011186438285536645,-0.0017866225072240326,0.013906261902755783,0.002489111132751118,-0.0015236836791810795
837,0.008119025991970811,-0.0042865219345041726,0.01010756500928259,0.0005356811056911995,-0.00967693419594363
838,0.005936747832046483,-0.006597172490687999,0.0050899642604248976,0.001524534010980759,-0.017996634157633258
839,0.005114446142441315,-0.008033178774314698,0.0015562247956079553,0.004511570663312951,-0.024841566919467154
840,0.005230042751803401,-0.00835387996372543,0.001443541089142528,0.008566449977934347,-0.028875242545348987
841,0.005414470229014425,-0.0079855536009887,0.00493372719904075,0.013240806739811562,-0.029512845097947205
842,0.005266287461382353,-0.007067773868291071,0.01106185050255433,0.018222485526353333,-0.02664896607052675
843,0.005510700271487153,-0.0051598046922100675,0.017559635041463573,0.023276815698215485,-0.02105912176184019
844,0.0069485489898084484,-0.002879078805362615,0.020802914670119285,0.02551304972472412,-0.014890632914698842
845,0.009576009317925639,-0.0015950245151713964,0.01793673386769169,0.020287925827935364,-0.009414629017601326
846,0.012670368999527616,-0.0024822091308563986,0.010063118807355883,0.00868241502005044,-0.00608678001232814
847,0.014637364491902779,-0.0059323512464056665,0.0015128978859512612,-0.00259813579635718,-0.007763087622276447
848,0.014261738566633965,-0.010049654099429369,-0.0043102314369953595,-0.009583666869828839,-0.013549042870692333
849,0.01188442738654333,-0.012122827020720848,-0.006716029165647645,-0.013250707011462057,-0.01862724478996452
850,0.007994330922924576,-0.012097030377529608,-0.007389889476270048,-0.015737211069588357,-0.020851674613269734
851,0.0036180351306838152,-0.011289269746575698,-0.00787311885595484,-0.01747616944694074,-0.02107610805265832
852,0.00121407067769802,-0.01022883115466254,-0.006891157204595296,-0.016354856615833222,-0.01948421354667362
853,0.0018962682857624825,-0.009160461623691803,-0.002729962870543087,-0.009667838304365422,-0.014852611606821664
854,0.003983921846143247,-0.007987409478462644,0.0028559488000638577,0.0010684272345938693,-0.00686178228437481
855,0.005099024411373368,-0.007124132116579165,0.006383083724134424,0.010292805708191653,0.0006179972377047605
856,0.00518901065218819,-0.007462330670610964,0.006745500813663709,0.014766916410346734,0.0032955431601965853
857,0.007025205820980628,-0.008391693955748472,0.0050231176148257135,0.015543141154995976,0.002011663492061431
858,0.011929528951537748,-0.008530377602363875,0.0026939979153570263,0.01462815673027993,-0.00046064550378557004
859,0.017068842454193864,-0.0074096492432945745,0.0006577351670890737,0.01211823858179388,-0.002734110545167986
860,0.018752393754085266,-0.005620692887725508,-0.0009573960164709052,0.007730981906890586,-0.004673108073211032
861,0.016114137159236066,-0.00416309522564081,-0.0017473600620707417,0.002916131698740361,-0.006508324185959812
862,0.010400084894390245,-0.00353904547914503,-0.0014458531104888732,-0.0015520870403388969,-0.007356670287826403
863,0.004308754697467401,-0.0028877804961985254,0.0006280411168397976,-0.005008567545606889,-0.006139852364316768
864,0.00010122993322741763,-0.0012037502508680255,0.005453970456170754,-0.005676182537196648,-0.0024116042877137343
865,-0.0029070056058563814,0.0007822201063343588,0.011318715384500104,-0.003407028432659013,0.0035475640821743806
866,-0.005417520604837412,0.001224946949909964,0.014937082068837057,0.0007344798663712995,0.00859394923480468
867,-0.006444209742439094,-0.0005916834133112104,0.014515566436749132,0.005608987019260752,0.009227984860041888
868,-0.005357894126402267,-0.0028841534896455463,0.010059782242262724,0.008984596833630574,0.006579669799111647
869,-0.0026139744484033577,-0.003515302588552197,0.0036858467142803332,0.008239307126663554,0.003879728767008002
870,0.0005642643253759775,-0.0023412674196018083,-0.0012258436863838685,0.0027492999145235244,0.0025638909555715057
871,0.0030008744112461675,-0.0006072042338780338,-0.0028656926277864985,-0.00497673376717962,0.00233504929745721
872,0.004300347413406854,0.00013253750431615978,-0.0018465124603232346,-0.010749938098663914,0.0015776624587971744
873,0.004509297428135498,-0.0005356927561938039,0.0004288161349383377,-0.012312843606399792,-0.0004216054041809207
874,0.004308876477912112,-0.0012292248940000217,0.0033611306246125526,-0.010862045112038234,-0.0014028005674811483
875,0.004025397012050763,-0.0015445455898058205,0.006094794729238297,-0.008943046469536758,0.0002326274520149509
876,0.0035699915163483406,-0.002152496311976396,0.0074668710255041395,-0.007188685786671306,0.0032041155887170777
877,0.003513558066481669,-0.0025262436145870007,0.00799798313436573,-0.003881198095723743,0.006729000982157451
878,0.003143763925927178,-0.0027884788802383653,0.007850569671111316,0.0008115431948474457,0.010156522120464884
879,0.0005957175530213518,-0.004333975792625405,0.00541531131388278,0.004369939167515212,0.010586976033090787
880,-0.0036503266526457015,-0.006796913923011313,0.0006495545914723534,0.005985521712055059,0.006783175083851461
881,-0.005733649291812081,-0.007813580994247735,-0.003458278831273876,0.0074176828679586694,0.0021131990653626693
882,-0.003673377659118182,-0.006404741588930324,-0.004227792785164338,0.009716319835979785,-0.00044245585576345887
883,-0.0006741774020134868,-0.003681730997275556,-0.001737894402911775,0.01186117036999877,-0.0014591833346028415
884,0.00024297616774017722,-0.0008286533822759153,0.002295485552991517,0.012847964169979185,-0.0018365054515658871
885,-0.0010613112149512624,0.0008242649587243205,0.005322623949320553,0.011280633049818104,-0.0023849156069963733
886,-0.003008364058882123,0.0005284255511455117,0.005734283166799702,0.00618036296680646,-0.004195004205939981
887,-0.003971636461797575,-0.0008831324050098896,0.0041032247418200446,-0.0006432749998404038,-0.0067930531109414586
888,-0.004747976970323202,-0.002001306590353376,0.0013618304117543087,-0.006991550366548552,-0.008371574066661896
889,-0.005917255274348838,-0.0011739006796551753,-0.0010196476363357704,-0.01154392678209552,-0.007231912872903298
890,-0.005793945678910251,0.0022827799911536396,-0.0009311368651494899,-0.012015137632179472,-0.0029201973227350325
891,-0.004056275460605727,0.006001103350487364,0.0014005382992613997,-0.007421201895155005,0.00256751881444443
892,-0.00306862450401054,0.00651680125710344,0.003394630694935932,-0.000618439631800453,0.005970538859094909
893,-0.003871808754962648,0.003951409661637562,0.003915093437704036,0.004759926080528002,0.007364719608798243
894,-0.005024436678272776,0.0008955362492472759,0.0033119210511485878,0.006620078987254824,0.008440413873206142
895,-0.005639357030043912,-0.001752124125216195,0.0014558552065768407,0.004385617639878277,0.008002976726501692
896,-0.005913780982874607,-0.0039009384187872797,-0.0010493756649329216,-0.0006208511844444836,0.00535035024925916
897,-0.0059432484885091,-0.004590652635258755,-0.0031187482800239183,-0.006127612671031029,0.0024284703960074845
898,-0.005960900764051783,-0.0034746240919661074,-0.004819014609413409,-0.010723576139492322,0.0005874672095546647
899,-0.0063582901135478985,-0.0015821298291283086,-0.006397126511060508,-0.013861150849672758,-0.0004874934933326012
900,-0.006371003215001196,0.0003259578213881539,-0.006892296177242812,-0.015151261644639702,-0.0008854581217194066
901,-0.004833982588396028,0.002293159488573914,-0.004834223572553636,-0.014765863247834257,-6.86950614398284e-05
902,-0.0024133592774129337,0.003564950370986901,-0.0003219106357456341,-0.01332586629965998,0.0012321043994292806
903,-0.0013181124997733629,0.0028850408432987223,0.003831601188517631,-0.012434026163070579,0.0011945575689521531
904,-0.0021505533786329157,0.0011976098414869447,0.004976265484970622,-0.012940602358381225,6.945682619472894e-05
905,-0.0029946873555983535,0.0009124035779345223,0.0036037394601312576,-0.013112791887022404,-3.102058148953771e-05
906,-0.002926686992733402,0.00230966439878928,0.0015705459629998433,-0.012173705653203377,0.0009120980959601416
907,-0.0030285374389988897,0.003927470640339618,0.0007922327475465288,-0.011310093946799753,0.0011107304393567418
908,-0.003752071045268981,0.005085592404509629,0.002254420818678274,-0.011640026426436212,0.0002544176560405576
909,-0.005310323342678737,0.0050872445064037665,0.0032714127463532037,-0.014476733940442514,-0.0012763417114867153
910,-0.007958996013070315,0.0038388627920580834,0.0009474319112064575,-0.01948190854963168,-0.0026277628246770828
911,-0.009461058014815995,0.0038047839851069187,-0.002444247307403497,-0.022299753961824636,-0.0007198703969710202
912,-0.007863240531732091,0.006094060596858853,-0.003656556740498632,-0.019470235514437925,0.004845415972485981
913,-0.004438214673678072,0.009254754892344985,-0.002110557768685163,-0.012686482555475784,0.010584975811323763
914,-0.0019129233741014787,0.012280867028657987,0.0017535100261320438,-0.006308144128989708,0.015650322721461753
915,-0.0017276451424563842,0.013785068223906191,0.005201079043770977,-0.0037728550129918167,0.019559254628606457
916,-0.0023471834574737556,0.01232639266231891,0.004873781517116052,-0.005363187748009488,0.019400479296983818
917,-0.002686657703460921,0.008305086850416903,0.0008282983072473849,-0.010105722741723309,0.014943794336097209
918,-0.00363246755352622,0.0038511852564936055,-0.004964184015111824,-0.017422762823075626,0.009647737249594569
919,-0.0047237745155351675,0.0016695837087255686,-0.009774260498268694,-0.02405417708958015,0.006620210325134171
920,-0.00493810974467626,0.002608180602178064,-0.01059754688180359,-0.024876906097846194,0.005864386556573385
921,-0.005692223902104786,0.004827173953123161,-0.007768418873675803,-0.019232163474055042,0.006178758571766913
922,-0.008660851571228761,0.006063497737044456,-0.0046332452875579334,-0.011549757313260125,0.007155725214048766
923,-0.012243073408810702,0.005524771587203203,-0.0033510880841711535,-0.00559358256512848,0.008213129687311508
924,-0.013706927819113151,0.003956560448949466,-0.004023403314051414,-0.002726245769321392,0.00875057646354412
925,-0.013046152312208664,0.002418972019874651,-0.0062491086072745585,-0.004261175629553279,0.007725085328903697
926,-0.01137130373361142,0.0021719885927694222,-0.00838242292661972,-0.009591827858684345,0.005666495788248734
927,-0.008886843210879366,0.004080554031078892,-0.007953856038927745,-0.015106098796678197,0.0056765750233492875
928,-0.00628560684228366,0.007133414182353648,-0.004390608277476401,-0.01821342848266705,0.009024646289886723
929,-0.004379120461158824,0.00979379445407642,0.001167000985569414,-0.01841243579070781,0.014691082532377798
930,-0.003012565763519829,0.011649792826484895,0.007566804825346506,-0.015191983703022254,0.0209286314289369
931,-0.0020393053078132475,0.012382945692756766,0.013680115034691976,-0.008006526268289288,0.024852767570219304
932,-0.002628591425365325,0.010793361301055583,0.01671455416696211,8.080813048303101e-05,0.024567620639173025
933,-0.005303387601516657,0.006665142111316365,0.013975231363690301,0.003286057996877224,0.02125171143376041
934,-0.0074637598628285945,0.002377993810771879,0.007339303613225021,0.0016519439929442326,0.01768695580135275
935,-0.006515250074727057,0.00026979149811784343,0.0014280400016576426,0.0003138862312528703,0.015134125830990764
936,-0.003715934571831397,-0.00047276692241190956,-0.0016454482596322093,-0.0003833223252620937,0.011816816890716
937,-0.002043099649180081,-0.001001385419827143,-0.0022094155934838998,-0.003908131811254858,0.007293653214133
938,-0.0025793036839608986,-0.00044887504974667607,-0.0011886709227873708,-0.010811383103186417,0.004637456066461591
939,-0.005024382664656958,0.0004555253890667277,-0.00024385850668893087,-0.019022575858462707,0.004734325831348094
940,-0.007998566818795613,-9.286134283408972e-05,0.0003933303680898497,-0.02520959120704053,0.006201424855300437
941,-0.008565432976554283,-0.0007298326900014028,0.0030241010349619565,-0.02633026142188135,0.009257621124335931
942,-0.006073100525480507,0.0003612767428278013,0.008154143790237956,-0.022780203897724106,0.01350048647227587
943,-0.002858598823457113,0.002092560552121433,0.01288995331495925,-0.0170916796934669,0.016784077094042327
944,0.0007321051871242192,0.0025716817925149904,0.015173512313927866,-0.011057106901069515,0.016848338270622838
945,0.005235559614342576,0.0006392360253689935,0.014811034649015276,-0.006283688382596325,0.011967148420131662
946,0.009022195171122203,-0.0030788394999451386,0.01178507681479251,-0.003966715746510466,0.003376742712440386
947,0.010501817322800774,-0.006494363762449957,0.00730520297915693,-0.0039209365918824795,-0.004059859053028484
948,0.009770401288181279,-0.008570384189575923,0.0037524441619430833,-0.0049050836365504506,-0.0066605817200157316
949,0.007829202615455886,-0.00934253607110883,0.0013728928462988688,-0.006284139293310076,-0.005221675877142508
950,0.006231943784893361,-0.008726778296687047,-0.0007926745205198766,-0.007935216208670421,-0.0031370199505734416
951,0.007362334831189252,-0.0065062122855549,-0.0010667837581711753,-0.007823183503904853,-0.0018417195012912324
952,0.011002601812408416,-0.004019646237358546,0.0007122851112087753,-0.0044039647004263304,-0.0005738469695125076
953,0.013405219438368057,-0.0036874789456189643,0.0010657736491669098,0.0011418843898844437,-0.00021345763406065816
954,0.012981512709050609,-0.005265028541206925,-0.0013360085893196828,0.007516315658131785,-0.0018791386451634303
955,0.011426549763371114,-0.006517449676709107,-0.004422516033319038,0.014307704842770906,-0.004597632256510357
956,0.010023214783801476,-0.006401911245707124,-0.005745268866100153,0.020044484673727637,-0.006478449657359674
957,0.008431892376997863,-0.005272571979490052,-0.004786169323766615,0.021035380513620052,-0.0072712641346598965
958,0.006107973127949043,-0.004432649442450708,-0.0028065270180704653,0.014555745448302834,-0.009854527761769238
959,0.0035754164981275163,-0.004652174865383263,-0.0006163583825413702,0.0032389853451087326,-0.015170730387288283
960,0.0013400076547840987,-0.004400925768178055,0.001118425976612653,-0.007032463047397271,-0.01741355976743853
961,-0.00014972371685173646,-0.0032386689177243706,0.0015019865125728562,-0.013621477775231934,-0.016451623782293357
962,-0.0003833656500840328,-0.0008862825296591634,0.0012810496620850708,-0.014788823413345628,-0.012202201852644484
963,0.001206011433118771,0.0017429098770846215,0.002199753764000732,-0.009838954822031495,-0.005919697105777561
964,0.003634006640901823,0.0035150824633363,0.003976350974769203,-0.0016626681763494005,0.0006429760740113131
965,0.0054882797651381356,0.004292352803014301,0.004957467303289181,0.004752076395458082,0.005973014688988713
966,0.006011158573358775,0.004361436792899635,0.0040454211177077285,0.006319685764936777,0.009608296417874087
967,0.004895908288834575,0.0032150924894833073,0.0012770805070660856,0.003819296830696551,0.009845951549398973
968,0.0026957865051409234,0.0011928028128790097,-0.0016465698602229145,0.0006586196467914531,0.006443530642772942
969,0.0008400228569378119,-0.0003023637638713628,-0.00226585541640701,0.0005775530950956244,0.0029770603251396918
970,-0.00031887045484557403,-0.0011825813665558664,0.00033145109480840984,0.004434958334797803,0.0014461120605350763
971,-0.0015731150234954798,-0.002162910733643628,0.004374476320430298,0.009021337727050145,9.418456603317012e-06
972,-0.0028188522857328794,-0.003201245412202126,0.006617731359128388,0.010418324023088676,-0.0027283739039467856
973,-0.003719920522761981,-0.004077354228244588,0.005273226686208232,0.007553588139747799,-0.006354421268054518
974,-0.0041812869750493375,-0.004867071963421186,0.0018572985989164185,0.003857620522560768,-0.009869753805038201
975,-0.003464273790596667,-0.005620569660910449,-0.0012052817568073894,0.004050735045856354,-0.011871434886290779
976,-0.001397565159852207,-0.005866198873936616,-0.0035423714233773843,0.00777261327796661,-0.011665935052466667
977,0.0008740934455674977,-0.004829804842795275,-0.005709525355262685,0.010693210209633486,-0.009975502012495426
978,0.0017426660925103491,-0.0025630952951161317,-0.007587454288123866,0.010969484438900947,-0.007677183022399875
979,0.0011679330709227747,0.0004881948580038178,-0.008018849829543082,0.010142445724008397,-0.004740003929508525
980,8.271904953090626e-05,0.003453043324414811,-0.006857716796760847,0.008472105850011616,-0.001834087513809823
981,-0.0022199856550443003,0.004886981610753359,-0.006595785335912563,0.0037471209915843863,-0.0007604064062084465
982,-0.006070713876149934,0.004359138397290488,-0.008658068833794616,-0.004029105596101465,-0.002390080903516046
983,-0.009700676291902296,0.002409355814113779,-0.011333130344572315,-0.011052891178726296,-0.006288537197441239
984,-0.011211715492705698,3.239065756273529e-05,-0.011993919027718711,-0.013397475592868592,-0.010429735261639522
985,-0.010464968996603242,-0.0012059404887697737,-0.009965666017173757,-0.010682341271717901,-0.011042369307792626
986,-0.008647310637997377,-0.00013497084133077904,-0.0072451287059683055,-0.006415648042701224,-0.006243428946306812
987,-0.006743150627368381,0.002408338503219618,-0.0057300872357571595,-0.004081586987904458,0.00043091183735316323
988,-0.00518366953199167,0.004671097841935662,-0.005653151279391066,-0.004003181449887258,0.004467257629580267
989,-0.0037885250639632926,0.006270339592264935,-0.0061924191949899185,-0.004011998035863115,0.005516861686510808
990,-0.0025953106011487887,0.007088054283923349,-0.006592161186260664,-0.002760305090241738,0.005164261822065678
991,-0.002068208843794264,0.00654748839877187,-0.006805840420812738,-0.0012891919449470786,0.004203467923528489
992,-0.0018656002434747827,0.005158154749916454,-0.006623250734667029,-0.00035141885688357954,0.003231655799700973
993,-0.0013043401693946296,0.004131757289947742,-0.005571680602182384,0.00032974432563844257,0.0029425245480591096
994,-0.0005537074034518091,0.0037688828457175484,-0.003907708833196946,0.000538741086728313,0.0030536918743562565
995,-0.00015335286436411318,0.003644357396185726,-0.0025041940439730565,0.00018841312528213394,0.0025581317402329235
996,-3.0171791096019638e-05,0.0034663790448107913,-0.0018402990989879679,-9.394756093969134e-06,0.0013760969397924657
997,0.00020499604964820372,0.003107735139567401,-0.0016822569233331246,0.00036794051417463785,0.0005189827367775687
998,0.0001769317431329375,0.0022457252331384036,-0.0015570240523042893,0.000728689428410777,0.000283419937944284
999,-0.0005578652314872326,0.0007953097478601395,-0.0012249821199821274,0.000636157863536267,-0.00027610631796948546
