,AF3,AF4,Fp1,AF7,AF8
0,-0.002349720824294173,0.0005131392660647071,-0.0043113500506336685,-8.630097647493032e-05,-0.001477124779214318
1,-0.004068566840481797,0.0004866874886822386,-0.01130170146261458,-0.007452034334361307,-0.004348793020064565
2,-0.004538682044527434,0.0015833301037905965,-0.018062365600679833,-0.012743099085191254,-0.0022606213406177822
3,-0.0035571211286454445,0.003934194312589391,-0.022096019047697996,-0.01262566529372834,0.003163382362958799
4,-0.0031092767503724523,0.00666620641954348,-0.023840200322054906,-0.008589032641796014,0.009594310730584199
5,-0.00401425049687077,0.008708069796288392,-0.024403139902745292,-0.0029251984197597135,0.015193570692946487
6,-0.00493751218911657,0.009647730170063812,-0.024083994830294064,0.002247285876533992,0.018863238809269794
7,-0.004836807214247328,0.009866951982261129,-0.02120691293829509,0.005353602811704275,0.02059089369234126
8,-0.00365816974183733,0.010011439141824745,-0.014242339810445728,0.0064823757887647665,0.02102146047549528
9,-0.0012167689173043378,0.009515434492897719,-0.005906487482358697,0.005790574247334051,0.019702063568786884
10,0.0022585229050170303,0.006777472068974841,-0.0005906135876437557,0.004073831392146001,0.014708197965724382
11,0.0047432222584035694,0.0029296458394593343,0.0016365605139491094,0.0038827833085363704,0.007755984232630048
12,0.004809417039281533,0.0018357677491998186,0.0038936550611606397,0.007334738444419483,0.005000731513142262
13,0.003765595955302373,0.004631549536223288,0.007247107709913411,0.014731685013209445,0.008081801583950238
14,0.002976210478183228,0.008625972857863824,0.01007941249339447,0.02322610784110728,0.012560999289550507
15,0.0021365298680039602,0.011284192842148107,0.010578223756468625,0.028090366133327806,0.01548851978902801
16,0.0010887988319061269,0.012737062899863316,0.008430844959218883,0.027970645934509205,0.01831688552592624
17,-0.00026577216852098845,0.013424850658533351,0.0040260898858630375,0.024221059596603183,0.022625762217212887
18,-0.001569025191026749,0.012562118123487754,-0.0009721278899870176,0.018081594020970943,0.026622488315810086
19,-0.0007479480287477821,0.010344984467776909,-0.003870616203165475,0.011868051032770418,0.027584979290225617
20,0.0028406627875641128,0.007728545232892413,-0.005107459843450939,0.007993634341177969,0.024641978244721318
21,0.006785185832140342,0.005802239923273391,-0.006491279559555564,0.008763940758845196,0.019591632347499548
22,0.008553428558426623,0.005376442221964266,-0.007317036943104879,0.016387626492003846,0.014894347975454223
23,0.007711635114896979,0.0055205691144176484,-0.006439669777088314,0.02736035159906544,0.011272164748707679
24,0.006033678212224601,0.004545102975217942,-0.0038032529241246353,0.034685636422066665,0.007745384561195442
25,0.005217735915991072,0.0024861225344478557,0.00021874639317974215,0.036817857794799264,0.003342492979910301
26,0.00449916334164459,0.0008284379048989259,0.004628288103029813,0.0353692052419872,-0.0008009351366727865
27,0.002021932200495287,-0.00017093713310637837,0.007922055200278914,0.029541254322092734,-0.0023314633668225907
28,-0.0014485930836091406,-0.00029723128565030464,0.0095595354418194,0.019432138024268658,0.0013970369454324408
29,-0.0032043539069180923,0.0017698443322788546,0.009235834929273715,0.007815544014578603,0.010648283664017471
30,-0.0022630799015056933,0.00539193246829283,0.005994947941924385,-0.003085019357534062,0.020795320499861075
31,0.00140331602295079,0.008074539650887828,0.0002704627682172712,-0.01167754661393748,0.026886037562304295
32,0.0067485890776952115,0.008612938315207977,-0.006239696292347214,-0.016580314480103022,0.02739511262913841
33,0.010769987920354641,0.008056278625372802,-0.01048019255237196,-0.016494178236992202,0.023189842370101653
34,0.011631326019416802,0.008248986505791592,-0.009299933576063662,-0.010833622860908911,0.01733555705152995
35,0.00937712220516328,0.009446983382136648,-0.00470077983096567,-0.002291644022246988,0.013563744630483055
36,0.004516178460901638,0.01017934618655411,-0.002474464228643117,0.004624689606065545,0.012708752374058784
37,-0.0016613920522161754,0.011083150352165772,-0.004561483885011536,0.0075714014385510975,0.01417601037648374
38,-0.006692904740410494,0.014290762643970433,-0.00760137918756344,0.007227520391594907,0.018136319743324927
39,-0.008493414800291005,0.017348972853374195,-0.009233786664992099,0.0055354395435149445,0.022117121627607178
40,-0.0065212327295648504,0.01583396714320494,-0.010245459294886492,0.0037991936196370753,0.0208444317629808
41,-0.0007651476983114981,0.010958876078917589,-0.009403175705325147,0.0027760205724530283,0.013986508738069905
42,0.006114737173871481,0.007493659836678517,-0.0046166929195980075,0.0033083989884945806,0.008262494962822236
43,0.009057898381976364,0.006764072530480024,0.0014906568600537118,0.006141036215730961,0.007840546580031508
44,0.006669243345513724,0.006426683984938286,0.004493651402239713,0.010364731250765428,0.010071060578047897
45,0.0014654751478990979,0.005022628349419673,0.0028535217694111046,0.012978266497170396,0.011795371021117378
46,-0.0038403738225827226,0.0034682302904386828,-0.00197945289752264,0.013112546112679526,0.01277912978863093
47,-0.0074029187756270804,0.0023364333010339284,-0.007184721035944169,0.012748634245558978,0.012799901625783622
48,-0.007800599349326497,0.001046240646854932,-0.00926256357589214,0.012888921512920162,0.010840193619429353
49,-0.0045601681210661596,9.299786002844355e-05,-0.004869653213962483,0.015112494161800433,0.008009242752023702
50,-0.00019868770482211716,0.0009474967431917152,0.005511531905721022,0.021906534277125363,0.007919107703682537
51,0.001048580564721841,0.0037934981878874363,0.016100138421039106,0.030137083887757318,0.012125922379767685
52,-0.0018334163237614103,0.006517314468483454,0.020581705579988903,0.03218927917088833,0.01661350062337235
53,-0.004791583027129245,0.007832003344796324,0.018355428175558276,0.025601528058285153,0.01817249229549185
54,-0.0031761232250927863,0.009142966434542973,0.013755179949490624,0.01574457091352198,0.01947422272213656
55,0.002683147953914156,0.011098820621230198,0.009615394051747621,0.009092753625452796,0.02320510914661657
56,0.0070059144912118215,0.011840260854626748,0.006414385503392461,0.00665262436760937,0.028153424003629697
57,0.00516004231884144,0.009482112693324468,0.005472017453018493,0.0065825786891666495,0.03108586188365047
58,0.0005108002112851945,0.005482490263347859,0.0064195447736478594,0.009107573769582582,0.03039070068237147
59,0.0011484526390094765,0.0031886751153704764,0.005658935973930362,0.013593827679102267,0.02746821404844644
60,0.008651772426049937,0.0031442725745625686,0.0022494826883971792,0.015915723658195075,0.022939272081324093
61,0.016079011867970793,0.004213892364328085,-0.0012401219496958854,0.012587957761498472,0.0169229974596968
62,0.01925154876001551,0.0067179208454240455,-0.0027684558392920893,0.006503451697336389,0.013204851076985302
63,0.019465248896923446,0.01105201044535458,-0.00040360885275939686,0.005864835493209057,0.01565511454692464
64,0.01589572163059469,0.014711002863931904,0.0047064462914836215,0.012323928079423327,0.020879335752278745
65,0.007339905657173602,0.014052570441300953,0.006946951208906781,0.016747140666254944,0.02145139211044347
66,-0.002540034942184387,0.00952319797588744,0.004383491753146546,0.012854801785554017,0.016101803656187887
67,-0.00855710028114576,0.0044116391226865365,0.0007313244188057447,0.0045956912069305715,0.009204447292039303
68,-0.008365047863453857,0.0016418733465844355,-0.0015230145679043317,-0.0009477486617017808,0.005121635031228652
69,-0.0036916480738827927,0.003887317341534298,-0.0029816333077700573,-0.0001538380758079228,0.005905001728067956
70,0.0005622977692524507,0.009684734773172318,-0.005073921609047041,0.005372461173149731,0.008200944609439587
71,0.0020005219490991316,0.01277170390519862,-0.0075266051819508975,0.010552578894999639,0.00899634385696756
72,0.002749007227143964,0.010281317918886083,-0.007203830637677657,0.011960854929539109,0.011545873861798575
73,0.0033592845410562577,0.00580509032160337,-0.0028860163131192084,0.009585249816113575,0.018189946672948397
74,0.0018156703810535712,0.0037490049132050712,0.0016458470018852545,0.0032993717702850603,0.026056858548117193
75,-0.0017684586848887413,0.005119478459385484,0.0023494236445051092,-0.005851261719061372,0.031656142972057724
76,-0.004987720765919955,0.007782444386914905,-0.00019436840008805645,-0.012989524128005497,0.033671131383213815
77,-0.006234802934449262,0.008759987732920997,-0.002493261178128638,-0.013803446847086996,0.031654805407081515
78,-0.006050369526159021,0.006811062932512691,-0.0023223845213139705,-0.009401252600436298,0.026159641847993357
79,-0.005728218108377602,0.00291339847729157,-0.0005795597222752503,-0.005811938373168772,0.01910050346010282
80,-0.004941435444440915,-0.00035602939730344796,0.0004496888281659003,-0.007403239729694682,0.01256992794592638
81,-0.002421912330472665,-0.000628733061712282,0.0005267694552111671,-0.011894770957074667,0.007356613297952234
82,0.0015113323796069756,0.001976490226597915,0.0005999090828771852,-0.015306223861714475,0.0033625529874145295
83,0.004824878394933968,0.005533504186977436,0.000639816380290584,-0.016889531053956904,0.0011089868943411855
84,0.005298710265767127,0.007764387264310024,2.1010973991658906e-05,-0.01733770725838021,0.0005964301113841071
85,0.002133674326260678,0.007572834991466676,-0.0015922036834367008,-0.016326273202145514,0.001040941714283915
86,-0.002781688143845281,0.0062126212726003865,-0.003062122221401903,-0.012554511343724319,0.002336997831985994
87,-0.005907694563110935,0.004928284958105324,-0.002603217561727093,-0.006006505675143335,0.004583529945603107
88,-0.005598043963669934,0.0031538897027592458,-0.00017332199085904715,0.0007612265862269377,0.006944891068547575
89,-0.00264568051927022,0.0015607545353398921,0.003302502846804057,0.0051127255739940765,0.009441091437483675
90,0.0016035966040872879,0.0021448409614129925,0.006199282069624974,0.006269060530597879,0.013681616496890831
91,0.006012187238493141,0.004126320547283828,0.00573554387167061,0.004932300895092593,0.01955063879387737
92,0.009258159634782676,0.004639875170109086,0.0018136355215375038,0.0037910259136087784,0.024006410814163832
93,0.009759253376072528,0.0029086929154670043,-0.0014774098108573613,0.005373911146573507,0.024402602203587233
94,0.008081894228396131,0.0010334136071404752,-0.000534120447713146,0.009562846289174105,0.020891944902979628
95,0.006264654646763263,0.0004246148261642152,0.004653664346266931,0.015247223348727695,0.0146990456067715
96,0.005651202582575063,0.0008486128520849087,0.012485168508938061,0.02201653870519073,0.00818919775279749
97,0.006327762624911632,0.002016306600196363,0.019761287512233026,0.028376995828476616,0.004810054825770408
98,0.006576267133237892,0.0037137778008348122,0.022287477701740898,0.030738519449932753,0.006321192963032498
99,0.0051388535732020645,0.006075321133987231,0.01957029915872887,0.0271873114116812,0.011870879011100089
100,0.002730686745852081,0.008677927729874031,0.014729051813497686,0.019311378884873748,0.01796047427007529
101,0.0007021381233923893,0.010232120241853658,0.010633983059050509,0.01080501314880182,0.021290363671713938
102,0.00012173750995869053,0.010293583923555309,0.008593232350550123,0.007276570780456181,0.02179653571074175
103,0.0006930379313368025,0.008986223891280103,0.008040508919568496,0.010787698079755072,0.020404576401421598
104,0.00041742435945738417,0.005891457248471251,0.0061789060577314885,0.01395911226421333,0.017548936698069794
105,-0.0009327452899731562,0.0018775787031325654,0.0016349227111632412,0.009364844594679934,0.01513740193467324
106,-0.0011395818489760492,-0.0008803638444436236,-0.0025359863354416333,-0.00024020177184540806,0.014331391569760725
107,0.0005029399226312677,-0.00044240059963337965,-0.002473734098570548,-0.007534330037611787,0.014199306789787033
108,0.0027976802783661065,0.0042714635171490975,0.0018928485832386108,-0.00956041043821825,0.014823980479715821
109,0.004964989815463748,0.010859458825374013,0.007267328782309171,-0.007537142601516935,0.015493638069340423
110,0.007557689084376232,0.014986942771339468,0.011785531232279888,-0.002524957354722308,0.014625373550810922
111,0.011290239650128837,0.014839788436466201,0.016078937366185327,0.004445296293660656,0.01227526591377357
112,0.015735035445718023,0.011256666219646622,0.018963867148725083,0.010537308513103484,0.007739436547748033
113,0.019300209587837718,0.006643312636277753,0.01790046990693899,0.01308807674418475,0.0004980364063989891
114,0.0200367366806834,0.003382905874154064,0.0132932339091292,0.012697400642779045,-0.006769470031954426
115,0.017043168075519394,0.001537953067555621,0.007426601542516439,0.011313274747395177,-0.010520292749774283
116,0.011362726477891539,0.00042271938326664575,0.0025615268214025672,0.009424138664733277,-0.008858011668354331
117,0.005847319347419837,0.0008317813110021363,0.0012080861935221435,0.006633350826214969,-0.0028833999722224
118,0.002488606118904265,0.003077298796298055,0.004044906061541265,0.0026090538107266374,0.003597030612840284
119,0.0010747589869928864,0.006171247197572905,0.008765074833038167,-0.0014937842110679148,0.008792065185590255
120,0.0023586983225810723,0.009258738444507112,0.013044631937846147,-0.003429717780618339,0.013514519372100369
121,0.007445363210825917,0.011107423320083574,0.015661376928782778,-0.003137071435290375,0.016786892710377924
122,0.012956158915077145,0.010142665185922323,0.014868878695099992,-0.0033756580689716636,0.016861589340725777
123,0.01269715712282219,0.005937381128684733,0.009831673584710644,-0.0061380816417374836,0.013285979248053609
124,0.0061455576548284365,0.00029090349282489246,0.0025780724153456067,-0.008968510546986897,0.006983025651157645
125,-0.00022311586450615933,-0.0033761457980851046,-0.002761404637864478,-0.005841390240083126,0.0010819642033754009
126,-0.0021467821915643944,-0.003843898080917641,-0.004049703815733734,0.004528134925432124,-0.0022448985089061958
127,-0.0013087457230899194,-0.002719400578789942,-0.0035098137698887748,0.014246878014183171,-0.0029667672107164074
128,-0.0002576699509523995,-0.0013821439578231554,-0.0035951943632083804,0.015574317110621629,-0.0012456266854026685
129,0.0007032380467508532,-0.00044215884106475967,-0.0038947184697126873,0.010698290709506548,0.001217622247925792
130,0.0015048777734330942,0.0003004052211438785,-0.0038339852097154558,0.007138046297780408,0.0020375917086270763
131,0.0013223522001311768,0.0022218371407520393,-0.0037662800615613536,0.00778532261336011,0.0014471863855696231
132,0.00037505583180019367,0.0056592709955295695,-0.003113530205719271,0.010030425411661244,0.0011416294268657475
133,-0.0006193576591634949,0.008590011654009098,-0.0013995158847691716,0.00924669870058837,0.0013880306524111758
134,-0.0009140243115793615,0.009730473273317582,0.0015315462090613567,0.003545909261681537,0.0025953705693582273
135,0.00017790876696413777,0.009457837655977042,0.00529949104822916,-0.00435183107927638,0.005571543074834004
136,0.002611888779606028,0.00776832717841292,0.008479852388400806,-0.011485116167419838,0.008482196560469573
137,0.005791502924811118,0.0052981462087638926,0.010926278589547455,-0.016674212261662956,0.009238700873572597
138,0.0074877618509104574,0.0033680551367800187,0.01284477038620584,-0.019574640351289977,0.008301864242640894
139,0.005566122468750719,0.0022458833372524536,0.014205001550413189,-0.019130149475475585,0.006763631011080973
140,0.001166018040900204,0.0013859342527251326,0.015442140300770714,-0.014813475414549703,0.005327334874189865
141,-0.003008115599602263,0.00012177402160761831,0.01486110148132606,-0.00962955051958653,0.0035225656895835
142,-0.004954117383174233,-0.0008976304034824331,0.010716305354623507,-0.007328331849622159,0.001852787780725261
143,-0.0042882995982232094,4.6746073076327056e-05,0.004688466124333997,-0.008521536213010997,0.005222341759920075
144,-0.00245696824451264,0.002811251087746302,-0.000733190512259924,-0.010961528437876008,0.014805817485062022
145,-0.0012723456452557473,0.005638426328898067,-0.004930012956079668,-0.011509078381249212,0.022688938079161388
146,-0.0022451246198665637,0.0073008639660664156,-0.008751956501132146,-0.008177957638529177,0.022286787077320503
147,-0.005333205522095717,0.007215583597934962,-0.01261144472252206,-0.0013371764045971382,0.01419470222215575
148,-0.007745510531072181,0.006370693790541451,-0.0148577622205558,0.0064721555224436685,0.004044638071095739
149,-0.006710264334403638,0.006851826189869521,-0.013460092115912262,0.012206386506314892,-0.002455534290168265
150,-0.0032396167401130753,0.008403030871941256,-0.009061158858945888,0.01316561869002656,-0.00551019461272688
151,-0.0009291584192221105,0.00868337992677918,-0.0045040469781409695,0.00824592009184858,-0.008935663301993422
152,-0.0008686300582191226,0.0073051681723787275,-0.001968617459346535,-0.0001863277116581618,-0.013067461146356756
153,-0.0016062069823339314,0.005841229625140029,-0.0020682473171703426,-0.008562332302625483,-0.014363793025614018
154,-0.0022888578755090095,0.005198901672018064,-0.0041143270686471375,-0.014130632925604793,-0.010953898888505145
155,-0.0026404045958683792,0.005495223654874748,-0.006303723860128524,-0.015630036461364117,-0.003962826586348701
156,-0.002411908735763226,0.006633661169086931,-0.007132871396388047,-0.015050342824423888,0.00463386804894742
157,-0.0007914571159654509,0.008037552229783147,-0.00584834799294545,-0.014764067942201841,0.011786066182232631
158,0.0025392005120733327,0.008160801101675146,-0.0035559294909457595,-0.01418643042967259,0.014251290132727131
159,0.004400763226625066,0.0056028208984789125,-0.003971114180097964,-0.012523311046556185,0.011694966795791876
160,0.0007557943185840525,0.0003574159682255577,-0.007420665947740421,-0.010175846395826835,0.005830021791223202
161,-0.007229406153793708,-0.005851323348509647,-0.008921713970938171,-0.006218862808197398,-0.001425171581372208
162,-0.015035024620900972,-0.010483882166361232,-0.0074923963704730395,-0.0012071242523863442,-0.007781236715045345
163,-0.019689727788657713,-0.011936023558880505,-0.0074682665089253345,0.00018558063166646617,-0.012315968512549576
164,-0.019832485810035914,-0.009357781126345794,-0.00957163127473971,-0.0040153564651721355,-0.015419674994315472
165,-0.016329206898849872,-0.003866091162540318,-0.011451636218728339,-0.011061641708647754,-0.017195645676233558
166,-0.012217883827048451,0.0010962769059431816,-0.012307864904115418,-0.017954812596074878,-0.01660256552705349
167,-0.008743183520757264,0.0037834664013215403,-0.01120454632586305,-0.02137888249551569,-0.011311414459285019
168,-0.004556316171404443,0.0050935764618619045,-0.00783619799278218,-0.01917260063349935,-0.001579399037303066
169,0.0006907475244575394,0.005830133040921608,-0.004083481778684609,-0.011863735255804657,0.008311992336792957
170,0.005085510661050955,0.00579867748822717,-0.0017866440109715592,-0.0024389913163196213,0.014238941174884865
171,0.007402179316960717,0.005028774225386032,-0.0007797882787059773,0.00488477722682514,0.01511579115214345
172,0.007546814955264497,0.004087666219599988,-0.00033306988273011575,0.007822453885825162,0.012424466178596159
173,0.005234373127649216,0.004626558538379727,-0.0013464960088159714,0.005886593430753025,0.0089255409123452
174,0.0015433596662150655,0.007945511264124037,-0.004253772862698573,0.001253948977110977,0.006232580847758075
175,-0.0018769004981637294,0.010932448386142414,-0.00639479462638442,-0.0014679089525287728,0.004977954522779452
176,-0.003912693530098166,0.009705273543068906,-0.004058365880169961,-0.0006199218635077861,0.00654939575416918
177,-0.003932720242628257,0.004704232896569514,0.0021141439809655074,0.0008578841898732397,0.009351358640831184
178,-0.002147813155152088,-0.0007565839070167088,0.007957102980560696,0.0004846705317729628,0.010618616939837271
179,0.0008972920563997214,-0.0040921122061132005,0.010606118264069396,-0.0012416593267730574,0.010592055119573954
180,0.0032724130463477907,-0.0064813172144280945,0.008442270366429958,-0.0031535566643304965,0.009290357400403538
181,0.002354606865393916,-0.010408276228526301,0.0022916253731608987,-0.0026743481109355754,0.005357363124245227
182,-0.0017242412732825126,-0.014291730633141705,-0.00297769017070217,0.002573070031111927,0.0005322817027652612
183,-0.005787064560689839,-0.014384630807031692,-0.0035709915409674045,0.00956857649479606,-0.0007771083021607447
184,-0.006908734808217015,-0.010531408307782054,-0.0011395126664548107,0.012702984033521223,0.0012256696173384616
185,-0.0049350890790107555,-0.005711998476137346,0.0003758261701492034,0.009635237688177879,0.002152402624294534
186,-0.001803570149378942,-0.0024229152659286063,-0.0007572876943194415,0.0016194422780478547,0.00028620980660043607
187,0.0011115367791930768,-0.0007659000773716803,-0.002585640024166504,-0.008368999101951921,-0.0010193964218123339
188,0.003315919880198767,0.000646982061769264,-0.0026213183323426873,-0.01732251068956526,0.0010489414885513255
189,0.004210038322711298,0.0024496112093841853,-0.0015164802566650212,-0.02256260891228148,0.003868894565221731
190,0.004890601879332788,0.003574831666676112,-0.0015873604807194474,-0.022328801311811353,0.003982407633113559
191,0.006205347849127006,0.00216690217443469,-0.004284084295875657,-0.018796144997499,0.0011754672852676254
192,0.005974815362971237,-0.0014153559572317956,-0.007905988038498703,-0.015214467702703896,-0.0027857872497471267
193,0.0025307786132461626,-0.004757663668711762,-0.009150578031287281,-0.01131788347019806,-0.006148024915275096
194,-0.002365292972490043,-0.006207266950502724,-0.007185381377597603,-0.006392821600407001,-0.008478091335595742
195,-0.00540300830733295,-0.005133810889621671,-0.0030782917974752863,-0.001381290861173874,-0.010039564485501303
196,-0.0057761714209324695,-0.0018694716928363772,0.001274381725420316,0.003124041134648337,-0.01050118164029648
197,-0.0045645089983442,0.002902019910237515,0.00468173023283574,0.007832871834227366,-0.008210225691650235
198,-0.002218840287906777,0.008016239384006337,0.007328578069481279,0.012741703113230519,-0.0018909236421409225
199,0.0004135056031659122,0.01081559117858448,0.008383649770599669,0.01557900056688279,0.00574033657946854
200,0.0016745208393353736,0.009440312670969203,0.006503866452468402,0.013855174778254023,0.00990984180796657
201,0.0011879356043748722,0.004798720949050285,0.0028486625958696102,0.008934816401652472,0.009375714712372125
202,2.7988900601704947e-05,-0.0013709500250139906,-0.00032978685270955465,0.004500009724697931,0.005279725078908844
203,-0.0017044101777798067,-0.007223624768712036,-0.001921192808495759,0.001494848016498922,-0.00032270484880171256
204,-0.00416649123039235,-0.010242778719848128,-0.0010878039841234583,-0.0010278088594377888,-0.0023298038019558833
205,-0.006002361944616585,-0.009509472044242033,0.0016509216393582522,-0.0028314250000322366,0.0022260588221126175
206,-0.0064043428105200455,-0.006865881428447031,0.004314177720387719,-0.0032165956961605073,0.009505199325971459
207,-0.006419641112750801,-0.004841616652469406,0.005878537623216226,-0.003147909318921396,0.013780984275954188
208,-0.006551101462352455,-0.004638936097579176,0.0063612194449092045,-0.0032172870489957403,0.01258024080443209
209,-0.006175625116712144,-0.005735150935968842,0.005290452745339902,-0.0015844384387181294,0.007083741835969649
210,-0.004769411439274808,-0.006575074407448803,0.0031150625354471875,0.0033009878848813384,0.0006268326969734181
211,-0.0024681337596491456,-0.006407038942297934,0.00128566109293121,0.009378411588180561,-0.0031515218580067963
212,-0.0004069867822364075,-0.006235961508547825,-0.0005473954183830506,0.01206132062856208,-0.0028430887223671315
213,0.0010055295849069172,-0.00669606361825987,-0.0023334256392123186,0.009468732859919785,-5.7288841133552184e-05
214,0.003390357868237938,-0.0064900685226428455,-0.0017411630618749821,0.0045597513445378695,0.0030371270111116014
215,0.00691210165547727,-0.005207802999496107,0.0018860946464796763,0.0007789007538350583,0.004736864703211856
216,0.008723909330738007,-0.004841234034297654,0.00582024520715703,-0.0010397484736196557,0.003703456938570131
217,0.008604723984079665,-0.005454380784420694,0.007658599563457877,8.2173324879749e-05,0.0011502564531503696
218,0.009018283511732573,-0.004718777572215874,0.007841654371342882,0.006611740734388899,-0.0005653431237428688
219,0.00895463321068812,-0.0026635120905411313,0.007868515897796073,0.017875162505851735,-0.00202476620745944
220,0.006209229978180368,-0.0019151386375982622,0.008098892889905524,0.027311198944300768,-0.004926309135274386
221,0.0012727863662665296,-0.0038225494625333226,0.007170893889426363,0.02783551428195078,-0.008385137252032823
222,-0.004211937676172887,-0.006290496785154371,0.0047715136966846915,0.01959582886242071,-0.010041782637736293
223,-0.008583232138900483,-0.006469196486017699,0.002857607279142703,0.008908483571055751,-0.008338398456841058
224,-0.010521990343393881,-0.003825258033915746,0.0023095291351365264,0.0004140841807028826,-0.00335797139903927
225,-0.009541923385444049,-0.00021583046787444646,0.0021262743729439752,-0.004688365643379977,0.002069736957248492
226,-0.006823989073023547,0.0019093793182745947,0.0007933503037194273,-0.006627298132026959,0.005539148635115382
227,-0.005414730106825366,0.0010648913059499144,-0.0021696236470837545,-0.007450876365003582,0.006444560528837102
228,-0.0071823025899044445,-0.002783316289176006,-0.005081421904674942,-0.00897076231425063,0.004009965202458112
229,-0.009711583468081313,-0.007284176333601501,-0.006189276155038521,-0.009211232761124637,-0.00019244558800394118
230,-0.00890707277074376,-0.009374583233025103,-0.0050302533462001,-0.0048900782784464655,-0.003035030932585712
231,-0.0043834664379047835,-0.008049137886767211,-0.001079855408055257,0.0033657567224005883,-0.0026185469909124574
232,-0.00018225741091839077,-0.005187417315834057,0.00501709966555298,0.010535364990282065,0.0008166872252873389
233,0.0007160123529488121,-0.003124486605532479,0.01122075782273274,0.012349408893488787,0.00564852979258743
234,-0.0005678631232373387,-0.0023277762680100566,0.01589915164740484,0.009853919636788699,0.00993685494565438
235,-0.002569957248688901,-0.0026816054102563477,0.01795591076304111,0.006693924731527539,0.011231779326660241
236,-0.005363300849835376,-0.003519663238130197,0.017927278336579765,0.00395550773314445,0.009231675009891274
237,-0.008029646708259957,-0.003668803306597945,0.017325746594562406,0.0013625379462561336,0.005874415135548564
238,-0.00881212680548158,-0.002931422879982025,0.016454602698460667,0.0012562274166228009,0.002410895168315657
239,-0.007613925597794103,-0.0018127960123432455,0.014869176496091737,0.005834680548232066,-0.000624072676268055
240,-0.006443996331870289,-0.0009277711829131168,0.01166684017048885,0.012030057440543475,-0.003703760488017355
241,-0.00826168926676944,-0.0017342412867705553,0.005478532507799336,0.013541641335574018,-0.007623951801989915
242,-0.013000652480559536,-0.004808336758118823,-0.002400711559359499,0.00879438932448915,-0.009770284186131625
243,-0.015856760160697588,-0.007568842933943618,-0.007401793558113343,0.0033535120274301297,-0.00684497256176484
244,-0.013830259740968236,-0.00735831769369772,-0.0062614915857769566,0.0023866247554933813,-0.0014924740865823358
245,-0.009651103769424388,-0.004574396326303823,-0.00038209729833030254,0.00486280817305238,0.00036157448579542784
246,-0.006446062269735713,-0.0013916598532216853,0.005906578233348576,0.006086522530071051,-0.0036776371887838034
247,-0.004537277176265481,-0.0003133777254892804,0.009731709156549403,0.003266180391633703,-0.012139962907462795
248,-0.003670018528544083,-0.0020268616908015844,0.01059568883863063,-0.002375839796354545,-0.020431658763688083
249,-0.0035991587853008286,-0.004152951643523362,0.009112295769431736,-0.007957954883243091,-0.021958379587977413
250,-0.003880604530560264,-0.0049371653541395565,0.006604522543985924,-0.011072524744375334,-0.01497045504908721
251,-0.004480156057072456,-0.00486266971448232,0.004474645980605886,-0.010506503517219047,-0.004684614770540667
252,-0.005800704313491173,-0.004386929451819835,0.00350999279124977,-0.007696984791838478,0.0031176044216665233
253,-0.007765684693416526,-0.004177183397465621,0.003753717499433607,-0.005683457658729512,0.005998118412723374
254,-0.009501373102559323,-0.004627935835488392,0.004792815374513058,-0.00551198328460366,0.005944107764780458
255,-0.009924766569845195,-0.004843636066678931,0.006333754523439263,-0.005602471116844546,0.008087368154917344
256,-0.008164383191647178,-0.004939404192166686,0.008435872664140729,-0.004396425235678729,0.012583238180006949
257,-0.0029215543577055703,-0.005118797722729806,0.011553429717841063,-0.0011071963976821665,0.01457763531373099
258,0.0047646787595146236,-0.005574955936128568,0.014010892195664267,0.003430982514299151,0.011484465455786397
259,0.009603248649663741,-0.0074321915631472765,0.012215681968493838,0.005893103024444429,0.0042226327033860304
260,0.009035977980482864,-0.0095342550393151,0.0072225467419521645,0.004807802825200848,-0.0030710907714125444
261,0.006087897692849348,-0.01029336010869981,0.003214998437276448,0.0028226008685194935,-0.0071742891982728395
262,0.003955744794410787,-0.010110101085549465,0.0013529557529616677,0.003211704129765389,-0.007891661784189265
263,0.0020339765705760953,-0.009172770322666193,0.0012723201952897613,0.00618633935226087,-0.005422700105599923
264,-0.0009283539221427757,-0.006961208682123542,0.003884420679511045,0.010558868543914744,-0.0008691814922454213
265,-0.0033849239118545356,-0.004118452149503627,0.009942213906582674,0.015994650741999402,0.0028467443577588486
266,-0.0040834182327472105,-0.002477182442249785,0.017504559702115688,0.02143811187021189,0.0036085118139268834
267,-0.003342043352011955,-0.0018648459881196765,0.02242778168812199,0.02564051016823913,0.003670900926440921
268,-0.0014421172254357067,-0.0011258356311919728,0.021569591797645386,0.027501120805980286,0.005599067275592185
269,0.0016803427137288855,-0.0012348444891423717,0.01590581540598588,0.026305313600923457,0.0071109836110142995
270,0.005502281722477828,-0.002782889126886939,0.01050782422272009,0.02280449791421022,0.006424898267642658
271,0.008422017742131874,-0.004879809522884674,0.009087653256265787,0.017530153121458635,0.005487756098898144
272,0.008992851257592423,-0.0073459168394701905,0.010212191881572592,0.011244363361182251,0.005002542789837351
273,0.006819469212948377,-0.010324002924390134,0.010519574704083925,0.0065552916541577605,0.0027620398385977455
274,0.002999825093616522,-0.013546923615810636,0.008900030713375126,0.004639303142208783,-0.0033346856788909
275,-0.00044001217520566415,-0.016127564022644255,0.007369497358846306,0.004214314665557362,-0.011915665468065245
276,-0.0023076915504101204,-0.01658535537325732,0.007716506355706786,0.00505903052613665,-0.018552497983035522
277,-0.0020717836771007143,-0.013881675914135399,0.00965385280585122,0.007995611741046625,-0.018295058876440947
278,0.0004744291223489077,-0.00828114640833112,0.012883232341373957,0.012457051584781614,-0.008512356620948224
279,0.004549025674492537,-0.0020466018994706216,0.016078179831799953,0.015953462098167146,0.006163842540026876
280,0.008586099550760075,0.0014361221706518856,0.016149312918443064,0.01636179385401364,0.016601573814591673
281,0.010958989487512212,0.0012315857400139814,0.012986590128581063,0.015036320761729477,0.020308971265206827
282,0.011852228681000344,0.0007470197694103302,0.011744010812223765,0.016677881914641444,0.022311444921614933
283,0.012445610751819191,0.0030225555727301364,0.016369771002374512,0.02376890697151918,0.02366100201986731
284,0.011535633402493051,0.006315987239757973,0.02309434095722289,0.03163341859032,0.020060652712518844
285,0.007960889644865988,0.007846085820851612,0.025615101380862603,0.03517298872699075,0.012964505302665187
286,0.0038781653887288176,0.006762796565394304,0.023657050519688125,0.03571935426261706,0.0073959853730823436
287,0.002128718340177378,0.003630159781224465,0.020764686769006818,0.035111627320484874,0.003961091505453151
288,0.0024026831965794897,0.0002347850460732221,0.018171571308629196,0.031112861998120547,0.002700187127049052
289,0.00254308821193874,-0.002837290787701695,0.015545479762736505,0.022615429512186373,0.003243528822451362
290,0.002448184794910246,-0.006049282271681971,0.013293506599377784,0.013097227987221861,0.0029383674420707744
291,0.0029743067336684206,-0.00857667348004257,0.011158606789027588,0.00690643891838031,0.0006850263250616298
292,0.0042733017160618975,-0.008828848698189475,0.00809172345657202,0.005812558187892847,-0.0018718353779019513
293,0.006025605281688997,-0.0068134254719938135,0.0034188047150318255,0.00791155594985554,-0.0032677381018725448
294,0.008178351332000204,-0.0030489732055528035,-0.0017413222355139272,0.009774346775607495,-0.0024471300559575685
295,0.010490849053931118,0.003103305435980398,-0.005494575254179539,0.008517521605314778,0.0016534685729295716
296,0.0104570907335078,0.009655201677151953,-0.008026555482946016,0.0024341407957735465,0.007066012153172069
297,0.007612826694222285,0.013656374922000357,-0.007937456340173036,-0.00521604900738673,0.012541510032401624
298,0.005577837891266213,0.014837151199497177,-0.002813614785393497,-0.009321363613327702,0.018913892455002197
299,0.005023442316906602,0.01241180605496334,0.0043450115690472375,-0.01016649107362614,0.022696426648006203
300,0.00371964576737378,0.006445315818935426,0.00894039225621908,-0.010165345847669899,0.01998706803931444
301,0.001734839177593993,-0.0004979667421196326,0.010129057147208397,-0.009154035519838545,0.012096762779133834
302,0.0003803147988917713,-0.006441236279879965,0.009924005214452873,-0.005612010025480629,0.002952317838916652
303,-0.00011675652537796323,-0.010368009529996922,0.011684004002925411,0.0011402159129005683,-0.004207501209693006
304,-0.0003750045691819031,-0.012601382681540254,0.0166519569585268,0.008660020215607118,-0.008633130356403035
305,-0.00040646007280118867,-0.014773498431713878,0.02163689387080341,0.012799902924202307,-0.0106840224843405
306,0.0004901778514383735,-0.017923302164573114,0.021794854739227935,0.011867421139205577,-0.011743406206173942
307,0.002514140963250981,-0.021144477406362466,0.01570367349854536,0.007423827932682545,-0.013389939624005575
308,0.005064470532820961,-0.021847553525302987,0.0070822258909251715,0.002725675676550654,-0.013300189021740383
309,0.007041938848570011,-0.018936264259709023,0.0004179728915198207,5.6030240693424356e-05,-0.009034141272667894
310,0.007851971056827403,-0.013586282401666119,-0.0026916804190378514,-0.0002293374313683697,-0.0017181748376327284
311,0.007775419580373142,-0.007325050111686613,-0.0026060296662770797,0.0022557901296369853,0.005840293242932548
312,0.007110923478986077,-0.0019738572317311767,-0.00026036171407760295,0.007018905155584515,0.00969006464376883
313,0.006306837975979187,0.00220209439618422,0.0032271640468675487,0.011436707717372459,0.010637336938149188
314,0.005680874931533386,0.005736818927314722,0.006581561534040885,0.013716061917220307,0.013534669315378396
315,0.00474385974281336,0.0064259336636980765,0.008485090089528427,0.014753150210569938,0.016972955199299932
316,0.0029193670335654637,0.002328483716063088,0.008185018364937834,0.015259584121590746,0.015850923655299318
317,0.0004612552894875768,-0.004381798694008898,0.0061517923153693,0.013627762962489425,0.010133261726888233
318,-0.0012671492925759955,-0.009482537090122636,0.004243424811882551,0.009432630825869665,0.0037802384180803898
319,-0.001851509339649938,-0.011676675739296639,0.004065706673313876,0.00506932799764211,-0.0011197213551617314
320,-0.00229873536965728,-0.01240775391449932,0.005145488218842292,0.0027063129280536485,-0.003490829288984236
321,-0.0021619300806627628,-0.011674525829505785,0.00594793916966646,0.004046705818562276,-0.0003079923931876187
322,-0.0004180376409225444,-0.009314658073342913,0.005788037944125696,0.009168777292372794,0.007826541928635675
323,0.0017217613962670888,-0.006586531177264568,0.005311420955684254,0.01450136097848318,0.0151710649959564
324,0.0026653335295123808,-0.004450607901785374,0.005875524352156686,0.017381648638267924,0.017104276986805497
325,0.0030180012327616587,-0.0032958674746939925,0.00728724222791627,0.018910541362666226,0.012905301239667362
326,0.003998820768538539,-0.0025664905065266056,0.007851216167149564,0.020637986617057028,0.007125500187190056
327,0.005343416336063644,-0.0010891714688097617,0.007327732041068284,0.021638877980644875,0.00648227992225622
328,0.005318398516757372,0.0005629051640893109,0.006075914417210106,0.01928408313856668,0.01125459793543236
329,0.002671630387225356,0.0008284171899013666,0.004135013628886748,0.013203785355111172,0.015902063494616894
330,-0.0012984286347942555,0.00016818589843256617,0.0029742705566478023,0.006574903523566661,0.017690084361616367
331,-0.0038394156066339944,0.000816926666219851,0.004330794160924875,0.0029811830446096273,0.018279125271975557
332,-0.004321885642355701,0.0034792666392933864,0.006921926671761314,0.0028467090677108293,0.018570264264943487
333,-0.003925264268538735,0.006695130122337147,0.008198701179899312,0.00421437994151184,0.01788356454318485
334,-0.003227521427230667,0.00902905652986784,0.00828542460504587,0.005844576678087246,0.016611430184816933
335,-0.002251034455691639,0.010076005251121489,0.009156685633798045,0.007918035361980137,0.015509406798602764
336,-0.0006361437730211741,0.010270349306433143,0.011960106720192147,0.010943317878942361,0.014689658378487855
337,0.0003423714632829626,0.008822797938603709,0.014325571805436843,0.013339457888649679,0.012999060823646609
338,-0.0010920891704929749,0.004696796597293728,0.01250703544720227,0.012623065791636136,0.009093341318210907
339,-0.003579654235375614,-0.0004504625409359565,0.006830215255787847,0.00867765310177962,0.004692162373506782
340,-0.004843924224615374,-0.003963250919402446,0.0011978797363210243,0.0038211396564385445,0.002861557179801204
341,-0.004143937381426351,-0.00407967912808041,-0.000533957856868847,0.0018287220806216698,0.004743340792682821
342,-0.002073367471062314,-0.0006451288783098549,0.002207049047406123,0.003995852076463366,0.009806761992599198
343,-0.00018968952478470158,0.004309584969842811,0.00644927841520316,0.007144114431098137,0.01588931372518366
344,0.0007080733211295387,0.008423098613127093,0.010519670894534018,0.009880878087708104,0.020244594632256002
345,0.0009287615667273006,0.010358670276044282,0.015031439433494677,0.014713152202798827,0.021558880636500303
346,0.0006182824780057804,0.01005454509759262,0.01899369344251963,0.021350161169899066,0.020177985575999383
347,0.00017996881783222018,0.008607462276980895,0.020387361924216366,0.025401017184866884,0.016389100509286054
348,0.0004403242295104392,0.006652296751952528,0.019535770828180296,0.024602892555640327,0.00992805492401157
349,0.0019504211773622064,0.004650255106991808,0.018263387869405703,0.020965057013704113,0.0029737658489521223
350,0.0037878981114285886,0.002947754717945746,0.016217195683485546,0.01708996728195662,-0.001216574865290902
351,0.004393989124301118,0.001360969366349828,0.011740275735691915,0.01285167531211652,-0.0014827819989386326
352,0.004219799281891292,-0.00020140676350364302,0.005619835100995958,0.006747070938960305,0.00036250659049642147
353,0.0041541836891401535,-0.0023333396641395374,-7.585637753289099e-05,-0.00012558281750083884,-4.942529740628487e-05
354,0.0038960752014178717,-0.004656354022427726,-0.004619267919080828,-0.00482738476257511,-0.0037363549328945124
355,0.003480344442820187,-0.005646052562075493,-0.007793882844724707,-0.005775568178484216,-0.007998865013982762
356,0.004098520695039624,-0.004686226387552915,-0.008844880297745312,-0.0030609842642719907,-0.009491368028792684
357,0.006445677040177508,-0.002064031198712624,-0.007749557488362883,0.0014626424717558433,-0.008423722802576559
358,0.00865169411997174,0.0009212407518535796,-0.006853575911465166,0.004268553314822578,-0.005318888415559704
359,0.008934432230366236,0.0022179801576636417,-0.008499661333209112,0.003075016680251028,-0.0013851431708332047
360,0.008014415220612962,0.0012204249515154052,-0.011871681272337623,-0.0016055355253823279,0.0004882503380334376
361,0.0067893357200098405,-0.00041260840203978906,-0.014443388044031736,-0.007420050902284127,0.001112102384724258
362,0.005493991465809264,-0.001477382140294682,-0.014921135461275896,-0.010814417187988533,0.0010407747400972937
363,0.004731471502454013,-0.0024883538632963545,-0.013737386665717012,-0.00947300353206097,-0.0009122476044782814
364,0.004776892556708619,-0.003764766970055665,-0.012358693024547849,-0.005088131174786846,-0.004687033521778243
365,0.004872459444514957,-0.004110764356826515,-0.012889760962980935,-0.0017592240031947747,-0.006734103368797203
366,0.005106277980532524,-0.0020335771457057916,-0.015292684805222303,-0.0005755873234903,-0.004392553393644425
367,0.00586444510221942,0.0014120333422959987,-0.016966160332771287,-0.00034282363502937383,0.0006044521610499644
368,0.0058200380976941605,0.00308721124650563,-0.017368504850930663,-0.002833565043024019,0.004352996073596374
369,0.00435499078892315,0.0016452398728992311,-0.01840882011945163,-0.010159002485835514,0.004047195959391592
370,0.0024286823927391473,-0.0018684732076058583,-0.02109218403565165,-0.020684215748430077,0.001885497292807957
371,0.0013551460799944366,-0.005924136383947754,-0.024422329122879186,-0.02982000533409619,0.001666464476731942
372,0.001779922652102543,-0.009391216181499035,-0.02637037446911403,-0.03329688433073043,-5.9385043575487316e-05
373,0.002685727067936913,-0.011852437964948124,-0.026304001847752667,-0.03160602957033697,-0.0024141775626107726
374,0.0029176632301703906,-0.012996738155274953,-0.02594524275336776,-0.02916390576713474,-0.003256536767442572
375,0.0019104999833020064,-0.012976514185123198,-0.027449990668904765,-0.02897783793578792,-0.004090187112546779
376,-0.0003284031137504952,-0.012201214079564995,-0.030913528054301528,-0.030613027341773548,-0.004549402895977968
377,-0.002447684092676268,-0.009975933773104883,-0.033553391369050695,-0.0323016469541226,-0.004345563528488068
378,-0.0034024632325334865,-0.0060905011537458476,-0.03282371376069393,-0.03306947929020381,-0.0022476839558698324
379,-0.0037552933902815365,-0.0015188003634715958,-0.029786150847940812,-0.03229376543407164,0.0018481822458555565
380,-0.003988134225035813,0.00261997441159511,-0.02761744001917779,-0.02968017901574328,0.006845664092481256
381,-0.0037478121100360147,0.005057897262078366,-0.02808531306209473,-0.026314073329742428,0.008262781852398067
382,-0.0020581572539794908,0.0063924139009425155,-0.02959409338821219,-0.022764204263725055,0.005691800270506847
383,0.0016925635186733525,0.008291478102342504,-0.02906164257069847,-0.018843155015441582,0.0036163164914878036
384,0.005571700134079054,0.00973303529094664,-0.026545902673319282,-0.016266383113930024,0.004440198712613872
385,0.007213410665045147,0.009115914983072135,-0.024476868049957565,-0.016107267861788437,0.001645044190697574
386,0.007315291914348884,0.007580702173373395,-0.0229492712697982,-0.016453846856881234,-0.0011379776887479902
387,0.0073738787030493205,0.006794545147271635,-0.020938735799484406,-0.016281301822545072,-0.002014756681133727
388,0.0072856378272799765,0.006934129645147288,-0.019212093855498824,-0.016743270883762543,-0.0016018284432213793
389,0.006734801443395349,0.008117229692945661,-0.01783408499698119,-0.018313438907977663,-0.0006922474761693727
390,0.006023153130556943,0.010271874475571463,-0.014989821664059742,-0.01927199489659044,-6.942952925724205e-05
391,0.0047869770270723535,0.01174001174415258,-0.010938897981701116,-0.01798762747410484,-0.0016055494939773924
392,0.002357827516090571,0.011168438163179053,-0.008084283415263517,-0.015715433968098512,-0.005579300436968494
393,-0.00021381683190339963,0.009115821558704067,-0.007508832835146541,-0.014836171261900639,-0.010826872054591426
394,-0.00023940952053327748,0.006710600827055071,-0.008418342578140253,-0.014277080530003034,-0.01622699566132145
395,0.0038853574629436113,0.004639075086501811,-0.009626222054557702,-0.010510030343846488,-0.021436358598694565
396,0.009886149948731656,0.002503891924039966,-0.011433191413359474,-0.004781934473872632,-0.027043470624584953
397,0.0139431351943895,-0.00014545098611051408,-0.014021362910783632,-0.0014060189707750454,-0.03264395806418277
398,0.014232255182886221,-0.0020786788845386706,-0.0159949534304465,-0.0016414812660569549,-0.03363334714434427
399,0.011258739406890804,-0.0021725488832433247,-0.01612722770349437,-0.004359619574072085,-0.026872598202738286
400,0.007443588449137354,-0.00117752703839384,-0.014076316564433568,-0.007328140691519345,-0.017828191222313352
401,0.0044048029315741505,6.603821268554538e-05,-0.010633243053637189,-0.009457822971095048,-0.012828135726479388
402,0.0016686249830490686,0.0015272344243182643,-0.007416223232567698,-0.011103409880876153,-0.01313389150195233
403,-0.0010902873104205147,0.0028753272199369814,-0.005785348489921755,-0.01167027769366612,-0.0180761676563412
404,-0.0035486967255399003,0.0036203745757886967,-0.006318538710627887,-0.011265395671030914,-0.02172354117451019
405,-0.0051671922312321915,0.0036035295065481067,-0.008629202354119047,-0.011099927498518448,-0.023318198895700394
406,-0.005042997355357876,0.0030902265140753827,-0.011261702945814767,-0.01090509612528358,-0.02295262483731756
407,-0.002190748224622873,0.002927336916739495,-0.01219264438416796,-0.009642892784094536,-0.019249327043721783
408,0.002549307738193693,0.003632180306195099,-0.010579409516705437,-0.008220712795177785,-0.015386253786768328
409,0.005941398976681919,0.004852294589790116,-0.007290483153701319,-0.008116881770507485,-0.011919291934134647
410,0.005917497911211447,0.006248977060446072,-0.0037697954580917553,-0.008572341796642761,-0.008499858109062508
411,0.0029327552414209744,0.007159621057161881,-0.001101486884806655,-0.008334975775803522,-0.005670881183579073
412,-0.0014336401600515416,0.006203941837377939,0.0009144136419333306,-0.007247236743804996,-0.0052500458341084265
413,-0.00471364836992923,0.003622201598885832,0.0033660436879515516,-0.005069020396736166,-0.005861624968313353
414,-0.0052642843632091235,0.0013952250618461384,0.006761841686378355,-0.0015974434183766487,-0.005679206578123304
415,-0.0035780484800635544,0.0009851659679278777,0.01101263509410588,0.0027990639782085372,-0.0034539018737251574
416,-0.001522384196801654,0.002249349566471179,0.014645733024859114,0.007185584280817544,0.002492319378778251
417,-0.0008668892627691123,0.003284687029269104,0.015001477090683812,0.010865215311623976,0.008458978824274153
418,-0.0005908421134902714,0.0034534628673553243,0.012740793251716157,0.014256288082556714,0.01142013575186333
419,0.001448897420100087,0.004241310264874073,0.011521445891697844,0.017182011746335223,0.012848974636537192
420,0.0037501674660952488,0.005593325904699556,0.012445501475266527,0.018214342989227594,0.01118796272308381
421,0.0032932839777951783,0.0062171961414676765,0.013688270541662325,0.015823428659964972,0.006003985400223922
422,0.0008935173601759603,0.006254793362835762,0.013788108772840514,0.010537740960595851,-5.928444687493837e-05
423,-0.0006101761820204006,0.005818216995863367,0.01265407728503151,0.005392300766200771,-0.0038852991645044127
424,-0.000388909252940886,0.0041291350326781015,0.01112683753841951,0.00243824836955315,-0.0038308709262361356
425,0.0006190027718422763,0.0013459796664042776,0.010232051006661934,0.001558976259222983,-0.002120340157131737
426,0.0007990133384217974,-0.0011643283465151884,0.009887356059359994,0.001808561196656446,0.00013408939692662573
427,-0.0006017830397557767,-0.0017720811248585816,0.009070473548740703,0.002445852299441452,0.00400205781022487
428,-0.0027393869759070495,-0.00039042417239887344,0.007455849538802159,0.003372016980338589,0.009159940312878461
429,-0.004810156734807986,0.0012217509053039232,0.005726326362271886,0.00438451058646396,0.0133578603591065
430,-0.006548222031827421,0.0022272256978426437,0.00485995255597801,0.005512801073988365,0.017186887332993592
431,-0.0073520410607213526,0.0033052107700705445,0.006150549605676971,0.00863844525519191,0.021642707057131935
432,-0.006865048453817425,0.004400677956939145,0.009898375665663098,0.014298868884325123,0.023813975250917416
433,-0.005693314297111212,0.005004099382297685,0.014287230395306558,0.018794300856202217,0.02286698954651013
434,-0.004039197986973429,0.005451202990175587,0.017363194355705,0.019313133419794612,0.02178651503802791
435,-0.0015893171092439444,0.0059997985769512565,0.018772866109351288,0.01654889262825247,0.022182282583834582
436,0.0005734212381426502,0.006548426638462171,0.018996837290486637,0.01195287120208564,0.023122547155007812
437,0.000706197414386165,0.006995499172094197,0.017695763363036042,0.006493787593886271,0.023486059115833253
438,-0.0014037969877883367,0.006340300514678438,0.01442719142931756,0.0017033913299796901,0.021129573330281846
439,-0.004433227779889414,0.0038830192971989696,0.010478160446215898,-0.0002457015897445692,0.014667618787444157
440,-0.006420485782686115,0.0018052253694823882,0.008311047062640102,0.0012056056898068046,0.008628656155895897
441,-0.006518664318439988,0.002171153136538585,0.008851210157336286,0.0041960043499391095,0.00774499523014259
442,-0.006063724969480862,0.0035794779262697707,0.010094354855149644,0.00632433455425346,0.010121950096756887
443,-0.0058787373541512485,0.0043631608433304415,0.010663444824977185,0.0073031065841089446,0.01288207158973812
444,-0.004921643917576064,0.0050670834671882325,0.012547703809591327,0.009090224774308204,0.016332511420831464
445,-0.002621295414221322,0.0061679438779850305,0.017004351589432594,0.012431392965608733,0.020678055312845896
446,-0.00018290485282747017,0.006127044856299591,0.02087362365207738,0.014496113499655952,0.023360397440467962
447,0.0009197139261468029,0.0037477071768448425,0.0207732534204424,0.012994998079959512,0.021688878228940684
448,0.0006964918404484487,0.00043295437794559966,0.018231713666324832,0.010247542632822161,0.01685709201579164
449,0.0004097421524105553,-0.0016477418846035825,0.017819726379172587,0.01022158928023312,0.012184968844987099
450,0.0008991183780032684,-0.0016267038957962594,0.021200100577306206,0.013289429831938619,0.00899413244515233
451,0.0018221592606857333,0.00039987066942640063,0.024921095713576317,0.015695218725358274,0.007602356321672451
452,0.002667661214063792,0.003170838792455834,0.025001322708560883,0.015242758359186738,0.008337595365243965
453,0.0033911855473784205,0.004624449809469469,0.02125293402703201,0.013436661379516228,0.010362080271147881
454,0.003970348443624835,0.004551239010916051,0.016259200990027114,0.011803297286211822,0.0134927979873168
455,0.0042604661350568555,0.004267451726315036,0.01314066207207999,0.011243694605505358,0.01803050926858726
456,0.004468863753372288,0.004884340826852667,0.013339405911587658,0.01235826978725682,0.023610809541027535
457,0.004435156869185697,0.006958606904087285,0.015126056913751197,0.014312166177173413,0.03009782976681634
458,0.003598116955600941,0.009756835043797655,0.016418812313626484,0.016550994204243438,0.036418963773196915
459,0.0022161273633993185,0.011849007144902304,0.01692299187663365,0.019522871801436012,0.040369929396022054
460,0.0012906033431890277,0.012522526190421093,0.016968654191245925,0.022139359668925666,0.04015491897003727
461,0.0014199388484440981,0.011569151994034408,0.01673610508867931,0.02222401975199938,0.03540428903064618
462,0.0022854730520539654,0.00934187706960269,0.016420201569498985,0.019722179377240957,0.02933469596734822
463,0.003184945892454486,0.006699545999816496,0.016628210942806972,0.016946745462478627,0.025647328048441737
464,0.0029876519083937344,0.003959796473796151,0.017654232307440156,0.01619482524936165,0.023351530729066566
465,0.0012038625116474102,0.0009796210179882118,0.01854983347793625,0.017585996220719876,0.019127268408604587
466,-0.0003322625665710296,-0.0021092695465982146,0.018467053525234745,0.01919720165440401,0.011737643241619326
467,5.886039229772894e-05,-0.004505906196934144,0.017782468143857002,0.01933601496246717,0.003397672960991936
468,0.0013901615113499851,-0.005180563316042655,0.017648368537168616,0.0187827131059633,-0.0015804032590212586
469,0.0027721708022551057,-0.003173632214505101,0.020220510762807266,0.020507584801341933,0.0005213680872206511
470,0.004246050905128938,0.0008952466564591032,0.02590355785260925,0.024625515616190165,0.008021548163711074
471,0.004185467118795424,0.0034261035370200376,0.03027636303367037,0.02620116240735136,0.013213292640826758
472,0.0011316838534473441,0.0022558809095969893,0.028458201808228806,0.021812350443270602,0.011864363726462298
473,-0.0034797087572443408,-3.5527590741459514e-05,0.020697640584178535,0.013676806570852556,0.008223618808039044
474,-0.0077343329524391735,-0.0009724897545713046,0.011322035542114459,0.004244539923268511,0.006504571678003308
475,-0.010531908043411583,-0.001219712514625827,0.003317440139567996,-0.006156776709797461,0.0048871191502402
476,-0.01047227580808818,-0.0012797325151257355,-0.0031591223976680073,-0.015241789321406152,0.0012419492547143586
477,-0.007557668167871914,-0.0002584237084514629,-0.008529478749374642,-0.020515617560778084,-0.003151377835646944
478,-0.0040534844057771215,0.001424319140609512,-0.014124732197311606,-0.023511176872339206,-0.008002453285328198
479,-0.0019784359670735195,0.0022984230923839516,-0.02118874052444216,-0.027249087911052714,-0.014826158759520074
480,-0.0018310159241431095,0.0023648151352350147,-0.029168562819117116,-0.03218766060723983,-0.023364655481197677
481,-0.0031774610788910303,0.0026628594039323304,-0.03655330754510303,-0.03679098231303712,-0.03112203726879169
482,-0.0049152003019747904,0.003825294488174594,-0.04201944277856246,-0.040605573595034396,-0.03593459434841093
483,-0.0065253362469776055,0.0048930263868186726,-0.045275272955319086,-0.04524161666283759,-0.03885580831694858
484,-0.007937047577802728,0.0048041355383586695,-0.04238221317157011,-0.04713273310960471,-0.03935512042325736
485,-0.008680690320083501,0.004402745085756318,-0.037187413778692446,-0.04747617596379782,-0.038785050986344854
486,-0.008551617584322324,0.004448311655313075,-0.033550348711369596,-0.04640063163500868,-0.03829971637197359
487,-0.007884416345865494,0.004462814250238736,-0.030290908005476205,-0.04175575290342669,-0.03827914761224486
488,-0.008033803307209994,0.004010743042305172,-0.02881713810507401,-0.037444961414293425,-0.04027876055524723
489,-0.009429136743446566,0.003840459634115646,-0.026785793671879363,-0.033609355237642406,-0.04125551346316488
490,-0.01106082190502192,0.004792984326246074,-0.022339601034736777,-0.028998565744894834,-0.03693683201163739
491,-0.012757682491696384,0.006446931084262785,-0.016799288220232893,-0.024258484717855276,-0.026225474523368417
492,-0.014842318214906041,0.008135456376366127,-0.012319669450035943,-0.021085232970076244,-0.012549952215798712
493,-0.017271520138787987,0.009217583474384118,-0.0071725631374600805,-0.0176306327812668,0.000286869242694319
494,-0.018989584499127212,0.008904905907063356,-0.001701469885751799,-0.011851075454675904,0.008283440018867633
495,-0.01919141708291287,0.006954543609499865,0.0012197489281683632,-0.004570114333076692,0.009907779192317494
496,-0.018632933893533384,0.003864105757930836,0.0028786387379949115,0.002816359923779891,0.008598276623327315
497,-0.016703087284709168,0.0014122558868470143,0.006247028548990104,0.009083110505983033,0.007457777432589956
498,-0.01238667934572756,0.0004175320906949881,0.01352720770363559,0.015612798313886681,0.0070744890443302485
499,-0.007974437183415058,-0.0007647059374726106,0.02266307363551183,0.022802186515723116,0.006079357703712689
500,-0.0052265380755078614,-0.001328409425795208,0.0222361545796026,0.020809426270096392,0.0036761380182602746
501,-0.0032211849401858113,0.00037610151763298617,0.016953518381364007,0.016551001450972394,0.006727523503989171
502,-0.002256280748697806,0.0018242206651509411,0.009925928198154858,0.016448347691785166,0.012839007518013357
503,-0.0034636174390602842,0.0014631961203356468,-0.0007783000225943887,0.01523130737579869,0.014671471161315768
504,-0.0062825842704442355,0.0012621510735782379,-0.006652017914128887,0.013023236049411607,0.013626245771853045
505,-0.009761895546962687,0.0018347233806922654,-0.008778546443773138,0.006110306922313342,0.009494514913110916
506,-0.013557607996286922,0.0022502514940745157,-0.011382052768984076,-0.005466771447094871,0.003018513805855014
507,-0.01653217925291571,0.002402267235346399,-0.012858819760820399,-0.015362905308645277,-0.0019724825640138072
508,-0.017467054891121124,0.0016194749159037754,-0.008659244532071519,-0.01617812962854931,-0.003248066303319777
509,-0.016996488039787455,-0.001324667041976091,-0.0040538081202911875,-0.012636163364232261,-0.0046383908524666164
510,-0.016156381418138206,-0.0054306420401627415,-0.002624198903930405,-0.009646871787010463,-0.007433768827756344
511,-0.014577281260260347,-0.008485527485926887,-0.0021062356492563155,-0.006758858933454911,-0.009604007039965803
512,-0.011129268838436268,-0.009771423564275095,-0.005097443915662465,-0.00830412861943677,-0.011755235079901205
513,-0.006100484153168424,-0.010086817079488905,-0.006823775747181243,-0.008879021611358976,-0.013013581639349552
514,-0.002356548033291515,-0.010316916320075097,-0.0070307484888645,-0.007789984918059685,-0.011756675975233371
515,-0.001723913177505811,-0.009831366914327873,-0.00651360564185175,-0.005792696053722344,-0.006775419074085306
516,-0.0026239655811415618,-0.008057752053958757,-0.00459454432047585,-0.0031407043269586652,-0.002342686195142606
517,-0.0032081236124360383,-0.0063087053589749535,-0.0017798707899084575,-0.0008845059911967411,-0.0003659609978365604
518,-0.003351488583594871,-0.005525191947996998,0.0004284086736073753,3.64058062745457e-05,-2.2681770057426508e-05
519,-0.0032716940716841568,-0.004456870834377993,0.001320821656679954,-0.0002846749821876536,0.000458177410782733
520,-0.0032114834789171796,-0.0017460886760754157,0.0007364031390355309,-0.001494674213129908,0.004005802413250254
521,-0.004034178129657499,0.0008975255479315819,-0.0019345389977566624,-0.003961729459083286,0.00677224961503799
522,-0.0059541099788099705,0.0008453290635317984,-0.0064648020654703795,-0.007421794627499172,0.0039609770769760315
523,-0.00815203614616487,-0.0015478939535492318,-0.011685811827941825,-0.010469012427918426,-0.003635966383512177
524,-0.009983309699759938,-0.0046061713155031506,-0.017248690060621005,-0.012603419358241295,-0.011781049980702398
525,-0.011372280331321693,-0.007891356152650785,-0.021707769984676415,-0.013972526770519798,-0.0202118687243576
526,-0.01276722393218832,-0.011081057877855667,-0.02489534686116443,-0.016664007067606956,-0.02787995003656868
527,-0.013748406966005957,-0.01224096605122344,-0.02891285633205134,-0.022683480404326335,-0.03018563991892302
528,-0.012312342719004483,-0.009858122905585959,-0.032886738511904774,-0.02932188660455083,-0.027284981484485746
529,-0.008430413973766471,-0.005693337150030077,-0.034623803248887815,-0.033734019079011794,-0.023179209578559748
530,-0.005057824580686233,-0.0033450002753392396,-0.03569701839802508,-0.0377946234898464,-0.022226795840935475
531,-0.004446828661819797,-0.005088487400696404,-0.039440761936995805,-0.04431193024846833,-0.027316202306887943
532,-0.006332577566099892,-0.009873990689744,-0.039762650606616684,-0.0456574875453179,-0.029188970616173354
533,-0.009132749493414758,-0.014637610125613196,-0.03728798382698445,-0.04498103825552481,-0.028490125666523175
534,-0.011405674218534625,-0.01752925748443116,-0.0324484677676528,-0.04377710657446485,-0.027107951895116764
535,-0.011985204433044907,-0.018162005382017024,-0.024088752382763215,-0.0372160931812304,-0.022785398593112047
536,-0.011133625106823471,-0.017145490007585702,-0.01848008392688142,-0.02994817655711227,-0.019883630574931758
537,-0.009874550388126952,-0.015219601384298278,-0.015299376336869237,-0.021536800843560442,-0.0150231527360074
538,-0.007934339361190772,-0.011922783357375295,-0.010375027756062373,-0.009799926053112962,-0.0034037723360330913
539,-0.005038427221565337,-0.006895820006181029,-0.0020426255258913627,0.003223115754988903,0.01344151822546962
540,-0.0018754830257504728,-0.0013055207573949468,0.006110910709474611,0.01145266906325523,0.026631717778130858
541,0.0002486462173084134,0.002840194725252629,0.012055546334804835,0.014918735360458495,0.03329598853857307
542,0.00015447899824427716,0.004298539039157345,0.014134800384978663,0.014762338153074433,0.034121628663594285
543,-0.0017098802403464838,0.0034010368944188056,0.01217926242886297,0.011982385907435089,0.030488081339770032
544,-0.003651077048455878,0.001453945577276298,0.011152883481530491,0.013102931878887968,0.02882302071141118
545,-0.00487472974284632,-0.0004887730195351959,0.012877635389193499,0.01918714910371936,0.031426311201772306
546,-0.0056032529911642995,-0.0017973790844673062,0.01619499777187859,0.02671549087061649,0.03821790824018352
547,-0.005429277143303581,-0.0017830897407566772,0.020160431251826275,0.03351403108944565,0.04858146599540588
548,-0.004064810397550124,-0.0009151728309996552,0.02151782221823664,0.03401607678582946,0.05261759818646711
549,-0.0029428114154451787,-0.000565615520309716,0.021881942944413795,0.03318486017090676,0.050226358809825934
550,-0.003604860631079479,-0.0013104491967713442,0.022136989660957517,0.03406719743871267,0.04450359524350142
551,-0.006144201015758331,-0.0033905513506007233,0.01968945027500913,0.03178616228014779,0.035017330514392334
552,-0.009767049919720789,-0.0063635354731761285,0.014922418454876662,0.026051152789322594,0.026976666951817666
553,-0.012239854002541087,-0.008336165468636797,0.010372753480584614,0.018197954836273334,0.02125951032041793
554,-0.011295107854538336,-0.008109492709878548,0.008463004668091136,0.012233190759946362,0.01591684573161656
555,-0.007461163437791386,-0.006447645676607613,0.009170153443566148,0.010274079689458971,0.010375959977119171
556,-0.0027178326556159056,-0.004211591763837056,0.011352759858977022,0.012818523350492555,0.00751235206309165
557,0.0018122530429392745,-0.0017173009629893397,0.011899426002272957,0.015476170485003993,0.0053562964998246625
558,0.005526102024670011,0.0004947888638197735,0.009729216619730481,0.01557340562081719,0.0032472690662322333
559,0.00795630320251362,0.0020695925517245097,0.0069769602646827895,0.013718616901562003,0.004058121828969604
560,0.008448971196063868,0.00216611166592728,0.0038054817821209434,0.008049006038585793,0.00481425848443314
561,0.00600855702343989,-0.0006013489787246976,-0.0010845031708189479,-0.0006847005923732269,0.002411626881079962
562,0.002068551153662036,-0.004722393404105735,-0.006388738184425973,-0.00985488288125349,-0.002976484165894703
563,-0.00015373723942923063,-0.006658201334852211,-0.009170032110350227,-0.01641467986563532,-0.008993643910966662
564,-0.0001532585467587962,-0.005922194708046807,-0.007351660421055886,-0.015430158244267425,-0.009013202205417683
565,0.0006818509451000558,-0.0042965595307528,-0.004293574529512968,-0.010832452961829385,-0.007305894117858169
566,0.001591439531045903,-0.0028898831964161483,-0.0023219358639732014,-0.006568116064683794,-0.007092136607617956
567,0.0021688060405357047,-0.002708289683792288,-0.00178636763103178,-0.003215082780089715,-0.006563795051900951
568,0.002837137079324452,-0.004018883604223468,-0.0035964751320625462,-0.003002600874375564,-0.007835107383270907
569,0.00353122949952809,-0.0059101449918928396,-0.005551131984818367,-0.004061832418581471,-0.008861813796606307
570,0.002595285498659476,-0.00784696838577639,-0.006103134739337718,-0.004992277940340756,-0.008452686277626303
571,-0.00017059631417509029,-0.009163413565827767,-0.005339883730308074,-0.0057037231439880905,-0.00691749406500287
572,-0.003014337630550882,-0.008866554816325815,-0.004498088177625396,-0.006682333260647842,-0.0060323879815873255
573,-0.004539033750353605,-0.007094878061244474,-0.004038491685109807,-0.00643931036712331,-0.004321148186426664
574,-0.004086572103079471,-0.004735707986332951,-0.0038420007000883214,-0.004432502634751614,-0.0018420138298438269
575,-0.002330363886441269,-0.0024499335584681555,-0.0033079962014731516,-0.001120908823965022,-0.00021683541932936303
576,-0.001321177768826958,-0.0006889181662898408,-0.0014923555251951867,0.0030169448858609555,0.0033704100407361175
577,-0.0017137241270923447,0.00039249226722276164,0.0020950883728275273,0.005747671431238855,0.007843658791682799
578,-0.002396232960139172,0.0007312905650621079,0.006120758631600706,0.006605541756140239,0.010702752235354919
579,-0.002658275984270555,0.00032058080476505044,0.00923180328268834,0.00820534911550534,0.0112163027459924
580,-0.0030212359958817323,-0.0009257245310515413,0.008907452567187191,0.009563529868884486,0.006548575600515501
581,-0.003568610572818438,-0.002507116481830441,0.005197612189168843,0.009502450635938919,0.0004897272519118759
582,-0.002458070768541876,-0.0026442445317908497,0.0010052529669374926,0.008614271619555412,-0.0019648561990781204
583,0.0006379388821792986,-0.0008008378868009726,-0.0007674142336982555,0.007044009157714515,-0.0010152629867996373
584,0.002328425607669625,0.0006453174792293992,0.00021481872987200057,0.0035896919639711905,0.0010961116273981472
585,4.263138731267901e-05,-0.000614564566802298,1.4877869994625284e-05,-0.0034429113757249207,0.00022602292160249098
586,-0.003932461218515756,-0.0035978933143120738,-0.003471739730868837,-0.011721723306714445,-0.003738738769783944
587,-0.006076523838000098,-0.005387750504881915,-0.007288035473194115,-0.017049797570889393,-0.007527244869396544
588,-0.005821555370831638,-0.004464000115668403,-0.007919683270521866,-0.017389942745444312,-0.00795641023121729
589,-0.004139103012532191,-0.0018438821399267454,-0.005961305336179375,-0.01413001430092249,-0.007127826233298336
590,-0.0015811821603269594,0.0009272082706295432,-0.0036239837922679647,-0.009578338930687005,-0.006283826023205503
591,0.0015671971191750424,0.003303841317972643,-0.0019101964898920337,-0.005316054012805447,-0.0034381901575575645
592,0.004774901473145723,0.004570057672810851,-0.000841302536482623,-0.0019959220152979892,0.0005367097026445571
593,0.007623029871788,0.004089713395727802,0.0007478818186969717,0.0012171699144649208,0.004260769686280592
594,0.009540213847647711,0.002376233804293283,0.0029198674658634212,0.003986934829930778,0.00673520518712081
595,0.009871219079582588,0.0003059374158018371,0.004370090895845408,0.005251791358294318,0.007255000139680158
596,0.008659602108274635,-0.0015505480000738213,0.0036591192492982086,0.00450035480904031,0.008174613723664353
597,0.007162590158295158,-0.002553510187133502,0.0024848672454144028,0.0037417406025988145,0.00856013448952993
598,0.007023681123638328,-0.0027886317643797173,0.00232651444020058,0.0038409268099124693,0.00762851812839773
599,0.008329214566388384,-0.0034631404633096714,0.0021159694187484045,0.0034310240801339034,0.00590314517532316
600,0.01017673646293594,-0.00501498854609335,0.0015568288544731848,0.0032227620861024235,0.0027695356235493073
601,0.01210443779433423,-0.0064190798863222156,0.001316055403216226,0.0045237840916031525,0.0009828467271661165
602,0.013187078744284184,-0.0066386100075625796,0.0015190800721931704,0.006236622377243169,0.0026526216029927846
603,0.01260102769245219,-0.005570755007399188,0.0012077336183561706,0.006119010579057363,0.00718185203072953
604,0.011307258895038873,-0.004073147661470191,0.0008540718424322706,0.005067115240549257,0.012457107746207915
605,0.01014694683067629,-0.0032823767746078232,0.000348857330629244,0.0038099925278402263,0.018184239427765793
606,0.009052118163756631,-0.0030266270150452286,-0.0009653211438005985,0.0010891385963752072,0.02452901531321781
607,0.008477152283001757,-0.002440850304289124,-0.0024978472559411538,-0.003328151915701962,0.03051530336979579
608,0.008156846815120113,-0.0022194812242763927,-0.004113882106663742,-0.008880159657752547,0.03439249529085239
609,0.007997249087244182,-0.0027371435460156928,-0.00405441442887999,-0.013017416753344785,0.03415252772653441
610,0.009331881756974457,-0.0026408660528112215,-9.384256814272765e-05,-0.012474785667200535,0.03173374802148166
611,0.011580601654937468,-0.001975927296617755,0.0048560144975937,-0.008642123961754292,0.030176863553826667
612,0.012525932505317042,-0.002170187027256755,0.00858473000206184,-0.002364301016550972,0.026164215067572348
613,0.011244683988296545,-0.0033538897658178363,0.008953330574210976,0.0017429934751748274,0.022676956397715695
614,0.008649720707594986,-0.004363846443227886,0.008446498376344229,0.0028467607172165035,0.022262939097388294
615,0.006862944609930695,-0.0048535380113605454,0.009349167594197964,0.005466446443337641,0.021505691786988107
616,0.006684680139011169,-0.0059914655803420275,0.007758887187497393,0.010013406242720355,0.018623203288189945
617,0.006736150592503637,-0.007825612539212405,0.0038942378031514976,0.015752922202035766,0.013797966572235303
618,0.005649862203989909,-0.008991981801297599,0.0007444393135915182,0.020175270992372908,0.012228329543935297
619,0.004260535842602275,-0.008842223180875727,0.000568127842213952,0.021930936430760575,0.016206372616070202
620,0.004386460713403498,-0.007635187354861581,0.0028421913562364505,0.02040424319417511,0.023173408314676
621,0.006202370743956962,-0.006058580893550802,0.006648462235653927,0.017544313110890355,0.02811252620187632
622,0.008450565166933478,-0.004926714832448679,0.010358847107602698,0.014778614570038078,0.02933332292035452
623,0.009613094395083063,-0.004833926946157467,0.012531658403560327,0.011918766406940734,0.0277682195124549
624,0.00911506278041781,-0.005485480961076298,0.014314477783223773,0.010520668428517645,0.023169415157708137
625,0.007711666252299534,-0.005901851231007721,0.016302797467169464,0.010733546139788573,0.01753526822250173
626,0.006591821347249107,-0.005235839087279409,0.019596087371734565,0.013546528108873563,0.011774297690303762
627,0.006467429519372472,-0.0033958132073677602,0.025343348542979004,0.01980106719518948,0.005297589540883596
628,0.006853688307139383,-0.0014234204073150902,0.027860936581761222,0.021273692508315723,0.0006022461885322976
629,0.006485547123331293,-0.0013095290599791152,0.02836277677266458,0.018772770086481993,-0.0033445747675406767
630,0.005977015978702385,-0.0034720260716632947,0.028772774479931974,0.016095371384734034,-0.006854814371106709
631,0.006772757032848508,-0.005673410037346784,0.026817728960306497,0.012842718940580035,-0.006948827175241354
632,0.007279570853181654,-0.006424142533801329,0.023101224315413147,0.011169409466469453,-0.004129656608117664
633,0.005672019640380639,-0.005588302324023473,0.016746324976334378,0.010312023391281034,0.0003631133540837155
634,0.003185671861806648,-0.0027714856549309825,0.009726115159380586,0.010226289680909537,0.0054399901631371145
635,0.0016912453628106711,0.00193507492159864,0.005842706376334928,0.010738880068834864,0.009307894279281723
636,0.002037267156412847,0.006785370097911221,0.007917332143367078,0.013559783314739905,0.009644202263106083
637,0.004297016863210884,0.009544830839513081,0.012198140238850293,0.017468476187638447,0.0072765279460625465
638,0.006642590314590296,0.009000649314726591,0.013937210811725645,0.019751170789597514,0.0037412863766989367
639,0.0075366778247540215,0.006319436962256829,0.012671638791325397,0.019244316938621428,0.0002941184767930196
640,0.007881977995826416,0.004472509986860721,0.009439998981358068,0.015454608710177663,0.0001142919284409196
641,0.007021320462103103,0.003963507118458182,0.006988468449004045,0.01089434428337286,0.00299434431250851
642,0.004006145397136223,0.00339601931251649,0.005949601152915493,0.00661430974887199,0.006420559093062597
643,0.0009114116416453484,0.0028963117375011074,0.005722880401939572,0.0033226039597302687,0.00968452074990884
644,0.00010937827288138879,0.003748846959872826,0.007810903614186048,0.004101223633136203,0.013191208174868702
645,0.0019391996651964736,0.006772748949514423,0.011207260376872195,0.007775468989369426,0.01708279598479614
646,0.004281322714686723,0.01065506046978725,0.014262478447618136,0.011893874663780469,0.02028629283631159
647,0.004958293478255538,0.012599813211790394,0.016496563182460174,0.015542256553253756,0.02039923240208201
648,0.0043296665712303445,0.011719361649927118,0.0177537437412711,0.017563393034174847,0.01719910275243003
649,0.003988271142116442,0.009282679228111806,0.018990715228952012,0.01871442488936726,0.012908548571660768
650,0.003981433485356645,0.006303525792350138,0.019394520787216214,0.019041545441154693,0.008829494470440067
651,0.003349857046572183,0.003507611252120618,0.01773262020512075,0.0175527932499189,0.005841756855616582
652,0.0026120208506870456,0.001693207522862077,0.013793634146632379,0.0144210899204567,0.004600495920706818
653,0.0029045161456170295,0.0014500792145545494,0.009861501382168259,0.012969054978352304,0.00552946070757401
654,0.004314610655424397,0.00355791623472337,0.0072674048525012205,0.01383769466995233,0.009646456855943964
655,0.00562101633846463,0.00786820140943412,0.005621781785846394,0.014165365903651759,0.01657007161770221
656,0.00539572594935977,0.012324623629552785,0.005250579510965051,0.012799684821788867,0.02297232607777379
657,0.004171237922860172,0.015039463509820099,0.005888521615747294,0.010541327619581145,0.02540871410077863
658,0.003407414630292881,0.015577039715616347,0.006990694379755023,0.008999513368741063,0.023198085890947583
659,0.0038975843289248647,0.014787928887983153,0.008370831120014422,0.008862131153939792,0.018510155217714572
660,0.005157395646830961,0.013669806329210409,0.009871216449005444,0.009827940760942486,0.013740229796673126
661,0.004957139982085477,0.01181506165603623,0.01017357986952637,0.010070148715387268,0.008903694827617232
662,0.002440260463698679,0.009174890462638072,0.008341816613564977,0.007864514165233748,0.003852590526054916
663,-0.00042985100167559285,0.007570647854280346,0.005422437518365912,0.004540837863277835,0.000242385657194535
664,-0.0019379661488193422,0.008270173182087105,0.003102705942488451,0.004269328238632915,-0.001040966850145122
665,-0.002208455056307747,0.009844764644728164,0.002097015551558575,0.01093630730582195,-0.0010451244467307105
666,-0.0016224277610595711,0.009924823855673963,0.001634790072272992,0.022057390718635175,-0.0010737226292676658
667,-0.00016878484669656264,0.007715677560823882,0.001074182852820941,0.028605986498836816,-0.002135233140057021
668,0.0017710025411738425,0.004279545792471415,0.0011454362510445813,0.02500351456205442,-0.004397726751728928
669,0.0037577313330065384,0.0014301627888616613,0.002257321792947101,0.014262382063194223,-0.007068425316726875
670,0.005460963728574874,0.00042279452228509553,0.0032587284806129663,0.0027312209144600592,-0.008865972881771645
671,0.006554795553469651,0.0014312097746802242,0.0035014936171688187,-0.005375343967335603,-0.008157392491190405
672,0.006493869920277209,0.0033418258926069897,0.0034260062540731363,-0.009473106220767524,-0.005155252158321683
673,0.005036123933112873,0.004579452851279221,0.003325709040486034,-0.01089232515841463,-0.002242320653272172
674,0.003501326792239941,0.005338057999578777,0.004297070845676362,-0.010185064571852153,0.00041331873984170914
675,0.0029871775028996934,0.006659652730796576,0.006637918057414405,-0.007214130795564183,0.0056289597745150235
676,0.002265041588323749,0.00706903274863696,0.007205493588747961,-0.003239603041804477,0.012080470199886938
677,0.0007775552885497774,0.005099836649796868,0.004102568462929296,0.00010163164599095305,0.013981778030314862
678,0.0002763847132957081,0.0029016674530191818,0.0004398658062369321,0.0030395127070090818,0.01053851372977764
679,0.0009015408078009515,0.0024139291227590408,-0.0006169603349269679,0.006359053118373319,0.006683600448669619
680,0.0007903435465369855,0.0024808628090351474,0.000405796650972776,0.010616134122888166,0.006224003239576589
681,-0.0002371269539944056,0.002044357421984798,0.0016502342865676387,0.015819283481740064,0.00849565679031925
682,-0.0003654273563553774,0.0019827308042860274,0.002673490092896255,0.019164600253454293,0.009829478917631572
683,0.0011975753886030295,0.0024771606675561774,0.004160985506914414,0.01780965065426684,0.007069588744307091
684,0.003333874471953082,0.002229795053161545,0.00591024103088726,0.012941840829958693,0.00017841524603993457
685,0.004137971123258377,0.0003439832673010868,0.00552570028818941,0.005751517742334128,-0.008968835324672804
686,0.0023199954227746513,-0.002959048551289608,0.0008603765555332591,-0.004107411119627807,-0.01906530403250556
687,0.0001242949976813413,-0.005342439019035259,-0.006347929559881728,-0.013416390701495444,-0.026862166777578314
688,0.0010573015396576361,-0.004379443079117542,-0.012809241128761306,-0.01761719507419482,-0.028497840688571103
689,0.004526530263494144,-0.0007050291946410461,-0.01678369895153816,-0.01633361682925086,-0.024015130273280862
690,0.007173060367718535,0.0035479803765535944,-0.01777155331046091,-0.012358278746020244,-0.01615438865709789
691,0.007248813301303418,0.006968849768421397,-0.017098484759671465,-0.008581457145861322,-0.008766637947436906
692,0.005576137486208006,0.008592417855306247,-0.016943189778357796,-0.006544856821917725,-0.005431965608218774
693,0.003451340666208689,0.007504809626900928,-0.01799844318387161,-0.007007994832745492,-0.006812805525972077
694,0.0019036681995149535,0.00447280034121808,-0.019177749702012456,-0.009100097186618007,-0.009715752225105774
695,0.0022824581701867647,0.001844210808137505,-0.018393173760626273,-0.01014758716597008,-0.010738722949085677
696,0.004496243230474305,0.00075433885377315,-0.014505982629949479,-0.009207505479233782,-0.01030673742710074
697,0.006386451070858101,0.0006362199104404757,-0.009354365877396402,-0.007652310056019109,-0.010205662770483058
698,0.006583637577585265,0.0010586946214355291,-0.006373682718007713,-0.006523447513020676,-0.00979060857997628
699,0.005413657178844898,0.002269132996944847,-0.0072173851772235,-0.0061570620606300345,-0.007382521366091477
700,0.004117305797195842,0.004249555981404199,-0.010219648641557041,-0.006214377106701617,-0.002913313912867628
701,0.0036236223358493574,0.006128114616114232,-0.01283967219189127,-0.005301119598365229,0.0015717931238829561
702,0.0038728018004696913,0.007105185624216672,-0.014481548734788898,-0.002151038229259334,0.0027243808226507966
703,0.005147457590032609,0.006921489759892081,-0.014696766040298917,0.0037974998547261377,-0.0012706263493604928
704,0.006326323683266449,0.00505326239726294,-0.012612959841039816,0.01027602232531558,-0.008192816713255346
705,0.0054688481474497895,0.002396133872680424,-0.007135761816762921,0.013763522707706574,-0.014027741387676556
706,0.003856475133261672,0.0010252410458908717,0.00234553857322308,0.014898112298831225,-0.017628327427795385
707,0.0031787165802840255,0.00019233040592531118,0.010429740181282683,0.015241992043501205,-0.020574034141681664
708,0.0026113101788119175,-0.0026953585147064347,0.009338788760271232,0.013966149061265316,-0.023832873653641076
709,0.0019775221380019248,-0.007061930753278688,0.00015944044561392042,0.011460138732784984,-0.026151025763034
710,0.0022224441622187238,-0.009591888892670514,-0.00922561360026502,0.008247594953536386,-0.025116385503478954
711,0.0030104005354719657,-0.008863857808914272,-0.014485616491374366,0.0026586408172682326,-0.020821386838629167
712,0.0031556117038436583,-0.006415627181211072,-0.016519045174798436,-0.00560983654295304,-0.017387397036567612
713,0.002261383008942852,-0.0046229465157863305,-0.017025026183618366,-0.014450578734179868,-0.018858548962235367
714,0.0014426829494674212,-0.003880047565245519,-0.01656682112219837,-0.021134081562615058,-0.02342050031241556
715,0.0015751072641794583,-0.0028355176029191144,-0.015308133143737624,-0.024011195481668985,-0.02616608167896174
716,0.0017776105690579965,-0.0010307591521935024,-0.013870012192414191,-0.02445533380160173,-0.02530248886164849
717,0.001190995336591944,0.0011625339472513844,-0.012669479243429583,-0.02495238075696644,-0.021456590729483017
718,0.0003871831626539963,0.00311003569321917,-0.011285344289085205,-0.025061554084314253,-0.016603624202648205
719,8.659755014439458e-05,0.00384609950525212,-0.010069164586772124,-0.022958642382406438,-0.0120334046064541
720,0.0005054886255039831,0.003841417493621485,-0.009638343532662666,-0.019047121780413692,-0.0065313993609720875
721,0.002080262286799546,0.004940096872120898,-0.009208134198357133,-0.015019397681964754,-0.0010401585818365592
722,0.004274924441505452,0.0069420073922711045,-0.007817798723254707,-0.012637796703513974,0.0005672292089323027
723,0.005677701766119888,0.008430987184177055,-0.004979000792971461,-0.012848289958814813,-0.0007888008390829327
724,0.0059668217507720615,0.00951282635230693,-0.0016735221978880054,-0.014920076668336548,0.00016949280806503642
725,0.005432911391490348,0.01050208445035856,-0.0002562129648332881,-0.017369252890126224,0.0038583716952991483
726,0.0037407055733754183,0.010786121412611415,-0.0018712636483863819,-0.019154393089441658,0.006324044873105034
727,0.0013234106571264903,0.010237638228348478,-0.005231485905223771,-0.01900665597878768,0.005860064574605163
728,-0.0004479761867710924,0.00927546809180647,-0.008568741196313751,-0.016502593674194675,0.0034053902519103757
729,-0.0015991457542580728,0.007967605660945095,-0.011325952271087212,-0.013899913634150654,0.000613039997572398
730,-0.002785851411955327,0.007039403791562312,-0.013005561334799012,-0.013045780261453498,-0.0007186746667832439
731,-0.0040630105794994984,0.007081016163878856,-0.014101661474170855,-0.013759958352122138,-0.0011132466244564805
732,-0.005672991377277858,0.007102002342095708,-0.01577384201758293,-0.015345284897287498,-0.003506096626499945
733,-0.007423313416920987,0.006282757641628674,-0.016653042208437767,-0.01718589959660004,-0.008318216640385186
734,-0.007701346642631489,0.005580273901128764,-0.01505621544653659,-0.01885746560214335,-0.01242704598795499
735,-0.00510875791434751,0.005826183673281606,-0.011949528099875517,-0.019415788313626413,-0.014184075707088774
736,-0.001056584754190691,0.0061756964937407744,-0.008964364650982392,-0.017763196745646585,-0.014394821892577863
737,0.0007447035779563089,0.005603290829018388,-0.007730050552641345,-0.014461693769234295,-0.01288773949610511
738,-0.0012113263288694516,0.003830228007685564,-0.009524226279970892,-0.011892902961905781,-0.009553358057314701
739,-0.004468013240039964,0.001422508263367457,-0.013431859037071408,-0.012820688510318414,-0.0065951160675466
740,-0.00620601914369027,-0.00028883857027721025,-0.01692050976543907,-0.017487649280965717,-0.0064486955297352955
741,-0.005642313756621296,-0.0006410261272508422,-0.01809483540676873,-0.02343113581035816,-0.009041044156269612
742,-0.004331003356599821,-0.0004888225088584633,-0.017465719949528894,-0.029491609694802138,-0.012580102448827334
743,-0.0042927567593370915,-0.0008240332014375262,-0.016186785445055644,-0.03489158081209883,-0.016188285911635514
744,-0.005648197134268277,-0.0016721200427640844,-0.013713974649262783,-0.037111724790716,-0.020317955032376322
745,-0.007178609532762938,-0.0027271546341464505,-0.009728667176455444,-0.03469968250884358,-0.025273469215974075
746,-0.007954525464951857,-0.0045528558613834045,-0.0060227903069787715,-0.02933831053198248,-0.030928027464416308
747,-0.007656140647138898,-0.007066294501247009,-0.004826006384868319,-0.02454966937942537,-0.03581930479209051
748,-0.00616499739820018,-0.007999307466150697,-0.006051200993790167,-0.022395793743397722,-0.036365420174354304
749,-0.004424435777255683,-0.00665431592499126,-0.007867411923556448,-0.02228336417639911,-0.03140661489702351
750,-0.0033691367451284234,-0.004429247576905351,-0.008628529395728259,-0.022074177942403066,-0.023527644925972434
751,-0.002740089402431649,-0.0019995224110783884,-0.007569055425494634,-0.02027772449880955,-0.014790812905483074
752,-0.0021048250449724974,0.00036540128603381844,-0.004913369842566144,-0.017340296124615115,-0.006357869814686257
753,-0.0012161296948398157,0.0027761463497768817,-0.0009326395212936155,-0.013996948826438368,0.0009056197833522449
754,-0.0006060240479088033,0.005010134356421826,0.0032719900943967493,-0.010675705482601895,0.005793581396557286
755,-0.0005855166503615431,0.005955410142881235,0.005155131876948825,-0.008038295580748466,0.006144688791500411
756,0.00015715066410178482,0.005186848977751966,0.0035661125121016547,-0.006370257294100349,0.0018085849544878802
757,0.002319630562286356,0.003569485195221217,0.0008831333393521923,-0.004259491240944856,-0.004128559328387739
758,0.004879711152488956,0.0026748283563195886,0.00033525741424799235,0.00034983772134706604,-0.00843726343163412
759,0.006589433299497756,0.0030753955482859924,0.0012136969133519303,0.005966723595956308,-0.010620928285506146
760,0.006009356544265259,0.002939889046521957,0.00010356198117592747,0.007546564861453943,-0.012387624200095369
761,0.003259584312271492,0.0013289295590791944,-0.003016354810700235,0.003685039478827265,-0.014053309340277561
762,0.0007420641758170786,-7.076141801492618e-05,-0.005423032474129354,-0.0019776376145545574,-0.014522772066971619
763,0.0003253810870739328,-0.0003932062651446528,-0.006076107812113233,-0.006629259567548206,-0.01446143343062794
764,0.001741447149880216,-0.0008264986631848616,-0.005665476825539946,-0.00961948293783074,-0.015600559105216337
765,0.003756261641414349,-0.002011348765634259,-0.00461884420654456,-0.01094046664390976,-0.017620988856038394
766,0.006393591274786821,-0.0027034541320160913,-0.0019906181923911538,-0.009908182526615067,-0.01863982522316432
767,0.009438762998265788,-0.0025432336339964055,0.0020119365590385335,-0.0060377088563293765,-0.01889878756160981
768,0.010969159675369737,-0.002327337296731401,0.00531077359931053,-0.0006323143742731911,-0.018756437027667584
769,0.009950776294991664,-0.001628942497393379,0.008039440830363162,0.00539027630632238,-0.01600546837010838
770,0.007528803024244516,-0.00010130603265770634,0.01110201086226731,0.010612124619740823,-0.010232975954996924
771,0.005551273106520082,0.0015170437108010927,0.012009517532486726,0.011370060339558308,-0.00458978970113689
772,0.004814314693278178,0.0021162168492641505,0.008191838170668457,0.006553242908502042,-0.002539567899780482
773,0.004849729204422591,0.0010572765650876366,0.0014539718299999907,0.0002096611486501068,-0.004240336129670722
774,0.004960325406172197,-0.0010392700229007598,-0.004017578275919396,-0.0029460184394272657,-0.0074837623900459
775,0.004610361500454173,-0.0030091775415630987,-0.006129833838422433,-0.0026999625071888315,-0.01092651953524361
776,0.0039115488267025145,-0.0037126077834882514,-0.005672219284665169,-0.002490662560777365,-0.012887712201158657
777,0.0038891349135403335,-0.002219010741864801,-0.004079913253017139,-0.003700907894583762,-0.011247071135529639
778,0.005225762599663963,0.0013855610936349431,-0.001808730103237818,-0.0039036424075877462,-0.005463981372160145
779,0.0071096186566410756,0.005193391077449612,0.0008797656107891678,-0.0011982388657921087,0.002152655718442489
780,0.00780636363978121,0.007020051732401021,0.0024859709395430767,0.0023607606010656508,0.007521420972555286
781,0.006244709969597094,0.006414114232149285,0.0020297653746726325,0.003363842793942227,0.00821013422656014
782,0.0030803033749578815,0.004333492386470697,0.0012203815078174094,0.001180938630668397,0.004892964369458401
783,1.1306274237819048e-05,0.00222124945774297,0.002011043457418289,-0.0026781757841270464,-1.0288579980596437e-05
784,-0.0015657222369941928,0.0015074402354201641,0.0039735508322701835,-0.006430502798891581,-0.004268511922027283
785,-0.0015161150704963737,0.0028143636577362663,0.005906687526407129,-0.008481722887588082,-0.006675637861526637
786,-0.0004877940765718507,0.004967534326594455,0.0073437958768781,-0.007856291751680322,-0.00779895816458502
787,0.0009107248075819859,0.00567193515432249,0.007025206552302796,-0.005621975960437074,-0.009375127470429068
788,0.0015784095810117789,0.003825295513870438,0.0029129347905756334,-0.005330610902413553,-0.011321974758642722
789,0.0011378796479071375,3.772702229782393e-06,-0.0045792885923334045,-0.008633464369124955,-0.013319403856553159
790,0.00025453537341663964,-0.004798962666152755,-0.012574226072624043,-0.013072396915724694,-0.01671587966208107
791,-0.0007879606781734029,-0.009040624845820073,-0.018092019144784054,-0.014963402790059113,-0.020506850601412337
792,-0.001514569366581188,-0.011164126104926153,-0.018969442581543653,-0.012456439514881781,-0.02190853832458586
793,-0.002215623586473066,-0.011720534449923124,-0.016065679316487825,-0.008114586056818291,-0.02147319527631514
794,-0.003380749334152379,-0.011875674128048307,-0.011925436686585545,-0.005187994428275222,-0.021524300226112843
795,-0.0033542118809903655,-0.010807521874764922,-0.007194528913741132,-0.0032438843487226855,-0.021658257189078222
796,-0.0017902906858808364,-0.00826510881938181,-0.0033827917360780813,-0.002513366561422166,-0.02027784225407455
797,-0.0004891340122785035,-0.005268965864720516,-0.0023948038597831735,-0.00391505232328388,-0.01657135345643274
798,-0.00010708742853556004,-0.002423163686010902,-0.0033361527414164263,-0.0059644808583483476,-0.011327642822635105
799,-0.000220485095576672,-0.00030281172298971253,-0.0046881640652593195,-0.007342958938252075,-0.0066196771685096785
800,-0.0002236144028349038,0.001071637907193875,-0.005256184629334765,-0.00798207018479621,-0.00282325439192849
801,0.0006585462760186584,0.002454186496106703,-0.004100102883360392,-0.007559842894254343,0.00038072952948647594
802,0.002895410464111989,0.0037119929746939114,-0.0022380350055984967,-0.005760717555109135,0.0004703886606492158
803,0.005142830540549815,0.003731600557039747,-0.0022075685893733236,-0.0037314419819947883,-0.004155693743652634
804,0.005509440329532054,0.0026404706530016656,-0.0047945936098512856,-0.002763719256088745,-0.009202651792403573
805,0.003203975212057862,0.0009515855519833888,-0.008877509848384152,-0.003969107691253605,-0.011072668647581158
806,-0.0011608976197536064,-0.0011712384863728376,-0.012707107181159976,-0.00809256166958384,-0.010400799483971688
807,-0.005285906927418439,-0.0027722152434938364,-0.01465196822417654,-0.013453847860891313,-0.008109991503186066
808,-0.0075034216193299915,-0.003429771980705469,-0.015339993366746905,-0.01787412752620972,-0.00645603530755719
809,-0.007349940323934042,-0.0032413216162436565,-0.01583963581260471,-0.019330802478835084,-0.0070707276429485995
810,-0.005619809608790107,-0.0024157674799801503,-0.015725088240267287,-0.01603588494453104,-0.008146131210343958
811,-0.003986584541927521,-0.0014544913616881473,-0.013905223220272047,-0.009048172978326042,-0.007733578127390131
812,-0.0024429289289863046,-0.00029142973346945895,-0.009937897980100245,-0.0014036089152211688,-0.006078249748371661
813,-0.0014477803516085616,0.00039713432156171004,-0.0069681057596120985,0.00286263005821767,-0.005208653393178202
814,-0.0025151203360339125,-0.0006108114043932848,-0.00835996878775314,0.0012284516189657794,-0.005480692883725163
815,-0.004635743787678644,-0.002241222544138086,-0.01192967038407619,-0.0038104367607527593,-0.004631320005475808
816,-0.006172370625981749,-0.0027874016896997466,-0.013878890260548053,-0.008442711995709135,-0.002752311140500804
817,-0.00735677611853277,-0.0030336627400198318,-0.013920893375046588,-0.01168663458466408,-0.002636043119591432
818,-0.007739574633487592,-0.003919618736056356,-0.012901330437249304,-0.013661179796761597,-0.004686511975813597
819,-0.0067159532105759805,-0.005076431290269598,-0.010523478790676876,-0.01409841982180261,-0.006824533614173495
820,-0.004806448017533564,-0.005751182001967821,-0.006577970049267404,-0.012775644403200953,-0.006619284134413437
821,-0.002597334184876301,-0.00569168315232895,-0.0025355118832704727,-0.010149263682599205,-0.0032168658492457087
822,-0.0015801418338365213,-0.006191929436349394,-0.0006557715673133433,-0.00807447467773357,0.0009102712512574736
823,-0.002483432789543264,-0.007604503933506426,-0.0008307987392574497,-0.007790807756419633,0.0036884568221580674
824,-0.003921859188439653,-0.008350583607523169,-0.0012070352544878483,-0.007987463240793344,0.0055760699634236225
825,-0.004685611432096648,-0.0076697236898889114,-0.001246473764276544,-0.006464662354754203,0.006540264982539873
826,-0.005181509357487858,-0.006737082950175321,-0.0021395269787369497,-0.003274665782826398,0.004772746487481457
827,-0.006310782074482115,-0.006630586796473502,-0.004403127184900701,-0.0014131763705252584,-1.2446242076085329e-05
828,-0.0074994515698922634,-0.006251039959361786,-0.006775490352941538,-0.00203311967334711,-0.004065138501561421
829,-0.0069825458130907915,-0.004455734821545845,-0.007906097801136512,-0.0016829325871355937,-0.0045024819401258374
830,-0.004718273912908166,-0.002734296705198569,-0.007816751321400358,0.001291455427977739,-0.0038327692109736532
831,-0.003029822621240289,-0.002559130518593228,-0.006977414333677263,0.004096417304794892,-0.004837654368209424
832,-0.0033698713925049907,-0.00335233263227836,-0.005229673765959833,0.004950281120170542,-0.006743394487464227
833,-0.005259830405176981,-0.004524737138275732,-0.00399369515510981,0.002709961946686268,-0.008046033454278538
834,-0.0075177714469773955,-0.005233531931888196,-0.005732576189107214,-0.0041346695500497615,-0.007342607356423829
835,-0.008723147866403949,-0.003904899313965957,-0.009603696128112533,-0.013231099022626253,-0.003409135293418833
836,-0.008544644495808546,-0.0009514613185256136,-0.012626868117612166,-0.020822910792734753,0.0027026121603799416
837,-0.008310156844457078,0.0009941160787302408,-0.01422652976571646,-0.02697891264738012,0.007549988452572853
838,-0.008588594336918432,0.0005873536029915042,-0.015598404672605952,-0.03238730141346079,0.008539752308579177
839,-0.008076072529036202,-0.0007517266855728884,-0.016841339958186208,-0.03518091840819636,0.006798054200513207
840,-0.006261575313138774,-0.0017896647908713654,-0.01778299822601622,-0.034642432480045095,0.0043962778600401525
841,-0.00373710163202893,-0.0028913776597440668,-0.0187030761043489,-0.03237258172991779,0.0017068618263606542
842,-0.00024608647295222926,-0.0034729766786759358,-0.01884674577470128,-0.02855178508886943,0.0008250870899733473
843,0.003211820825489552,-0.003056384382048401,-0.017803355104708887,-0.022869009923251086,0.003873944749535998
844,0.004422528254964908,-0.00281687334721371,-0.016114842055384063,-0.016162509088287327,0.008572930215749815
845,0.003068247293488212,-0.0038637582247813477,-0.013775446652281514,-0.008583239769262611,0.011095429351476454
846,0.00024821940887612116,-0.006518763235255759,-0.01058395953066722,-0.0006919577459749232,0.009203010096354934
847,-0.002584178296171138,-0.009060898059782123,-0.006677295260672499,0.006097174110354132,0.003811339867413276
848,-0.004803666648037052,-0.00904516147814947,-0.0033052521422373173,0.01043869530627687,-0.001175786362717856
849,-0.006573271781019711,-0.006534278432602041,-0.001271033038714279,0.011462721723777549,-0.0028540033149761714
850,-0.00753447278716758,-0.0031264008893699354,0.00043444791349609026,0.0098307032549692,-0.0011589696229378002
851,-0.007835070426141488,-0.00037836748538286303,0.001504938234531231,0.006207261296038846,0.0022441728756863416
852,-0.008070602393545342,0.000746034142434516,-1.9088878760805328e-05,0.0009604539884560343,0.005421811433544026
853,-0.00807945684567904,0.0009469403544778167,-0.004058914006606567,-0.0037474896974699318,0.007866665525365368
854,-0.007320933483945445,0.0015403981737502923,-0.00809001356747257,-0.005641502785129291,0.009301442004810161
855,-0.006324703717027801,0.002185425802141921,-0.01056282066883206,-0.005697004850557021,0.007509709862291225
856,-0.006081699152860537,0.0022681133229338966,-0.011919444369622298,-0.006858371888636534,0.0031445021538334156
857,-0.006317618357688389,0.0026785526459295952,-0.012201632835608328,-0.009860418811884403,0.0011127940690390525
858,-0.006808104738478416,0.0033922878928730332,-0.010472325158681402,-0.012778987876286776,0.00260472699341229
859,-0.007623267611649388,0.0032773649181378657,-0.006453594441547727,-0.013615795368459437,0.004978179928376876
860,-0.00836790691685072,0.0022988926823204613,-0.0014665273598384952,-0.012260901493227174,0.007157866254026541
861,-0.0083401435269056,0.0013281905770262822,0.002988301435731301,-0.009026175338694658,0.009216076060337657
862,-0.006310701384015589,0.001477643430386379,0.006272392551459198,-0.003247554777261933,0.011014747768653214
863,-0.0037354667679533647,0.0019569301197921033,0.006011608943314723,0.001921358014863841,0.011550247315764242
864,-0.004712738492862016,0.00014840528711491623,-0.0005119503837789357,0.0009994359632450429,0.009388913268703364
865,-0.008778833583814375,-0.003497067805671094,-0.010151338719362633,-0.004807033943671058,0.006309084562313134
866,-0.01154578060590673,-0.006344131457914607,-0.016423298707903978,-0.010108827928825658,0.00499738238124411
867,-0.011216265894321807,-0.0076914040049985135,-0.017123224169780522,-0.011735024386434447,0.004583423545578701
868,-0.008419193883895476,-0.007625009854261497,-0.014319237816697587,-0.008436831192945296,0.0040514031875224414
869,-0.00496392861133456,-0.006310365942977314,-0.011258581660999769,-0.0022817299633127296,0.004185809223263541
870,-0.0024663959413766213,-0.0045071372306831675,-0.009886884734304843,0.0030613048788229666,0.004998179016220691
871,-0.00046016202267198816,-0.0032947703481440915,-0.008968077987408079,0.006625476592549425,0.004890073218694404
872,0.0014418990897534939,-0.003213856791205676,-0.00660572850194903,0.008408646955430947,0.003363637976810122
873,0.0026977496051675065,-0.0035759292947265915,-0.0031872816952745095,0.008294891733570404,0.0018563651922185703
874,0.0038653767909140307,-0.0035975324000084535,-0.0001707752440894162,0.0073060026472603805,0.0008876067720632942
875,0.005847872499258033,-0.003235795056667153,0.0015288411931713142,0.006449148914002999,-0.0004331105994398131
876,0.007516586025198878,-0.0031809744537459736,0.0013525753357597787,0.005839993275453747,-0.0030576551645929866
877,0.00739379454576672,-0.003783326544245346,-0.0003428083419009133,0.005792301228599684,-0.006433880262373694
878,0.006417179817617845,-0.0037540561066734925,-0.0017917389842993028,0.007071125727382667,-0.007953318371128056
879,0.005966740512045268,-0.001979418218123557,-0.0015745796035915977,0.009704970900118622,-0.00601428149311569
880,0.005984131563432324,0.0007294886785010281,0.0004929803550723423,0.01292575248017719,-0.0018810287396536134
881,0.006178959735592115,0.0028092419473767834,0.0037551876317775926,0.015343476554756917,0.002294805201181745
882,0.006594365112691034,0.0037826179561637825,0.007291297288229936,0.015672431360616194,0.005430042424873058
883,0.007488549418747504,0.0049164516839505824,0.011120381886034088,0.01450451662243,0.007518500647080331
884,0.007953288433597957,0.005700852520498871,0.013715971006458284,0.012183269742643416,0.006999016474387935
885,0.006364903996468647,0.003034184440181442,0.011732442186526209,0.008079064127281193,0.0015755522366212703
886,0.003474627236240706,-0.0034297777989805754,0.006383834570086184,0.0038457900985771013,-0.0069763003540325415
887,0.0011512817379149831,-0.010511268864280325,0.002506862033632695,0.0021618233089155305,-0.01363176510947725
888,-0.00019592550064497836,-0.015397312198266703,0.0014525587152927387,0.003256182227371992,-0.015128014744071517
889,-0.0011901756394144686,-0.017382488104571124,0.000754462290003155,0.0045376862037907065,-0.012186005714875945
890,-0.0023570247627461606,-0.016884224736180144,-0.002147067097137021,0.003557906088938371,-0.0076196624215898534
891,-0.0033540416527838464,-0.014932305965847902,-0.007875896336474035,0.0012806615427350797,-0.00479125263392502
892,-0.003559113387991244,-0.012651260925242273,-0.014604697496994869,-0.0002660648280492846,-0.005429280067234677
893,-0.0031579923886399445,-0.009907428906499465,-0.01899706442524742,-0.0018704541028579066,-0.006725279965650525
894,-0.0026489254721337734,-0.006306821674834871,-0.019166762282169146,-0.004864362494924534,-0.005278059606951289
895,-0.002326343284396838,-0.0022707863735624144,-0.016305424216795254,-0.008853284971191772,-0.000423684072021226
896,-0.002578995513712558,0.0012972871188431756,-0.012448088713294085,-0.012797378614502532,0.006527749595561914
897,-0.0031981919547384215,0.0035957927533279534,-0.008298753227356046,-0.01512432401541717,0.012391049702605787
898,-0.00396755926767496,0.004491786200963942,-0.004257270941728271,-0.014620818902539351,0.014445087944454411
899,-0.00511815200903929,0.00401096862985959,-0.0014525786526103021,-0.011677098907976649,0.012275446095546037
900,-0.006134687777727821,0.0025815123106240996,-0.000328252467769035,-0.007738679140475668,0.007906496997447237
901,-0.006862688588979576,0.0008504157957558073,-0.0005573141383706146,-0.004968533682228141,0.003594443172954009
902,-0.007287366732793411,-0.0006756204094423596,-0.00148478064094393,-0.003607883871545635,-0.00015263159723803745
903,-0.006770065524051226,-0.0014872250047122456,-0.001970727005999634,-0.0011215235730807102,-0.0035429552854203336
904,-0.005837944174013254,-0.001972889934349308,-0.0013724386117917368,0.002234699083918505,-0.007006802380903903
905,-0.0048335279249178695,-0.0019423654297487482,0.0010302949422935754,0.004773370523728461,-0.009361506687353612
906,-0.003329010922758462,-0.0005483638075512917,0.005877797500829466,0.007912919036018063,-0.008255811150026953
907,-0.0014893746276776435,0.001566294990454378,0.012326920349025026,0.013171823323389965,-0.0037237780311058775
908,0.0014486006026079535,0.0032845367672557557,0.018284552260527193,0.020242449060132065,0.002435326644269635
909,0.005475943870706299,0.0041134155322829265,0.02036150480776423,0.025932214057513947,0.008556623809360677
910,0.007252213019659676,0.003649095429026157,0.01566168350149006,0.02466279346496948,0.01195880110992814
911,0.004556262401207979,0.0024670673217624954,0.0061994832412389485,0.014762655696561353,0.011437107176329371
912,-0.0008942484592521262,0.0019151542045872851,-0.002197892442431186,0.0013800864776858802,0.01018963687677968
913,-0.00596660225029298,0.0013356369647990233,-0.005367154229580817,-0.007370112902382539,0.009800752608465413
914,-0.007971736046873278,-0.0005071818363370178,-0.002410025320827792,-0.007149406615604905,0.008322869471461708
915,-0.006343664573917463,-0.0023949130248266926,0.005090065113488977,-0.00024849735468572657,0.005988739507920354
916,-0.0029376137903385346,-0.0025387092425528204,0.014009602611621883,0.00894355240753139,0.004453485371567001
917,-2.235950013271357e-05,-0.0007995930584010979,0.02077586557982324,0.016614147656848974,0.0037725206280330246
918,0.0015442455636499805,0.0017624791490236935,0.02251495964948177,0.019716895230754344,0.0033283794021320445
919,0.001294860245366255,0.003197048527427734,0.01813955134227308,0.016664721555496063,0.001957567407558613
920,-0.0006663917329445629,0.002240236132252264,0.00991951600614276,0.008241091345387712,-0.0014939083227135772
921,-0.0017556024662149813,-0.00018577443877804153,0.002744469806092651,-0.0018541043027243366,-0.00677839611799864
922,2.771508771978789e-05,-0.0029019392496884267,-0.0008841070532413518,-0.010159436655556483,-0.012485638969904553
923,0.003538145578061615,-0.005197129626199196,-0.0015303873564465327,-0.014538343188963474,-0.016562800838020267
924,0.006458828759173469,-0.006513157929365109,5.419652279462194e-05,-0.013081448795975979,-0.018656314511098622
925,0.0071095629571687885,-0.007405834116484071,0.002476032281973865,-0.006582251223779238,-0.02078930235917635
926,0.004186416301815586,-0.008212998206299215,0.003555407622657601,0.00028179240398930853,-0.021196692133252246
927,-0.00172604705981188,-0.007898606820493372,0.003090029318402407,0.004170932358455767,-0.015995599876623703
928,-0.007192400291616783,-0.0060743923490104755,0.0031315692130614225,0.006442316496879394,-0.007906608899671295
929,-0.010321105840350243,-0.0037588987643112043,0.004504945753997178,0.008390200821166947,-0.002068420093785555
930,-0.012011261365016545,-0.0018055765203567541,0.005991983438172967,0.008890023742080855,0.001157142557365984
931,-0.012150227126960237,-4.940550717977163e-05,0.006547491157482401,0.008002177411183326,0.0037431161828032004
932,-0.009499191123914584,0.001767640743037393,0.006829209126326179,0.00816258442621084,0.005730651290656608
933,-0.004265768886863784,0.003198631820730405,0.008064489895465396,0.010691458211855302,0.005958663196927674
934,0.0019970571280757995,0.003929655155226774,0.010058375389205808,0.014052285109333856,0.005083341402447823
935,0.006645135984378292,0.003691929548395505,0.011607159080880454,0.016320453653921,0.004582837479564277
936,0.007065726081073831,0.002014244849862594,0.011984219895356307,0.0168835161275219,0.004038736112240763
937,0.004295329701511125,0.0003870272130880613,0.011642230587050273,0.01676787888393873,0.003084815458399586
938,0.0016861097958434995,0.0011448736601316616,0.011096318972399426,0.017749471424135212,0.0029828631125496806
939,0.0004211793788878392,0.0038699526353357964,0.00989941612737861,0.02088715251950831,0.003818723678205331
940,-0.0003121355948655857,0.006320770565426933,0.007946025108572766,0.02548820996290862,0.0039521909758668886
941,-0.0010850113680533513,0.007092468833579754,0.005500627227344244,0.027440078893074756,0.00247716647864763
942,-0.001640348002259867,0.006590868565542747,0.002588768919368311,0.022267102500391267,0.00016361806194035487
943,-0.0016287260862715583,0.0062016866555497764,-0.00020081107228989845,0.010666452122267805,-0.0010334223327272782
944,-0.0010076498210752377,0.006961057890185277,-0.0014526388246600384,-0.002001395143473484,0.0006356250155899407
945,-0.00014779462589911918,0.008668633666900507,0.0009412227342403818,-0.009615841452996519,0.0038845448739533448
946,0.00048331285054317274,0.009943800815857762,0.007329443403323461,-0.009660722052413124,0.004794478326472321
947,0.0019596559844740884,0.010266493414587748,0.014413073237385722,-0.005165225758097267,0.0025773866886978918
948,0.004548556165913225,0.010103215168123257,0.017401663887583917,-0.0006128365616011501,0.0005581409470283818
949,0.0055646812269115765,0.009054075358219832,0.014021068360368594,0.0021494672547355104,-0.00019511521186447778
950,0.0039634677593770136,0.007332611054611509,0.007787082392272069,0.003729180535647107,-0.000189857648080283
951,0.0012599004642077237,0.0065045890155952975,0.00412309839060523,0.005056294137393884,0.0012930060468171161
952,-0.0012859336663696502,0.006948278317133174,0.003684332341271406,0.005951448870907988,0.002790802221004456
953,-0.002586860817253371,0.007872319639377876,0.0035089037362301054,0.0061709939861917164,0.0030056433779139745
954,-0.0026047950938066786,0.008200293585684727,0.001225801466595199,0.005242835052286775,0.0028998352896647214
955,-0.002158420059377146,0.007496058112987705,-0.002947852536608759,0.0021084307686271477,0.0033303703992654705
956,-0.0011679143671326513,0.007067208855151124,-0.006864913082256459,-0.002808882086091916,0.005311474877734667
957,0.0007929066682353812,0.008216594563898809,-0.008554314829589514,-0.006929211569505645,0.009373974531596694
958,0.00355572733052623,0.01110336268573193,-0.0065361210157638214,-0.008298616509498948,0.015118495830092987
959,0.006046438446440555,0.014090919938629314,-0.0018872909856110498,-0.007984579921825182,0.020240504005028213
960,0.006667121063155445,0.013156471649330937,0.001395441594188544,-0.0070237470876371964,0.019022853575926577
961,0.006456818303014845,0.009812767381070625,0.001676385164596707,-0.006621054829558696,0.013852457180397282
962,0.005362688174687439,0.005355013044032951,0.0003187550360481284,-0.005797034687700082,0.007027597522750296
963,0.0043113408309340155,0.003257811497485639,-0.00030813737688600113,-0.00349801109429662,0.003597623181104841
964,0.0038712061458946543,0.0043008415746334395,0.0012825893292089969,0.0008810934623662375,0.0050491328769640305
965,0.00380537247715901,0.006051229235364155,0.0037905904656776886,0.005315183172694499,0.008445784441229252
966,0.0038965502419821127,0.006862060435796375,0.005220297878148179,0.0069868151640099215,0.01129363788759949
967,0.003208369879681606,0.006614866445207358,0.004914853206659008,0.005657203262714166,0.01301148968136157
968,0.001504758946606588,0.005897152590575233,0.003797198992917724,0.0038334386617173517,0.013525070996343964
969,0.0004164554913481338,0.00562219184452214,0.0037969196046432297,0.004034937981013791,0.013650945893975986
970,0.0016049494744409109,0.005825687657900336,0.005748413291140805,0.007197563636357708,0.013862975618885788
971,0.004285657869498409,0.005664050388783987,0.008230376365049932,0.01118848410752599,0.013681709589140743
972,0.005930966885889552,0.0049382771818491265,0.00983085612374004,0.012730104992248078,0.01342825790560093
973,0.005026066238601636,0.0038677700786054004,0.010333029643867344,0.011158374383588849,0.012756114174498798
974,0.0011221651190656428,0.0017053107388743727,0.009368834376209991,0.007067590603617778,0.009780796809422312
975,-0.003991180411698475,-0.0013076779780157683,0.008179970741461916,0.0021941954534941198,0.005400550906782636
976,-0.005961812514819922,-0.0031352793639960203,0.009100849161612091,9.440335131778858e-05,0.0027663227371933254
977,-0.003144267626135464,-0.0032120331511888756,0.010864697573086151,0.0018981338894209748,0.0018900765443283845
978,0.0009457251243962124,-0.003111640820192448,0.009602652548249525,0.00393704845723149,0.0004693262890081773
979,0.002878799484221877,-0.003465430017450291,0.004654779846112557,0.002805347948994343,-0.0016431115252383262
980,0.002797699489171713,-0.003560614271467273,-0.0008168969299636431,-0.0004828203207345718,-0.0031865111670243015
981,0.002224945853053401,-0.002943286366164382,-0.003497244942510155,-0.0026949313950700485,-0.003624258944769722
982,0.0022454426375456368,-0.001165900801604843,-0.0016156803447052853,-0.0013198761934753547,-0.002153166837869237
983,0.0026889576877172825,0.0013005114454393567,0.003036069092574413,0.0032898148817020667,0.0005589558230366399
984,0.0026890953097196794,0.0026169487402756425,0.0057071095830033575,0.007970881537107182,0.0015175790595686604
985,0.002855309208414509,0.0022956629009735293,0.004371917566407705,0.010347425894629884,-0.0002568732263488409
986,0.004115723887773125,0.0010987846274445314,0.0005509156102397747,0.0100651836475674,-0.003588197850421186
987,0.006161411366422704,-0.00017957742168392535,-0.0034031434823814434,0.007859094809525688,-0.0069070264052371365
988,0.007916075237170481,-0.000526181408603834,-0.0056844076220434175,0.004625038836342478,-0.008561134582615681
989,0.008332661689445079,0.00025975476973953216,-0.006021120148842195,0.0013525391719116412,-0.008222298913126161
990,0.0073768749870500245,0.0012729507966807582,-0.00501551917115762,-0.00035692379780443025,-0.0066092372176119124
991,0.005698600702895196,0.0016671287548223907,-0.003570911074287995,0.00030044355367540556,-0.0047599902650661535
992,0.004109235452517718,0.0016648301139226592,-0.0023141462764425373,0.0027246688829325465,-0.003221066611663296
993,0.002976529194168065,0.0015375507484642324,-0.001337897724979007,0.005270277120824776,-0.0023051508537670477
994,0.0016026801214094077,0.0007135689616968971,-0.0009642840855738908,0.006121924794112435,-0.0027732409569674013
995,-0.00014458620955385998,-0.0007076278893277307,-0.0008558472312423694,0.005613538842597458,-0.004201532898206371
996,-0.0012265684522806395,-0.0016846982141835653,-0.00011680203657038661,0.005016513013978153,-0.00503605989627832
997,-0.0012448368049007852,-0.0017339257170634827,0.000713021865068122,0.003877984522579415,-0.004471431840724549
998,-0.0006268146866592274,-0.001305970104847646,0.0004437710504157838,0.0016645398117944624,-0.002983448983856215
999,0.00039219715116948426,-0.0007735202662960434,-0.0006751983871589981,-0.0004943628973047424,-0.0011774471827124724
