,AF3,AF4,Fp1,AF7,AF8
0,0.0038760956436905973,-0.010520200494319495,-0.012151506641393377,0.0010927174800388333,-0.031230995648908504
1,0.004002876891675913,-0.010877724081034138,-0.011581570347071118,-0.002305368774718254,-0.03314145736898411
2,0.006032725716005892,-0.009635346355560227,-0.007088192047615055,-0.0029191885305502605,-0.03288482006072542
3,0.00865535197305756,-0.008029121957906041,-0.0018334937387686518,-0.0015591276454732681,-0.03076719885090529
4,0.009989819268684268,-0.007831319149945367,0.0004883285262380088,-0.0004964515321957423,-0.02994184582318772
5,0.00967615599471015,-0.00953238315575456,-0.0005326816741683521,-0.0004759542403880392,-0.033267856720327255
6,0.009225992224141272,-0.011707227961156398,-0.002057709622059099,-0.00037907731332743666,-0.03876815173034956
7,0.00900243031125717,-0.013178903546415158,-0.002384106693721826,3.902850791571896e-05,-0.04167170943488292
8,0.008012186730940334,-0.013997731631411041,-0.0024303521938884532,-3.590639426995686e-05,-0.040345724672763886
9,0.006625450506607286,-0.014513823876227076,-0.0029010088380413304,-0.00017433097764964198,-0.03697520952830001
10,0.006233744632425747,-0.014699061352608473,-0.003435639674405871,0.0008500649634159177,-0.033602005782678177
11,0.007167638506049441,-0.014373163786636153,-0.0038081408515262824,0.0033376829063264083,-0.030826666535685426
12,0.009197300982825273,-0.013982875003758279,-0.0032745804274513734,0.007868408129860614,-0.029595695895778835
13,0.012105863588601964,-0.014744933983427971,-0.0006513182052498719,0.014892558402413532,-0.030472338309741744
14,0.015748201583787064,-0.01705741922430961,0.004061109867411236,0.022516788425268,-0.0319711260718853
15,0.019377438380519724,-0.01889516004288137,0.008953664584870154,0.027703236563809987,-0.03144606676671831
16,0.021215760318383944,-0.018369953507850558,0.011929025717355895,0.029057022671985018,-0.02874478425241874
17,0.020249010363633243,-0.016674272071120134,0.01242180263245477,0.02742380141852467,-0.026559094559369972
18,0.01752748119159252,-0.015174449351152886,0.011114594091499579,0.024887933004053887,-0.02578286391166446
19,0.015343585292436164,-0.013557862300480415,0.009653044051127978,0.0236907240495651,-0.02544845527902702
20,0.014746193203252546,-0.012362142548972511,0.009056536892604392,0.024502298953152486,-0.026538117589065158
21,0.014359611709133073,-0.012760253231585307,0.008699936813067619,0.02581663695851743,-0.029735037291720355
22,0.013482166691570978,-0.01364795086318754,0.008887420691953949,0.02663477768361652,-0.03172673280050619
23,0.012904480371482214,-0.013669832897092926,0.010464885846733916,0.027314308379257333,-0.030127617707033347
24,0.012298830009887617,-0.013818230623368115,0.012409403153340595,0.027650122305631502,-0.02680343494658547
25,0.011811708811514521,-0.013867828820018647,0.014384974804102661,0.028133956144667058,-0.02229463599276593
26,0.012616058534362174,-0.013079114183635528,0.017310105564724943,0.030308586874963194,-0.01741866174685305
27,0.014511732009703493,-0.012681925789483897,0.021174375668384617,0.03445644373980312,-0.015888062128422305
28,0.016107201859313035,-0.01295413086916724,0.025246558811842856,0.03914423993561355,-0.017216372678952804
29,0.016245965069866135,-0.012859554534236744,0.028278343377697315,0.04257447812861072,-0.01733864641573375
30,0.015017105518516061,-0.011876784389295205,0.029841076486541218,0.044588032407501636,-0.014292567874647801
31,0.013409187262501562,-0.010486470168946221,0.03109471047771851,0.04604842112579624,-0.008847593877102931
32,0.012075341060993918,-0.009590878806753638,0.032376606898039666,0.04598567898276684,-0.0037416443461502735
33,0.011221252345929295,-0.009613230069401834,0.03268310833710127,0.04331329489197517,-0.0010927189230018775
34,0.01071847163031622,-0.00979348537474535,0.03168469323312229,0.03945351718560975,0.0006256571416186227
35,0.010062147829702469,-0.008832607878868245,0.030289507984069798,0.0360118448697301,0.004269838176112427
36,0.009294000947369454,-0.007298811299832353,0.02963589571116832,0.034018193439832575,0.0074654274695882435
37,0.009115563855817818,-0.00658209165528663,0.030279265966719128,0.03458987361819405,0.007400413294620475
38,0.009759753215020173,-0.006467004124893329,0.03226040165416952,0.0370097476153197,0.004594624791457344
39,0.010824618904550817,-0.0058372225487973725,0.03503881730714022,0.03875246262305181,0.0018128688463962877
40,0.011823385813257243,-0.004295324521330338,0.03770633370472612,0.03865060856568627,0.0019635125678017095
41,0.01195371523670216,-0.0027918946688199713,0.039282728082672795,0.03699384807367239,0.0034757194451386884
42,0.010591502932408372,-0.002131059720371107,0.038995674795388846,0.033821735147989744,0.003996672709894173
43,0.00820378397521747,-0.0024608045347044995,0.03703504209284356,0.030219229563809583,0.002765407794962252
44,0.006319791849642678,-0.003141152238207474,0.035136782943367716,0.02868566824701004,0.0006126150496904695
45,0.006310646596337316,-0.0033342911873229884,0.03539923893979125,0.030456311350823773,-0.0015472105133747434
46,0.007380226300252154,-0.003933828774895818,0.03755123590930756,0.033506965012208775,-0.0035165286376397727
47,0.007423725199245346,-0.004439181601063796,0.03908018919361949,0.034164863931079925,-0.0036066102293375963
48,0.0058335985068608915,-0.00253362394925437,0.03860551419906785,0.031123617889605708,-0.0003830508586026907
49,0.003772988126029732,0.0013297328229512173,0.037146175044548466,0.026368368970364573,0.004851720159400222
50,0.0026451396902955737,0.005145582267028242,0.03655513503631378,0.02292286078006023,0.008962843804755639
51,0.0032482606799387097,0.008440833755899607,0.03841991173965449,0.023274171506157616,0.010276978326625372
52,0.00454626286589859,0.01087315198633302,0.04187467673120416,0.02652521377048151,0.011403179941002766
53,0.004158347178154526,0.010899991430230151,0.043272452401936896,0.028549065954752168,0.010535179330829756
54,0.0017433803485614814,0.008409581326462048,0.04084670926621421,0.027588312623594544,0.006458326077872713
55,-0.00047024308054555283,0.005689328164422481,0.03731522839398712,0.025930372763421694,0.0036796866237724614
56,-0.0007615922887290783,0.0045045207965348265,0.036055118616264176,0.02558926247684844,0.0040727789850511335
57,-4.062379702074765e-05,0.005266136207795182,0.03651321789684742,0.025351342917583154,0.006575337838934876
58,0.00040928182113349795,0.007668049721970139,0.0368198613115271,0.02408666750593039,0.00902652865166424
59,0.0011364151933920604,0.01067055059116794,0.037435165387588155,0.023351138179613762,0.010388956162340663
60,0.0025851909304299707,0.013241506660657132,0.0391137790769053,0.02438645088449896,0.009796280379253184
61,0.004354248146402405,0.014661171578362131,0.04184862611834335,0.026783070259211447,0.007856864476419525
62,0.006062021834063434,0.01497534517124403,0.044706768744993367,0.02927666317254064,0.0052689879834840695
63,0.007288996499219373,0.014730589123279325,0.04562617074446721,0.030594104698862555,0.0021866792968155044
64,0.007649287497056846,0.013943452187566367,0.04394346727049979,0.030721689869556004,3.436042874729704e-05
65,0.006956491537969755,0.012972765535342656,0.04159069272863418,0.03038205821087274,-0.0004971492559304199
66,0.0057866276442530085,0.012770017653488936,0.039934888287748056,0.030395727414829814,0.0002018321978407127
67,0.004934282484763911,0.012783405438971605,0.03970245863061771,0.03110469034649226,-0.00033894658764862086
68,0.004566624421836241,0.011418221405613938,0.03984162966187968,0.03238476810591278,-0.004287994059393597
69,0.004643824756471421,0.00895246796788293,0.03939171753001117,0.03361875813498803,-0.009189760308334145
70,0.0045728141719030444,0.006850402387761668,0.03788767945668413,0.032833072113103524,-0.01038711379064844
71,0.0035911732582632958,0.00546343055978115,0.03524294654845685,0.02888382571060058,-0.007118535761195999
72,0.0017997442167120175,0.00494353608424506,0.03213603318915213,0.023152434269824457,-0.002567013450518627
73,0.0001788358719390653,0.0054903485039871185,0.02971079827919575,0.018749020941485672,0.0012895452666916568
74,0.0003629898264599761,0.005832452810665105,0.029331017411969407,0.018674364038749953,0.003721399234287958
75,0.0031606051601679483,0.004753739599495306,0.031085258330882676,0.022793311010716934,0.0034976826628121973
76,0.006808860066596981,0.0028967733985241573,0.03371653623250006,0.02793441505619366,0.0014695296079137597
77,0.008765447148783464,0.0020110542895950003,0.03590293939921689,0.031370248468951575,0.001430541863041329
78,0.00850574256419136,0.002529051429546461,0.037125579558641264,0.03237766783556133,0.004154404698794718
79,0.007387106970220537,0.0033034676379850793,0.03728685685362365,0.03164989617057246,0.0057729985937677196
80,0.006873057450213254,0.004020242054297208,0.036664151241329594,0.030382783711626053,0.004682666671160127
81,0.006847388087121439,0.005124821810724394,0.0357998986252987,0.028481974709953006,0.0032573935700161575
82,0.006484816173643678,0.006516582416399367,0.034655456201689847,0.025354390057320084,0.003326537196709609
83,0.005675362149796024,0.007206316999647313,0.03287966157086522,0.02185297038242887,0.0034234699197659775
84,0.004535883834387061,0.006657443027432411,0.03077024337408911,0.01907969743676915,0.0027304240865136846
85,0.0031297873871633415,0.005562742328582451,0.028473298416032366,0.01719991987389971,0.0017916374941424238
86,0.0018414625229056856,0.004609043188656006,0.026792161953291614,0.016372541472789624,0.0013951057410963431
87,0.0015768558079559455,0.0042576005163888295,0.026934786852291857,0.016934370853166077,0.0025898208224777197
88,0.0018887461405581074,0.004236328298025497,0.028029351257031484,0.01743831468612803,0.005087473207255737
89,0.001104749392381499,0.004372467403837581,0.028521474565164046,0.01586229213766852,0.008136687295561952
90,-0.00027696493196442657,0.005336059001868958,0.028428108796486197,0.013431950821354614,0.011483760335188166
91,-0.0009454486438355346,0.006375558048745942,0.02824990926266417,0.012875232320106426,0.01453645015779436
92,-0.0011600842857025396,0.006334541147183326,0.02726184197848079,0.014820070484013943,0.016303774300845703
93,-0.0015252028089000275,0.005649149228637668,0.025413525714750997,0.017576756245547536,0.017746719287101132
94,-0.002415294563827612,0.00469988408295263,0.02306699637254123,0.018721245600800872,0.019490219539845158
95,-0.003905503765067671,0.0034569101971673307,0.020493567764035634,0.016768595401586886,0.02093344458965269
96,-0.0055538033172334465,0.002332995359090101,0.018772988281447724,0.012053726289906731,0.0226400810919242
97,-0.006595626332076657,0.0018005789866195456,0.018511088116143628,0.007299896409359204,0.025998740104451624
98,-0.006071905287537418,0.0021996200238428606,0.01978765895230225,0.005414363316324627,0.031963053460546634
99,-0.0037294067064992235,0.002741901116752384,0.022098381971911052,0.00663863748431049,0.03827213251234553
100,-0.0010715158751931535,0.0021230020735417904,0.023879650544992952,0.008529112656890318,0.038546753027259
101,3.388481623898008e-05,0.0014098486265246134,0.02385473746252802,0.008502050069023357,0.03655919614590522
102,-0.00044912479392337444,0.0024675892774620608,0.022821452924273237,0.0067759915385904,0.036949022124885114
103,-0.0011463652227322887,0.004946300408473503,0.022276052027660947,0.005189002148264647,0.03824287183275768
104,-0.0015080027618733147,0.007672190122814161,0.022076038288386602,0.004048430658587299,0.04012281086408314
105,-0.0015876562940773927,0.00992893524210851,0.02207468024820708,0.0030544480884247393,0.04056959798487477
106,-0.0011181492777431448,0.011200551641426837,0.022653963278743583,0.002394802500202277,0.03848520987123907
107,-0.0008593139562797061,0.010846802720284958,0.02287295432328182,0.0013315127784868034,0.033493085780874274
108,-0.0012050855250276835,0.009219079377539696,0.022292208796549876,-0.000275512783688244,0.02770223384524903
109,-0.000826639878797075,0.008025974855221059,0.02230589867522654,-0.00077806648923144,0.022968074991114314
110,0.0007212608145817043,0.0075007472212445,0.023468874328444553,0.0007263091998881219,0.020034138593873464
111,0.0021828814769415806,0.006653566225777891,0.02452347134887935,0.0029594786067407004,0.018449543943172057
112,0.002409272564234013,0.006092186233944992,0.024654712064790547,0.003974058456926772,0.01748037411227013
113,0.0021254097609247264,0.007503914341545931,0.02564838157117449,0.004234366134563841,0.019660535531620078
114,0.0024844140501194007,0.010586308307615668,0.028789013764181644,0.005493426265247073,0.024199527469016154
115,0.002641237185637544,0.013290343015743661,0.031191717298580737,0.006751391164110626,0.026940092053755006
116,0.0017676255777417725,0.014610453138677523,0.030427643142887973,0.0063011610687183075,0.028187093390943267
117,0.0005317775817134906,0.014409799793618023,0.02787439146429317,0.004838820861782404,0.027701742524371457
118,-0.0005302289727298813,0.013004916506200195,0.025317161068285746,0.003473042376145312,0.02638789728371845
119,-0.001589400021574357,0.011480175865537614,0.022753718947686897,0.0018174936182057265,0.02613379708672346
120,-0.0024864715004246332,0.010699300507135719,0.01974221031252188,-0.0005887536759657636,0.025645680453405366
121,-0.0022331126477912904,0.011313270972691473,0.017303653169499934,-0.0026726073680391036,0.025257036773207286
122,-0.0011477698586135738,0.013312396804439328,0.015798392466692502,-0.00411146032181385,0.02592056075398436
123,-0.0009906525782772818,0.015205154529798811,0.013745093661953757,-0.006117601498148036,0.026649964498325157
124,-0.001996066700901617,0.015908837680286277,0.011046814319100933,-0.008519315964173968,0.026767508760234256
125,-0.0029624525075903152,0.016025824483838127,0.009146060003434205,-0.00949063743371025,0.028608141842714794
126,-0.003557667644813501,0.015871124195988573,0.00857533326744475,-0.008377689694935983,0.03173081343816304
127,-0.00445499607625643,0.014812196054243016,0.008586009055554745,-0.00742496937069383,0.033968485506868734
128,-0.005348262421920214,0.013582593903245118,0.008643316052811077,-0.008622359395516178,0.0366287140842179
129,-0.005332195739154817,0.012777032733165229,0.008407486716190623,-0.01091992689963173,0.03850821987129239
130,-0.004603383103122402,0.01069829847833205,0.007309871392949252,-0.012599916473849825,0.03488417338258795
131,-0.0038045197940947163,0.006982805775111458,0.005494315454038488,-0.013697538625540873,0.026987528510147105
132,-0.0031465036604435242,0.004232825058592459,0.0033564358794094455,-0.01516416491997674,0.019013675727945063
133,-0.002820133247680947,0.00428258265257895,0.001392786116827582,-0.01714788491076674,0.01434016643265666
134,-0.002977410566459358,0.006595902119182275,0.0004924401418597982,-0.018734577625501396,0.013813086376417587
135,-0.003021541274221354,0.010201343091623129,0.0008611397959726105,-0.01887857796512831,0.015461326145720992
136,-0.0024376746445881723,0.014080660111093804,0.0013992160106320445,-0.017837737572634942,0.017608332203527442
137,-0.0017935349351439706,0.016640596043699732,0.0008696014268145391,-0.016658343320475524,0.01859640589148784
138,-0.001297274201403827,0.017535063592197767,-0.00017461685972089446,-0.015073676570912596,0.017644847593319406
139,-0.0006660547652824837,0.018169847160054223,-0.00103347500258797,-0.013101588611582974,0.016138133145933653
140,-0.00017543136152868823,0.019102758142503583,-0.0021818989296873144,-0.012344882966630116,0.014949053226471202
141,-0.0003744226002684846,0.019149283995613307,-0.0034784413434027148,-0.013777507095933585,0.012672375218259865
142,-0.0014813752259693785,0.017573617725451948,-0.004495592034835809,-0.016560987037999908,0.008942800305724582
143,-0.0031440043158690355,0.015533722209391337,-0.005454471845449767,-0.01925645893191556,0.006186333283469234
144,-0.004764164903074648,0.014138752424421414,-0.006760913883574186,-0.02096244613220867,0.005676220868250398
145,-0.005770637115335634,0.013275727770369955,-0.008655222905658549,-0.021253087201456217,0.007082651542413512
146,-0.006146068196688782,0.012889825870025755,-0.011191915324195296,-0.02085192421854492,0.009970056029203828
147,-0.0063353173275612846,0.013101498245742919,-0.013905651471079278,-0.021324016848349704,0.01291917720304577
148,-0.006637372065530176,0.013460527503517797,-0.01567262080437898,-0.023182540264091125,0.015457051625520829
149,-0.006977511918929678,0.013085111046512825,-0.016172312292958367,-0.025779849742373465,0.0171303123904568
150,-0.007058674807872753,0.012178070990581042,-0.01666882420647218,-0.028775374028554773,0.01684469578947331
151,-0.006656685854691523,0.011766879193111987,-0.017415051100808893,-0.03144641148541631,0.015078214914662491
152,-0.0062294834430527204,0.011255539892832324,-0.017700974289593795,-0.03266323258070046,0.01209737895932163
153,-0.006648600758848596,0.009559397885359828,-0.01818353895524538,-0.032098490725473425,0.007966536733693887
154,-0.007372044077870185,0.007344022160397118,-0.018969766443657776,-0.029794482308081852,0.004147764621198756
155,-0.0066987463912741825,0.006236629932412017,-0.018644451399762393,-0.02678143405587841,0.0023511893206312334
156,-0.004354072308044291,0.006957753904773709,-0.016893060667316228,-0.024869265826357807,0.0024847979141355537
157,-0.002058714586981892,0.00844888638429423,-0.014691418084858049,-0.024465288541518495,0.0038188795088374768
158,-0.001537260288472638,0.009132291435462398,-0.013134136541609904,-0.025254624735136462,0.005301067968873467
159,-0.00250780521035099,0.008579919102043925,-0.013108509090368942,-0.027578247450419726,0.005789587592646507
160,-0.0028840294660947524,0.007873137133816675,-0.013809864579871461,-0.030522529371237936,0.006107356580383092
161,-0.001569629938557534,0.00852294441809082,-0.013392713473131904,-0.03220601846279958,0.0074011997259683295
162,-7.207028595911888e-05,0.010028154016867002,-0.012069128132426585,-0.032737104263965824,0.008585072470408002
163,-0.00025718229604556074,0.009971572712190395,-0.011864933743839703,-0.03356844742979199,0.007592670130624828
164,-0.0018849390897105604,0.007383645710814415,-0.013415541426754959,-0.03455189188095093,0.0042786135845578836
165,-0.003117846011806671,0.0035857901907274917,-0.015001554393271629,-0.033559125942734136,-0.0002328283176967568
166,-0.0024068325812759937,0.00037412349734812093,-0.014402706626975995,-0.029493693172219664,-0.004763741575689182
167,-3.4922452449397754e-05,-0.0011307405501178478,-0.01174245683488577,-0.0246204294199197,-0.007812020985680877
168,0.0028781110674127096,-0.0006221320021993969,-0.009577781912058743,-0.021668859632419123,-0.008226451720157362
169,0.00540045555655038,0.0009883614325971563,-0.010054534092368596,-0.021444438335689833,-0.0063317950944774245
170,0.006834216871818368,0.0028879734508824822,-0.01312832472253337,-0.02351737909382996,-0.0032764534952233835
171,0.007144303438948271,0.005198884671715661,-0.01696974131584824,-0.026576195733743663,-0.0008194154903464647
172,0.0061676874027533045,0.007208415039993543,-0.019831863982620216,-0.02910289910402432,-0.000890635260294786
173,0.004318607203008855,0.008327269074611298,-0.021013786131118647,-0.02987191216558802,-0.002844185097101014
174,0.0023632303523433685,0.008653860771404214,-0.02139931605772576,-0.029473741662893897,-0.004752153247810398
175,0.0005331500621463518,0.00845667892882417,-0.022464111367186335,-0.029507253230319188,-0.005881913380348481
176,-0.0007341326346813166,0.008113439653783758,-0.024499953793848225,-0.03029378483571329,-0.007389847440334397
177,-0.001080619002133612,0.006698392019829586,-0.026539882513829667,-0.030941682777665732,-0.011903668239594269
178,-0.00021832681862515187,0.0038218836466094876,-0.02727019232024281,-0.030279793309855297,-0.01929291639339642
179,0.001545105097080724,0.0017217307578187686,-0.0266501620782228,-0.028283195498980694,-0.025510359683784754
180,0.0027682541735202315,0.00159813067008031,-0.025870345674544607,-0.02572757437825458,-0.027428828868804125
181,0.0023695870142598505,0.0021773847337605828,-0.025759216227972198,-0.023666219059943996,-0.024386973134309688
182,0.0013112868003237767,0.0028877413750258846,-0.02600673922085468,-0.023153850201181148,-0.018320230675156292
183,0.0015984205240254135,0.00392471580227415,-0.025846257084161592,-0.023964201856671984,-0.013309553195603693
184,0.0030028539737083112,0.004580283570955152,-0.02567947991598837,-0.025824206428720825,-0.011220728348423147
185,0.003861997746026545,0.0041836381550578805,-0.02597434670340689,-0.0285351522830389,-0.010934503584570487
186,0.0040650292859831655,0.003481093888063903,-0.025585282611825143,-0.03037447646813175,-0.010657388233433242
187,0.00457108013800418,0.0037460177194799282,-0.023464217366632296,-0.029736240069812632,-0.008959059303605153
188,0.006416835374367929,0.0051878359601910855,-0.01980769110462625,-0.0263006840311483,-0.005697207637249917
189,0.009052070164696571,0.005960481680703855,-0.01649118279569631,-0.021538123093517478,-0.0032810949089404277
190,0.010455444837083962,0.0050996007790422605,-0.01571667811519219,-0.018101689484101954,-0.0038494580942630883
191,0.009702527691881391,0.004370512967706613,-0.01740565162827139,-0.017439245814016978,-0.005801735207536024
192,0.007376429094821697,0.004749732829547701,-0.020259299977436133,-0.01888912440881582,-0.006700692289849716
193,0.005210238801087536,0.00582408934097099,-0.022769973708933546,-0.019889795493455813,-0.00652948941722397
194,0.004006542593372087,0.006515855957629257,-0.023635299981698974,-0.019296082896826675,-0.006343075317835718
195,0.003223074074607461,0.006146273963643606,-0.022713530584835537,-0.018350285764667743,-0.005834768141069486
196,0.003428115902435693,0.005699736254454675,-0.020333371546451005,-0.01729132619704511,-0.0048877680829235645
197,0.0052049235775420985,0.0055608196989692755,-0.016861245319679967,-0.01536618169800859,-0.004481388264395666
198,0.007373647178311637,0.005213414863400335,-0.0134274218044598,-0.012894830293015896,-0.0043176536524186055
199,0.007986171066501412,0.004331023021898653,-0.01217467844607686,-0.011644650177763121,-0.005129297210194013
200,0.006573548928157939,0.0026836578932103376,-0.013555964289602934,-0.012523165042024411,-0.008262011427522753
201,0.004061605925069524,0.0009692433574852591,-0.01580634694648095,-0.014709992843477526,-0.0110516219645198
202,0.0012975356247912123,0.0004902082006431273,-0.017546919032014503,-0.017195759853331136,-0.009746956004118176
203,-0.00038433829893421594,0.0018763364603178263,-0.017454413400733264,-0.018532163246160915,-0.0038545384274612893
204,0.00023552298984577642,0.004454229680259496,-0.014637161944083947,-0.017001819336698653,0.003419037417407988
205,0.0023726598026336918,0.006538237182368214,-0.010401212761504538,-0.012895560488795293,0.00840335880849499
206,0.004087483254087842,0.006988550585844156,-0.007012525273212916,-0.008692448505273731,0.010808445509799584
207,0.004682622038151884,0.005419457780318954,-0.005253752836634743,-0.00546949833709101,0.010663065926588068
208,0.004819002241075207,0.002440096098727184,-0.004223320550714769,-0.0017996767346500834,0.00814082193161093
209,0.005503478049707114,-0.0001872843113860456,-0.0027970061150450203,0.0031637341332840466,0.005717753190774905
210,0.007231930698309871,-0.0017180349784587721,-0.0006212968676083056,0.00851203957770345,0.004518376864534137
211,0.009005469592305356,-0.002600304444656616,0.0013920546472958643,0.012404624341461803,0.004446774989451371
212,0.009064605069868292,-0.003087114192607785,0.0015870516451107605,0.01298526877390366,0.005467410754022216
213,0.00696883862580784,-0.0029075983995815327,-0.00011027446865649738,0.0104910636091618,0.006985480478186461
214,0.004124192423321583,-0.002174886227902135,-0.0015308234398692469,0.007834230462249327,0.008305686842853996
215,0.0023906357102766707,-0.0014385189358739271,-0.0005466484459202074,0.008031164884308944,0.009052121951386138
216,0.002179989311532981,-0.0009614900572845708,0.0021228460546939966,0.01167770654517916,0.0092187822700772
217,0.002185713559942023,-0.0009691794699774998,0.0029237323618500747,0.0165087894316956,0.008773259211747736
218,0.002074219126914272,-0.0012254781358834374,0.0005071778867088556,0.019641677555654016,0.008158241445099232
219,0.0022667489472909556,-0.0018668003222357162,-0.0029299271756395933,0.019041430827972973,0.007665030966687675
220,0.001970815616499697,-0.0032974118417049307,-0.005816912204506641,0.01394653251449743,0.007012222085528086
221,0.0011070817205555369,-0.004449027160118344,-0.00749589876404861,0.006773956129194107,0.006595724449547373
222,0.0003518779713729082,-0.004338415886155542,-0.007775413034250165,0.00046249794156354905,0.007183048964068514
223,-0.0006668859667559772,-0.003476892097120841,-0.00794449178415296,-0.005014253532520392,0.008623688663138618
224,-0.002161614140584572,-0.0028457164314451347,-0.008915361125711703,-0.01007975315542726,0.00938063365640167
225,-0.0035823847073583994,-0.002866987669538823,-0.010257510646498477,-0.013975834061436558,0.008739326719302788
226,-0.004876466597348756,-0.0029514368447973766,-0.011673306971526413,-0.016308991141394686,0.008133093645872806
227,-0.005880211449075358,-0.0024021720752124705,-0.012647817404076734,-0.016755264941537205,0.008405332417774459
228,-0.006210564831969063,-0.001835147119993019,-0.012271268641223205,-0.014891567968635527,0.008796005142075746
229,-0.006647754801389371,-0.0027323183951926486,-0.011174485955682299,-0.011919263354677545,0.008002621221675629
230,-0.0076750380262638,-0.004930935168216583,-0.011112419009326241,-0.00977718545968304,0.005284413404113712
231,-0.007718201517614619,-0.006594860991522796,-0.01191495495417538,-0.007839011812960891,0.0014029475092625686
232,-0.0049241842042048066,-0.0066930328530693485,-0.010769799814631564,-0.0033414232992278114,-0.0013818226487185112
233,-0.00034801167639775076,-0.0055938263529731625,-0.006650830248623092,0.0032883032382728197,-0.0010145260821225008
234,0.0015409824972370937,-0.005114000894739145,-0.0038482668747427053,0.006430275679766625,0.0014315286041325266
235,-0.0015056390870388692,-0.006667766614876635,-0.006030480043268874,0.002822027238904721,0.0025208689487424534
236,-0.006216747847334287,-0.008868916530918479,-0.010837551460622713,-0.0034579580460904033,0.0006314350198433486
237,-0.009319862246864128,-0.009737861739206292,-0.014683865819900143,-0.007810563135101741,-0.002593146891321837
238,-0.010587826871474332,-0.008475383220333702,-0.016167648983568834,-0.009327419470570603,-0.004290388698844493
239,-0.0107014186224359,-0.004578035579720677,-0.015167902198894034,-0.008622783541027993,-0.002157380136315911
240,-0.010467303858110306,0.0009957767868568478,-0.013198765532908276,-0.007563248442712291,0.003431637964052395
241,-0.010235433491940758,0.005474453829236469,-0.01169941395781889,-0.007850189662326028,0.008809945125595589
242,-0.00929307609649151,0.0062050534362904025,-0.010202837176575852,-0.008259434570112094,0.00914776559508462
243,-0.007594256916012191,0.0030840256615693247,-0.008437331116747411,-0.0072229552436656,0.003162030868339526
244,-0.006767053079937043,-0.0003072941708611651,-0.007712628825982712,-0.006346327963058071,-0.0028744191138695583
245,-0.008085687590954595,-0.0015824397930985891,-0.008968848855429744,-0.007537976193678582,-0.0038111697950932418
246,-0.010862972497502534,-0.0024749062303809975,-0.01132508251746347,-0.010070271723083125,-0.003337699843137838
247,-0.013477784004816081,-0.004492108092740926,-0.013312443493271379,-0.011840085818516474,-0.0058768085919900905
248,-0.01463949864524947,-0.006847274944113279,-0.014326859916909641,-0.011766939733449389,-0.01042187455382986
249,-0.013982398735517196,-0.008578267493110065,-0.014432361931903755,-0.01038326554584027,-0.014258294373931292
250,-0.012654869878098891,-0.008998716067910095,-0.014368165852028875,-0.00911713401930895,-0.01601535001078064
251,-0.01156803954631461,-0.007787060757725576,-0.014413549275565296,-0.008711110461496202,-0.014935572027245204
252,-0.009784559693445917,-0.006036375005133927,-0.0132061822479381,-0.007810008870808714,-0.011680146970164397
253,-0.0068250732091057545,-0.004824603845126511,-0.010483880906683502,-0.005512826966643942,-0.009170180494436195
254,-0.004136967710521676,-0.0039028619488229877,-0.00814178380570948,-0.003347081740026112,-0.00832383707609895
255,-0.003231257514136979,-0.0031862666273986344,-0.00788214856901904,-0.0031070288767494824,-0.007741276491125839
256,-0.003840283111477447,-0.0032403720355810273,-0.009486736812445863,-0.004345101862449439,-0.007235168586602032
257,-0.004394134354342349,-0.0037187032570521025,-0.010725681665975236,-0.004690970813969091,-0.006638761499422387
258,-0.004019543614583763,-0.003925328922393646,-0.009769754203783492,-0.002627161284954362,-0.006400571395285477
259,-0.00333485836809806,-0.003947032576315867,-0.006776239443243197,0.0009058005674793637,-0.007358639534478111
260,-0.003181579033166639,-0.0041143986779095315,-0.002721524688278084,0.004211566253272306,-0.008507353213984385
261,-0.0034437960520254177,-0.004525195699241172,0.0011265175582893469,0.006733190790016012,-0.009276985239037092
262,-0.0036017273564895014,-0.005295921695156656,0.0029010783767852784,0.008292284768414954,-0.011281698381090478
263,-0.0035850780961842856,-0.006784847677014891,0.0011872710025287712,0.008248862670710542,-0.016002545425575217
264,-0.003817026785345383,-0.008833315443467462,-0.0034086253250772023,0.006176383168820153,-0.022117151395463226
265,-0.00411672119495115,-0.010521317557711688,-0.007935807775494443,0.003504606803507276,-0.02707879332368288
266,-0.0038394844114630535,-0.010875242432921749,-0.01028248574848062,0.0018968120338623972,-0.030387413397597634
267,-0.003661679031340601,-0.00986748194273069,-0.01151633815721108,0.0002672002341124366,-0.03208919402546474
268,-0.0041238709442492595,-0.00843379453268926,-0.012781162088740418,-0.0020982628469819863,-0.03162016253064098
269,-0.0041907503087673876,-0.007203658764707665,-0.013406192223296524,-0.003217595859943221,-0.029368619807707518
270,-0.003579843085025544,-0.006285812078912816,-0.012496803339755724,-0.0017161175769183146,-0.025921920147174916
271,-0.0028654948953473966,-0.005892471610984101,-0.01024707956242955,0.001963689647747116,-0.02234846080536354
272,-0.002485722753201243,-0.00614197250215294,-0.008627329954356605,0.005742984514826986,-0.020703606224713608
273,-0.0029640405589162473,-0.006338562181479895,-0.00966660558834416,0.006754229347440132,-0.021169561012348143
274,-0.003690694449751495,-0.005568471958389934,-0.012443465687758793,0.004891654146624284,-0.022028650290881698
275,-0.0035169238294051426,-0.004116620475037897,-0.014097896854115428,0.002678456978126932,-0.023067555161217848
276,-0.00272501644443299,-0.0029522242239973604,-0.013354468645649509,0.0015906451317263483,-0.024527281885423458
277,-0.0027185132429202894,-0.002449745666067192,-0.011682221102731106,0.0007332955898778573,-0.02491642579026116
278,-0.003989248336907674,-0.0024224385371843732,-0.010799813385135639,-0.0005436238891043714,-0.023370982479299526
279,-0.005356593384182896,-0.002587585848724844,-0.01087555523246981,-0.0011634879575002104,-0.021273724070601553
280,-0.0056000574758464155,-0.0022268309439995144,-0.011863181509894518,-0.0008785516460045267,-0.019931774989108978
281,-0.004812222350735401,-0.0011934628157083819,-0.013654827526312781,-0.0006151632357377039,-0.01975230952727535
282,-0.0039045292826325444,-0.0009040940286601301,-0.015206572082211682,-0.00043711592037844026,-0.021475527934521912
283,-0.0035927524013911294,-0.0018843507035940473,-0.01561252713572927,-0.0003452767110380266,-0.024282601959328395
284,-0.004109584542753506,-0.0033453805838682873,-0.01495260583854367,-0.0009058966908801823,-0.025413338988273252
285,-0.004684193980947157,-0.005171532896093366,-0.012806034846618826,-0.0009606108063047034,-0.024202841416479513
286,-0.004015699563223829,-0.006923239755627737,-0.008119833874922858,0.0015735201866421142,-0.021590451914616404
287,-0.001642045473774344,-0.006682431297395837,-0.001162755136403219,0.007285741251423121,-0.01688114250125446
288,0.0016714607234722349,-0.004076183494704965,0.0056229807222845036,0.014954745246165684,-0.010883371260405896
289,0.003642865498053775,-0.002085632747188842,0.008337501016881358,0.020385850566480887,-0.007258572007451722
290,0.002572749161354689,-0.002959570142669906,0.005347852345565095,0.019804959003643333,-0.007805181239162905
291,-0.00038667999279659273,-0.005858973229759114,-0.0002649190756590171,0.015011104409055823,-0.010728024718944875
292,-0.0030793246702110486,-0.008633373442979396,-0.004427521011344474,0.010274954806839395,-0.013095001138087054
293,-0.004655877113713644,-0.009597145296801158,-0.0059967342437082915,0.00710362189169783,-0.013962521975171869
294,-0.005364922227203304,-0.008834577323408416,-0.0059962707870838995,0.004898890023505974,-0.014850654108628963
295,-0.005280082132610366,-0.007456365828477081,-0.005269865444518863,0.0038225879884722187,-0.01670491740010649
296,-0.005265255184280768,-0.006309708910186869,-0.004470474093138328,0.0038223683109420733,-0.017721327034918827
297,-0.006581408027214182,-0.005605864507286078,-0.0039053854241800764,0.004179325695881294,-0.01531257752302877
298,-0.008156443458149903,-0.004731923586762895,-0.002926962343166848,0.005318124899331786,-0.010376684278531572
299,-0.0078444232849927,-0.0032837083456534917,-0.0010509044985697747,0.007926299727894768,-0.006555752360307344
300,-0.00525242547446008,-0.0016233534059280688,0.0015358472130738358,0.011674343410581113,-0.005060284438632745
301,-0.0021755623654582455,-0.00016408203248085567,0.003934724311935826,0.015150380978049842,-0.004245388041470912
302,-0.0007711411550785635,0.0004575666466708801,0.005447836694627255,0.017252732137511977,-0.0031202052995300536
303,-0.0012098453150947912,-0.0004055456271549071,0.0064403796691514525,0.01860889018115064,-0.002395640594140255
304,-0.0017271970326243427,-0.0015149589316258627,0.007559911190802443,0.020088874113264706,-0.0014359177834649473
305,-0.001656543401141095,-0.0018221110450325055,0.008575693434398164,0.02087578904725575,0.0009428668059171741
306,-0.001970066244177499,-0.0023622228574735095,0.00868395565672788,0.019707949751122264,0.003061187730671065
307,-0.0026435701985960624,-0.002891118446878938,0.00853713619310557,0.0173455033887769,0.004231468299584288
308,-0.0030167085074741255,-0.0021626394724475057,0.009173517615840525,0.015422665717740959,0.0060721227208020345
309,-0.002650261724658825,-0.0002275086040587659,0.010551713365824496,0.014679802622926402,0.008100417294610257
310,-0.0015550481887854105,0.0019050876652128483,0.01215072540912609,0.01507715578018068,0.008078222249620659
311,-0.0005373403902422376,0.003193555081577156,0.012414496936738016,0.01568115983621474,0.0054155266830808405
312,-0.00031399944404092987,0.0032289727139678485,0.009787478808790303,0.015075042043984722,0.0016038258649364253
313,-0.000893912870994614,0.002310894404922434,0.005100711055158965,0.013037448317065272,-0.001666383721277482
314,-0.0018246542173628517,0.0013021497028000426,0.0009210382369121233,0.011591678694139474,-0.003319090487470658
315,-0.003023421861519593,0.0003203828514236405,-0.0013451864698292913,0.012290977030252151,-0.003454474080749212
316,-0.0046307073990491865,-0.0014812863067525475,-0.0019410515602763852,0.013544396550003146,-0.0031572434139647307
317,-0.0057628591359839155,-0.0040799941140579245,-0.0014765504245653949,0.013085301066582771,-0.003353147629111032
318,-0.005576948055040423,-0.006816936157913574,-0.001046387772018888,0.010292028986642854,-0.004857518023309978
319,-0.005034268787249764,-0.008977336121839534,-0.0015538304173391955,0.005511231116211857,-0.006850902538189636
320,-0.0050204341449452536,-0.009658012005876303,-0.0024157253570777264,0.00024642355299507655,-0.006934296910327639
321,-0.005172183534230134,-0.009447985430547977,-0.0026190982666208945,-0.0033485666932112678,-0.005757158487217746
322,-0.004662817806309361,-0.009362666768764004,-0.0016704044976055144,-0.003992935533592545,-0.005830403006176864
323,-0.0032154747406711137,-0.009603602162522524,0.00025375429375328756,-0.0019371739823951383,-0.007541327448208097
324,-0.001712650377074202,-0.010273775825884294,0.0023688873096751155,0.001212010942472549,-0.009286898127524826
325,-0.0007903841491528428,-0.009864765929030196,0.004056264894399902,0.003877808870800171,-0.008188041575315703
326,-0.0007970712307709138,-0.007707009588154708,0.004380196743925132,0.004895670576244794,-0.004931992933205949
327,-0.0022087479594416655,-0.006312957377388814,0.002855377870614764,0.0039624046453615985,-0.003926608650008646
328,-0.003827647167560235,-0.006710958171082312,0.001421360181090035,0.0030428099592730417,-0.006000112520970074
329,-0.003658836260205001,-0.007384984713784845,0.0023456731316517307,0.004124254173768436,-0.008703051883669323
330,-0.002458769438986832,-0.008237560186460208,0.004582080808729132,0.0053935512454790615,-0.011431527312193632
331,-0.0023221341592793783,-0.010233974356156257,0.005731551810511103,0.004198760004407913,-0.015058706455453116
332,-0.003114397176100051,-0.012606347967196178,0.006130153705734682,0.0017522541924822525,-0.018145855485905252
333,-0.003632366247737374,-0.013996203489752976,0.007122670449364595,0.0007774849306383126,-0.018731002774365964
334,-0.003473135361955303,-0.014397816820413911,0.008285449515515627,0.0021361595201471835,-0.018144176319707703
335,-0.0027943255470469068,-0.01352078735158481,0.008782998841808323,0.004915009858014066,-0.016367889955268968
336,-0.0015732164976062246,-0.010661271449365559,0.008918733214800176,0.008009818120440083,-0.011263223599631842
337,0.00015918972538462805,-0.007021737485907957,0.009227596233868072,0.010843309250476612,-0.004661191638376808
338,0.001371540299195489,-0.004464040395716643,0.009680356466509384,0.0125999260990338,0.0004283581917424035
339,0.0013874332864363234,-0.003165314420033208,0.010381881452071973,0.012862769782753683,0.00388791666676496
340,0.0013610343426337362,-0.002783977328459994,0.011826020203568918,0.013019453929330928,0.006286134696267015
341,0.0029996665239263387,-0.003931918578532137,0.014554605037144924,0.015436745658671501,0.0066354761005579625
342,0.005406777400657158,-0.006342250206778111,0.01722246501275431,0.01923539720727734,0.004101427368443961
343,0.005794963345903096,-0.007997290875429275,0.017446100151738583,0.02086817221705515,0.00039581972536100336
344,0.003653614773930705,-0.008347388519093862,0.015949875990156154,0.020084924917769274,-0.002568934942206825
345,0.0006882819184317478,-0.008161646099651225,0.015224247589935208,0.018807161058436495,-0.0035777675685969273
346,-0.0011763045175825423,-0.007414782814890903,0.01621846730315924,0.01811148688368029,-0.0026227522958431923
347,-0.0008438122347733187,-0.006291938955412261,0.018635162104566075,0.019008815068513416,-0.001663319477474117
348,0.0005960290069949812,-0.004942955290713963,0.021323768952685788,0.020871120610162053,-0.0004671916439275839
349,0.001315040041333604,-0.0033490365473591147,0.023200719679907295,0.022130379795441163,0.002157014797638941
350,0.0018264851301046793,-0.0015483542908205474,0.024748865683104148,0.02326795175407814,0.005412949897852255
351,0.003076820180670304,2.560416536273991e-05,0.02641623080880404,0.024593910561643458,0.008544628031679118
352,0.0045042318627775526,-0.000182104460951257,0.02791845633481559,0.025579391263267845,0.010226479600873197
353,0.005427095445274567,-0.002435160466844044,0.029154508992621873,0.026290133736145894,0.00953728883635539
354,0.00552231184945448,-0.005041271329866413,0.02987455085022392,0.026345405613741754,0.007674044103017495
355,0.004899331495728897,-0.007025825011610284,0.03008306601588631,0.025379204402206285,0.006018155540411011
356,0.003971994072951223,-0.008290554844486316,0.02993796860300179,0.02395375081722312,0.005489085067426163
357,0.003289270905170544,-0.008600761622037153,0.02997682657340178,0.023466412407502982,0.006807442450528318
358,0.00306794265065468,-0.008332051531687716,0.031155377515738027,0.02492778971203998,0.009226786824927806
359,0.002828583957506276,-0.008269112270942222,0.032970634262828945,0.027016507503599994,0.011464408638392874
360,0.0022102276414077324,-0.00842838347731695,0.03373505322106271,0.027489320987326725,0.012995719369505734
361,0.0016740380298770961,-0.00830638457963634,0.03290566968596281,0.026570112969697742,0.013239034611976279
362,0.001471745016826251,-0.007814452532542225,0.031064759862167144,0.025960693312794086,0.011856304538639794
363,0.0011657971027828834,-0.007307876380620105,0.0291294441600592,0.026306785694380063,0.010342500627157575
364,0.0008242862096758387,-0.006175473946100686,0.027926041116084238,0.027262802957221204,0.011113821175276933
365,0.000544610410184429,-0.0038000359291103293,0.02710497787499486,0.028061997202937023,0.013670544622629538
366,-0.0002985988534215759,-0.0015446539545018374,0.02579421356062875,0.02783778098301287,0.015110807504061456
367,-0.001591309174533811,-0.0005083231561490605,0.0245055522798465,0.026483667724969115,0.014186028113272069
368,-0.0019502926357261065,0.00011694565277051375,0.024906228812336884,0.025670356079189355,0.012609178282152132
369,-0.0003534854289039556,0.0010602825626164466,0.02821307566312606,0.028072784337659036,0.013005092454880268
370,0.0027683406193698837,0.002137154109622148,0.03398596859190295,0.0338768512168956,0.016485983803359246
371,0.005206575922588684,0.002034946902134373,0.03879188349703293,0.03880851563689154,0.020568683084325762
372,0.004424525791691398,-0.0008700969826510969,0.03859731509986485,0.038469375253740896,0.021724205551278783
373,0.001139142422898088,-0.0049229208021473216,0.0343509597348146,0.034077852901227244,0.02150214403891102
374,-0.0013910439699735318,-0.006966539081020248,0.030709096099566426,0.03056672063931657,0.023061283059143838
375,-0.0017499024250713076,-0.006832048400953537,0.02993749365441758,0.030462062227829552,0.025661359886948853
376,-0.0009256610410084545,-0.005832699985265567,0.030886622515723928,0.03281877887582418,0.027478464811730004
377,-0.0004360968919666379,-0.005177684594194371,0.031201769471411664,0.03511963792920759,0.027129745646881146
378,-0.0007155066322666762,-0.005296396529928931,0.02973474621832433,0.03536061215029849,0.02430624328290675
379,-0.0011474508665668419,-0.005452059099923246,0.027266729792159047,0.033676521899845005,0.020539057708579417
380,-0.0010378269839701392,-0.0053693519116343675,0.025029141643959453,0.03171114629112498,0.01668413139192083
381,-0.00030713286905919613,-0.005129443833682722,0.02393941458147356,0.03051319599474602,0.012909579015793623
382,0.00016689451725643243,-0.00440450171912278,0.024695664504347153,0.030003434677397176,0.010380607118676617
383,-0.0001649974514979057,-0.003382464851297478,0.026846572962413013,0.029912830035134806,0.009549189838284391
384,-0.001157143194300861,-0.0032504162614972656,0.02840624429436329,0.029701154339263403,0.008774205174898542
385,-0.002000379417774599,-0.004333900807999995,0.028675650162960368,0.029403040705495313,0.007180536884711549
386,-0.0010190512536274838,-0.005104202367050166,0.02872083482752312,0.030053979354338962,0.006235292768829129
387,0.0023214325250241726,-0.004428267367855851,0.02887258970396401,0.03189367715690218,0.007286331681974015
388,0.005988183869547055,-0.0029823821463164017,0.02873095351684082,0.03346447964218274,0.00983968790199793
389,0.007496280434726571,-0.0018463168389189451,0.028113090065406098,0.03296074565048766,0.012495490247517251
390,0.006564651576234624,-0.001364521601134196,0.027382974553696638,0.030815625588250694,0.01490092572667555
391,0.005169551866309425,-0.001444848090741394,0.027496994870373426,0.029785068588400847,0.017590478076526896
392,0.00438530118237496,-0.0019336263637664537,0.027814851801324845,0.030231023848705418,0.01987027306242756
393,0.003223614169790848,-0.0015875201427327755,0.02654230046965657,0.029923683597749405,0.02113732705678673
394,0.0015433190219528473,0.0005267505341754318,0.024602436624812075,0.028934800915040353,0.021857224681620633
395,0.0005561354877599464,0.0028180161999153005,0.024318344587258667,0.02893948837414237,0.0214418783766136
396,0.000894667378424627,0.003641548251085181,0.025970595600388804,0.030231908475116108,0.019117866384789895
397,0.0019133155216509916,0.0034323152376221117,0.02755063920183187,0.031302116058301355,0.016179225575668192
398,0.002518538565826683,0.0030410121013834503,0.0268437247891394,0.030197894053692248,0.014311989909890509
399,0.002524736645677689,0.0019709858079445704,0.024464363150952573,0.027236127794982704,0.013067590525303869
400,0.002977510887056965,-0.00021136025899228732,0.023152356497705372,0.024938877176792714,0.011139239611761597
401,0.004316444295602777,-0.002448128063903352,0.023670665248171692,0.024511453680270107,0.008723615332129295
402,0.005650317192794974,-0.003375917070467096,0.02440185850829441,0.025184398134652775,0.0072539232353209335
403,0.0061445710988083995,-0.0035652440296875037,0.024525257705511973,0.026187847323903966,0.006585697179032971
404,0.005972203982647075,-0.004303774285793749,0.025203304645332054,0.027279625552824545,0.005618555868138812
405,0.00623440528093698,-0.005144993914506923,0.027163992463528814,0.02830805202953054,0.004458837715004908
406,0.007146561177646567,-0.005549090436772757,0.028951383621179185,0.028801497694903092,0.003774697209008364
407,0.00810956411128181,-0.004824082522338783,0.029216998715182775,0.028764176149503138,0.004917637855393785
408,0.008127139352200536,-0.002879527009877938,0.027621300409717327,0.02788547127809714,0.007866085806046369
409,0.0063597621426907235,-0.0014498106436043835,0.024421265616749625,0.02552808151454262,0.0106062950400344
410,0.004183344851488072,-0.0012597627173863135,0.021206198317274248,0.022936306739379908,0.012202529995581211
411,0.002714603928598442,-0.002374199762479575,0.01905367500836799,0.021204011387989552,0.012284794381128849
412,0.0014071018345961758,-0.004475977024997926,0.01750215760266575,0.019675826713248693,0.010978741234564292
413,0.00025969074873568427,-0.006266058403576239,0.016417267010989525,0.01789949906369456,0.009506323828935024
414,-0.00018764462186269607,-0.0073080513332075105,0.016372924578316277,0.0162985972188579,0.008426318246180398
415,0.00021919553852139758,-0.007763670429257807,0.017238884518970852,0.01562927658925546,0.007666005107518457
416,0.0014445217105647093,-0.007127369762179521,0.018424679430092242,0.016540819759530725,0.008240425038447666
417,0.003723994872864265,-0.005219838199485998,0.020088997137654323,0.019311267538246895,0.01098896834903773
418,0.006868199546297707,-0.002670967461055485,0.022082698958286982,0.022798158350129223,0.01432463565954089
419,0.009990519137894737,0.00015205767206002914,0.02348786345405732,0.025037266207132345,0.01661701227239202
420,0.011766198216478806,0.0024252198851255208,0.023301608170644333,0.025221262574488753,0.017351490567358914
421,0.010590189116564404,0.002515837313670013,0.02067489238737435,0.023291020361030052,0.015835099050123595
422,0.006815772476980257,0.00033292419273623237,0.016508878050593416,0.02022718214730835,0.012738075977977971
423,0.003860791974246872,-0.0016525327195052004,0.013697213341754062,0.018930857928687074,0.010779411991137158
424,0.004159933629890337,-0.0016797444015410241,0.013796007321416972,0.02093257514412769,0.01158975577152525
425,0.006636649750695439,-0.00024892421817052877,0.015454155811987794,0.02361929365089023,0.014493937767091597
426,0.008940427186964982,0.001539960729481099,0.016727856111270506,0.023474527253955917,0.01763559898067171
427,0.009515951866064395,0.002367204342076464,0.01717902297087428,0.020581121648445465,0.01847401224265531
428,0.00864497004379839,0.0018381173859206477,0.017345440557179344,0.018057460604815185,0.016498156076853555
429,0.0077764820404541204,0.0010144404153061214,0.017080021749934633,0.017272148042101365,0.013353118804460454
430,0.0075884322550436294,0.0003825239642419865,0.016001402725825196,0.01702606000774443,0.010263174001940021
431,0.007829876997651718,-0.0003174350944229766,0.014426654367879375,0.016641088104287605,0.00813909287044897
432,0.007998108155640261,-0.0010234720886116394,0.01271727810046214,0.016127503744737575,0.007251130277101677
433,0.0074642243481031,-0.0019448280675226951,0.010955876884742,0.015233013543365191,0.007008299498407909
434,0.006109790954516006,-0.003013968476090035,0.009161686545407227,0.014303031757478681,0.007971639236179301
435,0.0045913916056865315,-0.003861548622799996,0.007477684529351669,0.014530551340912112,0.01030009281781642
436,0.0029263978579701063,-0.005250772215730736,0.00601878188109811,0.015317179496560416,0.011361262993304894
437,0.0008421642856668335,-0.007442850046372897,0.004881012718825632,0.014037261142876806,0.009800184707249042
438,-0.0005325596871489425,-0.008323361975103834,0.0047211905686926495,0.010402280482203128,0.008382520669158275
439,-0.00012751389425582794,-0.0060660436877818386,0.006307521939208583,0.007092801919883021,0.010088356520329725
440,0.001521547518360293,-0.0019730390567993784,0.009054917868921722,0.00564013244507721,0.013799654839098658
441,0.0037350973784097048,0.0017620852268428588,0.01147797401956817,0.005690112016437973,0.01584565465319576
442,0.0063594786542001775,0.004428956570026107,0.013194224011354267,0.006897573629574082,0.014715571029672223
443,0.008599864718892875,0.006005362250745877,0.014427273211885763,0.008181857631934549,0.012071850575920804
444,0.009264180300221829,0.005763149628631118,0.014387541266224263,0.008231375878798238,0.008962582468742658
445,0.0079105109162913,0.0027729727116572248,0.012030528914923965,0.007317669900597945,0.0048696781366744475
446,0.006120304188883394,-0.0011702477341840602,0.008547645472484558,0.0068498386804696845,0.0011375283599903258
447,0.006041803688942212,-0.0031341959893752213,0.0068113711909925595,0.007526376851958646,-0.0008618420187739244
448,0.007472437431181506,-0.0025936021074468903,0.007731304600109941,0.008314982734396632,-0.0016533722214316043
449,0.009011935851613468,-0.0009775236839097,0.009802710465770657,0.007993659648695061,-0.0020252506524101755
450,0.00937134666481325,5.8954148180630226e-05,0.011545016180238917,0.006015258370784404,-0.0026875805213759014
451,0.008050520349000572,0.0009158473791649529,0.012323354338188451,0.0031666117927837147,-0.002656126328552068
452,0.006329850410492029,0.002586410535574611,0.01340368364439956,0.004481670276002298,0.0006591393947218088
453,0.005686994273666587,0.0043927790417449585,0.011683899181722213,0.0072779860204166625,0.0031034780730648036
454,0.00601608440158316,0.005581158664694836,0.007587095271141549,0.008034711306692172,0.0017854518111350673
455,0.0063273154627508975,0.006453344140866687,0.005177795786237111,0.007574363203538163,-0.0008766305458585226
456,0.006055988059408209,0.007603589965248425,0.00463008990468001,0.004664870705167788,-0.0034450723620468708
457,0.005592423356702846,0.008582753653023694,0.006577751949591748,0.0015965653669203852,-0.004631911499799151
458,0.006066616158199141,0.008782663823159634,0.009636776813833963,0.0015264139905206203,-0.004062454874537745
459,0.007389921508284821,0.00816669013768264,0.01107449145172255,0.0036729711540790895,-0.00337609892492687
460,0.007789138222950023,0.006724581524646152,0.009520423344118241,0.0035276558356134194,-0.005865764291458199
461,0.006452917399724052,0.005306650410442025,0.007019943248638525,0.0012763664745579948,-0.00956385276257482
462,0.0039913146950310025,0.005021030993266887,0.004828891830390311,-0.0005595451010166635,-0.010031655984707141
463,0.00200903713338999,0.0060351234338163525,0.002726658501900481,-0.0005638883569721642,-0.006657972760722393
464,0.0017204490927966844,0.0076929502777804745,0.0015976865186751587,0.0024898964019790908,-0.0009361014189130481
465,0.001606120468126491,0.009005884289453016,0.0002726852776353964,0.005410278393066001,0.0046799932121728855
466,0.0006449049491234155,0.00973072138627901,-0.0012422302378481474,0.006437897925848396,0.00759502520211974
467,7.739883570509002e-05,0.010351568742288786,-0.0009001098791024221,0.007848517632026906,0.006468530077616125
468,0.0005578431730947458,0.01121006307709265,-0.0008012845158909599,0.00661735576936346,0.0010035831592520004
469,0.0014143934107155012,0.012668801468784038,-0.0013267793885273057,0.0037435782089913164,-0.0049958311026892036
470,0.0013832992945569953,0.014837569769106475,-0.0024421606727119665,0.00020556709712722687,-0.0070191323988458365
471,0.0004157964346219092,0.017094083074435364,-0.004270531180741282,-0.004127765221772611,-0.003955667467479423
472,-0.00019624518254441145,0.018924263136022062,-0.004269196079251588,-0.00541634297327714,0.0022233404963067694
473,-0.0005265382926928443,0.020034427339178196,-0.0028294371517020547,-0.005310547448921503,0.007261070243511242
474,-0.0014669546565346371,0.02034541950761123,-0.001997344485795574,-0.00670331859419385,0.009518141813035104
475,-0.003136791031688817,0.020095534085635202,-0.003236927487762693,-0.009575572588237973,0.009797711636610392
476,-0.004495468798784754,0.019437890487204883,-0.005352822233353346,-0.011098006494274514,0.008303216202014388
477,-0.004259574747556751,0.018964017058629466,-0.006605243189195982,-0.010987308504063788,0.005610528115464794
478,-0.003955831121595145,0.01834467518709,-0.0072708431684223186,-0.01088247849473871,0.0034034086900620584
479,-0.005387105892216339,0.016714989124122368,-0.00817664913894987,-0.011253034890656021,0.0018352377428782047
480,-0.007141621800381981,0.015035032993116284,-0.008932163396255233,-0.011597474475240975,8.238744734274372e-05
481,-0.00769083000296805,0.014015338624563181,-0.007884845799820054,-0.009263260575760003,-0.0018263377703284956
482,-0.007323987783195706,0.012889499946238787,-0.004437810318170081,-0.003872662189017869,-0.0033084965207657185
483,-0.0063801064378225985,0.011171869253350552,0.00152710256305243,0.0030699804010263262,-0.003101808305528059
484,-0.004754262302117199,0.009461011986832746,0.004449907566360385,0.006575691231246983,-0.003083800849907568
485,-0.0029814129181919106,0.00834157404027576,0.006166697840215,0.008003060632314563,-0.0008717432490535841
486,-0.001497725519369171,0.007194680617175524,0.007848246536431352,0.008967760312319297,0.0018303252183611066
487,0.00014516272074077905,0.005790700861056916,0.007538230480761063,0.008631491665843817,0.0006653154625730175
488,0.0016093445029161978,0.0048147275252992516,0.00799738560548444,0.008949678883267363,-0.0016706045524955335
489,0.0023363723944681745,0.004674959051354599,0.007443376489988552,0.008333468999084881,-0.0038514807362388533
490,0.0027714142947600465,0.0056061946517117186,0.0046955597713783746,0.005777459269149673,-0.0049986030243332116
491,0.0028859543303841346,0.006813943275105265,0.00111897874374908,0.003087113796532848,-0.005173396193299832
492,0.0024514540706885874,0.007313604850107903,-9.174383422428265e-05,0.004058579713841658,-0.00434500560446944
493,0.0017968449084866359,0.007649669405348782,3.308829854098509e-05,0.006806360440562887,-0.002767014073955271
494,0.0014148804764156323,0.00835428554115101,0.0007125399334064824,0.007642166982109493,-0.0007764736560366824
495,0.0012380207728100957,0.00879333126971194,0.002209307600519265,0.005927756042960487,0.0008581264233328229
496,0.00039695932525794406,0.008093804079373417,0.0014248400940718203,0.0012072790126980656,0.000625958415839881
497,-0.001428603383254076,0.006061652369650943,-0.0012442882191807338,-0.0037508371093037413,-0.0005906697669194491
498,-0.0033968202917073038,0.0038055557531692864,-0.004120232557913904,-0.006755980785118196,-0.0016683882100263635
499,-0.0043609514650175514,0.002399577735546905,-0.006907870574862345,-0.008708694212408923,-0.0022537154187316044
500,-0.004082041007843637,0.001289658586796513,-0.006225002273344536,-0.009199054089684942,-0.004992573489260712
501,-0.002940275649150015,0.0004959581869962125,-0.004528399299171321,-0.009380960871409312,-0.008561653363093537
502,-0.00190246074552921,0.0006015483724920521,-0.0039822419911517935,-0.011098923648753862,-0.01086572892428609
503,-0.0016200702231261724,0.0012825578547853355,-0.0028694793558320126,-0.014099637620987291,-0.011584606273949721
504,-0.0011087346595779419,0.0023699241926646098,-0.0011616843597369829,-0.016357857651438445,-0.009265966575369372
505,0.00039045729835931396,0.003671876141740292,0.0021885978151474023,-0.01607654844044413,-0.006691433958154097
506,0.0021592433724531533,0.00470787761153468,0.006009039587967989,-0.014640875861615948,-0.0069669597356987216
507,0.0034366026065756816,0.005609612057241859,0.008248630438704078,-0.014048751800792915,-0.009688690277019737
508,0.0042917812668085194,0.006532961470691065,0.007699831323904191,-0.014851001323280353,-0.012537762806488991
509,0.004250278050400407,0.006190903241046178,0.005567933768556532,-0.016797145555996117,-0.016802110776075442
510,0.0028325058639133054,0.004079826989804848,0.002155125294361461,-0.020887795784124277,-0.023724641844555607
511,0.0009541686101606895,0.0019274950716081987,-0.002018853596673895,-0.02746561968277441,-0.03066913984511055
512,-0.0005235024697901048,0.00024388313199995317,-0.005316757517298369,-0.037658661065110365,-0.0401628808460754
513,-0.0012641788042987818,-0.0016049874335455087,-0.005623770285403261,-0.04294387910671363,-0.04642401494455057
514,-0.0006769332118145476,-0.0024784607842926847,-0.004815107891091121,-0.046502330550806985,-0.052828491813440126
515,0.0010736498470363645,-0.0011976620832067069,-0.0038439671321766978,-0.04950146756627371,-0.057689123854069824
516,0.0029580358347222955,0.0011983548952250336,-0.0020827389533020547,-0.045650607935369285,-0.05028595394489731
517,0.004078483582533791,0.0025877717920887162,-0.0001980384924549846,-0.03980076331182488,-0.03883116708088871
518,0.0039943114464372565,0.002478217613327034,0.0010174577553449006,-0.035857016725011924,-0.029815517320069644
519,0.0025750353044905034,0.0018622428759410023,0.0015886208305367256,-0.03127668187418244,-0.01963487534863222
520,-0.000233668964020472,0.0006517173155735572,0.0006280836096243768,-0.02931217505025542,-0.0139868208072999
521,-0.0032922215771756403,-0.0013151251352730951,-0.000651621114173307,-0.026620497756257466,-0.010906824231274807
522,-0.004832136167264875,-0.002854790619500133,-0.0008925363604919852,-0.02029245863148098,-0.00667067425630951
523,-0.004451307150304298,-0.0029910202973696238,-8.09998699036989e-05,-0.012195838028418766,-0.0014640091067109997
524,-0.0027656190635074566,-0.0020263508930037336,0.0013665889323247276,-0.006347918069236311,0.0009809441108297495
525,-0.000945215210770203,-0.0007820796295860672,0.0028380705055730433,-0.0015595239524097645,0.00492426346687048
526,-0.000525863746293408,-0.00012368384104383782,0.0029127347639734753,0.002110207030852198,0.012073009604831845
527,-0.0012145541198663207,-0.0001921801956125849,0.0017635336491183854,0.003957102253009643,0.018877888922583127
528,-0.0008799528827212599,0.00021149768611985011,0.0014984563740727264,0.008172800381288616,0.027236881625767467
529,0.0005215708057625555,0.0013087532935282056,0.0017865087567199255,0.013695089864834892,0.03473840966110715
530,0.0006504199436172716,0.0013959494644103562,0.00039068028395373836,0.017352970382910626,0.03893813573389742
531,-0.0010790442271734549,7.8084229313475e-05,-0.003260412084381048,0.019385498468244434,0.04206549465558369
532,-0.0032512847237854063,-0.0012095033394225237,-0.005311607084403094,0.0175839642055923,0.03943938357861534
533,-0.005112079708173651,-0.0015809441624839223,-0.005711074792892617,0.014596742639280912,0.035592410568999824
534,-0.00653195302169137,-0.000687341358230196,-0.004532873725477039,0.013001300200051842,0.03400772410667946
535,-0.0071191474072332325,0.0014193219745592053,2.6533309811697298e-05,0.01246248528723196,0.03211244643409438
536,-0.006334000117847855,0.004086120537132311,0.006668044450535179,0.014232723755340203,0.0317204983860389
537,-0.0053157700978860205,0.005896237204637143,0.013302247938368811,0.016099177028689595,0.029033987348860448
538,-0.005827485827191942,0.0054746243406158055,0.01749006575688663,0.016046009446598213,0.02140530839846125
539,-0.006744057811383574,0.003912366435837921,0.02010783658587743,0.01633673173162006,0.012754442821187578
540,-0.006805170323207077,0.0032028174430827317,0.022044292464910083,0.01961236750738126,0.009505374871632423
541,-0.006880160114798743,0.003177823314903794,0.023455753947998995,0.02295924782116145,0.008995595490019095
542,-0.007172952061180567,0.0028727391489203296,0.02472309075253831,0.024875562298150085,0.0091205217984565
543,-0.007488829060857332,0.0024312897917955064,0.02571260103922953,0.026031219722466907,0.01036197014329642
544,-0.008080821250941995,0.002999764143609886,0.027109234347436405,0.025419573128807667,0.008837287643079943
545,-0.008218142137728313,0.004715838958576606,0.02954527625442972,0.02494752136790756,0.004453394681711316
546,-0.007374814643613068,0.005397899248565556,0.03300238128861708,0.02632586114226368,-0.0032145479918653927
547,-0.006567419127687669,0.003748772572405942,0.036404641909943004,0.027979754843732055,-0.014242108244185371
548,-0.006728825821897763,0.0013866925791426908,0.034506321807000806,0.02563860745515066,-0.01949558185525855
549,-0.0077932141733617465,-0.0003521042679116769,0.03000976694953485,0.021329024757129417,-0.01945080219960514
550,-0.00868224456650754,-0.0018303075978209485,0.026230772813447715,0.017868275539230507,-0.017408366457914076
551,-0.008243356969164594,-0.002712966441094975,0.023432048474742746,0.015196036845295618,-0.01256277292738122
552,-0.007044002522185119,-0.002354867470912954,0.022883573546627373,0.01398670650916034,-0.00809032723305683
553,-0.005942635219215617,-0.001459200296419557,0.02111252377280892,0.01293006986298904,-0.004550670629642419
554,-0.00419865933083098,-0.00024721622703378514,0.0173980235567588,0.012197153380529005,-0.0009333084131140649
555,-0.0009910145413857823,0.0016984494479998244,0.013837471145943152,0.012467411341285704,0.003180117134135838
556,0.002573885246182765,0.0030033402972948833,0.011844199769001066,0.013271866218548098,0.004450558359490087
557,0.004702701985307254,0.00221065577692278,0.009018601869628641,0.012218849532989611,0.0036109521987515033
558,0.005417514076588786,0.0002496561866736775,0.00527239333864494,0.009460827723153917,0.002546983557103834
559,0.0059569229835590674,-0.001409621055254359,0.002598908635345148,0.007013066941586813,0.0008013173519518116
560,0.00672530944533347,-0.002467719205099154,-0.0003300623482865455,0.004199934159338361,-2.024379749345994e-06
561,0.007454770216265981,-0.0030866774000736868,-0.0031186584921869703,0.0009113360264956,-0.00012272328621597525
562,0.00775472318238424,-0.003550680228527579,-0.00507984206747749,-0.002934675880210669,0.0006565708524944943
563,0.00681176025656036,-0.00482541012691964,-0.007742511392530615,-0.00846577802859987,0.0024600057272530272
564,0.004771429262219866,-0.007585007316861836,-0.007621146838686005,-0.009755363031368357,0.0020296190529523975
565,0.0025791237580585916,-0.010482062104002625,-0.0072485065434513465,-0.009090913238912474,-0.00029311691002193937
566,0.0005504773912070879,-0.011398558629531156,-0.008563219755696464,-0.009545380796163069,-0.0017093001958558354
567,-0.0012783596287134422,-0.010192304281363654,-0.009485138654330656,-0.009486634383504325,-0.0012074405229514859
568,-0.0027021845180638282,-0.008431282037344043,-0.010985187959714798,-0.01018218647759186,0.0006949867834538725
569,-0.0032898748969894583,-0.007257809289738674,-0.010387615405923924,-0.008510863590433865,0.0017771916276858586
570,-0.00273854014719769,-0.00656391363876848,-0.005638199671979444,-0.003235656093088611,0.0013252976582633468
571,-0.0011282975078165875,-0.005836645499546525,0.0014091887420144295,0.0025515325113917037,0.00040331959522712905
572,0.0008998940327674598,-0.0052549611926789,0.005342029811877778,0.003817382144183647,8.986577164332428e-05
573,0.002431621082456703,-0.0053201136110707335,0.005807936819784704,0.0023575612654094533,-0.00012987870184876107
574,0.0031889716683881444,-0.005879115564500982,0.004666007202951216,0.0012890001523494466,-0.00046297357858439566
575,0.0032540077530626354,-0.0065674015906547235,0.0028543772584821692,0.0016316712961486656,-0.0006078120095772631
576,0.0023523362052852463,-0.007099748214913016,0.002900735036575677,0.005246500895333612,-0.00014459986509381524
577,0.0005316295954134444,-0.007348626584567898,0.0023334999021191335,0.00743679280455092,-0.00035061216421314534
578,-0.0018640168112613296,-0.008201189437013187,0.000677285402779428,0.006488522605058612,-0.0011934425020386585
579,-0.004325568768105357,-0.010080836559749786,-0.0002903132584323127,0.004571475607876834,-0.0019387554135061643
580,-0.005226900686417824,-0.011650776048285379,-5.288419208307672e-05,0.004192679645441095,-0.0028346017231400634
581,-0.0041524247967119265,-0.011968710329005958,0.0020358116437120223,0.006383440551071424,-0.0033705969219376165
582,-0.0035890615117318606,-0.01149513906415471,0.0036269763347494335,0.008399037032062401,-0.003744610313599023
583,-0.004876524306108312,-0.010837159598530247,0.0022855546887049893,0.007896330416079043,-0.004128503158787442
584,-0.006122654250268253,-0.009923930762896641,-6.458874862205768e-05,0.006653332913635819,-0.0026665676330094455
585,-0.005509794895597865,-0.008596392382117632,-0.0018761922113599994,0.006957846434065647,0.00014257691086327947
586,-0.003570353489828706,-0.007430680159947673,-0.0028064888635213115,0.009479880005156382,0.002816513602741253
587,-0.002413369010997087,-0.007010709663145285,-0.003315473302281817,0.012933159033631403,0.004511876878473833
588,-0.002987327181022763,-0.0066983872137021845,-0.003465101593496557,0.016066067409715338,0.005801237840745832
589,-0.0035062185625817847,-0.005159347536070101,-0.0033293001662894482,0.018946820609401817,0.006856288251968927
590,-0.0025774729703457433,-0.00256673567184375,-0.002688780698408808,0.022233822585462585,0.0071123271028924
591,-0.0011102178896166333,-0.0004442000219700703,-0.0022167373602713504,0.025144443298400865,0.005822030409743983
592,0.0005355435511197219,0.0005012091368087865,-0.00272587569281576,0.027235240022571446,0.0018730452796667533
593,0.0026122552101039685,0.0005751448702198702,-0.002757914189976376,0.030152026891483347,-0.003577853916523361
594,0.003849311287418502,0.0004276813730861121,-0.0012498595898385429,0.033959863520521,-0.006894279261953477
595,0.004060540381944018,0.0007770647759942044,0.0021479750242328864,0.038208625765196416,-0.006864509982063887
596,0.0044080461207091776,0.0014236654739158041,0.0054014631814554084,0.03950316014309039,-0.003653012439548868
597,0.004600602153228255,0.00156564921418723,0.005709720741536708,0.03901607593242001,-0.0008644698786007546
598,0.0040098541313830765,0.0012926301460156845,0.003134605711818861,0.03788288267577766,0.0010729587040714968
599,0.0030932532449036753,0.0011624205660583724,0.0005484990157457446,0.035347494450320184,0.00407940830743398
600,0.0026968404349849845,0.0015131036777474324,1.2974828106910828e-05,0.033477910127082476,0.007013295693421195
601,0.002461098749157929,0.002030504104413345,-0.0004736155902539468,0.030699402556989212,0.010905802547746455
602,0.0015821004639167608,0.0019797891869883684,-0.0024844874155116794,0.025894140424630858,0.016602890674375023
603,0.0006398845688487578,0.0013327539353706261,-0.004235466201877078,0.021640604394618387,0.023495666021407253
604,0.0006503897103935201,0.0006375124691250084,-0.0036868385326192838,0.021256100051874973,0.030436480983339467
605,0.0019321115688257868,0.0005249832001488316,-0.0010391044389367055,0.023595800898664778,0.037627976658710705
606,0.0038507081310150135,0.0008894655966008987,0.002322687798277669,0.02622906430620183,0.04306345673842303
607,0.005177190892559317,0.001123434752926306,0.004818909956825125,0.027790387154752953,0.04464258033225413
608,0.005159289942012119,0.0010109167604072271,0.005177191425216391,0.026544704080243866,0.04412917340757885
609,0.003964358264379126,0.00024859006635002896,0.003663478637192795,0.022897206155007156,0.04273603228321526
610,0.0027159594466579676,-0.00092113019435822,0.001523479353271777,0.01856290252857292,0.04177604129479915
611,0.002766751547237341,-0.0014199266313198319,-0.0003814664820819884,0.015052615465234061,0.04218839306173158
612,0.0037350320984092813,-0.0012549006021557094,-0.0002480470403541805,0.014213098528157251,0.038869934983363205
613,0.004133970371092284,-0.0013020425661386214,0.000574943716087017,0.013441692159837197,0.03459176024396715
614,0.0038832928557811465,-0.0013583634397464335,0.002002267379993745,0.012015987724578518,0.03257254620320706
615,0.003949473304745511,-0.0007930407655201113,0.005046719005458544,0.011873516863085208,0.03061715391051355
616,0.003740192752247083,-0.0006048288193190884,0.00727476312449873,0.011418745228066383,0.028348314666629945
617,0.0022462052518942384,-0.0019219494579373391,0.008301035797516966,0.010334573917948857,0.023869637073687312
618,0.001341199324133245,-0.003261972797143104,0.010521786940480445,0.010839505628888572,0.019272269403814823
619,0.0024808161268986685,-0.0031341557988456377,0.014732840922613623,0.013838476852763619,0.01741099632867215
620,0.004078291870330071,-0.0021172354205970263,0.018521506122025678,0.017169399689531812,0.01865863186190154
621,0.005295191686458852,-0.0009971550349464331,0.022265741662007472,0.020614355993137438,0.02006804452595207
622,0.0061598121601337645,-0.00019032819854321537,0.026252055492513016,0.02384741938924196,0.02070329604819122
623,0.005177819479508976,-0.0007073674688146966,0.027547488765473947,0.024255834391144548,0.020812802684994035
624,0.002108155787899749,-0.0027351945911900104,0.026092304270133586,0.022455753616407795,0.018146460578630532
625,-0.0004386801149728444,-0.004227615069743908,0.024959366489423714,0.02182942543357307,0.014526593857082847
626,-0.00048362317690479694,-0.0035342529696171824,0.026745024103021854,0.02439921364908236,0.012747109936874957
627,0.0006898083532278353,-0.0011002030322909359,0.031030845861631278,0.02885383876079939,0.013142999440185191
628,0.0011097817698569527,0.001555700678329812,0.032258493099868765,0.030607347494006624,0.01603894463726043
629,0.0007236791436869863,0.0029910577946968514,0.03239981177604656,0.03156851543687576,0.01749190754101138
630,-0.00020060329792262138,0.0026436462989634715,0.03294817151921461,0.033538491629267767,0.015545449213684882
631,-0.00140077513873258,0.000965263297750448,0.03153985242048404,0.03463411204173639,0.011827008141777704
632,-0.002310815076515929,-0.00041059506299089915,0.02981309981667491,0.034162204078968396,0.008113056052171377
633,-0.0027701629360827457,4.4691297114637604e-05,0.027454040707093102,0.030409868998187393,0.007555453052242294
634,-0.0027442620704924395,0.001430216328898927,0.02425647887906911,0.02405139576334138,0.009743976398271426
635,-0.002153430177359306,0.0017009727754664552,0.021275665651614657,0.01746588859324626,0.011362076914947792
636,-0.0011071597447812548,0.0002689587070703014,0.020338871965775916,0.01320787637856672,0.010261189935145635
637,0.0001081511334086193,-0.001801820557329524,0.019950698516075588,0.010377024979159951,0.008741648013353535
638,0.0009745606226700757,-0.0030886516748093295,0.018916193582319277,0.007879842482887832,0.009295326714862513
639,0.0011878544071912416,-0.0031120542162778623,0.017719259958515688,0.00601994718313549,0.011892324929576295
640,0.00028708180896084076,-0.0029450134193225214,0.015069098814227777,0.0036612282010803003,0.015078400061724097
641,-0.0018285098925981927,-0.003494649670815555,0.01212722982050845,0.001359871496975646,0.016019795029757117
642,-0.003954785089941784,-0.004396953367785687,0.010348983451893836,3.708292259491424e-05,0.014469322852205126
643,-0.004943843599978084,-0.005324459717228326,0.009512932059182721,-0.0004506027527893367,0.01202395988132753
644,-0.0037933438129370152,-0.005597700375653734,0.011050293346004537,0.002018725230073985,0.009582378714168937
645,-0.000967335248061717,-0.004740479621066295,0.013249860255587532,0.006062378559973373,0.007591346821094078
646,0.0009022460307387372,-0.0033803660755577615,0.0133479483547901,0.008174032639702216,0.007107199620337634
647,0.00021055662693016382,-0.002243240462350006,0.010809403513905039,0.0070938941464498495,0.008411121832150594
648,-0.002445844486493741,-0.001960634126857791,0.005864544440977233,0.0030658612133731018,0.01001578518998753
649,-0.0056539269753988165,-0.002941488420795773,0.0011035826679726495,-0.0009943593352550039,0.010937878296795382
650,-0.007920823420986082,-0.00457794935293043,-0.0011061093029747888,-0.0023817757982735497,0.011472188102048598
651,-0.008124127976406593,-0.005841098085332066,-0.00017286593970239537,-0.00013303378579515639,0.011615537345903308
652,-0.006532318340110541,-0.006288232467883638,0.001965128502193181,0.004055788461127174,0.01063954247147242
653,-0.004672070345921697,-0.005864932294457997,0.003679212116323363,0.007533854870445435,0.008429828777300665
654,-0.00391926818985328,-0.005163278032434475,0.0040662996529606315,0.00820084514996449,0.005219073239954646
655,-0.00465479194924865,-0.005194876102201689,0.003114002298486807,0.005873403903816646,0.0017798305176616146
656,-0.005860816721609761,-0.005659207972963655,0.00298783638746754,0.0033990287807594993,0.0005697150222401162
657,-0.0063388512366319245,-0.005549759108302035,0.0045606628026750445,0.0028674368360156817,0.002790810879673511
658,-0.006654700978927471,-0.005286077109398089,0.006242920938111095,0.0035246540241930715,0.006059944609925703
659,-0.0071531373558535475,-0.005199356923608307,0.006730604070615453,0.004962627428829661,0.007894422592737167
660,-0.0071517583820670015,-0.005009942336995703,0.006224458439022762,0.007497483342633211,0.0073407824896506435
661,-0.006717144696198109,-0.004902393996957564,0.0053272087974425815,0.009035165008079408,0.004711827796783147
662,-0.005444035364909041,-0.004260991541207827,0.005026164793329361,0.0076604788073932,0.00234297632912217
663,-0.0020625231466989196,-0.0020760608472752515,0.006220587798469332,0.0049820876880769804,0.0026498566070972526
664,0.0029820223699820792,0.0007820152300653793,0.008166217716994216,0.00307356455888031,0.0048578568782610305
665,0.00688643276033255,0.0023939434673720065,0.009048059727029295,0.001927980869907941,0.006034524132139095
666,0.007834977177190837,0.002707967974882,0.00843541226684024,0.0016034645615088593,0.005285606296464042
667,0.006371786653524073,0.0026677133231958632,0.006627035091980343,0.0018579555170692408,0.0032751528916767983
668,0.003039250205213957,0.0019290345046346737,0.0030196587825302083,0.0006298626054129196,0.0003325916548615501
669,-0.0013832515565240045,0.00019948627159315903,-0.001883372983841636,-0.0028327520122757147,-0.0028118544504065115
670,-0.004446625694422126,-0.001259822703062711,-0.005560377820643929,-0.005950995997297601,-0.005483405863714524
671,-0.005192473403312019,-0.0015075697592662164,-0.006516074019843034,-0.0068350496040683485,-0.007707463349524819
672,-0.004968574596736666,-0.00067939299020924,-0.005407871882265208,-0.006256502813267727,-0.00871300242046903
673,-0.003934239572484918,0.0012379561598760758,-0.0029386709998230486,-0.0048097672327205,-0.006973730342885292
674,-0.001829786453221926,0.003944011236470469,0.0002835808329514837,-0.0028951492271994143,-0.002666508579842934
675,0.0004198216597447776,0.006348417475523028,0.0029594476835437737,-0.0012065971998855404,0.0013499454626973396
676,0.0012865311134772355,0.007189758227353162,0.0033023510829408714,-0.0006368877984554656,0.001662247626929392
677,5.140397339295841e-05,0.006598137053343816,0.000995306694233144,-0.001913052010485406,-0.0016426577412093951
678,-0.0021462849035317768,0.006216619861983936,-0.0018828399969820955,-0.004386659317156817,-0.0049606119804752906
679,-0.0043805577353487925,0.006365672456826174,-0.004064671631693541,-0.00713492706771711,-0.006179945450445962
680,-0.0063809199540532675,0.006228827142959138,-0.0056192432550317625,-0.0092801906076542,-0.006341921371857412
681,-0.0073017501379663416,0.005980653296497155,-0.0057514900072456465,-0.010193825204550219,-0.006736730010131295
682,-0.007122595075941713,0.005505572755267443,-0.004123884684649558,-0.010552335231025629,-0.008057105977010169
683,-0.007019108914459657,0.003802128624424003,-0.0026210798144776083,-0.011016976183526168,-0.01106744825344108
684,-0.007314261772753536,0.0012198480604580946,-0.0032414622639435806,-0.010904461615747433,-0.015112064678232826
685,-0.006941897475498132,0.00010233348997836012,-0.00543043211985201,-0.009370807659853852,-0.01741519647609483
686,-0.005872485668655915,0.0014245957366969808,-0.007450244551125443,-0.006967067806657696,-0.016742304748534463
687,-0.005107764853385362,0.003271441155371448,-0.008649115794591909,-0.004438496987086711,-0.015382253463328773
688,-0.004798895927829871,0.0038700104395610686,-0.009790880147089533,-0.0023406825262998554,-0.015470248478886305
689,-0.005266295332303692,0.002932689138915333,-0.012354125257382118,-0.002271217084907113,-0.0176494389919836
690,-0.006121902872496765,0.0016232030362273466,-0.015407229681679119,-0.004216385324366735,-0.02072518964070005
691,-0.005819731965637591,0.0015780069713723739,-0.01599964712022851,-0.005845088915204087,-0.021359661645313856
692,-0.004725490687065186,0.002359697581649975,-0.014413677430913414,-0.006586996915019113,-0.018647291184272538
693,-0.003926510777474871,0.002561339988470073,-0.012880249225366076,-0.00650907970557806,-0.014628377935410091
694,-0.0029648300338348775,0.0021749784989216455,-0.011521832748190353,-0.0038926162710518895,-0.010477745705601805
695,-0.0013344386649794579,0.001773995456384788,-0.009380648288052917,0.0016448125299961262,-0.006903713961185579
696,0.0009337801935416224,0.001706452479785829,-0.0061624386520330475,0.007325465722719114,-0.005181854386857634
697,0.003358725352143933,0.0021054195302834134,-0.002878963522085081,0.009833168814251232,-0.005905323480118085
698,0.005574508937490205,0.003005161827088779,-0.0007992034594475643,0.008690814132806146,-0.008193199782707267
699,0.007081169131893326,0.00424812028090133,-0.0009674256176719825,0.004991228928497707,-0.010725608275729324
700,0.006556166704527091,0.004541623520563318,-0.0039992646109717304,-0.0005670812600189802,-0.01331357691684157
701,0.00439555430123033,0.0029847868312496135,-0.007877327614543812,-0.005488899391490312,-0.01617965909890663
702,0.002901669606686172,0.0006638620795427112,-0.009706876184386513,-0.007076524166237582,-0.018782196871164725
703,0.0028357009435581843,-0.0015150408953577526,-0.009808447873898526,-0.006526150199401492,-0.02099179683248021
704,0.0033519871198633678,-0.00337127449820744,-0.009776957636190364,-0.005997655720906932,-0.022960986527865195
705,0.004125211738826299,-0.004204011645121916,-0.00908605380704947,-0.004772422737584845,-0.023905397714008167
706,0.0049680156522902705,-0.0034094272374361337,-0.0070612679367811175,-0.0020296962122090534,-0.023162682451525456
707,0.005111520002199489,-0.0015302216935990495,-0.004446551048593133,0.0008139745197503624,-0.021340819866185454
708,0.004261331000217947,-0.0002885826223516334,-0.0019693951918886834,0.0024757097407018275,-0.020167167382531315
709,0.003691448139136557,-0.00019366493059519243,0.0007556554662366242,0.0036059867446937496,-0.019762699336581296
710,0.004396629633553679,-0.00030144737567738226,0.0037687495331418875,0.004611334317665533,-0.017638466851236573
711,0.00458768463843992,-0.001008229417355664,0.004789036048290617,0.0038744016055385832,-0.013581084159777266
712,0.0022864694911407524,-0.0028045068999552297,0.0021270666369048816,0.0002421349181049082,-0.009901943654664246
713,-0.0018146285554134908,-0.0045711099650475,-0.0025538973168946775,-0.004600076835942705,-0.0073805969856613005
714,-0.005001257536010129,-0.0044665967980942805,-0.005865510101271017,-0.007041785333663549,-0.00567794190425095
715,-0.0053911541134331635,-0.0023126013597341874,-0.00613372805121182,-0.005695988225991505,-0.005070454789845184
716,-0.003980721038035108,-0.000630282196359785,-0.004772280774345354,-0.0032059216062594775,-0.006454316521375071
717,-0.0024875498659016754,-0.0008856549087348828,-0.0033920917477443836,-0.0020104952723026407,-0.009541901534647467
718,-0.001310524956512751,-0.0017217802033998304,-0.0024469141045533626,-0.001980549822570618,-0.012236566771423488
719,-0.000110415788332038,-0.0018717304260622268,-0.002612447071526653,-0.0019212151490836473,-0.01378318299909106
720,0.0007019954100969021,-0.0014077447647577344,-0.004552892048647978,-0.0017015768283385805,-0.014574597128100813
721,0.00028581964485865284,-0.0002332667187087288,-0.007919266284865042,-0.003004085320139072,-0.013391706419663953
722,-0.0017128657969974653,0.0010857630770647207,-0.01187984475094492,-0.006897102064874309,-0.011075295055308786
723,-0.004792898946772443,0.0012548729391435155,-0.015034140275229443,-0.01156289560031105,-0.010356454960261172
724,-0.007683887826026624,0.0004962158675071346,-0.01601264454715325,-0.014769123186165758,-0.010671858776868635
725,-0.009532330073813391,-1.3500492741060256e-05,-0.015208147003657727,-0.016681110483493102,-0.009665930553540179
726,-0.010032242814034522,0.0005901859916222981,-0.013569174535052957,-0.017848829561967598,-0.006673663412711542
727,-0.009705275616800405,0.0020890483583705815,-0.011986407955752003,-0.018350290543796385,-0.003528087394643251
728,-0.009487874295144175,0.0034759826689258378,-0.011384729313626262,-0.018696942211476098,-0.002287560180316485
729,-0.009206838100123557,0.004419211373448692,-0.011044355409247414,-0.01819105274815496,-0.0024239524287511523
730,-0.007931572463188678,0.00553719678489489,-0.008931849715824476,-0.014706631934448865,-0.0013290474376588324
731,-0.005806235661367719,0.007052955484381946,-0.005080125545157212,-0.008852743175679327,0.0015737868078539094
732,-0.005029135101011408,0.00714166168915735,-0.0029080280240471627,-0.005457183454673163,0.0027712441318397535
733,-0.00653126943271794,0.0045721225476536426,-0.0042824418374119684,-0.006920984563564998,0.0003607503546961681
734,-0.008212210813243467,0.0010983068864170156,-0.006835719578603446,-0.010226160109927846,-0.0037654104090328253
735,-0.008695459230013653,-0.001171674764124299,-0.008125653354316194,-0.012636464931809217,-0.007033541106321272
736,-0.008129593888685826,-0.0012323835894562588,-0.007550760147288346,-0.013681821703929948,-0.007045004618864394
737,-0.00635313910198434,0.0009255304813943957,-0.005258315409682972,-0.01286568453408343,-0.003920159301201757
738,-0.004020617569159439,0.0036693710937412767,-0.0025436813645581275,-0.010293256202977337,-1.942658440338919e-05
739,-0.0025589040620120343,0.0050200169754470655,-0.0009866389615640536,-0.007085607731929719,0.0036244644837628353
740,-0.0022135533331680765,0.004739717754170193,-0.0011794862235762465,-0.004674872812418355,0.0068450264655961785
741,-0.002262799361159397,0.004055496130820829,-0.0029169391094473903,-0.004148340512500427,0.008667580648649694
742,-0.002366847291350879,0.004110331110851949,-0.005514584228703945,-0.00488069559692712,0.008659007607488682
743,-0.0035676657424125687,0.004702275529298535,-0.00873914168629746,-0.006215979115137373,0.007044872198126172
744,-0.006459345577578641,0.005159139778753009,-0.012355760702997966,-0.00903720645018085,0.003995212769483879
745,-0.009482846933890775,0.005647303173604723,-0.015075173180585077,-0.013493841065314068,0.0008582455564004953
746,-0.011027303990606512,0.006233695167531582,-0.015702114319467192,-0.017947846148411054,-0.0010507395315262076
747,-0.010955146304907173,0.006777842030015266,-0.014584277189413486,-0.020847780394034406,-0.0016398093897260918
748,-0.00958662076746214,0.008277259630023197,-0.012358863952334515,-0.021482507584140602,-0.0004528645662389013
749,-0.007222096698322123,0.011467500053507981,-0.008857115237907989,-0.019543798612560514,0.002209870954095084
750,-0.004940674025528208,0.014261935137042419,-0.005044369035830831,-0.016258648372332533,0.003813217541097065
751,-0.004277471633314214,0.014105768805875543,-0.0035092925920556664,-0.014242730285896026,0.0027793692378934734
752,-0.005505014976552269,0.011890892496006616,-0.005486262528550033,-0.014332331204136389,0.00041484347935961404
753,-0.007299716430499497,0.010217542233500285,-0.009148287349965993,-0.014685488217416894,-0.0015916058243838072
754,-0.008899356214638072,0.009753537968370857,-0.012163279526221668,-0.013832364385331555,-0.002647463568547632
755,-0.01026436185348309,0.01004461244711129,-0.013848279344901975,-0.011779648298541721,-0.0018853544170003846
756,-0.010473053701108768,0.011190431426693506,-0.014343603918396761,-0.009392212699863406,0.0009988977365680063
757,-0.008889359539220335,0.012820410790220935,-0.01385622035026251,-0.008215341302873557,0.004239105212650293
758,-0.006572158488913298,0.013969104656673257,-0.01295898561428074,-0.009204462076430338,0.006358451632112933
759,-0.00470052955763558,0.014169430936097087,-0.012605487643989914,-0.01190099195867564,0.00691972685407687
760,-0.002804677169828486,0.013759466682384694,-0.012730930603348527,-0.0146862722015125,0.006367639168140597
761,-0.0010449944630731775,0.012652372139464218,-0.012877026255898871,-0.01694523420537944,0.005197045753175971
762,-0.0010738243050960213,0.010158330248527357,-0.013729493912724702,-0.01952631873718739,0.0022932818379674943
763,-0.0024102731213502832,0.007166829622712896,-0.015140436525079393,-0.022023785387943556,-0.0022220444869630878
764,-0.0030709064448096943,0.004921975130268542,-0.015961647911976413,-0.023214067932570605,-0.0066558092281922025
765,-0.0027453711635090665,0.002917982581682006,-0.016233031284992764,-0.022805666117642464,-0.01099889244176203
766,-0.0020493444038090602,0.0011463676264395724,-0.016318087891106833,-0.021161496050121367,-0.015108246864885735
767,-0.0014177155444477245,0.0010020350899993258,-0.015829117209133155,-0.019154129141623132,-0.016825387396457742
768,-0.0007117298806364019,0.0030265687767364853,-0.014186211658750548,-0.017409939088739855,-0.015342027807509028
769,0.0009519450383166935,0.006136277776385613,-0.011184354747248272,-0.015297472284116716,-0.013026091380179187
770,0.003050441504607218,0.009262407048704074,-0.008088801934997896,-0.012910902267399944,-0.011605709785003804
771,0.0029109306020275506,0.01139605460361142,-0.00749822976660079,-0.012548637491553114,-0.011349428241751334
772,-0.0001830530192222338,0.011046933592370821,-0.009608857131807957,-0.014674234921383617,-0.01344609231991151
773,-0.0036685174265895,0.008286295548351443,-0.011914631106890486,-0.016601185362341064,-0.017264898781280947
774,-0.00545473312734708,0.004840752989059317,-0.013434799772411968,-0.016797691291353094,-0.019665147710872147
775,-0.004878336269116496,0.002309540581377025,-0.01451510417875918,-0.0158194050417547,-0.01941112595355858
776,-0.0022829128683461725,0.0013232930446516354,-0.015084956459416,-0.014879207901326633,-0.017589446724002866
777,0.0006669746982908442,0.001741997622878236,-0.015207549722589881,-0.015172250840157801,-0.01421929899373195
778,0.0026167427178982704,0.003087394841466825,-0.015308291919530724,-0.016740988941876735,-0.009746765732348261
779,0.0037223098319780707,0.004518654406076896,-0.01534459975434532,-0.01794478109023249,-0.0064593822864503206
780,0.004298588372756032,0.0052730363568102975,-0.015289283038433733,-0.01751802438337123,-0.005460551985444982
781,0.004246515154993955,0.005130266963886214,-0.01569190495880552,-0.015885582077927313,-0.0063446053612786
782,0.004395774735967618,0.004589973520539804,-0.015885685303281313,-0.013418900694538298,-0.008180403907067067
783,0.00525460828692113,0.004222871022631093,-0.015271294169191704,-0.010432907782384456,-0.009720668324207676
784,0.00575282194707296,0.0039208873104001115,-0.014987799260309015,-0.007832898335010094,-0.010207916667387594
785,0.005382582167421672,0.0033662430099286643,-0.015337535683493353,-0.006406791100950931,-0.009748828539823133
786,0.00478727327699546,0.00231817059825817,-0.015782942244427552,-0.006821140194860034,-0.009433672772199836
787,0.005284880579877623,0.001427697012669591,-0.015592937497145555,-0.008394039840073314,-0.009306325021434102
788,0.007737716786989362,0.002226234948253639,-0.013111780298735543,-0.009000752520863204,-0.00698663864871359
789,0.009873239796989522,0.0038143791307321913,-0.00907580845060912,-0.009021477342882122,-0.0029426883512928843
790,0.008894672804918251,0.0032365762204706965,-0.006689759185024001,-0.010385799567503183,-0.0018101143121758783
791,0.006012906095023611,0.0006747363076109534,-0.00706326386793475,-0.012652258897393385,-0.005087981362019455
792,0.003862173751153168,-0.0012526572081187864,-0.00920533875881801,-0.014825081354223495,-0.009572502087730384
793,0.0030532250802059544,-0.0021853455872750576,-0.011791793577599307,-0.016516347848620883,-0.012628087439993297
794,0.0028829903159009215,-0.0030890416665279954,-0.013788352895149665,-0.017481977608625028,-0.014118334189814768
795,0.002867645141731219,-0.0034341576758845616,-0.014718946416820828,-0.01753368001226247,-0.014217684627548287
796,0.0032167190713961766,-0.002561433039227056,-0.01463539303417284,-0.015641444610434495,-0.01288032309503254
797,0.004117328645599523,-0.0014549651023655365,-0.014239791045293436,-0.010168492392187268,-0.01148290979203318
798,0.005240366218790573,-0.0012625105532233511,-0.014021091788354857,-0.0017639893129589286,-0.0114101895581754
799,0.006642660027352874,-0.0017009116948945636,-0.013375372336149044,0.005274438324686764,-0.011817222091939337
800,0.008930290913633482,-0.002007865972620368,-0.011784400929715194,0.007277695459923287,-0.011992375490568242
801,0.011595163824849687,-0.0017951459727103812,-0.010292468711039058,0.004001379727691602,-0.012566638362726352
802,0.012428755616522675,-0.0011726199225642183,-0.010736292123137803,-0.0031792842068391245,-0.013327350323196359
803,0.009677307711833165,-0.0010808006702478152,-0.014019271246495655,-0.012437334100033061,-0.013964643060644568
804,0.004805299062065784,-0.0019765937660465066,-0.018738046976380728,-0.020920419428974064,-0.014736744582676303
805,0.0007770477566097371,-0.0032534611478134343,-0.022423032003981404,-0.025983999140293645,-0.01587868716385735
806,-0.0013708907774731222,-0.004092267198611385,-0.023640331360032914,-0.02727150324047116,-0.016839993735383186
807,-0.002430336932898458,-0.004109525589959529,-0.02268050668001275,-0.026378768890476703,-0.016156857581018067
808,-0.0031177279002929056,-0.0031715617763190904,-0.020873134894945557,-0.024291561289933296,-0.013549784380296075
809,-0.002956499469372655,-0.0008870194897032764,-0.018652494083295706,-0.020873916230686594,-0.010495879680074226
810,-0.0012192906740031457,0.0023231830942599912,-0.015981942952364762,-0.016925986732584206,-0.008371730207451482
811,0.0018551082891142122,0.004950507315286085,-0.013357856769938994,-0.013490632408686606,-0.007015105601098202
812,0.004494755349170938,0.005330953980476121,-0.012420337484517867,-0.011691065726337291,-0.007052161224523051
813,0.004706325103354263,0.002993230907777747,-0.014699581826582086,-0.012635838478320383,-0.010096046424371239
814,0.003226679018567118,-0.00018195134122540838,-0.018343273384581475,-0.014687896657863839,-0.014763043688957188
815,0.001973336196831169,-0.00211987010536121,-0.020521827460552276,-0.015551117417686807,-0.017659292802835406
816,0.0009513003145314166,-0.0031606726522981276,-0.02096832116642286,-0.01568296928156376,-0.01771161869532764
817,-0.000197370315814164,-0.004306814286907646,-0.020207336746449683,-0.01583008173788174,-0.015864815276139543
818,-0.000623485775602235,-0.005262205001655862,-0.01830244633426669,-0.015113123788873766,-0.01325209762172884
819,0.0005572953165914517,-0.005146360663273694,-0.015731973683899416,-0.012914090032788964,-0.011014162756800347
820,0.0025117470139027474,-0.0038157334444029367,-0.01357435343770439,-0.0102996633066867,-0.009355385488477494
821,0.004063834178122038,-0.0019620671688147877,-0.012146293514328528,-0.008428387657184594,-0.0070073793912178795
822,0.005480520370524701,-0.00021097379823791832,-0.010957440186986698,-0.007618037257906344,-0.0035054620974807687
823,0.006605863420090759,0.0009166032717743176,-0.010152829112045283,-0.008417264150669991,-0.0006331310169381131
824,0.006871694722054979,0.0013375888366053826,-0.009588900643543763,-0.010355374989135087,0.0004697440208741159
825,0.006237718302632654,0.0007894440508316803,-0.00908796975544428,-0.011971536383721514,-0.00017168899416513563
826,0.004704820032348393,-0.001435496285398516,-0.009236848186458528,-0.012475439467778486,-0.002814935339713214
827,0.0028526271297157645,-0.004599272703096362,-0.009903724414424626,-0.01179925931566015,-0.006700337371120282
828,0.002002001130297882,-0.006923578324740309,-0.010236834657578792,-0.009932926249382917,-0.010055893643988885
829,0.002898135685298775,-0.007982640029614964,-0.010022406624061252,-0.005812698516923995,-0.012656317741936776
830,0.005114861656163313,-0.00834538639056581,-0.0092545412179386,0.0009112559130330812,-0.015006989216223116
831,0.008341145790138454,-0.007425356329247969,-0.00722130010739401,0.007893086024349686,-0.015814041882726233
832,0.011631094727259584,-0.005475403010341927,-0.004541324723463296,0.01152940517058759,-0.015615963994606963
833,0.012726463837645424,-0.004881681806495134,-0.0034728481575734636,0.009781452435762282,-0.017037730089772815
834,0.010854301891349201,-0.006930617063793962,-0.004220166686772145,0.004415509751700797,-0.020512185867684846
835,0.00769788836717241,-0.010722506865752624,-0.004701389342648301,-0.00038574362951295627,-0.024426466993126696
836,0.005596371196264149,-0.01355728056686352,-0.004466523157225803,-0.0022681329287562767,-0.02574298263109199
837,0.005830562321247432,-0.013245725702289763,-0.00508614853090358,-0.0023207565968029493,-0.022973797111014008
838,0.007787323647290995,-0.011060494390766343,-0.006646105462095331,-0.0019877038934789106,-0.018720421087419416
839,0.009983084029503791,-0.009000808930796099,-0.007604748803521438,-0.001115239785642829,-0.01580330010627715
840,0.011355604403000569,-0.006917646893260817,-0.007099206566746987,0.0005736478525091258,-0.013999287311859785
841,0.011597137476356127,-0.004209856013257395,-0.0048454620470745596,0.002630622918096025,-0.011904351919776656
842,0.011104301852303123,-0.0016311653861800074,-0.001582576063823034,0.004717300571021658,-0.009736098338565528
843,0.009917835534927394,-0.0009384056041698862,0.00044196825110882047,0.0067535424256041825,-0.009496579976051226
844,0.007851633463481975,-0.0024171215776028184,0.000417086015111366,0.008153737114369926,-0.01130332042289758
845,0.005643913783729559,-0.004813203444212796,-0.00030341771005035965,0.008472735357392446,-0.012817913519330605
846,0.0043224347810549135,-0.007358509441405158,-0.000877556540657427,0.008238526965783356,-0.01321134527726182
847,0.0036345486974914912,-0.009211782485147344,-0.0020351512832830596,0.0077533566251120406,-0.013087778159931748
848,0.0028458069948698278,-0.009679760116828756,-0.004351082442989142,0.006265121078048055,-0.013015736166311801
849,0.002788629502035406,-0.009127057331521351,-0.0062203229985849425,0.003808827150225651,-0.013345785392465663
850,0.0045547490176589735,-0.007916487726947627,-0.005407228894428189,0.001920660632882724,-0.013298389245248197
851,0.007327625484887001,-0.005844062225888235,-0.0027225523692589286,0.0010578261237088552,-0.012307931708559261
852,0.008843509088826178,-0.003559890230938283,-0.0016145727181697581,-0.00036659117243486856,-0.012092870469281354
853,0.008418379265411696,-0.0023080060463468587,-0.002619088024122327,-0.0025378876816157,-0.01388246876283429
854,0.007562331965491179,-0.002328503856810961,-0.0029510767737924324,-0.003550674980466817,-0.01596710220876348
855,0.007117779433983658,-0.0031747971840871284,-0.0017613497569671543,-0.003101537483445835,-0.015920631023562868
856,0.006927903328537754,-0.00418101243206958,-0.00048113755520062785,-0.0022036211897560848,-0.01314698983610994
857,0.006657182501155221,-0.005094605808692802,-2.995100287766708e-05,-0.0010268305094097744,-0.009481240919437188
858,0.00598550594016903,-0.006539350783904095,0.0001428158672678975,0.0008246376090326374,-0.007432757082157502
859,0.005213719671234184,-0.00824977749584476,0.0012058243898687632,0.0035476294154201476,-0.0073985741339117105
860,0.004791887483184406,-0.00863750611704207,0.0036043207509981125,0.006375689538606813,-0.007292096783114393
861,0.004374209161772976,-0.008123058950801027,0.0067302242806263875,0.008020937226006764,-0.00647225637217951
862,0.0033414216160324644,-0.008666778859507453,0.00906164749182523,0.008237186976434155,-0.006369274891166682
863,0.0020189974975138867,-0.009836590705947994,0.009544538732861374,0.008439621709722652,-0.006727970475962187
864,0.0013310928188504049,-0.01027215405972061,0.008965801375083926,0.009837396940507922,-0.006946352926569437
865,0.0012238162604060448,-0.010222734905950468,0.008164895563260811,0.011315541529651744,-0.0078043027544538275
866,0.0008070059162871841,-0.009932603360403499,0.006901454739906135,0.011130203886570038,-0.008690208964521488
867,-0.00032883052948802147,-0.008982466603730581,0.005138899611462149,0.009023196125623195,-0.00818913837039781
868,-0.0016138181785790345,-0.00745088214647521,0.003514788180372091,0.006148114108364619,-0.007013448822929829
869,-0.0024045267079029937,-0.005733542131799728,0.0028442103351676924,0.00419151142642348,-0.005986518670844813
870,-0.003085122412628659,-0.004292752217275419,0.003185916247223274,0.0034350925618196106,-0.004402163366107166
871,-0.004091725390150704,-0.0035511914155906747,0.00375637532180706,0.0024690387594153065,-0.0021935106454185776
872,-0.004951950541660381,-0.0032709609147428278,0.0041783128307952555,0.0007044960748687916,-3.766255501873167e-05
873,-0.005350937112550296,-0.0028745474044846674,0.005060015838393863,-0.00045229833988038486,0.002522950292171245
874,-0.005822430092585758,-0.0024578631510063747,0.00637026006003126,0.0005014324030378308,0.005465663993032951
875,-0.007543815677945185,-0.0032260262628362037,0.00595692116806026,0.002400074909548762,0.00610295774083959
876,-0.010769091879950352,-0.005736030660237476,0.0024757635667098073,0.002818208987637337,0.002774663086337367
877,-0.012700754535495663,-0.008041490735511138,-0.0009301267004712378,0.0030024030575694586,-0.0016555055903444951
878,-0.0115631796652644,-0.008722704003853998,-0.0006928045474693208,0.005253696665083544,-0.004093594710193466
879,-0.009550901106584684,-0.008875995701677917,0.0023645105225367662,0.008069070819941944,-0.005188261996312487
880,-0.007767814821786471,-0.008838881741203947,0.006206530103882294,0.009813624967361486,-0.005031971208625247
881,-0.0056100929451113855,-0.00806919793916675,0.01026136964834775,0.011045624726258509,-0.0018648155626277137
882,-0.0035439185570330235,-0.006962080555293856,0.014045120298274592,0.012191364742822983,0.0032048097773482807
883,-0.0016158380230771611,-0.005601847356741112,0.01608260661873702,0.013184290854715137,0.00754652703604417
884,0.0007164202681637339,-0.003256942547756037,0.015013071851451298,0.014182654158007435,0.010757879590522023
885,0.002925951438037738,0.0005177667717145213,0.011841715141659614,0.01556348756139914,0.013673323615414835
886,0.003855223205056201,0.004431672296659956,0.008888066069638436,0.01685700459830255,0.015811201897154945
887,0.0030713658291799204,0.006214606645055535,0.007352453025308814,0.01677948908294039,0.015823810712965115
888,0.0011493309587877138,0.005348126904706603,0.007094948674078791,0.015055053815490797,0.013524645541059251
889,-0.000845420343916162,0.0032548815605736325,0.007179918050918419,0.012876435926590884,0.009841618347322207
890,-0.001979020130946247,0.0015849891251645063,0.007213162154092688,0.012393364663100813,0.006606221003483935
891,-0.0018556353159123122,0.0011392059599767113,0.007899507756696855,0.01520878273680854,0.005188735506484444
892,-0.0008700949789417874,0.001590662924972483,0.009283555362544329,0.019897212890300192,0.005282833461080046
893,-4.095778306123297e-05,0.001789942907584799,0.010268023386152153,0.022762141937525755,0.005916307006779416
894,0.00040099865428227675,0.0013627863550079533,0.010396666502835493,0.021801806955719337,0.006337146292702083
895,0.0008609791635147503,0.0009831360796673221,0.01020945646848019,0.017947198541482894,0.006289870342156689
896,0.0012501447204629295,0.0009751200971903352,0.010195565533616282,0.01312431578754807,0.006413349179905946
897,0.0018811573299780558,0.001824604650776764,0.01101575463388417,0.009716137971139155,0.008460287028722405
898,0.00295363920165486,0.0037782463409422764,0.012722204936118277,0.009155064126575923,0.01229594646480057
899,0.0028140072264040274,0.005057560601128867,0.013292150911451719,0.009433295018896119,0.013953421683385285
900,0.0004784942803264002,0.004062823464004166,0.011891918228712883,0.009243778760305096,0.010989003322534708
901,-0.002201229631697072,0.002107056875109026,0.010646430128107991,0.010886038290813185,0.005868834437137749
902,-0.003966747514454104,0.00042328128541841147,0.010597013197496919,0.014376806742930716,0.0007485007603621999
903,-0.0049430480841286305,-0.0012835084106637966,0.01107814652774067,0.016772815066717003,-0.004132357300165732
904,-0.004901726516258059,-0.002258162182245683,0.011818183646815597,0.01645485153426493,-0.006345904441641484
905,-0.004410033477461047,-0.001468482434435112,0.011987198588673562,0.012737507348662136,-0.0035497722429495594
906,-0.00396663199355432,0.0008887291362742249,0.010415408977828907,0.0063379632600120426,0.002306081567596586
907,-0.002943767744665902,0.0035589260497066962,0.007655881841631969,0.0001028070460959918,0.00746368772766885
908,-0.0011863173325345282,0.005174171324668946,0.0055452827696908175,-0.0032350889598582425,0.010406658564106833
909,0.0006131364507493678,0.005423789293823384,0.0049496822663329994,-0.003215525396116341,0.011604700605423561
910,0.0016858932656434356,0.004579785217008863,0.005514699134458457,-0.0014453708151179717,0.011792887865046101
911,0.001540142333874654,0.003138252797534284,0.006998012602066603,0.0008876309371322705,0.011793041395345257
912,0.00047411977709147044,0.0017205326868073361,0.008793507710521939,0.0030880589494569955,0.011248497075297351
913,-0.00021979297520965428,0.0007568422080420436,0.009893625669303196,0.004536052117970492,0.008891870111792884
914,8.247065555163225e-05,0.0009106554235047799,0.00998222992027103,0.005096234261454961,0.0062429343671328835
915,0.0005968975062216044,0.0027781452021408584,0.009071191031684462,0.004109593755232329,0.006782139238386483
916,0.0006753109651464338,0.005495050145972155,0.007300090878515706,0.0015300574933418399,0.010287269799946845
917,0.0004217323562656896,0.006944432402534041,0.005610350244682489,-0.0006625661065881903,0.013015574098625051
918,0.0003168940257892052,0.006426062020976674,0.005370268111103179,-0.00022681567151343216,0.013616705214881826
919,0.000598465586228288,0.004814855995486986,0.006579867591945999,0.0026173243938018885,0.013245671954346595
920,4.082855689477322e-05,0.0019822835457431317,0.007138923889574261,0.0044514385504756246,0.01165289196894015
921,-0.002100330485186686,-0.001803214835537771,0.006345594893873769,0.003477561986676875,0.00899127665210859
922,-0.004135942646157655,-0.004804741922349313,0.00605392103318884,0.002741174191966065,0.007228098181855555
923,-0.004606947429258896,-0.006099434706889676,0.00687904620573797,0.005172336517798962,0.007392897949700015
924,-0.0037238184836224115,-0.005857168032810691,0.00787442137638981,0.009902962854364445,0.008935592586357188
925,-0.0020627874399219014,-0.00447019499704282,0.008821046688945346,0.014040786106205266,0.010668708105527966
926,-9.313482444183624e-06,-0.002579592084822443,0.010049428668038278,0.015590798131627122,0.011399192740283833
927,0.00143328464664592,-0.0011181384374208062,0.011043232917326166,0.014715923602084584,0.011058261036163647
928,0.0018028293204459544,-0.00010178265161047514,0.01133121873525153,0.013286993291891262,0.010639347650074248
929,0.001739869674179176,0.001017513005087199,0.01093839086343084,0.011978600427431294,0.010628272003656328
930,0.001699189835308782,0.0020100274848546622,0.009984754057673632,0.009605468392291637,0.01101189609684469
931,0.0017942971427045032,0.0022608816666900462,0.009016629232387949,0.006157398865075977,0.011619301500638819
932,0.0015908734230585396,0.0010450880229153474,0.008262620322510104,0.0027941127572965233,0.011826319127308282
933,0.001091526607297485,-0.0016601167669797053,0.007384930202453951,0.0002646458606095588,0.010735372282239076
934,0.0008281169253694846,-0.0045364465189980194,0.006028903404874439,-0.0011015993011895926,0.008118223662230141
935,0.0013997794623931365,-0.005977018142882538,0.0049732695717510066,0.0003132102897599567,0.005360159151692287
936,0.0030494094058161384,-0.005760535866234481,0.005696311048516974,0.005194056504443148,0.004207403669346904
937,0.003935429558116516,-0.005183810576533382,0.007560978587635599,0.00942376842676177,0.005100817683079023
938,0.0026961577063582087,-0.0049742176719130326,0.008234690588168713,0.009085240651437766,0.00656801910074785
939,0.0010632691269280318,-0.0048040549441937435,0.007254598893980368,0.00565986914119407,0.006403683416081705
940,0.000596032949594533,-0.0045515926909759875,0.0060773745057322035,0.002663881376110213,0.004593195400453319
941,0.001021370760637467,-0.0037190350555867204,0.006091613402197498,0.002114414217080286,0.00409683785076969
942,0.001522862456821174,-0.001405727678729907,0.008182312852591482,0.0040756468868765544,0.007025989749531778
943,0.0013481091907636884,0.002165580332960906,0.011488815860025469,0.006661673168256626,0.010949286270126235
944,0.00043871162238534654,0.005575796505762938,0.01346114337270743,0.008278000193930444,0.012302021024126732
945,-0.00025775378538964297,0.0075890471937754625,0.012510185128333151,0.008823018362696068,0.011253072532547048
946,0.00011923059787340768,0.007753135529401573,0.00901725565439694,0.007775149986480567,0.009038456571024677
947,0.0009331659160815002,0.006118134800955809,0.0044321525936186,0.00448597468808118,0.00576358039589397
948,0.001052102540785773,0.003488442062234912,0.00029690270566781366,-0.0002430321675001472,0.0022642187948099723
949,0.0003640280913000711,0.0013035509173228957,-0.002482934949249836,-0.004680991912000312,-0.00027270031971769683
950,-0.0007842143726235911,0.0004770269664115992,-0.004044061156193595,-0.0075090395407813775,-0.0011400343617667533
951,-0.002021165283086521,0.0004797618287781316,-0.0052520781629782805,-0.007894680507905026,-0.0003351253903982764
952,-0.0030211314079640053,0.0005633525419340518,-0.006543948851066198,-0.006113515600630488,0.002479103325118673
953,-0.003920294726637205,0.0005042783596479775,-0.0075691134429656404,-0.004188396447220203,0.007160309216900315
954,-0.0037245634062908492,0.0005105935245713902,-0.007036597999329014,-0.002781503365972532,0.011508809911288937
955,-0.0012650817581043154,0.0010077377467242682,-0.004516998802490497,-0.0013782908876524157,0.01354187948138698
956,0.0012451298723656628,0.0013458601229995014,-0.00243407284032589,-0.0014925263633299136,0.012896054357900606
957,0.001366785160651352,0.0008606206976756127,-0.0023620842331719643,-0.00375732625502947,0.010879303464698321
958,0.00035980662663057805,0.0005696023342222677,-0.0026447569987703896,-0.005734605347211271,0.009945492442078391
959,-8.835655637932327e-05,0.0014948142424498704,-0.0020611488319983266,-0.006070064380719087,0.010593752825586165
960,0.00020001551810512727,0.0031932814548984623,-0.0009985143061186925,-0.005324529900959822,0.010898849128980087
961,0.0010866836608123957,0.00535643404907905,-0.00011036703333668863,-0.004879941781878571,0.012340326355666814
962,0.0015248367271744748,0.006785049206673093,0.00029539680775428085,-0.004165834184591335,0.01297481570089662
963,0.0006793866543139247,0.006429443616046999,4.044486291414795e-05,-0.0031755139426239173,0.010830525236490859
964,-0.0004219980804722461,0.004696454529804561,3.6267387570190293e-06,-0.0018916073737583637,0.006730343105172322
965,-0.0007205054369472028,0.00334601749763341,0.001529746329267504,-0.0003266102927125461,0.003953289868178749
966,-0.0005039692862761904,0.003281809897603797,0.004232038923089977,0.0013991343130233308,0.0036870101104769155
967,5.082278672975789e-05,0.003940460330174222,0.005518823842680236,0.003120048637074304,0.004320715081944305
968,0.0007815954339942897,0.004152500980863346,0.003418387229657945,0.00387632258689547,0.004174763254585733
969,0.0011577551052554182,0.0033297783234141056,-0.001065747860560533,0.002663793839174665,0.0030785756053459627
970,0.0011193814948118165,0.0017971119491704487,-0.00518188486537396,0.0006555061055035895,0.001033935464129325
971,0.000566778508921609,-0.00035572074660557225,-0.007680335779241776,-0.0005052389332506934,-0.0030143146349272815
972,-0.0002244988573053888,-0.0023889886996863985,-0.00884381337086865,-0.0010226093822447034,-0.00796456917235232
973,-0.0006152711096704986,-0.003368592733896415,-0.009204650009243562,-0.0020860823485881106,-0.01077878810877629
974,1.4413028641782314e-05,-0.0031298639760612684,-0.009227154128618105,-0.004037178654334076,-0.010334904073127904
975,0.0016488335086811228,-0.0015674380304855457,-0.008775407967596453,-0.00583633592292455,-0.00757611831456547
976,0.002592596365543093,0.0005532358520039917,-0.007716459865819494,-0.007081900221008323,-0.0038982169046053866
977,0.0018531774996559391,0.0021639540739601514,-0.006291969105911309,-0.00813320553493495,-0.0002971612189567061
978,0.0004271044644937735,0.003167521039759791,-0.004672304560856901,-0.008387241489019308,0.0023794475365074364
979,-0.0009484975503441085,0.0034870518893424926,-0.0033080175442048243,-0.007459879919570165,0.0029470464219331443
980,-0.002250912887732488,0.0027835858489332044,-0.0025916987210673217,-0.0058230023893104926,0.0009286034525729927
981,-0.003437174613054454,0.0011105932226074236,-0.0020017084060924397,-0.0035340205240554806,-0.0023759506753829158
982,-0.004229316638272231,-0.0005458087178393101,-0.0005227054352653725,-0.0007439507574467374,-0.004151587115465413
983,-0.003987204597740144,-0.0009656068973722626,0.00211640170407721,0.0015322166220887764,-0.002815909041077561
984,-0.0025900613245578214,-0.00043799492587555725,0.004836874678552242,0.002682678967981842,-0.00023069535641513745
985,-0.0008766583947510343,-0.00017396161700414578,0.006246122737210961,0.0029691274426792607,0.001231798791011552
986,8.362969184302304e-05,-0.0006966019875836129,0.005947660474943499,0.0021937643458769932,0.0014053569585753942
987,-2.1995978161330676e-05,-0.0015902475688883816,0.004914033893108642,0.0004749483151073386,0.0012553410094235042
988,-9.92453451699291e-05,-0.0019100087105994314,0.004832254882948643,-0.00020579838118754478,0.0014553944127529564
989,0.0006204007491642246,-0.00142615648312998,0.006043105004063045,0.001390945141798945,0.0018621686798947867
990,0.0012131403858913886,-0.001118293620676713,0.006804066908444242,0.003637078624892482,0.0015047948566266588
991,0.0009890311698570362,-0.0014910095851110952,0.005823834664357491,0.004555664151218531,-1.5155782778941919e-05
992,0.0003693648883523258,-0.0019779042656281683,0.0038167638319893346,0.003733612033740627,-0.0015509764782148906
993,-0.00038562142924259405,-0.0022570093120533995,0.00192901578794664,0.0018963429984349721,-0.002165474842765411
994,-0.0011176418311000037,-0.0022130387709423083,0.0007347481756686303,0.00040938392882616906,-0.0018895277978117375
995,-0.001330570406557232,-0.0016131927073115206,0.00034390919193858524,0.00014591524500093213,-0.000976499557044552
996,-0.000985924458991271,-0.0008359476936357775,0.000202947245678212,0.0005458161511118503,-9.82835761687139e-05
997,-0.0005939030027194889,-0.0004093234266766006,-0.00021861649117549037,0.0006151723382029492,-7.03751683220725e-05
998,-0.0004172951701170196,-0.00022250065864669322,-0.0005374873933192065,0.00017349311442824,-0.000701770430665864
999,-0.0003400041035490901,2.1368165764851863e-05,-8.515995480302786e-05,-0.00040433827622459893,-0.0009101600573785849
