,AF3,AF4,Fp1,AF7,AF8
0,0.00022610899745563904,-0.0010780684053454208,-0.0025479621358332066,-0.002934134922272512,-0.0039835927221753215
1,-0.003616745975260374,-0.0037577791585922215,-0.006871648493183203,-0.007387934670381517,-0.0027097901631217883
2,-0.004642910503097917,-0.005534271093002248,-0.008826173693571783,-0.00890126283258792,-0.002283879865855757
3,-0.0024695296556468778,-0.006353696359201857,-0.008448233924571088,-0.006935134733639016,-0.0037056411270050714
4,0.0014256058723829132,-0.006320310812633993,-0.006206076071791461,-0.0026428738537771466,-0.005522715376179245
5,0.004640564214072054,-0.006038888669543647,-0.0037362195102684063,0.0012561727181139026,-0.006564213486198196
6,0.005952596378007385,-0.005938073815477412,-0.002725337229788433,0.0030186066084728737,-0.007883896110063883
7,0.006558809257087252,-0.0056418008628123335,-0.0021606665630944516,0.004030975468286511,-0.009383917471514078
8,0.007912229069380192,-0.005719780656462225,-0.0003854781549751723,0.006056084019000186,-0.010514440470424744
9,0.009671025963323263,-0.0067197043130711965,0.0022642580936881418,0.008485059740626395,-0.011093345834206592
10,0.010592883691151909,-0.006832934875941745,0.0039285434164376505,0.009244348601963983,-0.010829565391042916
11,0.010045078161527294,-0.004976203189987117,0.003174547343485204,0.007277602875871151,-0.010743317330616772
12,0.008461164967700763,-0.0029596916978096954,0.0007201807791642395,0.0036778001203595268,-0.011650319108682711
13,0.006733442048531915,-0.0025226479558471734,-0.0016353645279153638,6.545993300952067e-05,-0.013098316717771306
14,0.005625282116641973,-0.0031565396536068413,-0.003043762774006598,-0.002636836626225981,-0.014187922601529466
15,0.005624877993666308,-0.004030543081727453,-0.003529369570085263,-0.003658194913085146,-0.015570488841179047
16,0.006591237062094022,-0.005696946804313905,-0.0033351852969957844,-0.0027943760987694413,-0.01883825105601762
17,0.007587537941208187,-0.006736224832308837,-0.003164021086133893,-0.001345891391192765,-0.019710094444084267
18,0.008190428771111629,-0.005005203752531137,-0.0029157576560525614,7.968984104371534e-06,-0.013551668456709269
19,0.009063035198820475,-0.001894423986560524,-0.0013324676393449415,0.0018931642751583897,-0.004153909520318513
20,0.010272372856915032,0.0007954171425885136,0.0012409524537788234,0.003984013375869234,0.0037839150374189704
21,0.01053628673957676,0.002080846176727027,0.0023067468482558537,0.004860159510869247,0.008223329275660135
22,0.009029671722107682,0.0009060113472339953,0.000590200482199912,0.003790213153249998,0.007256758364522063
23,0.00721928934010977,-0.0013238467338752265,-0.0021168163384951842,0.002190057889954181,0.001954167490595791
24,0.00624287076607098,-0.0024486218756031857,-0.004023021935170978,0.0012337733244740191,-0.003977517802100542
25,0.005618108724885238,-0.0024344348214721543,-0.004748771020458872,0.0008590868751757389,-0.008296766131487932
26,0.005658787066706954,-0.0017488386602033108,-0.0038200157567601185,0.0016242866339804137,-0.010948398269388104
27,0.006705175139281726,-0.00041932098403631916,-0.0013174506291863872,0.003507160765691257,-0.012125251077708702
28,0.007965296350976678,0.0009740097662846514,0.0019894846715432816,0.005555420457254957,-0.012139777694254278
29,0.00882363327515656,0.0017449364327142608,0.005482155762974838,0.0071878502210230375,-0.011312116528452187
30,0.008968162668339451,0.0015582892403983731,0.007526381034494097,0.007498425995244368,-0.010348517425096078
31,0.008519852439587755,0.0003314933019781393,0.006946370693703052,0.006078146780144609,-0.01060387218425556
32,0.008444056371751822,-0.0014660318382114454,0.00548081950787973,0.004671370416420922,-0.012190004696487533
33,0.008976292151777442,-0.0032570967739102255,0.00493718664894043,0.004790701128235199,-0.013785008722062647
34,0.009335829876352213,-0.004923263896249245,0.004795273022420399,0.005653774744296192,-0.0144471327148263
35,0.009402498533132181,-0.006736965503003206,0.0043119637201179195,0.006391671322747813,-0.014153132698443836
36,0.010020702867141396,-0.007290126326396178,0.004244320535265399,0.007492938253695813,-0.012007351993273097
37,0.011213176368252704,-0.004876795015485136,0.0050039779210951174,0.008879544409631146,-0.008037992867687953
38,0.01160724744937066,-0.0014226643946696886,0.005442705804286646,0.009230516904530302,-0.004053797332966892
39,0.010396832266857994,0.0003958505894869815,0.004434657023047651,0.007736505327017124,-0.0013694714993883722
40,0.008307094801326525,0.00043481656432645826,0.0021418666024728104,0.005196710232601692,-0.0012038455339878973
41,0.006721434098097288,-0.0006177944016003541,4.715011566903059e-06,0.0035735861558504915,-0.0038752416890684887
42,0.006763794974234561,-0.0024907763842954298,-0.00022983546416244466,0.004465722648201404,-0.007372498577849169
43,0.00863084704263003,-0.0031427575269851443,0.0016942869178857315,0.0073449619373489915,-0.007901199314386743
44,0.011078003266051371,-0.0007703310030350261,0.0037613903569959643,0.010083601311887706,-0.00512990470797248
45,0.012155379286069539,0.001314407247889747,0.003723216410378265,0.01117739555473147,-0.004061876012824075
46,0.011290370747289023,-9.260001768931905e-05,0.0013313006469753616,0.010531510133877266,-0.006294478454195355
47,0.009823767099924174,-0.0032777969773334905,-0.0015978296498053246,0.009341269188564087,-0.008253340540843233
48,0.009720036540472252,-0.0055105381127804835,-0.002646693637821466,0.009685564656972359,-0.008571250762706626
49,0.01143925066887214,-0.005762233929102375,-0.0014769699893828988,0.012005824565596093,-0.008598868813116396
50,0.013666549715869843,-0.004226603064059867,0.000649729109614204,0.014647729155670464,-0.007801084480437356
51,0.015185024789790653,-0.002056623020720415,0.003007152915178408,0.01625843565607425,-0.005575237778488465
52,0.015242409376296593,-0.0010093664326711552,0.004907039770186531,0.016283718041021557,-0.004240063707316323
53,0.01387318796084438,-0.0018550279774513275,0.006049844105871228,0.01500249011037015,-0.005509132221635774
54,0.011939553267037646,-0.0035933164888378205,0.006498798642748967,0.01303690036251486,-0.007757521713102093
55,0.01046990599250241,-0.004549748228687969,0.006469189852726327,0.011220082442791822,-0.0075862090356595
56,0.010046858064903528,-0.004631234696285993,0.00632526201033996,0.010346773733762573,-0.005328361490368919
57,0.009751802020888148,-0.004913386848971436,0.005262782481689617,0.009250073120843609,-0.003971752833731668
58,0.00872256105050845,-0.005318340493296059,0.002750998920983505,0.006710329101601689,-0.0032556161159959258
59,0.007931036293058412,-0.0058667830477015185,0.0004491514193244858,0.0044072785629235625,-0.0024864071465309917
60,0.007866976743824871,-0.006483899445450001,-0.0004365904608939131,0.003471637985787539,-0.002071980552206735
61,0.008101794442569438,-0.005371349959211136,8.312493890219049e-05,0.0029458760092704265,-0.00036569752750940487
62,0.00875778893198666,-0.0023370854275395754,0.0021982761598805752,0.002533772434724329,0.0033827607776949716
63,0.00883314451505145,-0.00028371356453499953,0.003949000903304218,0.0014545962300722157,0.0056857239256818985
64,0.0070870587641879935,-0.001211434909661778,0.003124377893014148,-0.0007542597202886467,0.004338752463033018
65,0.004389848425236611,-0.004067425520575402,0.0006106241981492422,-0.002872185100809905,0.0008727106087726929
66,0.001996905075465217,-0.006904911096483087,-0.0021638830104717143,-0.004600782014943687,-0.00393829868289134
67,0.0005466434887982155,-0.008449142726260772,-0.004107667868293147,-0.005704553202940342,-0.009202179796860204
68,-7.762828679339693e-05,-0.008515572162143811,-0.004719263681027785,-0.005472185948751222,-0.012311577695799106
69,-0.00020206996668257744,-0.008024500534179947,-0.004224485680789524,-0.0036591557645857457,-0.011708015614059018
70,0.0004116635692193628,-0.007125773267467417,-0.0028982875616429754,-0.0006610054747613148,-0.00699759558873752
71,0.0017047621647460279,-0.005182454928633244,-0.0016944826885810056,0.002234773937809147,0.0010910568088522636
72,0.003631109778224134,-0.002474113208075855,-0.001235830004367097,0.004287913312643485,0.009225238934237696
73,0.005879659609491796,-9.477058752075572e-05,-0.0010974362559553507,0.0054899776608199604,0.013953808623513702
74,0.007718757885414827,0.0012736800289361232,-0.0003870351506016619,0.006244718097045693,0.015221459614489018
75,0.008863288646654139,0.0018536375025143181,0.0013327122574240413,0.007043293581334056,0.015178321330647804
76,0.009116590811545372,0.0006273308457706943,0.0032642400333408356,0.007901679208437127,0.013238184349640098
77,0.008058338046312502,-0.002215888976084031,0.00405015677509363,0.008264936725056883,0.009996331633016785
78,0.006006517568498363,-0.0034436333776179133,0.0030658352000668214,0.0075455811442707126,0.008887942540059972
79,0.004016896440974301,-0.003183388237095938,0.0008638816533614715,0.00611922022484693,0.007668709855735606
80,0.0023172452723145497,-0.0034544228574000945,-0.0015599966062725538,0.004235259332248011,0.003949831471559955
81,0.0007390717720271796,-0.004090541923489509,-0.0034647084765067975,0.001812382303306137,-0.00011295961370506314
82,0.00020269207025379584,-0.004921584767446111,-0.0038675940918875113,0.00012567279151684413,-0.002685850625741387
83,0.0016450811687112085,-0.00583842469917632,-0.001590541123237904,0.000987923284037178,-0.0027216953350747194
84,0.004275455874568765,-0.005701826355633219,0.00261512220948665,0.004153788561047886,-0.0008682153257296284
85,0.005906253222979104,-0.003946764086677485,0.005432986442047619,0.006853747921895242,0.0006904840992994493
86,0.004579351969380854,-0.00300277402838291,0.004563002106857126,0.006646875452757558,0.00037926063850289956
87,0.0010016737022874144,-0.004903058201710525,0.0018612067839712807,0.004534575028803267,-0.0015765821282401466
88,-0.001320962935959317,-0.006789233985615739,0.0010012295304878366,0.0037903679118867985,-0.0025519011178934147
89,-0.0005149743016071395,-0.005305136374229023,0.003062046807069746,0.0056607291656669894,0.0002857382459175787
90,0.001755366551831108,-0.0013801481127619028,0.006090580079266556,0.008318710654936227,0.006211977376862469
91,0.0035725877425259065,0.0025248882116882592,0.008144875996267372,0.010008650788918442,0.011330814025053345
92,0.004466084997977423,0.005055840433005552,0.008908163860833191,0.01051805636941607,0.013468037210176868
93,0.004537698844452632,0.005970930853754636,0.00873934011364271,0.010202006893466169,0.014051621284196522
94,0.004833459507063446,0.005927122860841965,0.00851292420823593,0.010225223361027881,0.013461363048331502
95,0.006495734339373952,0.005235911800871919,0.009396433477655867,0.011927997386052526,0.010126737398961298
96,0.009003572777557185,0.003234859892122745,0.011093718457299393,0.015020632452901892,0.0033782119381663466
97,0.01102773601764643,0.0005732933727866416,0.012374525648949955,0.0175760800604461,-0.003916523871881092
98,0.011220218379666726,-0.0011017770732824098,0.01289254398995562,0.01754535222224239,-0.007151799882261276
99,0.009054321792447789,-0.0019698142586015836,0.012968338969372523,0.014714472573261243,-0.006638999632950573
100,0.005702384712426197,-0.0013186282071152892,0.01251296864676021,0.010672115093976104,-0.0030638167978187004
101,0.002184000736075363,0.0019914647818598218,0.010349819001219705,0.006433329701672992,0.0048098593892877154
102,-0.00021174512305239239,0.00581610036831513,0.00723045565042985,0.0034490933027791076,0.013435979467809795
103,0.0008710956444571368,0.008069115136650517,0.006373932381594046,0.004292168857770875,0.01789499020671129
104,0.004937856786357169,0.008948455861410002,0.008232735814619942,0.008444338117877844,0.018113671022718013
105,0.00949934180528816,0.008969243808450357,0.011096439009759908,0.013299770412673145,0.016467527598825884
106,0.013174007999532776,0.007477412311234456,0.013609582922266843,0.017534998485990105,0.012457749956018815
107,0.014648334565724019,0.004734586906824,0.014201508964961912,0.020090258120914698,0.005875332006738186
108,0.013067757473448186,0.0028391666218415073,0.012053456128362245,0.019690075060607444,9.875347575893539e-05
109,0.009688386699023518,0.002167614686351808,0.008540117126824646,0.01686864981432938,-0.002193054837975611
110,0.007316292061065642,0.0018551261054337335,0.007043926624282487,0.015027833118155538,-7.458590726158196e-05
111,0.007296097287161649,0.0025533027900634777,0.008823099330030792,0.016226423326583125,0.005303933270026267
112,0.007981650092149541,0.004770961179443568,0.010647215779241135,0.01802826022484223,0.01030737417880696
113,0.007912080821020946,0.007037557371800851,0.010072749232602244,0.018306499562737142,0.012377565108034711
114,0.00797427688967659,0.008173641083185596,0.008625572331466635,0.01837638242786631,0.011716051810932698
115,0.00842652554691052,0.008273569183855441,0.008025173298652362,0.018849500768748376,0.010248766921347371
116,0.008628973289191108,0.007605441908662905,0.00832272533265051,0.018658759005138748,0.008939909268249396
117,0.008725519924976234,0.0062524496022699225,0.008750164755814357,0.01732468884096536,0.006676923919284534
118,0.008689429468604043,0.004394446923731435,0.008692843910258142,0.015234272808607667,0.0038643893256240054
119,0.007957174384034557,0.002180943963231195,0.008015016684152788,0.012968640431189006,0.0012944032497254757
120,0.006464274671634802,-0.0006192847262806541,0.007130849195804915,0.011135550300712598,-0.002030482938075093
121,0.005216115835516868,-0.0030541954959631824,0.007257281178495235,0.01070541708471194,-0.004573968068252674
122,0.004336415921671333,-0.0042895915618850295,0.007561201624729556,0.010732346095023505,-0.00491048143577079
123,0.0032084460931062478,-0.005549274565133601,0.006230659868596332,0.009651795505294098,-0.005875965045625745
124,0.0017935672126615405,-0.006858253009497879,0.0034433000637744417,0.007521259325898851,-0.008031386587975007
125,-0.00016522045857583775,-0.006655790362769622,-0.00027157625854578747,0.004084285681568799,-0.009569482382859797
126,-0.0018276186398236477,-0.005394800333715487,-0.0030515618105751954,0.0007958492047706286,-0.011638088251379552
127,-0.0017426806612298332,-0.004426080983827971,-0.0023258086208321105,0.0003731366514120402,-0.013526391103275671
128,-0.000471178113466072,-0.004189131219164519,0.0009740101004616515,0.002336407760307032,-0.012492454514792323
129,0.0006479766481560992,-0.005050602809142548,0.003689572308197115,0.0042126609968434195,-0.009820706528820692
130,0.0012587369283375736,-0.005440864078780791,0.004467938988972339,0.00473470750569646,-0.006650817788818257
131,0.0013106681069365558,-0.0034014084317391443,0.004164108100229697,0.004323052778785665,-0.0015955581376353438
132,0.0007304641137653363,-0.0010575400953062625,0.0040409107595195965,0.003970501900110101,0.0033634648931192813
133,-0.00010895935994988065,-0.0006502637541451349,0.004168555054087228,0.003691190344715922,0.005417350930824194
134,-0.0007228231695621185,-0.001026017134748887,0.003844021551796435,0.002943568807050008,0.006204641105797096
135,-0.0011961215715346665,-0.0015658253707708932,0.0034125314205269526,0.002301717907171384,0.007709090817442603
136,-0.0021543800911006084,-0.0032013319060076855,0.0036208765457148135,0.002382212663091303,0.009178045353199086
137,-0.003899352083784457,-0.005572535816094039,0.004221711115519073,0.0025814018175537553,0.009318723288898866
138,-0.005216660179638919,-0.0071079901490979005,0.005317795151831044,0.003045778604872979,0.00768535666451023
139,-0.0050771289114765914,-0.007183191119469484,0.007050077700642487,0.004102258602477354,0.00529735881738773
140,-0.00501204051887832,-0.006662734506351727,0.007832804115982504,0.003930707760466839,0.004272776175551734
141,-0.006261975635858081,-0.0068209025450668955,0.006411337201373677,0.0014942473695522419,0.0046835462394261024
142,-0.007711862060512965,-0.008183358017648593,0.0037056090822005067,-0.0012836350647063254,0.004829279483687151
143,-0.008024918826338987,-0.010570705003641366,0.0015004189172533823,-0.002171466901954985,0.004152957679650583
144,-0.006739225203388378,-0.012837002372167101,0.0011812531920581894,-0.000854084369063837,0.00356884535653987
145,-0.003961926983969876,-0.013054390100459232,0.003401284930315329,0.0016110796136135025,0.004461527814673478
146,-0.00032686549592935544,-0.010719262999310107,0.007290269613591433,0.004117117498840945,0.006090074247194726
147,0.002351052164928472,-0.007908490925671457,0.010440563534657886,0.005647058885257231,0.005849114466567707
148,0.002601395019266636,-0.007250886922118191,0.011540434987456712,0.0061360698659320865,0.0024258001961459056
149,0.001924521159569167,-0.009630482394499745,0.012218604637286187,0.007554495618473285,-0.0036630951469867005
150,0.0015094811644912971,-0.012171888255913,0.012839977820212721,0.009587791189927454,-0.007374095030055809
151,0.0003924643214810895,-0.010646807313824903,0.010955404487377097,0.009028270446128918,-0.0033777598947546507
152,-0.0007582539261269351,-0.0056710937971402135,0.007116266983253458,0.006684721985966783,0.004307983495492916
153,-0.00022514534549590077,-0.0003358644220873334,0.004783662423936037,0.006287044282685298,0.009785742458812693
154,0.0017763275399811844,0.0034188722938593204,0.0055264079117258655,0.008962308163477315,0.012646717525696663
155,0.003288804364392104,0.004987561549091683,0.008021543766456026,0.012511844641283456,0.014372522771236596
156,0.0030875711641153987,0.005481364307079835,0.010625110311757467,0.014419777573872954,0.016396614826243962
157,0.002116383198365069,0.005484852787600685,0.01365738824672879,0.014930147561155876,0.01907052714814124
158,0.002142473163727903,0.005361217330846312,0.017920811226467003,0.01592078352278273,0.022050441300157396
159,0.0031361694659530087,0.006053379365864122,0.0215783815582873,0.017250816389360924,0.024029461513841176
160,0.003578035406199901,0.006842792971370628,0.022185341202262364,0.0174330888801429,0.02328627311629716
161,0.0030736865654081404,0.006215759737639105,0.02064021768939378,0.016687118448026502,0.02070667240625754
162,0.0022136945547631937,0.005122298284057374,0.018650129618440477,0.01568999859600205,0.01892871218247
163,0.001790916941428712,0.005423095413710044,0.017184620750844724,0.015167192502757424,0.01988177031628086
164,0.0019952370139110923,0.00652932127248217,0.01666503421254845,0.015516740639611287,0.02256427997850443
165,0.0017446724990693291,0.0066817217428354865,0.015558264767232662,0.015263761227002001,0.023334546289560797
166,0.0005015635915900844,0.005355892171841898,0.013169766813060922,0.013811578052299453,0.02086007294676727
167,-0.0012066615550680095,0.0030893743083671038,0.011152266686378792,0.012449879951866393,0.01728864168892209
168,-0.002543532165860274,0.001197146686125281,0.010914295665697382,0.012119108445778971,0.01448987948735757
169,-0.0021718691233794463,0.0008244856887761925,0.013047207728298427,0.013505088028714099,0.012427905526237012
170,-0.000809348081856493,0.001429947654060987,0.01614478313573559,0.015343410000245994,0.01102546041460697
171,-0.0014509658869588363,0.0019423861820466036,0.016861225150974428,0.014437156931481407,0.010298292076083973
172,-0.003975876808495079,0.002336928396020295,0.01483055628689284,0.011291295976284825,0.010341855065785785
173,-0.005700460313409683,0.0031400094157043,0.012457691454269377,0.009082040873259896,0.012530626105506894
174,-0.006277084792595108,0.004274506927940489,0.010625338916804873,0.008090453682880855,0.017112050838912922
175,-0.006153737274795064,0.004937118599858511,0.00965747794255058,0.007704510687961283,0.02104835673485372
176,-0.004882423583857651,0.0037371318200004294,0.010117116217910416,0.00874278986415289,0.020269778160823666
177,-0.003075694062530949,0.0008571251915414005,0.011206374755590205,0.010828862442576095,0.014860624044463895
178,-0.002389754502648173,-0.0007796806116346857,0.011273918534467478,0.011621675845747465,0.0097261907517165
179,-0.0033216745170446932,-0.00038312980417099174,0.010341539417538332,0.010411632715055352,0.0072741918084505116
180,-0.004912983419393003,-0.00026050687669523754,0.00982218404052302,0.00893990097747028,0.0061054103725136375
181,-0.006952797127240291,-0.0005634919985296723,0.00899198515632852,0.006995712685670329,0.005891838633729231
182,-0.009596675794747213,6.152049727508533e-05,0.006270432792170916,0.00330925952572309,0.006253692631784578
183,-0.01148477991365881,0.0010687893501876637,0.0030091937286549275,-0.0002306671508046157,0.005297442459407354
184,-0.01173781985300873,0.001230305255347832,0.0012701610542300494,-0.0015576247517047818,0.002199004718836995
185,-0.011289266701057881,0.000986740662227982,0.0010494247625755719,-0.0016032470005566302,-0.0005400790049389835
186,-0.010704940784345973,0.001171717912760031,0.0018695474980670284,-0.0015212148816959694,-0.0006259337824545752
187,-0.010218602159301109,0.0009435166297741424,0.003317036809665438,-0.0013613187199522196,0.0005814267573540628
188,-0.009798393958101751,0.001104944222896403,0.004898256277959064,-0.0009928789479432374,0.0027073483834811306
189,-0.008635735353119137,0.0030668301497605633,0.006350453320691003,-0.00035152144171279274,0.005893440174315555
190,-0.006470981941532462,0.005564437292794353,0.007840920605152785,0.0008235108599198641,0.008200792182853696
191,-0.004326327250881647,0.007004292110679324,0.009591459429152953,0.0023765355949759465,0.008027750868016662
192,-0.0033327702907988248,0.006730971408729264,0.010665287481159021,0.00332775593087603,0.0052244532724750785
193,-0.003436447494669168,0.004974221959468184,0.010145976630452011,0.0034143288771053544,0.0020817607352069055
194,-0.0038457560305222072,0.0023622201257788374,0.009133201476987955,0.0037755609574815258,0.0014874986030731113
195,-0.003642013630738027,-0.0001892444369679337,0.009503251217854442,0.00551052866000871,0.004001952472295564
196,-0.0031610062473934474,-0.0025171052531801482,0.010848345108500124,0.007567024412137415,0.007176423360539433
197,-0.004271842794346357,-0.004747768177233638,0.010298422491694803,0.006899623384726818,0.008125077965308092
198,-0.0072858168247705935,-0.005629524365173327,0.0064870585609358615,0.002262457948958777,0.0075454623977810565
199,-0.009262539383629817,-0.004236155301469949,0.0025501301510968103,-0.002566864759402865,0.008578790012093981
200,-0.0077553658966325574,-0.0009449110549040039,0.0019473070884806036,-0.0033133025410972067,0.011811014749912634
201,-0.004180675841141126,0.002952768820563529,0.004074679203097574,-0.000756171104834284,0.01505317521870106
202,-0.0016777302563989857,0.005395935782045176,0.005867596764432236,0.0012144964025879164,0.015960286809994062
203,-0.0015540090534174411,0.004823340099344741,0.005499319919839699,0.0006701412203179684,0.013261984131667006
204,-0.0025497642037115974,0.0023906952352116323,0.004194200516553867,-0.0006306003184743354,0.00859020454045764
205,-0.002974901667651811,0.0007138993582848147,0.0036526638918567425,-0.0006274909005258445,0.0038206810536627685
206,-0.002102527744227561,0.00044815490032291565,0.004518649183042386,0.001417996688199497,-0.0008883238072654347
207,-0.00035468063609490484,-0.00033935499238984255,0.00668804267178721,0.005076870259991245,-0.005151136152957848
208,0.0009219978015776108,-0.0014033393644691948,0.008561775735333317,0.008001188522994848,-0.006327327931811139
209,0.0011337897361077855,0.0006591008473718404,0.008586233840549448,0.008436935163616457,-0.002211854061287459
210,0.0008900449483920226,0.005083191978186368,0.007289639046784838,0.0076102118711762175,0.003935153859601578
211,0.0002027525723739212,0.008138910381897065,0.005683745112012035,0.006748636962024757,0.008463403027011412
212,-0.0011933484343842739,0.008771296682895299,0.0039997833396621385,0.0055927801202375,0.011130727492413573
213,-0.0027172991523641893,0.00781473768608836,0.002588003479745749,0.00448275408315369,0.012380430178255596
214,-0.0037901367042547625,0.006616620157516983,0.0016459944777865842,0.0040759875584542886,0.012825042509131378
215,-0.004131319910865241,0.0069262924933617895,0.0012266638141841672,0.0046780650872630175,0.014422062700554988
216,-0.004069949006140585,0.008869402729844955,0.0014282682297806462,0.006128372961653822,0.017396168877221972
217,-0.00434085535292288,0.009753427049816,0.001799295050359344,0.007292450565645467,0.016507688913019944
218,-0.004779866012877663,0.008678623169573112,0.002064351532606205,0.006985598223380364,0.010496832529494484
219,-0.004975782167964757,0.007882868984121862,0.0020990436021282883,0.0052127826836324285,0.006193533532626499
220,-0.005066420105691454,0.007839926523729796,0.0013346672463091964,0.002914386052879897,0.006012811174161739
221,-0.005256686245208879,0.006996078365274735,-0.0003495711875767776,0.0007296015110651871,0.005282585194080444
222,-0.005290867414321786,0.005258962579541133,-0.001965814454527218,-0.0007782505460007306,0.0024665430678921124
223,-0.004401869112093111,0.003966405555548883,-0.002504987837267404,-0.0009545526606487446,0.0007127563382668976
224,-0.003052377543997276,0.0036947615404174837,-0.0029149005876490225,-0.000982764609130592,0.0012448125968583267
225,-0.002778647954701138,0.00399956817328504,-0.0043593104350307865,-0.002686741173281292,0.0029326323556106773
226,-0.002857904164431077,0.004704590526444515,-0.005118126758190695,-0.004564847227381326,0.004272297916732129
227,-0.0015503626940582345,0.005569938717893169,-0.003634688736053046,-0.004056027146302869,0.0032954480548786176
228,-0.0006220355385210949,0.005090487167045817,-0.0025315249124525383,-0.0031828056314097083,-0.0007155305470628417
229,-0.0026371093165571437,0.002393541430841807,-0.004452151102883956,-0.005282924755977171,-0.005585362563964185
230,-0.0052299309911156,-0.0008044790276546704,-0.0069715629561209885,-0.008012688128191333,-0.00778916236918918
231,-0.005048613915892775,-0.0029647381575982367,-0.007067790840644914,-0.007441065173425639,-0.005922828300696204
232,-0.003501302311242172,-0.004239763880756492,-0.006009056964350489,-0.004758800194448152,-0.0025223919921707164
233,-0.0030225519146833573,-0.005163800866716619,-0.005959568854289668,-0.0030681406625144656,-0.0020293579447934773
234,-0.004119251142264866,-0.006259483556598628,-0.007509427439980906,-0.004101620148714787,-0.005382249772707419
235,-0.006497900451734822,-0.006856551382491626,-0.010542112122096334,-0.00819810098186728,-0.009392139790851002
236,-0.009237033212657338,-0.00611582699525266,-0.014025512475780995,-0.01375822155705939,-0.01228754199346185
237,-0.011408785980255262,-0.004297777262698621,-0.016255873297896257,-0.018605680740485887,-0.013378877485798068
238,-0.012318292634524634,-0.0016901393299773818,-0.01585704226229464,-0.02124054194103839,-0.010783761937092943
239,-0.01158412550459294,0.0012330587283184483,-0.012867824415961675,-0.021212288337293383,-0.005054053455219177
240,-0.009454316400977908,0.003212113018164734,-0.008980798432896227,-0.019011422517671163,-0.0009103777854534405
241,-0.00650198922196565,0.0032150075375914056,-0.005432813240663419,-0.014831438892832813,-0.0016201704856441657
242,-0.0036865920842249337,0.001921051084866256,-0.0025711863471187396,-0.009736932240876744,-0.005403074003052806
243,-0.0019390317653483382,0.0008467615222214213,-0.0014839500140923668,-0.006438829687099931,-0.009492338099741295
244,-0.0013531024710218198,0.00020610280052785304,-0.0022897143708170346,-0.005953638839978397,-0.011718960669990506
245,-0.0014627300877667264,-0.0007603293560766552,-0.0034402465040597016,-0.006752438750115132,-0.010596151015139317
246,-0.0015346542715164824,-0.0017082198648893708,-0.003912323236469097,-0.00717963639526635,-0.006964463674940411
247,-0.0008919245077330109,-0.0018155419617475867,-0.0034528184411433097,-0.0062923313953253835,-0.002817126387238123
248,0.0005615972920970402,-0.0009738387400016499,-0.002119001753328771,-0.004021872539428138,0.0008297110524310182
249,0.0024872142701847315,0.0008552053809108407,-0.00025180076517243507,-0.0010472142140582777,0.003940794630517968
250,0.003900559024338853,0.002612221266642344,0.0010699190306795797,0.0011250205890483405,0.005515240699238202
251,0.0035005115959127467,0.002526227041364989,0.0003817525003998847,0.0007299455397645537,0.004795429231999213
252,0.0014889702205455695,0.0010367252505296696,-0.0016264179921708704,-0.0015519244390695777,0.003075973708591546
253,0.00035928974247112364,0.0004382945084819079,-0.00225370586542407,-0.0026936755554968638,0.001416684345927512
254,0.0020365238891270907,0.0012787070080812603,-0.00033277850916686513,-0.001416612589962676,-0.00032493004395284366
255,0.003993774141123217,0.0023783117881504673,0.0016258247865818182,-0.0011347737494421634,-0.0010794579327501042
256,0.0028481611875790054,0.003477509607235429,0.00023854268102663852,-0.005629033467676498,-0.0005465827570453753
257,-0.000602541579156752,0.003949375504114694,-0.004428415057670201,-0.013276188148893612,-0.0016575583925304632
258,-0.00371085258739846,0.0032345469752996215,-0.009458500580448918,-0.019661719718257236,-0.005053365566748093
259,-0.004621394518431169,0.0023110574020914374,-0.011945938887854637,-0.021914019078887226,-0.00881804650010194
260,-0.0028669251543706775,0.0007090579060510334,-0.010977687654216134,-0.01985829105688129,-0.014326287849649856
261,-0.0002603636114147547,-0.0017475104834991032,-0.008926968847102116,-0.01687930183250275,-0.020923379153263543
262,0.0009982004714135107,-0.002015581865579431,-0.009071055012323448,-0.016896091178306465,-0.023149479471490698
263,0.0012915403668807596,0.0004482058877905052,-0.011661746454600858,-0.019471251168268113,-0.021678738169267766
264,0.001683749993916288,0.0029656651228659,-0.015130108700173324,-0.022259160885358512,-0.020957734676584665
265,0.002114354395743374,0.005269464271923412,-0.018130985387602813,-0.024536287575683317,-0.01950338272765928
266,0.0025826933073856586,0.007782744555555206,-0.019827332912993833,-0.026278208724639512,-0.01586252498427666
267,0.002915143386589063,0.008534012207210341,-0.020675821755891634,-0.0276834640779449,-0.01343752787187509
268,0.0027296461816845156,0.006439520393284356,-0.021472274613047345,-0.02921758671087052,-0.014781394369341172
269,0.002585654577132311,0.003538941184057026,-0.022114365243097532,-0.03079611147610414,-0.018642005997312687
270,0.003361017629931002,0.0011831362928359241,-0.022039045779323908,-0.03152622053421274,-0.023691944933439204
271,0.004431349943028316,-0.00044365779638402527,-0.022216322098035115,-0.03179776369995095,-0.028594905695021575
272,0.004729153932656752,0.00013730200777773476,-0.024424714658501552,-0.033203393806840495,-0.030157200506161566
273,0.004567114619876277,0.002987968623994855,-0.028022463720285783,-0.03541425141619327,-0.027785731311420134
274,0.004576726007628185,0.006304385546024536,-0.03127108028350509,-0.03689963129881867,-0.024360503056349188
275,0.004575548811905511,0.009029109237681618,-0.034041801156354724,-0.037891698840412776,-0.022953736308478297
276,0.004363715013425301,0.010979162551776321,-0.03410728939689431,-0.03644952305809995,-0.022223062536331644
277,0.004435229199402205,0.012208099604786155,-0.03268520319107141,-0.034065043373036424,-0.022707589092288483
278,0.0050439586577568345,0.012714253147814462,-0.029852918532244335,-0.03134592043506125,-0.023115462241314177
279,0.005163576796544121,0.012151246448388038,-0.025376392631645744,-0.027455652305683535,-0.020639615146783398
280,0.003840801620492093,0.009933682570131814,-0.02250091414185178,-0.024423969896865627,-0.017171813498208875
281,0.001842215080937292,0.007220655634348452,-0.02039378284700678,-0.02179655853955359,-0.013356564223024501
282,-0.0002921962738015758,0.005834867618745129,-0.01853358894393816,-0.02010009275097348,-0.010184209089878346
283,-0.0030115361613581933,0.0051602345364878096,-0.017968020833344953,-0.020180705505662457,-0.008878798972946973
284,-0.005547116685419845,0.0042786780267393375,-0.01854641587318526,-0.02109677576098951,-0.009046787309234208
285,-0.006940677515381418,0.0026503375188920847,-0.017614653236461976,-0.019348694018433713,-0.00977850800094718
286,-0.007845858567399371,0.0002623216561965701,-0.014895187922420557,-0.014481824583172563,-0.01139011937041709
287,-0.00905454757260246,-0.0012035094530178131,-0.011885253911489702,-0.009538019071630653,-0.012542361557966121
288,-0.009417639099287486,-0.00184799921033778,-0.0066723186402294615,-0.0038997862781142375,-0.011829992063457162
289,-0.00794959213785696,-0.003151739123491492,0.0013778333723279879,0.0034418439097767795,-0.010043800574582457
290,-0.006546533684695744,-0.004386667508669887,0.009816660860201647,0.010680166079332275,-0.005437489771251398
291,-0.006584559266207847,-0.004190456125780563,0.017169904032206335,0.01676047821252566,0.003504121678361467
292,-0.0072697995373100345,-0.002547551707298569,0.015596819948087877,0.015826923545200017,0.00917979755794263
293,-0.00839150760086094,-0.00027351079784584714,0.010096076203447352,0.012034898111207544,0.012436092362971062
294,-0.009610542064835572,0.0013835791829014906,0.004517184331371948,0.008849012892017036,0.01409936512494556
295,-0.009176091147513905,0.002494547036605412,-0.0026263129296895736,0.0056861687847871755,0.01344288580374101
296,-0.00674092205349789,0.0040214417472222335,-0.006074274330891239,0.006588805571216869,0.015457464713338556
297,-0.005192662438282537,0.004140033349627406,-0.009802230077449113,0.007409535523545784,0.015575647693409073
298,-0.006278182922793473,0.0009202473092638105,-0.017569450168543922,0.004516413038713576,0.009206798234764809
299,-0.007727365180902494,-0.0033219454140911487,-0.025804956396448517,0.0008814553075903514,0.0009602141615524317
300,-0.007380365496638882,-0.005231547547397104,-0.028539486023507473,0.0014026589104120131,-0.0012408759954764086
301,-0.005716434019772978,-0.0042023012495041815,-0.03008636906733498,0.00298261088330201,0.000491415176924254
302,-0.004320066066693425,-0.0021981465887629162,-0.03365648028648357,0.0032537671971754104,0.002097723719879557
303,-0.0038477694092184512,-0.0012575084767976182,-0.03646401411906577,0.0036023432382742914,0.00431195680677735
304,-0.003614930511892342,-0.0012674202320223482,-0.040105454103744304,0.002176775779490636,0.005109676257706967
305,-0.0032496674046168846,-0.0006319203455591218,-0.04427183246828309,-0.00032882463770926817,0.0038733985365561716
306,-0.003629789087236689,0.0010002787280623516,-0.048962191467054335,-0.0035150664842282355,0.00231032792904369
307,-0.005405199645280653,0.0020654804609622516,-0.05579066869939486,-0.008365921506408575,0.000598885872711753
308,-0.007433804384609356,0.0012958035072287125,-0.05580127275071581,-0.010951237506035893,-0.0012703854338282539
309,-0.007908781278852637,-0.002117655587960118,-0.051520048267622284,-0.009743572353238078,-0.0062692298529913384
310,-0.00693837290654873,-0.006939396579403483,-0.04660085828622578,-0.005600254979317808,-0.014633539922664142
311,-0.006430595235785306,-0.0087331808731321,-0.040497458817529954,-0.0015464885744342737,-0.019352748311920694
312,-0.006829071209590547,-0.0062695425978066465,-0.037944376993905765,-0.000896345108855379,-0.01766569326044659
313,-0.007333176776254709,-0.003100028705850972,-0.03548690489093553,-0.001759571729981556,-0.01255425587294198
314,-0.007577169856697413,-0.0014836948838239427,-0.030770790663917275,-0.0024447651626601633,-0.007069316673273003
315,-0.00682627130122313,-0.001086858908570049,-0.02553668722815108,-0.0023693834286999133,-0.004079435335967251
316,-0.0048865018524947195,-0.001073052620497736,-0.02345813641414792,-0.0024398084706315384,-0.004111680663685068
317,-0.0031708043497593224,-0.0012354444870695494,-0.022198846936105403,-0.0031585568756041763,-0.004460649611765026
318,-0.003143644691117863,-0.0018154332730790973,-0.021262081747800483,-0.005753575038703538,-0.004598525599768929
319,-0.004304166674465962,-0.002572677110783334,-0.02196872202986485,-0.010372371728697044,-0.005378360501038725
320,-0.004535337380316567,-0.003322378460967916,-0.01971514102911616,-0.013541896064227007,-0.007503123972102855
321,-0.0029047645405376288,-0.0043721495266335385,-0.015164719297771719,-0.013907483769574196,-0.012209416807199901
322,-0.0008103911762153752,-0.005318839743076771,-0.010352248841910636,-0.013536683727905513,-0.018486427191871733
323,0.0001631863177874253,-0.004979995457833113,-0.005115274178654995,-0.013827772211409567,-0.021787397714731423
324,4.2647772970955574e-05,-0.002673425785722087,-0.0019210620370816915,-0.012293641317510024,-0.01714137052387974
325,-0.00019085059828625084,0.0004972325963642635,-0.00012773618729644456,-0.010074909605488699,-0.010788541073078008
326,-0.0003014885539784616,0.002510982714150989,0.0011269569277499822,-0.0077656336571547795,-0.007320966619068001
327,-0.0007567051394370572,0.0035998135549975036,0.0007205795355165271,-0.004849794196648191,-0.0046767199451108596
328,-0.0014242760268889743,0.004966423889530719,-0.00030569630525518544,-0.0034695940352468704,-0.0029734303681686405
329,-0.0019191362525908218,0.005843249994090824,-0.001204510857223703,-0.0024109227339156212,-8.537562191673087e-05
330,-0.0024940396473668446,0.00537992006906945,-0.0019305685883910743,-0.0007333424447860331,0.003579374342408372
331,-0.0031219566228221727,0.004241512741563189,-0.0019283935602541662,0.0012707742933976652,0.006049239582189012
332,-0.002660198889530761,0.0032156533275178164,0.000979616024487632,0.0037405597180465234,0.006196874741182898
333,-0.0003706048393963766,0.0024478477064185183,0.005842286048280451,0.0083751130094925,0.005565984372684173
334,0.0017910033238388657,0.0017295660048534795,0.009774742232396546,0.01336381353406176,0.006498844174750769
335,0.0013062373272582418,0.0008902991323075982,0.01130848286022795,0.015172821297280377,0.01021778158771546
336,-0.0010783660948397544,-0.00010078922260238257,0.010484211883551451,0.015071312601103462,0.01540195348465288
337,-0.0027474207908017817,-0.00205712809850122,0.009175199460953914,0.0153525681483641,0.016796067907242446
338,-0.003043460144323924,-0.004948909666839031,0.00806551905567427,0.016491684738750196,0.014108019495394057
339,-0.0030465515782359936,-0.007051472473881048,0.007121822711455226,0.017876169466179283,0.01229142880647776
340,-0.0022208863871750984,-0.007349738870358431,0.007675854092411876,0.0186951276589896,0.01192521634771539
341,0.00015314684313352952,-0.0058506238950909685,0.010570139895409012,0.020452477869173365,0.013772477765067495
342,0.0027898497576377664,-0.0037648515169580767,0.014991790153374544,0.023005212931942434,0.01819588660721403
343,0.004059217566097706,-0.003491145667178017,0.018695163405274103,0.02430619240743809,0.021280480124370307
344,0.0030654601771052024,-0.005543284605559603,0.019113814894572263,0.023081440559648444,0.020893402143228178
345,-5.822538890771473e-05,-0.00731076785170703,0.01604322803190107,0.018854882109468965,0.01989578972195585
346,-0.003450119609395608,-0.007218814566689143,0.012261280757400992,0.014228139961502868,0.019901398458452294
347,-0.005066593691794163,-0.006055131746594784,0.010541135389790072,0.012263046535855457,0.020001564832362696
348,-0.004921090475743375,-0.004517882513441503,0.010833281506000792,0.01302382862643836,0.021507189139292653
349,-0.0034622313211094065,-0.004029204184094477,0.012219193196193391,0.01492306939605919,0.023364824323081845
350,-0.002057526048777574,-0.005927920982535361,0.0135231050419182,0.01620909826581532,0.023178098598904923
351,-0.0031002012282410375,-0.008639685239635393,0.013034200789041292,0.014800129756576052,0.02150423765076713
352,-0.005362134758244556,-0.009585793324855459,0.012020184161292871,0.012075376359270655,0.019843919406540303
353,-0.005249460072790603,-0.008163427547661428,0.013254609654350345,0.012127333589209022,0.018698013261041983
354,-0.0028142044662030816,-0.00610543386810013,0.01618225048467235,0.014815194737741481,0.01746856524064058
355,-0.00030144991685133625,-0.005646055077917632,0.019026603598435034,0.01800123454884077,0.01551458738991671
356,0.001864516858690614,-0.006796971293318435,0.021552596036764373,0.021635321385675855,0.013117438272463795
357,0.0035618865577630985,-0.008246866758274867,0.023415972132896156,0.0252723497928675,0.011395007752143404
358,0.004866934761784251,-0.009431437690471191,0.025160209134199696,0.0285560126278671,0.011457124209674617
359,0.0057084346129212815,-0.009402262597562805,0.026958764200997343,0.030776999612367333,0.015146418404625406
360,0.005247251449395668,-0.007191432993286345,0.027094150134900456,0.030328475930668643,0.022182697543687364
361,0.004388313271103928,-0.0039837254671996145,0.02597927263313902,0.028523568654425537,0.028613764355547914
362,0.004587471968473749,-0.0011422112144516732,0.02578663537985089,0.0280915976828313,0.033411763737501765
363,0.005814338101248109,0.0010499841618082661,0.027188671917886202,0.02986045487786133,0.03703968723551988
364,0.006833951494544417,0.0017956717723596738,0.028925231993090668,0.03229742120505486,0.037068750623776486
365,0.006492646210037986,0.0005583164001165896,0.03014597331198415,0.03342903918670198,0.03381329960740016
366,0.004911410505434807,-0.0014109542010492975,0.031227317702743125,0.03295966016553215,0.030998255565719564
367,0.0029374805628068737,-0.002048780540621099,0.03154645232466683,0.031247442000609686,0.03021971990321779
368,0.0012851171820099248,-0.0019339462395757312,0.030389186637748568,0.029136692590343138,0.02946406772038449
369,0.0001779516017620138,-0.003001838629011955,0.028338707096885362,0.027569748092602462,0.02683713676868068
370,-0.0003421034757065948,-0.005446163037010626,0.026539508216239842,0.026891024557575402,0.023504734014035942
371,-0.0006474564128955713,-0.008394367460343645,0.02504216785711145,0.026744690236565213,0.02090049378133031
372,-0.0012306959809698264,-0.009793268323595027,0.022758911963840295,0.025817517443838468,0.01928690283690244
373,-0.0017002998364621003,-0.008746068754659319,0.020294034251818263,0.023973064114119008,0.018456269636217878
374,-0.0015417883384021445,-0.006779558207775372,0.01912427273578786,0.022204517213762258,0.018107936042294312
375,-0.00037997759337670225,-0.004794538951928792,0.01965447082562631,0.02110396536761001,0.01886530392761571
376,0.0013731599066478901,-0.0029599323332904753,0.021446438671814057,0.020840585420087186,0.02147695411891636
377,0.0019305252073057754,-0.0021925899160374473,0.0223983033762897,0.020164687935003457,0.024543429552303025
378,0.0010996903592183113,-0.0033952190171215027,0.02120376869485658,0.018447136681134044,0.02454327691383106
379,0.0007024038237359436,-0.0064391995610463505,0.019777223140789682,0.017541652915862172,0.019699890517490402
380,0.000982406018771317,-0.008682782412117153,0.019475150094104235,0.017895543394201116,0.01482353473786439
381,0.0009402795979812101,-0.006980299642386138,0.019665620050925814,0.017901090073427276,0.016820597823747483
382,0.0008702003145706727,-0.00262736769903835,0.02017960800703067,0.01760413248306595,0.024550352845861222
383,0.0013589653710843598,0.0008657965177195507,0.021034576916415824,0.017949178622626454,0.03136682943710824
384,0.002088818179756956,0.0018529092130638233,0.022413267749714007,0.0191499965112065,0.03354407189146402
385,0.0024753486791632717,0.000597344550724647,0.024751808196431517,0.021248988876100845,0.031651797600466686
386,0.002432209750376297,-0.0017707429913208163,0.027671265878494306,0.024087998051299984,0.027926899272746827
387,0.002471315418362404,-0.00441127297703002,0.030238409356688232,0.027144598093905483,0.024118249011288728
388,0.0028287883288353882,-0.005234013664101817,0.0310549157935785,0.029370521491902498,0.022166772408097776
389,0.002859993092441118,-0.0024872093510115503,0.02915291211361229,0.029623742545974045,0.023168432032199447
390,0.002109099026800507,0.0011436503454088317,0.02574293708933031,0.028298273247254167,0.024300378644653065
391,0.0011447726660745818,0.002597410194008209,0.023194036950224213,0.027214542883649277,0.023527497861795768
392,0.0006230292975385243,0.0024766695132579495,0.022352577096236923,0.02721227563511372,0.02315807680957176
393,0.0007763624820891899,0.002892634328870269,0.021993709863988235,0.027283347298972936,0.024686605365648626
394,0.0014504232620775773,0.004040513299447688,0.020916960214607455,0.026468896823687707,0.026956742380060055
395,0.0021791608959971414,0.003966259595515231,0.019261696517537272,0.024996724490910602,0.02815345936488683
396,0.0031986459444328383,0.0025527018334732133,0.018232366175553946,0.023864994448649115,0.027111399699096678
397,0.0042829319525057785,0.0011735307305181378,0.01839493154608707,0.023193421223911544,0.02420543907585411
398,0.004272897496283304,-7.16891205689552e-05,0.01899854486824285,0.0220675078835098,0.02096892147718827
399,0.0036682754651542224,-0.0010262809427592772,0.019890852252020065,0.020738078496986383,0.019637428458262777
400,0.003736579221643033,-0.0013921514078444434,0.0211569292283478,0.020042090488904433,0.020945269935045436
401,0.0038748878675104828,-0.0013455209363116985,0.02156540069731447,0.0194006040266272,0.02327224555622889
402,0.0032788554594366747,-0.0001555525273242324,0.02037567424588183,0.01797285832716585,0.025954932314211386
403,0.003192616848135979,0.001761436790274515,0.019144568105943442,0.01725714640783998,0.027249351219827998
404,0.003813479359176585,0.002216178992372914,0.018643560788251502,0.018064700308421913,0.0246272843425779
405,0.0035573779677251114,0.001773666365010297,0.01774854281385024,0.018245546649140333,0.020758332932710004
406,0.0024188422094768244,0.0024325116460881457,0.01658725488170493,0.017052142184503426,0.01898780615372757
407,0.0011918668482782929,0.003253836511054956,0.016190745982211284,0.015886711739586872,0.018342647199070767
408,0.0003704378460674811,0.003065852352756617,0.016874595063269826,0.01568538475166531,0.018082916609731783
409,0.0004537384116637475,0.002575847491975754,0.018154417720190552,0.01645624064572479,0.018616464663312793
410,0.0009388519240397617,0.002119530691604466,0.01836811058274022,0.016989695452428427,0.019087942118769623
411,0.001846146538672694,0.000895611591230791,0.01736438400952123,0.017151343480028877,0.017824616881781642
412,0.0038273549390564813,-0.0018700945036379325,0.016970250629394557,0.01835479537247172,0.014170453627481245
413,0.005398367700935607,-0.004793860757849589,0.016642380353975913,0.019596354317543578,0.01074054214197234
414,0.00551569901031412,-0.007354706615401224,0.015556658546148225,0.02017011751153355,0.008431974349996691
415,0.004734958347920572,-0.010016324688536912,0.014634956283257982,0.02081509176142131,0.005672204598192147
416,0.002407450329889484,-0.010214254160705207,0.013373179777734417,0.019704791817833654,0.0046993852523972215
417,-0.001343844006878792,-0.00764569068158307,0.0112750917714583,0.015887478909590913,0.00650800737301178
418,-0.004951404572951097,-0.005006253444239392,0.00873278948509018,0.01105671112798922,0.009199188502277206
419,-0.007793609054930968,-0.0032132479692505308,0.005833864801229616,0.0063492114766211145,0.01275295859477804
420,-0.009147265568654082,-0.0021332178905078113,0.003567232304648621,0.002706683896854618,0.015666667016567572
421,-0.008163160086929562,-0.0016629679133015292,0.002764225758917501,0.0010789589349745477,0.014987218413185486
422,-0.005915124661789106,-0.0013324290677080575,0.0027221042718847057,0.0009737969015663704,0.012368527913854732
423,-0.0038599646969644567,-0.0009509363598268548,0.002995436366247816,0.0016343794909748715,0.010400560466527785
424,-0.0024510063074383226,-0.0015985875721511655,0.003384846808367572,0.002717659066920453,0.007340358470661199
425,-0.0015556955415574139,-0.0031568040006251246,0.003518503525804462,0.0038541979179276525,0.0032263458427692756
426,2.2901258246577646e-07,-0.0038220700002863667,0.0045490525303749875,0.005912084749131621,0.0011730256511760311
427,0.002920140308689522,-0.003108057271104045,0.007807201146290264,0.009828892260303564,0.002118593672601589
428,0.0058924594548875634,-0.0014108101969819342,0.011914205452518591,0.013947313202200664,0.005252463882613559
429,0.0073578889602403915,0.0007534306501711282,0.014444553024261285,0.01579088612064317,0.009168322171409747
430,0.007331939592063671,0.0024021658634488367,0.015287719845933832,0.015439235957550316,0.01240179842390122
431,0.0063369571678342776,0.002709519737513401,0.014907167065690551,0.014211372988376143,0.013178844580481137
432,0.004271355853830845,0.0013317645747068065,0.01301698004533332,0.012462813184112019,0.010436710048001155
433,0.0016495666050739973,-0.001382417877186213,0.01066164577956436,0.010838313244425262,0.00560660766032636
434,-2.7122525886996363e-05,-0.003991664168988,0.009671869939476248,0.010613282277170873,0.00215330877573117
435,-0.00022846278775240928,-0.004796246620841911,0.010188991083795446,0.01164368190354142,0.002690570905177241
436,0.0005764754263234893,-0.004132473738338828,0.010983945601926714,0.013117102523812908,0.00392681191579605
437,0.0021339211401293886,-0.0046045149698610705,0.012088192519729734,0.015621441234068365,0.0021040869522024734
438,0.0033282642080376414,-0.0060747040625944914,0.013344113637221568,0.018252294002807964,0.001734462293359032
439,0.0031997578251974313,-0.005195322168144854,0.013116675895387155,0.018476692002059692,0.006381509769098847
440,0.0024921715223654986,-0.002475289428165791,0.011042988051579317,0.016452456498827997,0.010491112076947405
441,0.0016493866208586532,-0.0007488111140055326,0.008166819049422014,0.013742275209888905,0.01036859689094638
442,0.0010620109155954815,0.00039248351185998767,0.006248876352427022,0.011841456399686158,0.009673076253551197
443,0.0020838585915930363,0.0022617767126078586,0.00683574320829355,0.01247647178194772,0.011133668482209822
444,0.004577755983323376,0.004195580498918156,0.008655872790546183,0.01487972412690298,0.012965496025089982
445,0.006284463893608824,0.005408594291393811,0.009041455136969363,0.015984165739490637,0.013818791364973534
446,0.006551345333036251,0.0058892817046753854,0.008243643488397553,0.015499649103403644,0.013229895564364706
447,0.00664456952665574,0.0048357520016682155,0.00852395132831657,0.01588612900516599,0.009672547734935096
448,0.006408467151702443,0.002523826005548488,0.009848399805805761,0.01709696872376953,0.004745150449011594
449,0.005333204590378651,0.0006935666329273219,0.010551221043102956,0.017589210819825108,0.0013490133771559111
450,0.004567033011830376,-5.676533020564156e-06,0.010948758528930382,0.01795003920760654,0.0006927523647902147
451,0.004991147752522344,0.0005544861060034676,0.012146617989157804,0.01898862958475607,0.003804889541725911
452,0.006139288936760851,0.0014359088796885814,0.013449888412274713,0.020372465940296344,0.007698700488083218
453,0.007389462774154764,0.0006663786164466319,0.013905132836328755,0.021815058096662728,0.007473035819355391
454,0.008172729179347485,-0.0015217180885447599,0.013608451394239671,0.022740654406974353,0.003884814702943178
455,0.008029256214806497,-0.0028241259192007787,0.012708984785605608,0.02226042411153856,0.0010538288024416077
456,0.007311063509010109,-0.0023357176992037615,0.011557251611313454,0.020518963516280322,-0.00015522848631916063
457,0.00676073755817356,-0.0012064494451967717,0.011027991344267437,0.018599207957948442,-0.001694002465490537
458,0.006777299011359932,0.00021054959078506186,0.0115661137589242,0.017395857451829234,-0.002188425243984038
459,0.007105087844856034,0.0023542875954807945,0.012503205019356322,0.017045012395430714,0.0010520680329224991
460,0.006522357032586023,0.003868968959381956,0.012010911259408832,0.01630329433574325,0.0049292576078503935
461,0.004772618567397214,0.003616079329618537,0.00980895827175279,0.014390793646184303,0.005666791763765001
462,0.003329783163463795,0.003102471618585431,0.008296233461881124,0.012526906134006262,0.0055129368147338095
463,0.0032885749260977994,0.003803424083621476,0.009013397330029056,0.011938992149982524,0.007319252939382285
464,0.004016763696647388,0.005105071690971156,0.01060104627104657,0.012090604308307848,0.009234199411033843
465,0.004438151305707417,0.005948669159539227,0.011129505402183501,0.011710366101163192,0.009277124258164347
466,0.004849034763894342,0.005574560769911809,0.01065664268477434,0.010690716973865108,0.008097145342502885
467,0.005232836501767478,0.004454318777306005,0.009888988415561692,0.009208818320538145,0.007005343059598775
468,0.004436332322836294,0.004142736696450673,0.008445187429259426,0.006762883282841552,0.0070249566000152325
469,0.002423036198327699,0.004717548106603141,0.006082166293602569,0.003478599736407556,0.0075757399394319426
470,0.00036512692730666924,0.0057297603136456125,0.0037401927225903238,0.0002551532890084939,0.007302504586276524
471,-0.0015754890156528371,0.00626185921679883,0.001987093765556563,-0.0027130186665605257,0.004623436679903999
472,-0.003641432472511261,0.004914722363572949,0.0010683283659623226,-0.005026304307571231,-0.0005616506528715257
473,-0.004636645832472168,0.002767431475200694,0.0019640971574954084,-0.005155236300420677,-0.004757875825666385
474,-0.004312577907152872,0.002057233058618372,0.0038948163689909816,-0.003765066823898669,-0.005417029776993381
475,-0.0040905373356834255,0.0029075386373313182,0.004660216099770591,-0.0033487151812622096,-0.004416059266045752
476,-0.004089162674907704,0.004090313792676354,0.0040720044091979045,-0.003962510417132996,-0.004501914539119398
477,-0.0037344819633876826,0.004830391320358022,0.003255455480129463,-0.004262761025933264,-0.0061927564662731475
478,-0.0031344018255433635,0.005132337048584905,0.003614526768662001,-0.0037165478039085003,-0.007620857468458447
479,-0.0023415093963661837,0.005347572967820859,0.005984304239201922,-0.0022468987951990292,-0.0063849032514809315
480,-0.001851968495307166,0.0052047791607885,0.008321456490601863,-0.0009737532569094385,-0.0030322357926978977
481,-0.003523894820070487,0.0032565750372475087,0.007114340953911728,-0.002626653043056717,-0.0004774465261578645
482,-0.007577898594408027,-0.0011933526045572486,0.002010729933930109,-0.007440577651066479,-0.0010058755560683169
483,-0.010893474237447352,-0.00612351492848334,-0.0030621138065470713,-0.01138504092296067,-0.004562326884608425
484,-0.01171678872122887,-0.008600579631602368,-0.004574107347622209,-0.012100554058913937,-0.0073116927677805395
485,-0.01101404868263466,-0.007443207991688201,-0.003037614017705695,-0.011182540911832767,-0.0059829694600716295
486,-0.009501590662274831,-0.004133490678259076,-0.0010621177535687708,-0.010132091612596846,-0.002488665466413272
487,-0.0073923646224839795,-0.0025063679722776935,-0.00015973451448205895,-0.008653526090524662,-0.001838217346443782
488,-0.004823700068493888,-0.004293527092906718,0.00012478503005323996,-0.006061219860482114,-0.0057294734973363124
489,-0.0024499586404866263,-0.006428151698165082,0.0003551719638558267,-0.0034747689326347594,-0.00865513139971357
490,-0.0010710751735557465,-0.006818612763520592,0.00046059225639424574,-0.002515857653891901,-0.005941775546027054
491,-0.0009876244983624282,-0.005984200827697711,3.5432981235922514e-05,-0.0037207543607150053,-0.0001871115539230438
492,-0.002544281458364989,-0.004385751126906105,-0.001834258492339107,-0.007220783381591552,0.003520675708631198
493,-0.005214469469775184,-0.003237711827345311,-0.0048570960247571815,-0.011370547128716846,0.0032216459327320795
494,-0.008285409393381219,-0.0033203152193743623,-0.007989782546580807,-0.014578320127684279,0.0009621234433731262
495,-0.01042198000884605,-0.002780797383819824,-0.009797065126642492,-0.015963239934599926,0.0001300841291805761
496,-0.009960231891232336,2.581847725379461e-05,-0.00873677791561671,-0.014287354940472334,0.002410513401628846
497,-0.00788315302683789,0.003203198170873471,-0.005585713788913481,-0.010333330891957098,0.0058925237973812316
498,-0.0057143059759568625,0.004343804306170724,-0.002166900102738274,-0.005993548261752526,0.006050689576782054
499,-0.003685322839767639,0.0034081719144495046,0.00037058995821587107,-0.0025185573623153824,0.0008423539902996359
500,-0.0016901548868250708,0.0013444938052509887,0.001615448548770797,-5.2760490404316564e-05,-0.006454591391999326
501,-0.0007922861543164195,-0.0004713471434932784,0.0007951240102375452,0.0006459379599460101,-0.009798177141655368
502,-0.002515181450453124,-0.00044110620796256473,-0.0025220582990873592,-0.0018253334675921368,-0.005809150973712853
503,-0.0051008230720763804,0.001449567052944198,-0.005564133575827248,-0.005382873798690014,0.0018017702814474455
504,-0.006035995043892353,0.003543966317720752,-0.005881330936811316,-0.007199561393812717,0.007087398819539688
505,-0.005398207431742138,0.004817842898899074,-0.004677385629138168,-0.0074504666973827256,0.008084646593168309
506,-0.003832670151959905,0.005657814464017592,-0.003793095804369787,-0.007066533164134932,0.006056180627690054
507,-0.0017605703284085052,0.0062623654327828085,-0.0033380085584670868,-0.006079682330115411,0.0038903305423271463
508,8.109991390071013e-05,0.006367350823958679,-0.0026410192526754553,-0.00416980778310107,0.0037125758362544416
509,0.0012056444341913921,0.005999999202617244,-0.0016449802688277494,-0.0014880617162968438,0.004820691052446291
510,0.0015673388328988815,0.005273556052330656,-0.0008683274912346336,0.0007554622837401787,0.006086857667422676
511,0.0019181308794134113,0.004675853143491236,-0.0003903750237286121,0.0017951509886231743,0.006923114983441487
512,0.003056138631442328,0.004283252722465644,0.0003714329570606039,0.0025055844756419433,0.0061339371908025915
513,0.0037678401209633285,0.003247307630647436,0.0013139226519016305,0.002954313536620012,0.004184389406439968
514,0.0026036100403661173,0.0020138827418886758,0.0013326809037122389,0.001815362081696611,0.003516273505648941
515,0.0008021168645310838,0.0013132445949864805,0.0002855267270039134,-0.0005441658875592577,0.0033650413934302637
516,0.0007161408992174122,8.407329276094987e-05,-0.00041565228674951055,-0.001779654309059149,0.00047943121942151356
517,0.0017701816844358975,-0.0015265527223497048,-0.0006377341109778311,-0.001993364510716491,-0.004059916439512109
518,0.0016208146762240953,-0.001779396936002581,-0.00124873362620101,-0.0034369915008092716,-0.006784341947033348
519,0.00011968579978120436,-0.001112214765807122,-0.0018874531562021672,-0.006279496147452378,-0.006914310270801743
520,-0.0015046200420810384,-0.0014001267421194488,-0.0020851897272768307,-0.008931163727516003,-0.006056369790618708
521,-0.0026448336490159253,-0.0028678353630800305,-0.0017245939740864178,-0.010082485166234296,-0.005711326512380205
522,-0.0030274605676694336,-0.0033631479025921177,-0.0006712403247438946,-0.00956812420825783,-0.00496708705210638
523,-0.001897216674391658,-0.0006646285059936827,0.000843392203136385,-0.007835610373085123,-0.0024356380766520375
524,0.0006114428714642826,0.004209561437416033,0.0022052134738340047,-0.005557155875726079,0.0024831827759043464
525,0.0029447737280501383,0.008159019385762554,0.0030360317175242976,-0.0036034597332524204,0.008827186013969656
526,0.0045785957091854365,0.009436000070911554,0.003609203728071154,-0.001996528893402272,0.012021120176389895
527,0.005889420906710282,0.008732635673107086,0.004306304999714153,-0.00042086082176640975,0.010418948152683148
528,0.006362828406863253,0.00772280504406452,0.004971870333263526,0.0003554925939797523,0.008052084176532406
529,0.005799224810274128,0.006949404697710319,0.005234861244593419,-9.648449486712347e-05,0.006374691624846442
530,0.004877292992670244,0.00615871224090487,0.004934312047661501,-0.0013180466474224763,0.003975626810121447
531,0.003637083697717157,0.006123832155498688,0.0039027330961149955,-0.003652998722043757,0.0018807610796176407
532,0.0020075226969359003,0.006943690995145515,0.0023460531422989967,-0.006705488031782124,0.0004380029659096773
533,0.0009747288825895226,0.007438270964282671,0.0013737896154944085,-0.008072410348713843,-0.0015188299471871499
534,0.0010999554856213475,0.007117894296127855,0.002021199035602331,-0.006217524540492799,-0.002732139710750312
535,0.0015453926694073345,0.005538081204091245,0.0035806366022441863,-0.0024856087961677145,-0.0032039999792402036
536,0.0013292997877743225,0.0029549127299830025,0.004183337576136287,6.363009371405403e-05,-0.004329982463978273
537,0.00019897734077192365,0.0008338949214237459,0.003062844992615928,-0.0004717055548214144,-0.004368114338917672
538,-0.0009697091449047243,-0.00048686408395293184,0.0011212589107904517,-0.0028704140039135582,-0.002779682129495658
539,-0.0010302415854743945,-0.0019333569620169238,-0.0002352921262163194,-0.004501816250112787,-0.001651352725438983
540,6.443824835329703e-05,-0.0029357714299970902,-0.0005401158643826185,-0.004415439269722271,-0.000724956662478211
541,0.0018228927235138482,-0.0025821038981370015,-0.0003671580391737615,-0.0033910384005543253,1.6949293450976727e-05
542,0.0037636502624865606,-0.002065145375056578,-0.00014346457721776756,-0.0024361747245733104,-0.0011132129944674074
543,0.00538128704090569,-0.0022284631455337235,0.0002784421502821446,-0.00209628757785225,-0.0033411246034217
544,0.006824781396274166,-0.002364853924897386,0.0014743643113223053,-0.001693753597792593,-0.004336989052578721
545,0.008081927641144793,-0.0017466247268497158,0.0032566882247262795,-0.0008562016184931718,-0.002847530019660743
546,0.009008196352857004,-0.00021018421810858057,0.005071896585262102,-3.0255114289325207e-05,0.0012384769340329676
547,0.009552065542294742,0.001560309662010278,0.006375878889904949,0.00034739681439075387,0.006754363081117071
548,0.009301816737480336,0.002625437740489521,0.006082759372909303,-0.0001731583589446535,0.010352252929105823
549,0.008543572376516465,0.0025878453559174766,0.0046731682411001235,-0.0009942140489472928,0.009407233163868888
550,0.0068012707207399,0.0015430614253008625,0.002871636028281854,-0.002579643155101396,0.005564433706197684
551,0.003179348324515283,1.0755662280648384e-05,0.0002125444933885581,-0.006253220622328797,0.0017692709915018271
552,-0.0012405686068857425,-0.0017571595899032004,-0.0028099259246662446,-0.010842354111537465,-0.00047784953263362554
553,-0.004524390767304643,-0.00317774982804369,-0.005004388035068664,-0.013967740383867932,-0.00011353969872822919
554,-0.005575668199608494,-0.0032897180982372526,-0.005648334088184799,-0.014401270331271126,0.002430198946650149
555,-0.004800526557694907,-0.002634086247118683,-0.004941286988967839,-0.012440505400317499,0.004932729605964955
556,-0.0033360454566917913,-0.0020354677503791195,-0.004117094271082349,-0.009363584499448803,0.006254077750322573
557,-0.0017219669848896203,-0.0015271665563963246,-0.004021743936030536,-0.006502955943259111,0.006694017441423732
558,-0.0005207694006156008,-0.0014555511093753807,-0.004741058555351999,-0.0050714800849048355,0.0070802057174929765
559,-0.00012144410123839692,-0.001984852812233398,-0.005819325177036473,-0.005180482256672589,0.008382521917275058
560,0.0006604077606036651,-0.002639113782828086,-0.005842020871912811,-0.0050110293452400685,0.009568328650386636
561,0.0026383025564870734,-0.002785564763214906,-0.004460395144644735,-0.0036190859868194705,0.008386764616573327
562,0.005012652616495917,-0.002764720744324535,-0.002782153756831731,-0.0017104778297186729,0.004049872822893289
563,0.006451772132396954,-0.004457690611507171,-0.001963167297797365,-0.0003829175186278161,-0.0028256928731527743
564,0.005660172986855818,-0.0076863978277959925,-0.002877915967017748,-0.001078046877361334,-0.008661439023977879
565,0.003406111274936977,-0.009984039003138073,-0.004765184935503822,-0.0032514206207153703,-0.010680847745031837
566,0.0019204185824163,-0.011059452841302483,-0.005700499984650555,-0.004576143933755552,-0.010974175300609271
567,0.0016544465661799046,-0.011636388018492889,-0.004998040649835751,-0.004417402011814582,-0.010098565069852454
568,0.001549962373938796,-0.011301109843959654,-0.003565855605532217,-0.003807073340590538,-0.006386780232130028
569,0.0009000517548234808,-0.009492080438271249,-0.002652246118762586,-0.0037040451731264294,-0.001324450181098711
570,0.00029599611822385706,-0.006039326518793997,-0.002452031351818192,-0.003961794258339157,0.00222138312900344
571,0.001108921672070258,-0.0011985765628009315,-0.00190121717704125,-0.003255163770258732,0.004370919404891598
572,0.0033298500310051647,0.0037305875708447873,-0.0005581175638687387,-0.001144604417390683,0.006910840949018063
573,0.0055818258992060485,0.006824329645993173,0.000736950993210901,0.0012378520293786328,0.010188255599847665
574,0.00722134541176535,0.006985522134945262,0.001630951167123167,0.003435684062880734,0.013243075273942426
575,0.00812209232291917,0.00560422172605658,0.0019499983557316437,0.005270167153845534,0.014644435375315347
576,0.008133711067946981,0.00561256387374138,0.0011509772294928354,0.005686900723200779,0.013981594624830836
577,0.007959928467306482,0.0074693780911089845,-2.403129966012165e-06,0.004877352121043429,0.012996113182579767
578,0.007993002593453867,0.009816709829342789,-0.0006004718511247201,0.0036473128205127743,0.013435117793864113
579,0.007642534424080504,0.011727542831735337,-0.0008834459519720866,0.002169599515584784,0.014597678451707605
580,0.006816619050675744,0.012753668648615123,-0.001031278166961584,0.0011921194331199236,0.015461069059480512
581,0.005927692521935426,0.012872357244339465,-0.0011492065444577238,0.0011717598977972745,0.0160453151922215
582,0.005844854647487873,0.01148534821129776,-0.0014726374954307266,0.0019169669857928675,0.013890266225818888
583,0.00662570101816995,0.007936481719798945,-0.0026990691575768887,0.0023030565134114583,0.006994354386556938
584,0.006666727712918762,0.0034306099865858302,-0.005587361567203077,0.0004943037390313252,-0.0012846773601791726
585,0.005630131699088459,0.00015306041898694264,-0.009139801860623683,-0.002735358125431921,-0.0068904170824507505
586,0.004494927403581139,-0.0016634324183940363,-0.011319583077001899,-0.004717060351704059,-0.009507715242655063
587,0.0032833475616283725,-0.0031094074814969454,-0.011989178801053534,-0.005332420901555592,-0.011146676241743229
588,0.0021327019025615857,-0.0038517076249944653,-0.011989260129460708,-0.006006232447827735,-0.012612293468008183
589,0.002261635962817142,-0.0032919323548477966,-0.010405167404649836,-0.006030811218426592,-0.013553469458856342
590,0.003996498363154696,-0.0024029228027708763,-0.0069097795081826405,-0.004427542601319534,-0.014574736751429737
591,0.006149941898092655,-0.001950600594544756,-0.003417939036899361,-0.002127667422516287,-0.015194193437455513
592,0.0073027386515866835,-0.0020402005703000154,-0.0019974564983151564,-0.0005867698812783364,-0.014333376972941878
593,0.007097869944245546,-0.0029875163006539687,-0.0030097049256493486,-0.0002728948490534321,-0.012713006749128132
594,0.006250520356201502,-0.004228220594041323,-0.0053379048073744035,-0.0007769700708278852,-0.010946988669491684
595,0.004940092957344368,-0.00507383071129722,-0.008582471397347791,-0.0022847642867792266,-0.010108516780893587
596,0.0032030309250730797,-0.005890705322918983,-0.012271166724528635,-0.004595199313414045,-0.011224343693289292
597,0.0014978868065619168,-0.006941304079042203,-0.015203069887371065,-0.0067732282487742036,-0.012662536240091862
598,0.00038325627162794876,-0.007655212558934754,-0.017081337826135256,-0.00854629307742161,-0.013524039368711915
599,0.0004015069134049778,-0.007152348350014322,-0.01775106564169798,-0.009579365190720075,-0.014126888440418444
600,0.0013781491652377139,-0.005502388099472812,-0.016820745877174702,-0.009240110535537903,-0.013972142052261414
601,0.002603448859680788,-0.004026791932392513,-0.014725214910703392,-0.007631174306583581,-0.013308435974097917
602,0.003226280751673599,-0.0033549344007763877,-0.012557602314823195,-0.0059318170736795735,-0.01238260002509921
603,0.0025156064120973026,-0.002946912723890998,-0.0111375370313585,-0.005327194636704367,-0.010750025812692875
604,0.0009752675827612326,-0.0028166091513313987,-0.01026310302462485,-0.005303508721388372,-0.008912724372516074
605,-0.000269745388209512,-0.003405049136853407,-0.009395967663514,-0.004816963492333939,-0.007718083870302485
606,-0.0009153741424923451,-0.004283452230774433,-0.008329197748252375,-0.004172869964688765,-0.00657411561448025
607,-0.0006864143358761087,-0.005108434696318639,-0.006907502780613244,-0.0037085887098249302,-0.005959366530434429
608,0.0008519409775182635,-0.005051262555607779,-0.005292266782864948,-0.0033870927661313883,-0.006880853564497309
609,0.0030464147787986375,-0.002918125496912985,-0.0037895539717957383,-0.003539625911867041,-0.007467975348725273
610,0.0045112466968866335,-7.252554100857636e-05,-0.0024805980386426226,-0.0041698275164162345,-0.006775763510452913
611,0.0046215471040121185,0.0019528877677636733,-0.0015222091537691132,-0.004804462019296547,-0.005210403955025216
612,0.003227598782306361,0.00317186814315432,-0.0017532765973581651,-0.005782296728896253,-0.0025924600678494747
613,0.00048697974364902155,0.003472481944161317,-0.003986572336938051,-0.007860506507461116,-0.0005685495164264542
614,-0.0021975207807839016,0.0031210953075795802,-0.007253628519811414,-0.010054755809799913,-0.0009638939861156377
615,-0.0032044139290320706,0.002857585059690334,-0.009490942569674019,-0.01065173118808065,-0.002588457373698421
616,-0.0025811769166375117,0.0032895047671936957,-0.009883990260855843,-0.009798539354218238,-0.0027641227229514686
617,-0.0012376998706907613,0.004185455375711332,-0.008804017552585936,-0.00816665509607298,-0.0016730501297164385
618,0.0005743451977521986,0.004662871971922309,-0.0067917626516318325,-0.005555915302918184,-0.0018528177157666778
619,0.00271769547659232,0.004869203290737852,-0.004971362771755404,-0.0025052639415080132,-0.003942915665382826
620,0.004454183338950969,0.00537740303827889,-0.004662277836594489,-0.00043055042650980336,-0.006967289469621478
621,0.004844491541096211,0.005758135551358924,-0.005939929344091399,-0.00018566965263922206,-0.010063368690014925
622,0.004207249082692179,0.005649181845433554,-0.007319945691107467,-0.0011394884920625404,-0.012680363694104203
623,0.003632057068381853,0.00511346934943441,-0.0076576713974675975,-0.00211928522369378,-0.014465134168025617
624,0.0035924443863888434,0.004256310900954044,-0.007239303934909479,-0.0025711512664684626,-0.014945322907293399
625,0.0043969761496222125,0.003218125529503315,-0.006428149541521809,-0.0020215064026435467,-0.014038540600659686
626,0.005690735813943676,0.0017826985707645798,-0.005557367456492371,-0.0003862650422220595,-0.013160354707894143
627,0.006522927090236865,0.00023753460935742736,-0.005527553514841439,0.0012101658147567345,-0.013968307834374138
628,0.006342149043582396,-0.0005270672901071428,-0.007088898126414284,0.0010173095605194088,-0.015706235575824772
629,0.0049669653689205714,-0.00038247234956240503,-0.010233112727502193,-0.0015372310663073726,-0.01654156377784215
630,0.0026926116067027372,0.00018882343975816873,-0.01402098096977355,-0.005091689220609484,-0.015726699614104982
631,0.000603267136838869,0.0012448326893810112,-0.016737685164066644,-0.0076732213160898574,-0.0129751991284146
632,2.74133136192819e-05,0.0026829512376205294,-0.017276864781117333,-0.00816303458738865,-0.010240999407685386
633,0.001647955444498922,0.004061305705674024,-0.015614328090373669,-0.006535012261580979,-0.009876234588533369
634,0.004512338186664588,0.005408535253547455,-0.012714500806566225,-0.003985156219044076,-0.010532745975593493
635,0.006262297704251681,0.006217076697346522,-0.010494440715955585,-0.0024682647216759134,-0.010505319604390552
636,0.006030287215754787,0.0059079320767148865,-0.009735531203852755,-0.002701661099549933,-0.010053219167719759
637,0.004697782802885989,0.004985572443515583,-0.010240554394007268,-0.004435068214540525,-0.010551795852608068
638,0.002636910917814702,0.004216946744889241,-0.01201101885527899,-0.007346801546341658,-0.012944779231890685
639,-0.0002040741321177589,0.0036007244990548058,-0.014445076659982273,-0.010752589791460286,-0.01655266399883081
640,-0.0032863966043944755,0.00280587934499732,-0.016381116730256745,-0.013896878593660244,-0.019482583168588564
641,-0.005007728536370884,0.0016508206308289426,-0.01632112486177751,-0.015276468233315176,-0.019750510801490834
642,-0.004534329772501327,0.00043066587144441657,-0.014118481440840127,-0.014346443263332972,-0.01759782073568994
643,-0.0033698842404454106,0.00014565507566724142,-0.01186525201832524,-0.01311586335458261,-0.014402824747603503
644,-0.00313774781935481,0.000552675069207108,-0.011183782984123081,-0.013177053829447123,-0.011129910916727482
645,-0.0036822016057785653,0.000573411002403659,-0.011570905023761062,-0.014020112035133654,-0.00892168317434348
646,-0.003860390481357487,0.0005115624769838355,-0.011542967214950482,-0.01423742780664101,-0.00794175947612554
647,-0.002902637283118812,0.0012116617486466726,-0.010362724215867612,-0.012846965253133604,-0.007007541065627074
648,-0.0009228344077987728,0.0028664828510760027,-0.008286729068034142,-0.009834426605870509,-0.005124456053466082
649,0.0011101736647989443,0.004145437986562523,-0.0060580739200205395,-0.006150435897806005,-0.0037493657081879316
650,0.0026021666147164834,0.003426753468901893,-0.003872958642222299,-0.0024909217597913445,-0.005446334895205307
651,0.003511023411151063,0.0015600307768246233,-0.0016813318815852598,0.00066749977307582,-0.00929812775423627
652,0.0035086121184303492,0.0005309229701254768,-0.0003882353476608646,0.0022839889701962986,-0.011855007938355066
653,0.0030575637530589313,0.0007085870431921909,-0.0001897503125993707,0.002621680391804795,-0.011532432634821439
654,0.002876740390785603,0.0012876715751795398,-0.0004977007844623618,0.0024135584360015358,-0.009382170426787396
655,0.0029181046754989267,0.0017470657311001135,-0.0012115216677931152,0.0013059850106423277,-0.006974143138527675
656,0.0033709304927674395,0.0022350965785331565,-0.0019724965909207882,-0.0003346931705342042,-0.0046194921648437266
657,0.004048695624104048,0.0026666497744756265,-0.002546067354055068,-0.0017805452788549378,-0.0026249749836426703
658,0.004048095215996427,0.0020960451749651304,-0.002953023955808608,-0.0026746663138606723,-0.0024856880906704184
659,0.0034644345857968275,0.0004781368751403232,-0.002672729230175405,-0.002291948016196867,-0.003819249475293839
660,0.0029685065589200046,-0.0006397442387140953,-0.001959911294267414,-0.0011265055060013397,-0.0042146547450867804
661,0.002633459835536675,-0.0004884236170227564,-0.0019021624724542242,-0.0004589952913586006,-0.0038983261588197114
662,0.0016530080209197012,-0.0002821901267051552,-0.002977326448774994,-0.0006289732417573274,-0.004585412377624176
663,-0.0009811657983415354,-0.0009535984481473442,-0.00528068509553686,-0.0019458775426093864,-0.005709986069381431
664,-0.004432758429278179,-0.0019211242017929185,-0.008110317015470296,-0.004064869343544761,-0.006568884213900898
665,-0.007201873492995861,-0.0026124382937177276,-0.010432965233189161,-0.005978032690706614,-0.007039714035486841
666,-0.00846346002103264,-0.0025829838946763105,-0.011218723561838515,-0.006471514677480146,-0.00598375865310396
667,-0.0077763713573742255,-0.0017119509817088963,-0.00948724789775177,-0.0046830523898923225,-0.0033503693553475124
668,-0.005817331515321956,-0.0004045480755403418,-0.006558061597244491,-0.002178600592581037,-0.0012102514657893629
669,-0.0033728980488066645,0.001139546694823369,-0.004644853038277323,-0.0010129157964568415,-0.0020458333970945286
670,-0.0009599221424221394,0.0020335370612026946,-0.0035812935298080335,-0.0010122717723845477,-0.006192738205202705
671,0.00021476701495338807,0.0012982506310180314,-0.002564129513350891,-0.0015301516153405738,-0.010995362258361086
672,-9.550366815172507e-05,0.00019517737453386837,-0.0016450288468031853,-0.002425427019813442,-0.012989625966868883
673,-0.0008673139012976687,0.0003732815332113534,-0.0012495928578921927,-0.0033640996445731147,-0.011254136669254351
674,-0.0016006790935876253,0.0015929931956040104,-0.0018463211110432464,-0.003896616718290799,-0.008133599495662945
675,-0.0023129008014411037,0.003133395613706555,-0.0031133650161032232,-0.003901356138818973,-0.005823626287424394
676,-0.003191174531437687,0.004213120608784661,-0.004340670820595433,-0.00371656880445629,-0.004498707838560879
677,-0.0033537896787656832,0.004520418731678997,-0.004138472035022045,-0.0025405811001018427,-0.0026435197945597765
678,-0.002274550966958226,0.004906367685108126,-0.0027904595046448545,-0.00042655094716832114,-0.0004734280923118239
679,-0.0012294717394125752,0.006112705128827332,-0.0025221536509660285,0.0007615088521254096,-2.6925403300186918e-05
680,-0.000702304815018078,0.008193940228840893,-0.003221515192858582,0.0008047748588658235,2.4543543674848765e-05
681,-0.0006912243343041572,0.010355147300786894,-0.004133279351920245,0.00010703058984988219,0.001040825654398134
682,-0.0014773405750428503,0.01105937081941983,-0.0053380509334761605,-0.0012501835169969708,0.0010791401948903774
683,-0.0029062389517812075,0.009987865723816066,-0.006384216377502152,-0.002778041613614969,-0.0003997695417633173
684,-0.004141304097863445,0.008835118139965849,-0.006819023937717629,-0.00381416018153613,-0.0026411516213688166
685,-0.003894079943031549,0.008973337493167517,-0.006236793594856289,-0.0034904613490815686,-0.0057323979975973105
686,-0.0025967850916755264,0.009183114898398698,-0.004885915392453724,-0.0021215368968299777,-0.009975923846557162
687,-0.0018695073687700395,0.00815871720835932,-0.003912629174586233,-0.0012550821686506525,-0.013984031407513782
688,-0.0017150555684509532,0.0073636770931986735,-0.0033538670443177955,-0.0011963782694306225,-0.013483701115249816
689,-0.0014984855187935404,0.00806932043311805,-0.002242260449927197,-0.0011059049151247809,-0.006724389238792038
690,-0.001479344403183376,0.009165870024439653,-0.0005291230464945457,-0.0006582638907636388,0.0018511792660946577
691,-0.0015678128260307022,0.00918421371072421,0.0011932031641734584,0.0003877585658221969,0.006009358189362672
692,-0.001461279273800199,0.007703713939058535,0.0023883307305569527,0.001731544042056006,0.004294165472249188
693,-0.002169345096868832,0.005291518125239464,0.0023944890489744843,0.0017293899824980094,0.001239087631867881
694,-0.00405704692057629,0.0028756338575743755,0.0009798750266930719,-0.00030043410962440887,6.598595391368849e-05
695,-0.005440174891075071,0.0010898504229787044,-0.000973134243503165,-0.0025803406956657377,-0.0006695093773056753
696,-0.005209588561678791,0.0006994634405459684,-0.002343004881118052,-0.0034462815104915334,-0.001564956311245974
697,-0.003889157406287662,0.002076292110501788,-0.002796609659695789,-0.0031899080386631504,-0.0011844876181442688
698,-0.0025688846515065835,0.0037609395130306904,-0.0028856288140783823,-0.0029269072511820295,-0.0003293721328608683
699,-0.0017052446785853993,0.004438978756703763,-0.0030686758749040874,-0.00280821685552954,-6.013939249550278e-05
700,-0.001020263876081137,0.0047950104903326865,-0.0030392285237416106,-0.0020618756724020484,0.001568016044570732
701,-0.0008507754858898857,0.004741916660555867,-0.002891757379891688,-0.0009136259199613326,0.00463665423481063
702,-0.0013345912586084333,0.003640861896763616,-0.0025335040597851428,-4.6438784001502795e-05,0.0076207258832277705
703,-0.0012974434293921225,0.002978909942320515,-0.0010240752176094159,0.0008408036582444587,0.011136504868126576
704,-0.00010798417457862024,0.00342462568244527,0.0011016211836082305,0.0019987850777470548,0.013174884758829712
705,0.0015669936638473252,0.003687805461316147,0.0026631626466849558,0.0034320393173275453,0.011397236415787597
706,0.002634459695678063,0.003391807103031464,0.0031856853784272454,0.004399480785260242,0.007842908793890163
707,0.0018144654560071586,0.002592852654946731,0.0016606118433188798,0.003096628257962952,0.004192515807780875
708,-0.0014875406145081933,0.0010059575350887182,-0.002190930958598713,-0.0010882395820871033,0.0006055519270246047
709,-0.005789716838881269,-0.0012546418267952945,-0.006601698369128246,-0.006306604122689507,-0.003005777170785359
710,-0.008728278958943179,-0.003452525522385034,-0.009233522541709152,-0.010073501180586843,-0.005960179923628578
711,-0.009725933608925397,-0.004904079704132385,-0.009431799864896062,-0.011558920725121375,-0.007052047688184618
712,-0.009359943527062698,-0.00578525220359988,-0.007989492251081903,-0.010903165460243239,-0.0072524799642723365
713,-0.00869974841431864,-0.006995352075657541,-0.005955910849119571,-0.009174306612389299,-0.008300814299892188
714,-0.00869785668768953,-0.008531190651923643,-0.004305174521760359,-0.008088992980475329,-0.009719936278090887
715,-0.008480160750805122,-0.008895970636207612,-0.0031792550721882447,-0.007623540545562579,-0.009916319559038175
716,-0.00726350223557167,-0.007814519351449844,-0.0022764740330520833,-0.006928231400250972,-0.009190689085118388
717,-0.005785766710126968,-0.006564129442032991,-0.0013413541271596729,-0.0060303739809173095,-0.008509999624362632
718,-0.004805811255678677,-0.004972675712670209,-0.0002068207538134966,-0.005254610644522609,-0.007057031548648236
719,-0.004176697922142588,-0.0023492271031073896,0.0011580135370366626,-0.004350348510105901,-0.004063513989918139
720,-0.003668007091103455,-0.00022874767981348947,0.0024326466485667182,-0.0032825808473304838,-0.0011380733009162685
721,-0.003695982965850741,-0.000211290193511764,0.0031457252501176543,-0.0028296899988120307,-0.00047436551258275687
722,-0.004200144808111498,-0.0017732385507697442,0.0037621556151219804,-0.002945128968326821,-0.002293734161890272
723,-0.004060149087101994,-0.003592063884181623,0.005155486622443954,-0.002332817023774538,-0.005502631597152634
724,-0.0023206542197231326,-0.004368399495731443,0.007291930643011222,-2.5554044446388427e-05,-0.007828825488063433
725,0.0003273132599843403,-0.0034059956794825737,0.009007495019928922,0.0031302899431408936,-0.006731942081724647
726,0.002194958575241811,-0.0022114096663664253,0.009363094132110526,0.005444317566581202,-0.003222585622167798
727,0.0020926785331379645,-0.0021896220698283055,0.008334965360515307,0.005696626311044017,0.000712586697113432
728,2.712000431527801e-05,-0.0023483658541592904,0.006248259186328186,0.003519241400079626,0.005058536216061724
729,-0.0026130767829317435,-0.00235522295286617,0.004142457804725935,0.00047213778370631135,0.007941592162831811
730,-0.004641026740061899,-0.002178355408853556,0.0032154942903877696,-0.0016113698706264961,0.008492740567449572
731,-0.006253796289425139,-0.0015561541874648552,0.0031049396250310223,-0.0027412543837889674,0.007739502151454795
732,-0.00740397434689318,-0.0014110126881619256,0.002740406742176026,-0.003108243382808359,0.004773091528995813
733,-0.0076456743801215235,-0.0015814792076058193,0.0019202955355371336,-0.0027111490596219857,0.0006406487049309173
734,-0.007183140065181408,-0.0007451236390875091,0.0011539155679872873,-0.0022100024906620513,-0.0018044569444888687
735,-0.006027191483090066,0.0012208916434831559,0.0013213663349150777,-0.001604336471859736,-0.0019268808314887615
736,-0.004569074891385362,0.003285046647680624,0.002056907993201473,-0.0009580296879459381,-0.0007153654579114629
737,-0.0038434949951351256,0.004578771349199362,0.0022040308830396107,-0.0009827048687630748,0.0007781746116757288
738,-0.004345374505757063,0.004609726129219982,0.0017952110590992655,-0.001595626074352189,0.00239576457620012
739,-0.005914503321331375,0.0031761950115876065,0.0010616158926836199,-0.002419142777805124,0.003582255956299084
740,-0.007887549463338677,0.0007099543395374622,6.494567199778794e-05,-0.0034081302661755825,0.0029966402800944178
741,-0.009713186228951017,-0.0018580303416263475,-0.0008705217676596999,-0.004533347416193817,0.0005752314967427707
742,-0.011216916326732461,-0.004109558904230829,-0.0019919797271838956,-0.005743748864158004,-0.0038611235597734925
743,-0.012281346508948186,-0.006187110040705676,-0.0034450639099205577,-0.006835916841134236,-0.010009218734564687
744,-0.012303342926380434,-0.007505063230628523,-0.003986378424304762,-0.00681376526192443,-0.014509206786791197
745,-0.010481349731036784,-0.0074468756434349385,-0.002681384150202393,-0.0047722186312935426,-0.01457248987979173
746,-0.007410970027047157,-0.006653705686686244,-0.0005688589112680155,-0.0016626010399548748,-0.011062673659825566
747,-0.004785464638388407,-0.006856865745816251,0.0005851588103146926,0.0007418187430612451,-0.00757242518816855
748,-0.003181190427229988,-0.008792527608858096,0.0007597780756329337,0.002127727765093821,-0.006416661991206793
749,-0.002109871938138415,-0.010281625889459552,0.0013230926330669358,0.002992236120355925,-0.00552306249495638
750,-0.0014219234927601813,-0.009078269936347791,0.00237428313192675,0.0031901030234538718,-0.002525154935306519
751,-0.000530453817136267,-0.005882939302536948,0.0033556765836126505,0.00311763732521994,0.0010128461627534498
752,0.0011461425783155592,-0.0034106023763996233,0.004330852774424091,0.003765318750915959,0.0019236836670734566
753,0.003550581213944415,-0.002946000977880964,0.005589651020717691,0.005869966123657862,-0.00019674558828092914
754,0.006217474380105264,-0.0030522253903862164,0.007006666199510816,0.009035055287098165,-0.002756604632249541
755,0.007791890974718049,-0.0030015041622410174,0.00785088326953368,0.011265229762844421,-0.003958147313431146
756,0.007426780298059165,-0.003789906593667654,0.007479227835941319,0.01125696522329202,-0.004756329374394922
757,0.005745366167167122,-0.005874823063512729,0.005887697237086878,0.009658197999599192,-0.006392710164971506
758,0.004209077143077112,-0.008351218593145675,0.004075183802242279,0.008223725343622944,-0.008936796834589103
759,0.003776886962067521,-0.009823928661200389,0.003141649822514612,0.008007179552964264,-0.011477031935562263
760,0.0038658123240657683,-0.009518996652223244,0.0031978487002829663,0.008201236135544807,-0.01132924374284214
761,0.003357309612143637,-0.008451092291136887,0.003481716287896121,0.007606055490759188,-0.00803524061497198
762,0.0024757574142575955,-0.00813802665052264,0.003752093023522655,0.00684195435529106,-0.005220556457666983
763,0.0024209914427729584,-0.007911521894089233,0.004734186227197787,0.007333962098211667,-0.0046970060533706925
764,0.002813798586692783,-0.007190388072661804,0.00594455470183891,0.008420465060343187,-0.0053612382600565535
765,0.0023302423463051,-0.007245316072397986,0.005973526481602089,0.00852509696681057,-0.006626530247333102
766,0.00113416185512359,-0.00817451931169167,0.0050185610772890505,0.007602209817152801,-0.00761277620893683
767,0.0002100975913508271,-0.008634153107984403,0.004413374876440813,0.006557568891307854,-0.006693076695101213
768,-0.00045239334469864126,-0.009087621840086966,0.004274612395854631,0.0058608023695868715,-0.005266550113602071
769,-0.001320658396147488,-0.010452885061879129,0.003838625095736004,0.005729442430477996,-0.005371428643552072
770,-0.0014676426131817553,-0.010804943219408534,0.0035926645557757464,0.006925061113964696,-0.005123017679912916
771,0.0001222663621254744,-0.008041796017447537,0.0045001431632938245,0.00939583681805069,-0.0020125141274555816
772,0.002934691686625979,-0.003147115457752995,0.00671544039068309,0.012289760102695025,0.003893210299293903
773,0.006156053171290806,0.0010432991772266365,0.010257512579407463,0.015953793614490668,0.01056035322724343
774,0.008314049408966212,0.003093380661236347,0.013639226622473227,0.019320396888718765,0.015690656929461227
775,0.007946775383026362,0.0036611013235715224,0.01440418826451299,0.019693235776054686,0.01700848585560127
776,0.005764110926590065,0.0032313348322211806,0.012659305669034431,0.017235221737712424,0.013374803604325212
777,0.0030772575411036215,0.0019379738884257932,0.010168201838275569,0.013899541190297576,0.007703796758799948
778,0.00035857515934287383,-2.2604124300580346e-05,0.007603908942514184,0.01055424920974569,0.0029367278126577853
779,-0.0023865661299816705,-0.002743291011111826,0.004615005958059657,0.0069175498291248515,-0.0012780237561768057
780,-0.004708562381000838,-0.005733191437427566,0.001883959484049188,0.00354351732772312,-0.005373790587683794
781,-0.006091149563010266,-0.00863603117789295,0.00026173630134875274,0.0016888600583352055,-0.010244278533085424
782,-0.007394031542707046,-0.011863421963819787,-0.001298277960875023,0.0007109672228673997,-0.017087308424803528
783,-0.009228124756612104,-0.014210989663590993,-0.0033999083870903057,-0.0004799196521635894,-0.023459088479544796
784,-0.01103883411876592,-0.013837222713218217,-0.005237075380640467,-0.0019577991863347407,-0.024851738303831545
785,-0.011872590173924799,-0.011086239127465255,-0.0055401920348908925,-0.002974813136247524,-0.019909786591983773
786,-0.011483345533196297,-0.00771076079208511,-0.004105065124921904,-0.0027966162033590952,-0.011885690943091219
787,-0.011119076789289662,-0.005036043137901442,-0.003095851014412568,-0.002285708230965241,-0.005376598580846616
788,-0.01100512274687274,-0.002916819933579831,-0.0035181100591361062,-0.002170467823588112,-0.001425347470164329
789,-0.010534923012152886,-0.0015529050026201253,-0.004409581820791245,-0.0023789228281110835,0.000981416568210969
790,-0.010431010467261697,-0.0014968737712655203,-0.0056402720477663325,-0.0034998441145705056,0.001971828866131446
791,-0.010947043680895061,-0.0015195156989615177,-0.007087829867204892,-0.005393159210592745,0.0019113294698692598
792,-0.011121319269510582,-0.0006539713792956519,-0.007502219468045787,-0.006399654317478063,0.0019175909229200681
793,-0.010563561755231994,0.0003949304197132142,-0.006166481992066998,-0.005765810935786297,0.0031448313232878573
794,-0.009819350090360298,0.0007805631599075403,-0.004007654355775181,-0.004429891479591267,0.00483116429492182
795,-0.009157777810167975,0.00023663987168048422,-0.0020604094747268677,-0.0030295203812672022,0.005076000946008557
796,-0.008279618448616034,-0.00033766865310488886,-0.0004861833718277525,-0.0015946056194226417,0.004689247510601056
797,-0.007497451871195958,-1.9199595138377433e-05,0.0005437191731332968,-0.0006301097121859158,0.005636813415780094
798,-0.007603878406437831,0.00020198603626112513,0.0007618094124124321,-0.0006634642000696083,0.007182438943777863
799,-0.008359185096302455,-0.0009487729611492029,0.0004867776238507999,-0.0013483919269277683,0.007993011376022917
800,-0.009245541894102639,-0.002640862508420827,9.460232376487694e-05,-0.0025482247196234467,0.008662749053038323
801,-0.010564024221409705,-0.0028782453371715725,-0.0005946048987003906,-0.004908121948967235,0.009293955010585622
802,-0.012063046762984427,-0.002027673651716112,-0.00163881325643956,-0.007817609615239186,0.0074591714244842885
803,-0.012560921711507926,-0.001641756301775726,-0.001990582739906039,-0.009267217208942037,0.003376835780762057
804,-0.011553219087052577,-0.001484878161494175,-0.0007175900891807703,-0.008533084416948214,0.0005015745406201575
805,-0.009847588801409022,-0.0013545290146439154,0.0012314890732203247,-0.006629446524980233,-0.00018802196471535049
806,-0.00876073987650558,-0.0016032556075128146,0.002419814943682069,-0.004740335632037674,0.0011734997810679466
807,-0.00833197375768849,-0.0017684677458593395,0.003188706263622091,-0.003012777981801543,0.004425993511422869
808,-0.007286254580879756,-0.0008496539091868042,0.004864267570812917,-0.0007428708173838118,0.00899762036181311
809,-0.0056110013208050405,0.000997725613203393,0.006940081598361991,0.0016531069157761675,0.013681291401612576
810,-0.0044070151786547865,0.0021097910158738866,0.008008203788810144,0.003240105638076865,0.01555565592227066
811,-0.0040954684916720465,0.001138254683931898,0.0079919397124153,0.004145427098081706,0.013292597165821022
812,-0.004427552304950202,-0.0006578900234802665,0.007451811375197343,0.004478319054840405,0.010845889046504707
813,-0.004779388979167037,-0.0005588097197531415,0.007125578859815873,0.004413592269438988,0.013089619746692493
814,-0.004479612334617474,0.0014385198827274273,0.0075842893924130935,0.004699120671787095,0.01835812093953079
815,-0.0030086925695373967,0.0034234023059612345,0.008770081504423407,0.005848464227803234,0.02151646008294411
816,-0.0013871312321744609,0.0042294287010180304,0.009644085492533956,0.007028029789168741,0.020961005013759554
817,-0.0017743778420988522,0.003552899122890883,0.009297745964725664,0.006824777286810443,0.018457037608837983
818,-0.0038572424378725905,0.0024975036866999064,0.008404112050638693,0.005497719702254023,0.016299505154199836
819,-0.0057532491390777955,0.0022369391602041415,0.007856112944447652,0.004044065198702522,0.01597946699755153
820,-0.006344180342336346,0.0028347094656349645,0.007953153804486367,0.0030596530000882097,0.017430188920657338
821,-0.005466070253151943,0.003357849247058441,0.008435034519185263,0.002946968768657167,0.017516940251176893
822,-0.004835535572864289,0.00223974525996963,0.008155220325239004,0.002839541681161187,0.013444364158264182
823,-0.006071370680032085,-0.00035707479861826145,0.006263049643062121,0.0012714691994880382,0.007313398028453261
824,-0.008166398928511375,-0.0027204951701564474,0.003673109640184462,-0.001164172321807903,0.002179203398928075
825,-0.008575442283503276,-0.003375940310154251,0.0026660823165514905,-0.0017034349922020935,-0.0001428591341179536
826,-0.0066298148427394975,-0.0028165305530121723,0.0038113382988824314,0.00038296180936826487,0.0005626611689750596
827,-0.004181534029548827,-0.0029589097490046604,0.005007122312255567,0.002779924239420417,0.0017876994260944904
828,-0.0018668474399700643,-0.003435505389901227,0.00540502776362837,0.0044898281152560395,0.0026033635384227365
829,0.0005018847772412712,-0.0030292925018633385,0.005664804966149497,0.0056762536374320785,0.004147482485985016
830,0.0019361420939300906,-0.0019256757509253308,0.0055179665664680765,0.0058515044742996165,0.006840071035241088
831,0.0020199946351554562,-0.0005795520613666615,0.004767109237849887,0.005086077185271064,0.00993600386135596
832,0.0017704321966744612,0.0009490668353164633,0.004009060744178502,0.004207560027150845,0.012228150118576551
833,0.002261478155740452,0.002589069677660658,0.0038189621998584154,0.0038858167900444537,0.01379192921167635
834,0.003344383275302868,0.00291460150163575,0.004342858446091479,0.004196613158749444,0.014599632255124699
835,0.004197980417068316,0.0014984952472438201,0.005060791471647273,0.004643443536302859,0.013533371014598257
836,0.00453029380603628,0.0003856810828984149,0.005468270791624873,0.004863770878705684,0.010990659559418102
837,0.004878896787572725,0.0004316478335067999,0.005998076040371403,0.005679637719935442,0.009031201872505812
838,0.005064776711901022,0.0011652020349772426,0.006437813022162705,0.006739947286352103,0.009560444022461995
839,0.00433501715993284,0.002803675275958113,0.006016347894356316,0.00625480477843949,0.012695618062806146
840,0.0034262756446896483,0.004596469210576131,0.005172335183180362,0.004817737276516951,0.014790839912512321
841,0.0035733950365020523,0.005120944249741267,0.0049304020884083834,0.004370113793245458,0.013421842069572195
842,0.004259204413546755,0.004358413163171027,0.004675586947866669,0.004180442945348352,0.009995309424670036
843,0.004602776429741755,0.002928725734861216,0.002790974125213038,0.0026803653771809792,0.004473956670474213
844,0.00516916187331993,0.0015565828605751504,-4.8004714951784654e-05,0.0008448975165279554,-0.002301636094812283
845,0.006028287806918659,-0.00021463936850591892,-0.0019667436015840113,-0.00023644682406720599,-0.008144768350523763
846,0.006421103976219806,-0.0031703688547930196,-0.002432694764470431,-0.0008872180731813392,-0.011994369293754447
847,0.006033587387008971,-0.0055693181952765,-0.0024270636576062964,-0.001732282714031493,-0.011984368939914612
848,0.005152551173388304,-0.005645955773136746,-0.0030820169199791596,-0.002864496084434626,-0.008171822275650158
849,0.004513368233009054,-0.0039039233366947083,-0.003959385278254864,-0.0037213376439999397,-0.0034615550110817057
850,0.004540414801649357,-0.0011479391735744534,-0.0037229822890066057,-0.0038071222957443114,0.0005242967965151045
851,0.005016530332918872,0.002132745117643032,-0.0023119370714399967,-0.0032813261713711558,0.0036158944331693425
852,0.005707093959979542,0.0045328783243801475,-0.0011389891840959676,-0.0028178265390180206,0.004522156206581332
853,0.006498541963145132,0.004772374707970088,-0.0010287002853155128,-0.002548837884677651,0.002784951542414178
854,0.006834475698103195,0.003417451556714985,-0.001774135859004983,-0.0027482051260909607,0.00016358399051286828
855,0.006264909082714991,0.0019184163882325995,-0.003082893607971768,-0.00385252228514134,-0.002492030143203201
856,0.005303807139072034,0.0014387468000987905,-0.004187553575144966,-0.00518150691356458,-0.004245376681062609
857,0.004621770647913372,0.0025971303571456785,-0.0044235331863397,-0.006426041227342285,-0.003492678173074218
858,0.00426943197984419,0.004323505124690426,-0.003918870502688247,-0.007864133240611377,-0.0021848747900497243
859,0.004032520428321626,0.004812916757521965,-0.0033527807082704667,-0.009115785051247596,-0.003434306954984188
860,0.003614770585657677,0.0037738224069518945,-0.00371250618196003,-0.00980065000394357,-0.0063846834841315364
861,0.003160030078604051,0.0017884910315884535,-0.004893927031753657,-0.009710058681676724,-0.008601745432531142
862,0.0036045339240167425,-0.00013296460794867503,-0.005587020062091441,-0.00856668180383736,-0.008765518029762949
863,0.005385639616401228,-0.0012724120558734347,-0.0049981191546291165,-0.0062772790675246475,-0.006985535086419107
864,0.007095312609657378,-0.0014368257321178237,-0.004132591859455395,-0.0039165874326620165,-0.004956328540518771
865,0.007208596992782276,-0.0003014995675380187,-0.004381054010740293,-0.002929479891476537,-0.0041021977749192435
866,0.006391279269044819,0.0014450893897029941,-0.005341739178056852,-0.0031240025748595223,-0.00441049887474732
867,0.005960343773605706,0.0030494465180264155,-0.006028534409868976,-0.0037848803224818594,-0.005305364409920809
868,0.0057496304596413245,0.0040810945915846,-0.00650878735193247,-0.004902799618776582,-0.00656352566282629
869,0.004554954467632746,0.003288079792521564,-0.007263435021302178,-0.006651848154704649,-0.00810025270776766
870,0.0018959964894520397,0.0006434122066591267,-0.00808097024148879,-0.008627832661879848,-0.008919137221343793
871,-0.0010217992221425352,-0.0011921903837789592,-0.008398953907780072,-0.009840466514930887,-0.007426112252319753
872,-0.0034078352622399937,-0.000880730010028918,-0.00854620465786302,-0.010586736733656397,-0.004311200827360975
873,-0.005762364718943303,-0.0005529871157464082,-0.009151063053112722,-0.012282012826858249,-0.0025981454364868897
874,-0.007465570023292739,-0.0011433178042840767,-0.00929052579979526,-0.014281390692908076,-0.0020296728509204102
875,-0.00748963670825497,-0.0010388929708365178,-0.007960748217543587,-0.01518847278507124,0.0008323017339404564
876,-0.005942568658119413,0.00013765753592965936,-0.006009096205977941,-0.015304916916578723,0.005090024793627522
877,-0.003496669439414377,0.0010403314422039284,-0.004359509684310808,-0.01498195712113852,0.0068721865549389635
878,-0.0014012734821907847,0.0009814130605354605,-0.0033109768796205272,-0.014420668490103672,0.005560570267020327
879,-7.831792562169693e-05,0.000666203433778261,-0.0028101152174988047,-0.013554997715528682,0.002810462084116091
880,0.0015337310604501455,0.0010755888715042615,-0.002188259660255644,-0.011442855079478698,0.00040714440239669335
881,0.003726685534949728,0.002104606886330767,-0.001297602443167256,-0.008157666926476981,-0.00037731719073836613
882,0.006041566923361525,0.0035256973590612295,-0.0003533759265423406,-0.004883749150569401,0.0012627036183084819
883,0.00831214382227588,0.005236060476217504,0.0005769445973436672,-0.002440843575836715,0.004498533517563982
884,0.010419186296431394,0.005970212526902529,0.001485427191596496,-0.0008555095723831385,0.005995965224897144
885,0.012999445984448781,0.005689439953278446,0.003641672232141214,0.0013451029142220333,0.0051926986000699745
886,0.01587359991841317,0.005512069832908173,0.007479649516033667,0.0047382512479137,0.004122237786423886
887,0.0167483926769535,0.004555673773871662,0.010379697842736721,0.006845928125916144,0.0016342937642768575
888,0.014892604304092375,0.0024045511973397383,0.010312668475615785,0.006075042801500874,-0.0028235757440932224
889,0.012538792296477811,0.0007917615287866889,0.008279847385073856,0.004111816904327426,-0.0059902229732704156
890,0.011260729908464887,0.0002766921770958676,0.005564206725609448,0.002455299952461973,-0.006321045279087726
891,0.010714794471307762,-0.00010018865508462081,0.0026152828381634584,0.0011211599462727963,-0.005148232474073751
892,0.010509238900776086,-0.0006658641734854037,0.000551958936038445,0.0006508296895292262,-0.0029691426622480066
893,0.010257621671525306,-0.001352453259367814,-0.0003267827915748675,0.0010242858197892048,4.105462533818007e-05
894,0.009238508997174159,-0.0024387228017963103,-0.00133217174008975,0.00113440440823523,0.00263751811937833
895,0.007679430588864253,-0.004582182109906933,-0.0024367164259891526,0.0012575302354508812,0.0035735085965150695
896,0.006542794437814656,-0.007185985374723566,-0.002264768212649184,0.0019974523631836752,0.0033112053364323497
897,0.005614627324441657,-0.007604784178159078,-0.0008845132359091968,0.0019764296242719332,0.0037760903360677897
898,0.004122188483302626,-0.005141029866246677,0.0007018180292583508,0.00038817586356411685,0.005516211191843002
899,0.0024016807866369797,-0.0021983506662558343,0.0020473618161663126,-0.0012029655377235923,0.0067612542569546056
900,0.0009583629106947304,-0.0005651466998832359,0.0028793038413511183,-0.001594138945887296,0.006143008658296686
901,-0.0004993045862235658,-5.648585520486767e-05,0.0027331848992815004,-0.0017095419576606092,0.0050336271702906285
902,-0.001929194895161412,0.00029970323224614453,0.0014922914956064957,-0.002578706137075842,0.004659041716571808
903,-0.0014714563937355744,0.0016314439523958382,0.000462064327543102,-0.002835770758044061,0.003946851984645557
904,0.0015183223470678008,0.0037976074471507823,0.0006489392865291985,-0.0014046983632450896,0.0021133746900183596
905,0.004183100276673422,0.004844931482775509,0.0010261835160991258,5.2666313992344576e-05,-0.00015767248194947662
906,0.0049259711094737325,0.004639897799468587,0.0009152203992861246,0.0002705214914197707,-0.0006990747156293221
907,0.00481978325326376,0.004955892001348364,0.0006564564589738218,-0.00046187631957920274,0.002064270994675797
908,0.0045861991097213605,0.006151525412062209,0.000694217810205061,-0.0014846790764986256,0.007490003301547954
909,0.0044505270871731,0.007771459207815395,0.001479115348389291,-0.0019364126385489405,0.013912560774479586
910,0.004910544158444245,0.009575062308692992,0.0030025336497263477,-0.0010204258288562787,0.018861752244614918
911,0.006146086474046807,0.011052270789292067,0.005175991220447477,0.0013688077632587781,0.02139925829380139
912,0.007654737855296084,0.011629059525226589,0.007898124968186728,0.004528360772887907,0.02239310668158956
913,0.00866905072263888,0.011001878267491116,0.010241024850705592,0.007345692696429287,0.021526021156305888
914,0.008923998328745126,0.009664038887387276,0.011243976194850859,0.009111602645620148,0.019103591680177254
915,0.008769769329216933,0.00828274253095504,0.010854191536965697,0.009842407875659858,0.016126751810658813
916,0.007932549264534587,0.006024731596646501,0.008930821429883117,0.009320052597659056,0.011589996074916023
917,0.005811735626988634,0.0023169299173886005,0.005491619880832771,0.007430782965315572,0.00591582707172216
918,0.0026592377582750886,-0.0015411020040926196,0.0016185950457974201,0.004863646920194029,0.0024696107739766485
919,-0.0007253290820601175,-0.004485387122223127,-0.0013904278795517763,0.0026103373255096964,0.0020458206871707503
920,-0.0031264973417202296,-0.006302101137729488,-0.0026751410318677548,0.0017559816983085742,0.0022259895338879593
921,-0.0036012769821322367,-0.00704921070096462,-0.001925848399287826,0.0028921658812351403,0.001597026003118233
922,-0.002297784647274884,-0.006820337853223462,0.00045431946582437523,0.005591330620503048,0.00038662486677035657
923,0.00014969935759674238,-0.005729440352007637,0.003662862051100136,0.009028849263481076,-0.001131255512132854
924,0.002440892034721466,-0.004477494448866807,0.006441733482926523,0.01192009334274366,-0.0028498842445415624
925,0.00384929996123093,-0.002981421352364898,0.007997964202080357,0.013556271223978624,-0.0032366608937023284
926,0.004917364743481338,-0.0011058208552409935,0.008583898557424578,0.014624065544197897,-0.0009563757003391354
927,0.005887924529235351,0.00022749734579533633,0.008860797640855195,0.015801733113608902,0.003474567063500773
928,0.006984510028409357,0.0009916581242828694,0.009802824234624554,0.017407366728987288,0.00876313247947631
929,0.007924284516214563,0.0016542583073565818,0.011269707144110052,0.0187621266444109,0.013252564525731637
930,0.007888914971613141,0.0017733664264545158,0.012081233962665128,0.018497666425910587,0.016009756867074287
931,0.007581940476962177,0.0007734585336822915,0.012358726406760659,0.017056519858181626,0.01745568838470774
932,0.007599524653259835,-0.00045028410824876196,0.012482236563939451,0.015717195265503196,0.018343048449034838
933,0.006512744664911053,-0.0013105157509212836,0.011544621265544994,0.014408091343627747,0.01759352522073099
934,0.004351816002119729,-0.0024429399388371815,0.010267949855525375,0.013495985747065923,0.014688185664112619
935,0.002934235104314423,-0.003117149369058517,0.010558450275130107,0.013855238873695674,0.0118492355785013
936,0.0028679836203511035,-0.001613383619852893,0.012019620577138805,0.014993507181404245,0.011455373138188169
937,0.0029487954321318,0.0011456635681239902,0.011956357476229088,0.014819465748099924,0.012789837700492817
938,0.00167337652240006,0.0017770370649097106,0.008542222838172232,0.012133448887672883,0.012151849066981113
939,-0.0003977153463261726,-0.00020323540646746322,0.003634127391176992,0.009038373278860258,0.008837178279974968
940,-0.0016171368008046428,-0.002128985769220186,0.00021786109781894646,0.007971157966922028,0.005684222556487756
941,-0.0008475580974100362,-0.0020471801778038107,-0.0005429085960098786,0.00930835874927643,0.0044224632296413595
942,0.0015198848127037667,-8.736704287072058e-06,0.0003909509219533667,0.011755972305835072,0.004956125365713915
943,0.003640393412504282,0.002798249015299297,0.0013751777376420917,0.013398717295003085,0.006961457559216494
944,0.004729446830529028,0.005033321932170364,0.002048400869147318,0.01368789442413475,0.009375378558995983
945,0.005487166420787581,0.005577446333563893,0.002921212950032322,0.013516111580019658,0.010023054870729053
946,0.006382755084431194,0.004767303309191871,0.00422267835273244,0.013530892406270575,0.008289610851920681
947,0.006764629025285101,0.004072184158704809,0.00516047010178308,0.01313372898240188,0.005511387798783459
948,0.005990561161366742,0.00408760538240751,0.004886075707322534,0.011845281506976524,0.003082007052896736
949,0.004577116883536873,0.00433286988763395,0.003800420055169917,0.01023035949485916,0.0012338723603819487
950,0.00336820138970996,0.004219098341584418,0.0025059570320884197,0.008781430852396946,-0.0008769368198868844
951,0.002693476441342401,0.0040256016819710284,0.001288909716350211,0.007677736688527388,-0.0025598390376180414
952,0.002203202250144296,0.0043543994319196495,0.00010137230520106576,0.006446642866922339,-0.0020629879859883835
953,0.0013610119939011932,0.004347886454919818,-0.0015868401136175175,0.0045024753642380145,0.000222384468687114
954,0.0006739384390689972,0.0034069002865148314,-0.003651694333858453,0.0024876517257566926,0.0025213798860718537
955,0.0012027950478190042,0.002459704313058406,-0.005110091300703407,0.0012546596912857825,0.003127677833090974
956,0.0025955045546920985,0.0013131900710525474,-0.0055267570355973855,0.0007271641207123207,0.0012144358844156566
957,0.003577741859670213,-0.0003273010755116274,-0.005685136455136,0.00043640531390502335,-0.0023320570024020744
958,0.0037702273750935093,-0.0019978859373923344,-0.006275621802038053,0.0006396840678841229,-0.006883190841056519
959,0.003576458299378303,-0.0038960337222835773,-0.006694310439274672,0.0019505569963831177,-0.011325301374869434
960,0.0030624986805215366,-0.004653737974190463,-0.00587006515940217,0.0033362749265501003,-0.012475005133258409
961,0.0027230687639956184,-0.003898142508465496,-0.0053961917895756235,0.0036450448719756246,-0.012459209880919258
962,0.002195557657137371,-0.0012438304416518065,-0.0054791089820577865,0.0018115022604626337,-0.010739291956341412
963,0.0015833188156981033,0.002484740635553486,-0.006034004698229821,-0.0015093100109884296,-0.007666063315157715
964,0.0010827938132120872,0.005097560515941336,-0.0063383099704527645,-0.004301756256510479,-0.00500956670812406
965,0.0001492007187723429,0.005289224413631271,-0.006245593586962863,-0.006143617682994736,-0.0033584118816646596
966,-0.001943528636646307,0.0033108741692662435,-0.006400890058820115,-0.008193296596655172,-0.0031179505382655345
967,-0.004455077588323645,0.0005116995276747201,-0.006933647838088111,-0.010265970734232797,-0.004598939359118629
968,-0.00617432619244655,-0.0014579199274832024,-0.007520646726400046,-0.011517015233438774,-0.007516057380868026
969,-0.00633149854005167,-0.0018621667230402667,-0.007398545146635835,-0.011229622324281357,-0.011747594168690185
970,-0.0052567374385937,-0.0008657677522846108,-0.006207344237136805,-0.009520607704894768,-0.015606303126079303
971,-0.004827246397437744,0.0008169209842682789,-0.005001935568045306,-0.008101878323232515,-0.01645934692275293
972,-0.005753581413564544,0.0021017601166573867,-0.004385870549739602,-0.007720653997958629,-0.014440337229047516
973,-0.007041011289538593,0.0020796764525487293,-0.0037726050610331825,-0.007897300664095308,-0.011774790207801061
974,-0.007435310117674564,0.0017229708625659255,-0.002021546560105975,-0.007922348646385247,-0.008781606419273983
975,-0.006182953735503923,0.002430636411818393,0.0009887862850932701,-0.007041997766759159,-0.004609381079381607
976,-0.004878485931496567,0.00291158147724174,0.002397217164281063,-0.006427487965668846,-0.000766619343314629
977,-0.005191768563769861,0.0013559222497637495,0.0005643131694431714,-0.00699482749687524,-3.867426268587236e-05
978,-0.005970461027359607,-0.001443939766143345,-0.002184015312370059,-0.007292549267727607,-0.0026245419411836633
979,-0.006015519750269197,-0.0033245671385783372,-0.003822225110535053,-0.006641933995743518,-0.005567382242038076
980,-0.005412584786993791,-0.0030777849075071953,-0.00400709416116797,-0.0055323870992096714,-0.006261202213136473
981,-0.004414542393911414,-0.0013230481002327943,-0.0029475624895363697,-0.004144506131755187,-0.005136439841440618
982,-0.0032172247551113505,1.852165807012918e-05,-0.0012332485966351993,-0.0024400333336176807,-0.004042989822250161
983,-0.0020766419191360695,-0.0007693072263974735,0.00032645571411517966,-0.00047164206521670886,-0.004358279528468293
984,-0.0016332368613987665,-0.0029230411678933432,0.0006151523567384307,0.0006737331250942728,-0.005732366743381869
985,-0.0021200005357187306,-0.003846350381999029,-0.0009564375925807723,-9.398917244036041e-05,-0.006813954070065905
986,-0.002862983617214814,-0.0027519327156805963,-0.003379511627094595,-0.0018663998908059762,-0.007140188972640927
987,-0.0030542389068554795,-0.0007957619206430397,-0.004771958513768455,-0.0027868426406105636,-0.006488268002944643
988,-0.002296597026774607,0.0011406789986751844,-0.0041181851882422195,-0.001992467555174376,-0.004789116163024615
989,-0.0010882459379071483,0.0026035055991676403,-0.002278703417785167,-0.0003827665772291526,-0.0029076416575299392
990,-4.6191127173593195e-05,0.003227274750684744,-0.0005878090458315286,0.0007221483356710347,-0.0022173750302378298
991,0.00048816907987934765,0.0029427159841066237,0.00025577639329767837,0.0007433167034420491,-0.0034547576589062626
992,0.00014097173731174775,0.00195823711330842,0.00015328984142611683,-0.00023457589561218958,-0.005596177973652432
993,-0.0008358850109781508,0.0008401715952197747,-0.00013810840626502283,-0.0013924649259862577,-0.006520735134307888
994,-0.0018961191412978022,6.388278450569757e-05,-0.00014741671889728042,-0.0020582264828898477,-0.0053451520214795
995,-0.002853705202561875,-0.00031107550453900797,-0.00021140270266464903,-0.002422999152004631,-0.002586411421721283
996,-0.0033719938711341247,-0.00042544648299749053,-0.0004303385677018435,-0.002677978182009293,0.00011556764040843639
997,-0.002838090074599067,-0.0007737818547783037,-0.0003962067104742816,-0.0022383305976302883,0.0004525923829710735
998,-0.0016528017911157382,-0.001088540457456759,-0.00026649398263046427,-0.0013507684737403892,-0.0008325712512037332
999,-0.000896321140718329,-0.0005373639138845563,-0.0005944803713069121,-0.0010803636964958634,-0.0011797693023033933
