,AF3,AF4,Fp1,AF7,AF8
0,0.0012862906222941134,-0.0027466487936547786,0.00048337250575987574,0.002608619335279853,-0.008351042773575627
1,0.0008985088103069358,-0.00018258449528570854,0.002410815788665946,0.0038596612841080994,-0.0055123391204673355
2,0.00012666036683316943,0.002243882825198571,0.003865446875900888,0.0051093404278000675,-0.0024403328483836094
3,-0.00038840328330770927,0.003180345314494356,0.004526377698796539,0.007046351927223165,-0.0005245344323507302
4,-0.00039858633060270746,0.002726628479409034,0.005045657773345472,0.009252550761879096,0.0012180906344139574
5,-0.0006185853864287495,0.003314589001808583,0.005477495184602132,0.009724898088982005,0.0038544127218409817
6,-0.0017564309515774256,0.0052931524610573865,0.004876907663055683,0.007514934018265367,0.006045109803728803
7,-0.0035440088467922617,0.006674510669889141,0.0031779760596266937,0.004486652812448611,0.007265786949301126
8,-0.004689084992977394,0.007191094260185856,0.0013793665379856581,0.0030635432401215955,0.008436785804003977
9,-0.0042896568093160675,0.007565872161311859,0.0001326084161598047,0.003896923381710518,0.009028576270514925
10,-0.002575993205737006,0.007945675264139859,-0.00021052957082787985,0.006470634231871852,0.008507509731583538
11,-0.0007560051167816049,0.008328066027320394,-0.00010952238595900401,0.009369817239994156,0.007783219826157832
12,-8.301163733178038e-06,0.008310978712631449,-0.0004238568630904838,0.011137663382481178,0.007099072509203055
13,0.0007776607810361881,0.008065387559305982,0.0001164485544402884,0.012495157072138793,0.006372170735552112
14,0.003595800113424106,0.008686618422658797,0.0033077867875455397,0.014940826030702528,0.0063958076200067385
15,0.007029645005549475,0.009122955887424128,0.007184338662338087,0.01752448290343929,0.005628922316254732
16,0.007665915870223884,0.006501790337588994,0.007837448579364997,0.017769002300367216,0.0002921091291975726
17,0.005559610659024267,0.0017935357052642454,0.005245941550433746,0.01579794477437972,-0.007968887345470887
18,0.0034666293742439524,-0.0007323887581703363,0.002400986004890498,0.013723869974119165,-0.01313459745718501
19,0.0021481138670799687,0.0001905008660100446,0.000567509075478117,0.011620323899869358,-0.013587226033257222
20,0.0010276366601692426,0.0029268939511550634,-4.83456421895601e-05,0.009434803468807217,-0.010597880907126954
21,0.0003668342484053224,0.005649651390526028,0.0007319161293716294,0.008791721872471146,-0.00530453547244966
22,0.0005706463518243615,0.007332508673905254,0.0019407145131124536,0.010252543941508284,-3.9302585241201784e-05
23,0.0013628958575782394,0.008397129533682386,0.0024447911188817052,0.012823793457894526,0.0038175085509912277
24,0.0014385341638564982,0.009149087487122733,0.0017441053619183752,0.014498141849195654,0.006185576758810962
25,-0.00017005464462353776,0.009350208476089897,-0.0002931379422391746,0.013100831920236224,0.006579778023969875
26,-0.0018376278189508389,0.009782757864461167,-0.002692208182119733,0.009386235307318897,0.005766300084224642
27,-0.0011046511636111007,0.011572505364845564,-0.0038974264756943574,0.006190178618786766,0.006008738481886192
28,0.0017916308866839684,0.01393663431597062,-0.0036282522718272103,0.004264732672967699,0.007810963612965783
29,0.004342064101700772,0.01505962634943322,-0.0030732898337634392,0.0020863146449000185,0.010058462431432696
30,0.00477185839452616,0.014836213590929887,-0.0034157892355905547,-0.0013795294155209365,0.012485447106176118
31,0.0037270379155877925,0.013906345467787906,-0.004488221449796115,-0.0049456293203279395,0.013586110128572663
32,0.002845238901205966,0.012006215966425916,-0.005562357937634733,-0.006779351989304564,0.0109905135535541
33,0.0033213056199069757,0.010228023795803105,-0.005423228837860472,-0.005806377448387276,0.00721835295033762
34,0.004787076720432151,0.01025274791885581,-0.003365438818978375,-0.0027987290012594585,0.006511854357102688
35,0.005776499599905297,0.012376819371616265,-0.0006218121838617034,-0.0003625254071202766,0.009614840928688053
36,0.005825913916719628,0.01586335001418931,0.0015849807694014576,0.0002169572275838468,0.014603620287137525
37,0.004422727170904147,0.017748941605665796,0.0026693365968896263,-0.0008771753608452515,0.016249582694376773
38,0.0010460593675541223,0.01543776655748758,0.002936201226404336,-0.003066511984043761,0.011296405378854032
39,-0.0027227281070491753,0.010587962135900636,0.0033988996234283375,-0.004891912050201512,0.003758957842318676
40,-0.0046034720425717,0.006754702154139535,0.003720370943775264,-0.005484903963303365,-0.0002873378169086687
41,-0.003866367720419285,0.006116142705665845,0.00297123552480468,-0.005569602881184517,0.0014728184774035907
42,-0.0007914913407475726,0.008779391268093139,0.0017366214045349453,-0.005351668798098331,0.0064736965055913484
43,0.004202994857955591,0.012785029671028998,0.001997888042201803,-0.0036330201772522505,0.0107537016952947
44,0.009888788820379583,0.01582413159370398,0.0045954921560833265,-0.0003703116403567991,0.013059458117289272
45,0.014263491789403176,0.01719906352539675,0.007869663286368563,0.0038364978651340095,0.014831371675245408
46,0.016525525090242337,0.017568569669337838,0.00992819335595963,0.010285425183800365,0.01785242177702778
47,0.016944541716522165,0.01714218659909164,0.009947212872663432,0.018042945593487614,0.021054511405012532
48,0.015573156451037514,0.015172512267684795,0.007846609586399041,0.021727082792266268,0.021583402814525362
49,0.01270970608329862,0.011808459699775,0.004601539591747937,0.018064965465170255,0.0198639109329582
50,0.009013517342004826,0.008499049588789604,0.0016770399315268723,0.009207264627891716,0.018407056092305602
51,0.0050334001616586105,0.005620866503541249,-0.0006228737590575383,-0.0010806807782539575,0.01672339619277925
52,0.0010701187541635588,0.0026792017467348233,-0.0027946930410012428,-0.009881991373714,0.013078985125152138
53,-0.0030033736132410857,0.00042202928851603006,-0.00486681847919641,-0.015846714744879507,0.008534993285042015
54,-0.007046166223409612,-0.0005481986341559031,-0.006680114718700054,-0.019531966568225298,0.004885335873095358
55,-0.009510291083119921,-0.0008633865838883125,-0.008026531593180614,-0.02121532374032549,0.002481743644276701
56,-0.008649770837024513,-0.0005136596349999039,-0.008616213886662862,-0.020467006918683497,0.0017783832832703145
57,-0.004801613260633076,0.0011304831470696918,-0.008507170729163715,-0.0176978299113354,0.002647308186686856
58,-0.0010575306939835578,0.002765473329650932,-0.008962184101164035,-0.014754108049397318,0.0025023139088472214
59,-0.0004281077963914885,0.0019003382928130107,-0.011306110494045514,-0.0137317045709498,-0.000987774356861243
60,-0.0021255668971496373,-0.0012384639300160667,-0.014123657012179562,-0.01444348514486533,-0.00579593968558052
61,-0.0034916922214959386,-0.00437653830504228,-0.014590113741423,-0.014661210284093014,-0.008068336235562681
62,-0.003916920849784341,-0.005661933432166897,-0.012676408353201692,-0.013298533273707051,-0.007536855375179114
63,-0.0041191675520313034,-0.004095219732641555,-0.010933644627443647,-0.011138959149107727,-0.0061396208837630134
64,-0.0040385695840539065,-0.0010185312298136636,-0.010453243053953478,-0.008498557516873355,-0.0045771610996877985
65,-0.0033308243204837468,0.0009707828565254722,-0.010181469722944073,-0.005019647597105441,-0.0035368149846104102
66,-0.0024861232695035395,0.0012661635890045685,-0.009338650089986631,-0.001309145973071725,-0.0037547591389495484
67,-0.0022704684240644033,0.0006747980649059174,-0.008297557970037924,0.0015999737133888358,-0.004821355166967976
68,-0.0023527260683670658,-1.935826396300944e-05,-0.007814200833394751,0.0036398350673669468,-0.005747914877806604
69,-0.0017942195627992977,4.1417088103597165e-05,-0.008427094393916106,0.004565947714410464,-0.005461483099064424
70,-0.0006369714723475079,0.0009280513471937192,-0.009862894405143556,0.0040601898648485206,-0.003945937402404111
71,0.00022761495377149495,0.0015723794177409127,-0.011197400913630024,0.0030133399935929196,-0.002584872205212688
72,0.0005558979154945363,0.001273048578786098,-0.01178158067738402,0.0022356533422436876,-0.0020677425483607544
73,0.0010801162659083109,0.0010600998289733365,-0.01129927470716384,0.0017035343833553588,-0.001285434150607767
74,0.0020647221740322697,0.001914293850307235,-0.009865063505869938,0.0013013525378295808,9.096613745807842e-06
75,0.0027674988493249656,0.0030830763573621803,-0.00803850699132032,0.0014923392207555886,0.0009478315415706772
76,0.002495345181670016,0.003774986691805675,-0.006754909511004155,0.002415002147582877,0.0013732247276437089
77,0.0016762904816633828,0.004089150057014321,-0.006741029014140996,0.0034177187043724893,0.0005693934556666336
78,0.001369664266633724,0.004447811322768102,-0.007430233401838276,0.0037133765834810473,-0.002205927097052099
79,0.0019282895083116258,0.005225576788770525,-0.007496478982479716,0.0025609391057555488,-0.00568841787107952
80,0.0029048332585946642,0.0060994944511537546,-0.00578711757514727,0.00120386609132046,-0.007328234442769105
81,0.0033590297107343055,0.0064012024346784034,-0.0022265313303800154,0.001989743476411923,-0.005669246212518753
82,0.003099896934105099,0.006512204808973323,0.002033196622509152,0.0053393407049956085,-0.001583399820729725
83,0.003384041318378858,0.00711570617099627,0.00587443183192669,0.010430961951579358,0.0026755938778746
84,0.0038214935010776043,0.007394989079126448,0.0076851265219920915,0.014467883964812609,0.004758294053026674
85,0.002092968496481331,0.006241064226551229,0.005707185224721802,0.013227357685771348,0.0036457696290271174
86,-0.0015152309726218923,0.004413842194161991,0.0010112397589132549,0.007051745600731199,0.0008479610282417411
87,-0.004124804799515842,0.0033413871712849176,-0.0031083409999681923,0.000992855086055215,-0.0010837238212050707
88,-0.005000526705518191,0.003472629907226002,-0.005421872947798087,-0.002436523770543156,-0.0001302142520439646
89,-0.005163345251963011,0.005053830433789717,-0.006418227807194622,-0.0038666525723961634,0.004008709566674483
90,-0.005228233150707831,0.00722694419165051,-0.006125865255992505,-0.0038465411345595117,0.008338872385230374
91,-0.005645214244843601,0.008395222485862315,-0.004734638768525672,-0.003381910137468027,0.010475594832484648
92,-0.005932325304827066,0.008086153795630192,-0.003239475954088797,-0.0036407963367162425,0.01073978853760953
93,-0.0056286989549580845,0.006401263542902525,-0.002895566958628618,-0.003966098082539332,0.009141999520844536
94,-0.004464767064749689,0.0044669384797126075,-0.0026386479654972586,-0.0014912848509015086,0.006461877180716221
95,-0.0021631309438651836,0.0036371791740241687,-0.0005438064251511557,0.004436613547358343,0.004668938847668339
96,0.0006482977410116729,0.0035843600935788343,0.0026838136100823663,0.010137162419096036,0.00398645988292864
97,0.0030140917907646677,0.0029631107959992888,0.005173298653699499,0.01226361709663087,0.0024495157142214946
98,0.003984666367336157,0.0015827221095378648,0.0058524444214594525,0.01041625156697125,-9.391464868474556e-05
99,0.0034280185274951124,0.0006082302602509798,0.005149601512490865,0.007200529810272797,-0.0010760962641760883
100,0.003088749984115488,0.000726484281322916,0.005593027294832281,0.007383394834423029,0.0008147654172335106
101,0.003591801305367903,0.0008019247764142135,0.007842632871541421,0.01179813821197741,0.0036923939025604972
102,0.0023807477411314187,-0.0012422949357053187,0.00814226123587324,0.015308566184094248,0.004171656777039348
103,-0.0009691026955241839,-0.004389816342910064,0.004776599765820427,0.014258219128662453,0.0023049005988004002
104,-0.003003529335397325,-0.00566170518699688,0.000614139167561384,0.010153652690542022,0.0006535396525345023
105,-0.002225776471893675,-0.004943183618140178,-0.0017849569075543443,0.00631610774491728,-0.0002529456248154774
106,-0.0004822408038923394,-0.0037076083715871823,-0.002143663990381876,0.0041581053277199185,-0.00015922791442957835
107,0.001183834292121386,-0.002383365036997683,-0.0009896174344062982,0.002966524377703629,0.001550894403532722
108,0.0033137338038496675,-0.0008749108500784924,0.001182639597067713,0.0020265073142485745,0.0039161928510957015
109,0.005473920978274357,0.0004456547769863387,0.003605381271956978,0.0008695256332231092,0.00567883100271612
110,0.006898219918246269,0.0014800972404930878,0.0060190634784386765,-0.000306710988424607,0.007460555385743107
111,0.007636104652113793,0.002506686176388437,0.008183072019756972,-0.0005625206476481742,0.01004623479641578
112,0.007521542795533021,0.0031299077772825624,0.008919848280410049,3.865559842818712e-05,0.012106934230657587
113,0.006555279021224567,0.0029605402852031907,0.007927130382081576,0.0012544952523230117,0.011683023266136237
114,0.0053471122335116035,0.002364068712518365,0.006350216213321946,0.00337656339413211,0.008832533363604374
115,0.0041339153321680805,0.0015425407146342353,0.00556338511634978,0.005124678603298656,0.005562520789528229
116,0.002926377656998188,0.0002939652818723871,0.006070018032972772,0.004316836801658753,0.0036734855919415086
117,0.0021247519349367303,-0.0011527575036510069,0.006493227303600661,0.0013500459644869072,0.003643539122037937
118,0.0012106652736208654,-0.002560693180211031,0.005334002300680507,-0.0009968887113921995,0.004527920381372004
119,-0.0007437522819292123,-0.004202602576217542,0.003575704230702596,-0.001409468017423321,0.00487954039972717
120,-0.002415958671296586,-0.005772726597341957,0.0026870055254337717,-0.0008782818532628977,0.003793752471586136
121,-0.0018193529920533477,-0.0059112270756452815,0.0016797466003291874,-0.0007477382579282507,0.00158596569703101
122,0.00038309267692938583,-0.0038692106817116013,-0.0009376054415922919,-0.001605584291288697,-0.0005050256130892356
123,0.0027451308536639877,-0.0004269511375001645,-0.003950812060245881,-0.0022749515611767157,-0.0020204088660025635
124,0.005360432914546155,0.0028860114544878605,-0.004681374129498568,-0.0006190684632842124,-0.004055330734073528
125,0.007488681874129765,0.004731961420940976,-0.0030657982726918064,0.0028683291846573434,-0.0073686807833945895
126,0.006956644527282024,0.004739962370941195,-0.001964727098387254,0.004298659958967183,-0.01088048794905351
127,0.003994422153172588,0.0034960771739726048,-0.0027141457799677937,0.0015195974830002513,-0.012627444516940475
128,0.0015229546835913137,0.0018053188885018246,-0.0041360222527717,-0.0034588616824635754,-0.011038149885785525
129,0.0010216947091879617,0.00022370284501678088,-0.005633751506552344,-0.007864591625436703,-0.0070821681422802065
130,0.0012170597163809714,-0.0010496580026290914,-0.007724654751380007,-0.01047955704837848,-0.003982910159433122
131,0.0005357466935474077,-0.0019929088250561023,-0.010238049166735434,-0.01134395909524558,-0.002698577533966712
132,-0.00041324821301706786,-0.002713688612923829,-0.011602219888425047,-0.0105553626458842,-0.0018295297156520668
133,-0.00039388292671732324,-0.00367909877889219,-0.011019921789785182,-0.008628793354291188,-0.0008157843181487494
134,2.1256934569606702e-05,-0.003922392107230372,-0.009658149193643535,-0.007109135793095386,0.0009542467154694586
135,-9.394784365526263e-05,-0.0013784324820772982,-0.008735777655991239,-0.007076313224462692,0.003816547048276493
136,-0.001070476172442613,0.0026262028206379506,-0.008598279156228617,-0.007913523623143954,0.005344679984573667
137,-0.0027978779868943603,0.0050411564390431185,-0.008461817937331766,-0.006929729002772851,0.003329532543231795
138,-0.004233966918369889,0.005252495362075687,-0.006946173772747832,-0.002550533729486819,-0.0010940703396055797
139,-0.004478178918528222,0.0037488490849954025,-0.004493987861993175,0.002015229467710727,-0.005498164255567888
140,-0.00378580052916863,0.0014565146747693226,-0.002961939695009227,0.002657950712142866,-0.00802085494122356
141,-0.002946835980278512,-0.00033331176991859484,-0.0030404503388961474,-0.0011911089396874038,-0.008700536703316768
142,-0.003041710568420661,-0.0018555585979357823,-0.004636088609912873,-0.007875786133670796,-0.01022133901508392
143,-0.004274625917665752,-0.003687987756125319,-0.007022586892180544,-0.01475752491246684,-0.013473570302241989
144,-0.005330905027850646,-0.004468382994737128,-0.008516422369976738,-0.019144242810940702,-0.014219418049415017
145,-0.005648408638737159,-0.0032858494493737678,-0.008621731614408285,-0.02046892154320591,-0.00989154911292711
146,-0.0055059270554907135,-0.001543018245396641,-0.007748329391454466,-0.019395347167071232,-0.003925396143409064
147,-0.0045670742998287234,2.0935745345240536e-05,-0.0054708046032733255,-0.01624137258380962,0.0010875102632020176
148,-0.0033354847550554735,0.0019365231424101426,-0.0026503760264060387,-0.012652684881807034,0.005644050157619888
149,-0.0041600170947849536,0.0026662254104346506,-0.002086807404356263,-0.011558460412645901,0.007819006852446516
150,-0.007450182974223972,0.0006645970708307701,-0.003895425331727777,-0.01287270575004597,0.005284191842209359
151,-0.010331302796854127,-0.0024670014581579377,-0.005443695721780182,-0.01370058196217405,0.0001278336535174744
152,-0.01128105417388876,-0.0049641456727775295,-0.006094432217190866,-0.013122978412948213,-0.0038545462762527008
153,-0.011141083817975482,-0.006497294191816125,-0.006687449053916884,-0.011507026720803563,-0.005192272916514444
154,-0.010454190992542025,-0.007197233256593359,-0.007018870156797459,-0.008727410149030857,-0.005236112810512499
155,-0.009313617167413153,-0.0072540042938548975,-0.006402208616110863,-0.006024049462706212,-0.00480052184944224
156,-0.008184768690131445,-0.006715568505953254,-0.004911578948401857,-0.0051072975126234136,-0.003259841766920656
157,-0.007154301172864296,-0.00561400294218853,-0.0030382663096731877,-0.005303208301774568,-0.0012665587302895544
158,-0.006002710964755381,-0.004167998897362697,-0.0011635909919524077,-0.005256373700409477,0.0003352400313578968
159,-0.0050932411054750186,-0.0026785993016456015,0.0005128280362892722,-0.005006027962561608,0.001895686907088207
160,-0.004269128341586109,-0.0010325583264283755,0.00251459948821336,-0.004475204324623992,0.003518581956875798
161,-0.00293342515453692,0.0007590310569939921,0.005115659334899573,-0.003751339237790329,0.00463219796678417
162,-0.0013607323331030938,0.0021289807050322083,0.007354888156209274,-0.002965389492165349,0.004764996308671355
163,-0.0001301277170984845,0.0023451280915496825,0.008117103946542562,-0.0014232778736096559,0.004014168575029247
164,-0.00017331743706905996,0.0009738006636005601,0.006966569858029069,7.489732549640881e-05,0.0034019447631938853
165,-0.001831415228066961,-0.0009171136472837179,0.004588241564566654,0.00017279505896702397,0.004400142390447687
166,-0.0030723832219522493,-0.0012492303066969062,0.0034622557499466027,0.00038794169610601814,0.0074193228590735925
167,-0.0028385164586609553,-2.767408494829283e-05,0.004916383565708896,0.0017320080807063619,0.011172039692499195
168,-0.002428074593922603,0.0011123264619021932,0.007401184900927998,0.00255626832890644,0.01443944663162906
169,-0.0013503108730987797,0.0019540388936018626,0.009874163137395349,0.0028135329796506515,0.016135557495190942
170,0.0008130916345473043,0.001985271445679867,0.011181237971466099,0.0028040619132819614,0.013867701341501028
171,0.0015361081213490961,-0.00018209552011121122,0.00955963895091705,0.0012309907552064455,0.007825545794496144
172,-0.000970603771469927,-0.00395043918078603,0.005255400143341282,-0.0018615232653757413,0.0017298190520525201
173,-0.00545440933387375,-0.007292471128759972,0.00010078162700474406,-0.004470428130113029,-0.0022550499954502993
174,-0.009260959975131466,-0.008774608541004472,-0.0037423090241405785,-0.004377507713161857,-0.003980256785032126
175,-0.010501693022586613,-0.007945036388681579,-0.0048423519951926435,-0.0012198417987725422,-0.0030871178432361787
176,-0.00902018320090444,-0.005859621918795674,-0.0037305934736879417,0.003378574857566369,-0.0005940932606663397
177,-0.00576151396518813,-0.0038902776408958725,-0.0019714140952262855,0.007543214900735955,0.0015565803076164843
178,-0.002048381418445588,-0.001963252627253191,3.2736315160820665e-05,0.01036640904839943,0.00328127131995731
179,0.00037719370029111433,-0.000565105586788299,0.002319122620563426,0.011602704990661964,0.003901204454403921
180,0.0008136608626019162,-0.0010308895388704978,0.004191821669018628,0.011418117939913047,0.001632093567480782
181,0.0005197304272784489,-0.0034909060856867587,0.005671035366119198,0.011427495456348693,-0.0029810738284631526
182,0.0005858785331897737,-0.0065960167663166765,0.007301222188094962,0.01280955967242662,-0.006922036066295921
183,0.0005213603506988261,-0.007787696393400463,0.008088386917485767,0.013828951288369338,-0.007556937959186398
184,-0.0002546400890681696,-0.005878939142806225,0.006815987752350187,0.012923413964036049,-0.005498731424177244
185,-0.0012939773338067,-0.002911425837904709,0.004304543732777651,0.011383536260285921,-0.003058156004120674
186,-0.0016249592723035018,-0.0006967696152411764,0.002569877923633336,0.010708007868601389,-0.0013178691501400893
187,-0.0004745326101577306,0.0008453965555644989,0.0032465969116978765,0.010379142603101289,-0.00046875792116788615
188,0.0011164713328094403,0.0013761036696182658,0.0053005348537598865,0.008461615439225167,-0.0005749015027071054
189,0.002053155523191987,0.0010995627470478406,0.006314338119824093,0.00507042745353215,-0.0014309682003157537
190,0.0028128535321615567,0.0010652334313019994,0.005552155916280291,0.0025553826649828437,-0.0020714603423472675
191,0.003197002231009662,0.0005827709528924953,0.0031149397908661184,0.0012526887475309907,-0.0018252125525224456
192,0.003987602890799139,-0.0006518611736949403,0.00028483432228356787,0.0016259020866458724,-0.001451753938913512
193,0.0062156861593090145,-0.0018177280602242583,-0.0015913787044471728,0.0055092310764820905,-0.0028069812614034853
194,0.007904984588427689,-0.003480123721298751,-0.002883803642321048,0.01144965897650509,-0.007071410291059772
195,0.007206153239889516,-0.0055791029931260335,-0.003558493645395411,0.015376164839704297,-0.012112962008456452
196,0.005064826322340976,-0.006283155371633,-0.0027719938564099746,0.015630332481529185,-0.014128172976106341
197,0.0026587499466527785,-0.00574050108209059,-0.0014968180341273132,0.013278932836883885,-0.013326141470751087
198,0.00010531917047362389,-0.006390982350765983,-0.0016682995660016154,0.00964488769780046,-0.01411240245747533
199,-0.0012825033981324215,-0.008113238676720305,-0.0027918050986944025,0.0060855702373653585,-0.017688385557811482
200,-0.0001535010477111483,-0.008256807192452427,-0.0034745124416774124,0.0034590579887948795,-0.020262396538036256
201,0.0021467808748429056,-0.00614241816490412,-0.003878439141040857,0.0010860928111601476,-0.019455305200177506
202,0.003498622086250523,-0.0035003056668614072,-0.004719754766833931,-0.0021021553650053064,-0.016837551894349344
203,0.0034709614138928187,-0.001463102185168638,-0.006227811287150447,-0.006122455383306278,-0.014428446590522786
204,0.0024853557892692206,-0.00011556745332181826,-0.008223785343435387,-0.010508528856361278,-0.013328712598863228
205,0.0013681547557015971,0.0007766152251981621,-0.009639843390241504,-0.0137394810869436,-0.013901772234192304
206,0.0015100421953827435,0.0017919709205246666,-0.008894826046057748,-0.013199226428138831,-0.015349491199038345
207,0.002201275526508029,0.0022667226405729854,-0.006530326372864792,-0.009404609360234868,-0.0176608686255407
208,0.0014521118572274852,0.001690138437389235,-0.004607961654646305,-0.006144237677940689,-0.020181044107063048
209,-0.00043622396198061394,0.000828597591619924,-0.004317853441165084,-0.005283778441733427,-0.021226637260475738
210,-0.0023512067169004307,-0.0006746100848875316,-0.006261127487221724,-0.006093324217850599,-0.02137767127888212
211,-0.0033931356242191606,-0.00304962246334089,-0.009239190680407624,-0.006818000147822631,-0.021573153308269078
212,-0.002768386021612775,-0.005433811710525587,-0.010926698214296574,-0.006051487328719449,-0.021601324185559597
213,-0.001229073531377363,-0.006998719761323265,-0.011079591985598086,-0.0041633484656862976,-0.020590919920797358
214,0.00013083362802687517,-0.007032343112709915,-0.01043406031281169,-0.0012732907572435162,-0.017575275643172458
215,0.0016049515009918462,-0.005194089479699495,-0.008632991530341704,0.0029987274441795114,-0.012399099443818378
216,0.0035871540616390423,-0.0015342074832630822,-0.005202834046045351,0.007273335440323484,-0.005314293279505977
217,0.005372297725777021,0.0031382609264588913,-0.0006791405344067676,0.009863973221529335,0.0020112428384094177
218,0.006038678070299477,0.006970512817357637,0.0043475011442645406,0.010916607243327716,0.006130663493725013
219,0.005390557789968103,0.008268368227294392,0.008734539596609898,0.010905113229408488,0.004729102475255252
220,0.0032780097139634696,0.006460682077006894,0.009159566942009019,0.008496198680698742,-0.0005386949059471243
221,-0.00017521008058472894,0.0022175527246374132,0.004030962676147809,0.0028613026682626805,-0.00593168557475414
222,-0.002937011370346198,-0.0022077417284507034,-0.0029404939177160093,-0.0029780407420276277,-0.009604664950672928
223,-0.003324181687258935,-0.005055898310892049,-0.00787575925334799,-0.00548771346683761,-0.012367875991286878
224,-0.001381774866777819,-0.006163040059329819,-0.01017267530642597,-0.004561253419173017,-0.014490738055686453
225,0.002629808237338143,-0.005512006151269209,-0.010206570266439261,-0.002103664969974209,-0.014383863876743765
226,0.006860368176665018,-0.00377039249769496,-0.008930663177210578,-0.00024652799921563197,-0.01174625698256478
227,0.00800105971117006,-0.002579747600366571,-0.008150685352629368,-0.0008323454532005668,-0.009159389492034367
228,0.005000665973804422,-0.00254356200430442,-0.008617534537643391,-0.004294348754939667,-0.008370601521427549
229,0.00022786913657860805,-0.002562140765053589,-0.009143035346227582,-0.009016035767289413,-0.007548495419442031
230,-0.003534569799555718,-0.0019190226241160293,-0.00879338366967121,-0.01301082875076859,-0.004735009549649369
231,-0.005303711447900023,-0.0006062393829954167,-0.007562084047213502,-0.014770961181769484,0.0002179492683906646
232,-0.005024144316015605,0.0012950126195699519,-0.005406891808821804,-0.012727880133270364,0.005199717475990548
233,-0.003217890521822904,0.002884402630498107,-0.0026994518886978287,-0.0067640789733384036,0.006860838304560319
234,-0.0016896558668566374,0.0033102733418603893,-0.0005275801721405398,2.91021146978491e-05,0.005544863705953206
235,-0.0012874070800514433,0.0029939399980352136,0.0009097119096242467,0.0042083008546305,0.004385581704491904
236,-0.00042013336314762357,0.002798912358682634,0.0029331066131458427,0.0056026243880743405,0.004733483784272979
237,0.0017038608636104268,0.0028254599090342704,0.005681005234512242,0.005429621774566097,0.005301417056974513
238,0.003504282141246193,0.00219389193279792,0.007700513761237696,0.003987623871309524,0.003569176563873513
239,0.0035164123441450514,0.00033777434430816623,0.00830683764245264,0.0016532973209045852,-0.00047145820399097386
240,0.0017500183143076972,-0.0016746878399448858,0.007533061412645011,-0.0009503664213510653,-0.0034875260428279434
241,-0.0007150954412613729,-0.0023097605674070156,0.0051225336854654364,-0.0035309446237397086,-0.003549017773143306
242,-0.002708153518789938,-0.0021873958619391706,0.0012001567242387631,-0.005493845106633658,-0.0029646572618142494
243,-0.0034656566014044845,-0.0023710048315079553,-0.0026677465234745405,-0.005648954473622044,-0.0033466890174763853
244,-0.0026709839725986657,-0.0023333063234630943,-0.005359813843947943,-0.0038140780557005725,-0.003426114261026755
245,-0.0007095287535165921,-0.0018541355252910555,-0.007177448524800015,-0.0011012986391907324,-0.0028186148276137845
246,0.0024580276728888763,-0.0005067807109406839,-0.0071319479991221405,0.0026915952023519062,-0.0013531967736665953
247,0.005883134358652633,0.0011819897075258609,-0.0049798308097510555,0.007236667358001533,-0.0002957130514602153
248,0.006733687020682122,0.0008944837254338436,-0.003642030349773394,0.009233938287514464,-0.0019800253975077063
249,0.004513739507866781,-0.001537880222363103,-0.004780503788140929,0.007287980478393244,-0.0052341087943516065
250,0.0013889115756818558,-0.003745278169591858,-0.006899631815005824,0.004297558528485163,-0.007287462035867343
251,-0.0007174215541920156,-0.004241536623043951,-0.007783211819230611,0.003819823348226802,-0.007751786087466942
252,-0.0006445507352168917,-0.003334784403391224,-0.006091361782000609,0.006842765816154645,-0.007643704787374866
253,0.000553367833234652,-0.0018338441773582716,-0.002994875445115481,0.010581211337312088,-0.006759455566012035
254,0.0007768101022736708,-0.00043704126411633453,-0.0007174398482377879,0.011995295995161038,-0.004218407437387423
255,1.0587195281280405e-05,0.0004492236485435158,0.0010125794657686311,0.011013950934609692,0.0003463404711922391
256,-0.00044499449765136254,0.0008613703564862644,0.003950950542207835,0.009625346659620287,0.005683492477171144
257,0.00023440079824125053,0.0009698434528004235,0.008399708989500815,0.009782576272290837,0.009074677517273798
258,0.0015524393191668306,0.00031859649629783457,0.012820971570010909,0.010868592631819905,0.009516002011741517
259,0.002515678457415133,-0.0011565007576126705,0.015347348982124377,0.010840893206726522,0.00876349932715463
260,0.002417922617310066,-0.0029031151871476675,0.015173515246150788,0.008627069864984455,0.00767663621893113
261,0.001356430580003087,-0.004414662680492526,0.013028044242985773,0.004635301237180859,0.005350654537181827
262,0.00040635274550611356,-0.004956371009041461,0.010250521663015617,0.00043798188603694617,0.002373211158666991
263,-1.878224953789046e-06,-0.00423381326468119,0.008005433782310839,-0.0023094219259558895,0.0005553003273636196
264,8.174065802857198e-05,-0.001839344506050171,0.007567253219609176,-0.002247991132988408,0.0013399657525386898
265,0.00024154313179129653,0.0019567502500454363,0.008865574308366205,0.00018009149638295422,0.004498270598449005
266,-0.0003704542502762644,0.005395307246163528,0.009908122440879392,0.0028310051488797255,0.007906860634104871
267,-0.001476816901879743,0.007326983433917675,0.009424034731576237,0.004795512204834489,0.00998995622762847
268,-0.002214526116512466,0.007750291013310217,0.008071174915049153,0.006383764686532801,0.010422796236438778
269,-0.0025843035200741574,0.006751362875488434,0.006638267503374263,0.0073228631556021264,0.009181056672014572
270,-0.002800607096497467,0.004529450817978766,0.00532105595389432,0.007738401026004122,0.006753348244140946
271,-0.0027550835196552513,0.0019387031276507948,0.004327746977405227,0.008683903753780016,0.004399262331156643
272,-0.0028721185562066817,-0.000473072482325935,0.003641449707905992,0.009907250014761749,0.002735616793157005
273,-0.0033616639724082416,-0.002478397628469854,0.0033126844789752074,0.01026675869246323,0.0017353102713446814
274,-0.003246464352911491,-0.003014511663591556,0.004256779670441351,0.009804878243219331,0.0031091116286057047
275,-0.00162580257918979,-0.0015648358919038456,0.007489188761992402,0.009787983508037118,0.008153690712089507
276,0.00028460861913965843,0.0001229470799727357,0.011386283155171702,0.01015320051035951,0.013453436964527775
277,0.00013065826739592788,3.482438860583986e-05,0.012967740082055944,0.009073886734285575,0.01548792553272329
278,-0.0015081158409171091,-0.0013017417569246472,0.012745308484802929,0.0072313451426545584,0.015442396446910462
279,-0.002336541773743447,-0.0020098135907816086,0.012853866729688614,0.006760371911802255,0.01530821084259835
280,-0.002247949940383287,-0.0014419027823827564,0.012868965615408838,0.007664480359179001,0.015018873856970311
281,-0.0022124566520881346,-0.0006274012879282046,0.011518236050301561,0.009606577676288907,0.012910762701352505
282,-0.0027231060156475274,-0.0010616754331882745,0.008949097589479767,0.011919349176730529,0.007877235264617078
283,-0.003517944185089281,-0.002785322198962101,0.00663454817239855,0.012882254422077922,0.0024795433245926595
284,-0.0035786900151979343,-0.004198740975515018,0.006041118358183904,0.012737643320805781,0.0005514554037898542
285,-0.002885655991264084,-0.00467153765745916,0.006606422632233884,0.012972995600285893,0.0015619128410211923
286,-0.002622637332934872,-0.005125501085017219,0.006548667084498524,0.013202522208838068,0.002486399818792366
287,-0.002935790156424147,-0.005917451882267944,0.005460658102980685,0.012441069312868376,0.0029469339284147102
288,-0.002582673971051627,-0.006628620830000652,0.004289692093525916,0.010545490856741268,0.003636730689024047
289,-0.0012886204948501867,-0.006726250643739092,0.003703286131938944,0.007569527004685691,0.004476216501192272
290,-0.0006381894817067563,-0.005813357130384928,0.003551616297540484,0.0039112734839662966,0.005721625636942223
291,-0.001506598554330714,-0.004188559760581141,0.00356288040494536,0.0006138271235191645,0.00696885086280768
292,-0.003297984919954997,-0.002714433401932386,0.003976825471648492,-0.0017244869944224599,0.007582014340914553
293,-0.005532259891029536,-0.0018842213521599032,0.005138252008867132,-0.003557496991277135,0.0077748281339927745
294,-0.007362215712474865,-0.001299548060285965,0.006805204789486242,-0.004925609701685473,0.0072166904610298345
295,-0.007738402166906551,0.0001055789568036171,0.008227986663803461,-0.0051325873144933655,0.006321822871718416
296,-0.007141141800289822,0.002528539678274641,0.00849024976375697,-0.004603946562685326,0.0060638201741395415
297,-0.006485387706534635,0.004452973418410337,0.007160961411319346,-0.004192741794390352,0.005756688952921918
298,-0.005482254241316787,0.005005154372480341,0.004770650702870716,-0.003869195505893566,0.005605390390523715
299,-0.0045268043884497235,0.0047049685152372985,0.001869379567789672,-0.0039541820048299755,0.006719254340154662
300,-0.004666477691860152,0.003942695483341496,-0.0012101111876031388,-0.004812614596697105,0.00860043657072588
301,-0.005419543027426304,0.002570581716953175,-0.003632926319021311,-0.005189216845987802,0.009869115675216722
302,-0.006023359097386239,0.00010719917537203455,-0.004660872507446955,-0.003206068703598562,0.008999546639137221
303,-0.006442034489682499,-0.002608354639848154,-0.004507505497314776,0.00035555744599927007,0.006084529224664485
304,-0.006335673147245932,-0.003610645823538009,-0.0038123717264515037,0.002259786382545014,0.0034552629826283226
305,-0.004989473711799625,-0.002706594590420805,-0.002171904705442868,0.0016340648921403678,0.002771032863888409
306,-0.0022825605331775814,-0.0013717992527796721,0.0013426446137305517,0.0008610110509953107,0.0042898797147562
307,9.557097956897267e-05,-0.000880898075536405,0.005457675545244118,0.00039887798913785426,0.007196656734186063
308,3.077043921615369e-05,-0.0009091111888335821,0.007533590488352969,-0.0017920836249606742,0.009585379107694365
309,-0.0016532769569985754,-0.00019306702549430095,0.007619835118607995,-0.004902893106788802,0.010505770063286927
310,-0.0032513784833777945,0.0006119049386684946,0.0074307315685151675,-0.005923582928561445,0.009918243795269784
311,-0.004984555614309966,-8.853440592920503e-05,0.0073967824021974535,-0.0037184366167268296,0.008044090040149464
312,-0.005938738816691675,-0.0013106196527102856,0.00861667639974084,0.0014353402571410918,0.007139963026103845
313,-0.005057584190078308,-0.0010719158426641755,0.011755178420291747,0.007305635042991219,0.008992869151961453
314,-0.0035476921886049765,0.00020685627664912716,0.014412477707673142,0.010823958998859653,0.01118523331034612
315,-0.001967761708080615,0.0010672871603474483,0.014861481773959483,0.012134560312772191,0.010311675420081448
316,-0.0004664757158337951,0.0012228244598176201,0.01370092491374806,0.012212845550882631,0.006912268480331615
317,0.0002315712186365654,0.0017687417308463963,0.011993227833061806,0.010472032447901122,0.0053775737043764696
318,0.0006449200691187919,0.0036016980998896265,0.010821801846715981,0.007722202475148433,0.008015790921806798
319,0.0014847351626253796,0.0058619123160105315,0.010448568890701464,0.00577571995640659,0.012121717868075569
320,0.002222950668866487,0.007245591836302645,0.010406489352620037,0.004669077504520861,0.014933396542489836
321,0.0022307341001192036,0.0071351097668702484,0.010107870779450114,0.00342608969810959,0.016218159210423737
322,0.0018043977317254414,0.00570723362643937,0.009199097937349469,0.0021426997319758923,0.01648566229494807
323,0.0016201563827732436,0.0037421008418007736,0.008140021625189392,0.0020867833800878605,0.015716439676978042
324,0.0017757804214177685,0.0018021275131692611,0.007752057213982697,0.003879771821846256,0.01373278514810226
325,0.002202998206520235,9.960408822924938e-05,0.008673482945356557,0.006758108156336083,0.011013673634513409
326,0.0028453267780814556,-0.0011010695756131883,0.010746596151215513,0.00941225155153146,0.008623269617862481
327,0.003056797662960296,-0.0014600113178537863,0.012650657608046468,0.0105274774057365,0.008089268934317209
328,0.002728223657892883,-0.0007490177405483781,0.013550479178680606,0.010188805101675783,0.01024896076927862
329,0.0027571260397689598,0.0004537163647491805,0.014510042028116338,0.010436327615008822,0.013262302634175915
330,0.0033606185759225498,0.0013238417183513717,0.01642144150692548,0.012545023399323573,0.014819820299626116
331,0.0038784393187756188,0.001973754799402071,0.0184879638442883,0.014962598660006437,0.015045685082518715
332,0.003347079540868256,0.0024464376452767818,0.019389176278186385,0.014821422034894128,0.014525703953864698
333,0.0015028141895163183,0.0026213640690777064,0.018531447405371562,0.011655004582829545,0.013157179467007977
334,-0.00025814202457595363,0.002721630529327795,0.016701383590238074,0.00833136195636644,0.011746464181908738
335,-0.00039125079407821144,0.003165787364990027,0.015328849198573998,0.007274493897544275,0.012310744570951987
336,0.001208834088001331,0.004365429105249164,0.015245287295649354,0.008315093834325398,0.015271006840759811
337,0.0029107785491778748,0.005887035817351035,0.01573255803955849,0.009682839557884428,0.01877033022937975
338,0.0035172609010493718,0.00711664126432324,0.01595092068516279,0.010466806371022217,0.021165172100805943
339,0.003987844096450646,0.008503641444583371,0.016489946442598276,0.011532270345490857,0.021847999588599686
340,0.005105804063705005,0.010150662317928792,0.0176869988064568,0.013202666458858345,0.020386891893348368
341,0.006339574122071871,0.011057822735563331,0.018807791694841217,0.01492078834466988,0.016926837868249573
342,0.00714608901532664,0.01116575721427669,0.01920870516965965,0.016632466816052738,0.013780603547354648
343,0.008018351910434728,0.011892371595149104,0.019678150715859866,0.0189807073176654,0.013932940547832832
344,0.00983194956125396,0.014122356954874685,0.021216535876186396,0.021826513588574382,0.01748421719887088
345,0.011546137015391636,0.016122340203469417,0.02235249154715995,0.022828036798348533,0.02067699739414455
346,0.01081536310873499,0.015072435676337042,0.020334908065384984,0.019561511838121607,0.01963551400320117
347,0.007442402230504253,0.01124572934519153,0.014765804780477012,0.012422331798763208,0.014549066501261497
348,0.0030606275732529076,0.007031144486008051,0.008051512537446862,0.004883326714472628,0.008142083826289882
349,-0.0007573651723441218,0.0033174593141711856,0.0029105604064567623,0.0015511963205314201,0.0021042289788399684
350,-0.0023256703744057934,0.000333669786166884,0.0009093457915371515,0.0031793507766784816,-0.002844846583549178
351,-0.001778587357161828,-0.0015288252109455834,0.001956402525333306,0.004983823747565944,-0.006148528697805629
352,-0.0009947730248849452,-0.0022750972069987482,0.004705269363123008,0.003704230418704922,-0.0071562862672312245
353,-0.0005180235667898713,-0.0017837054703336958,0.007660200964789802,0.0010384120444295447,-0.005151142482031684
354,-0.00016008361642019537,5.797140294168408e-05,0.009353835721796796,-0.0009896702177668402,-0.0003911281495693182
355,0.0001240478982254397,0.002524575741148417,0.009398959296949908,-0.0016837391091292849,0.005509272562087624
356,0.00039329083732461684,0.003719872045671962,0.008498594574662828,-0.0012664910546752808,0.00970885838706766
357,1.4481209093330426e-05,0.002285191315286842,0.006683025083546961,-0.0011363279767826976,0.010129710283513602
358,-0.0006146625094665294,-0.0003113816743129999,0.0045000989973680095,-0.0013247612160666325,0.0078961506349804
359,-0.00047331250087567393,-0.0023813257714459263,0.0029008691272162995,-0.0006905764541344427,0.005019617605478962
360,-0.0004947165977554655,-0.004834214805196894,0.0018160590335330135,0.0004542138132042103,0.0018012161864645736
361,-0.0015945554468918264,-0.008028514094952385,0.0015908899599800955,0.0013056020437610383,-0.0006912371837093849
362,-0.0031538576164583916,-0.01044884616432747,0.0025717541137549073,0.002176557389704222,-0.0005380802389940856
363,-0.004277250213032074,-0.011416797063453409,0.004017859930509877,0.003716402234718596,0.0011589226224529737
364,-0.004335440136904859,-0.011256866177417146,0.0054601180923684,0.005429984912888559,0.001554714853727602
365,-0.0034473297438673794,-0.009879621444779111,0.006679067234431252,0.006289730121512774,0.0010926393919437009
366,-0.002382477336550302,-0.007649982569765515,0.006919611651443118,0.006006861757092795,0.0017632857044762448
367,-0.001588122817530487,-0.005714286143659226,0.00633168211629233,0.005048800284467203,0.0033221914909378107
368,-0.0010481996833620003,-0.004695092935839667,0.006104783071584202,0.004594932322937288,0.00531351378350644
369,7.730814637660393e-05,-0.004178060587316481,0.007053376344471117,0.006131551466250084,0.007771020214441229
370,0.002013751824151643,-0.003992989220826515,0.008019749647514857,0.00841941566521466,0.009850216407547536
371,0.003846988490834331,-0.0035590737312133362,0.0075765684774713755,0.008746432786286916,0.011967210374140507
372,0.006000651681156579,-0.0013738827813816507,0.006871664345432021,0.008349683927192155,0.01457664056358973
373,0.008442095782848168,0.0016820853019499863,0.006636281366213849,0.009550624203493467,0.01518775985231326
374,0.008839903776549302,0.003119104810693977,0.005614342486400269,0.010282050272712255,0.01287721426138331
375,0.006473719568045463,0.0023557118372085485,0.003515591733642099,0.007922302755716227,0.010079478477037567
376,0.003896996854005235,0.0006028911107072451,0.0016470821755287456,0.004327389071783045,0.008588023307803852
377,0.002832030961542941,-0.0012805089588716796,0.00089487765118421,0.002412475454226779,0.008308666845327422
378,0.00317821206491821,-0.002866784449424223,0.001648376716250457,0.002813869916507756,0.008424752138901523
379,0.004555161033389223,-0.003640040307525754,0.0036781469876543756,0.004428997145184505,0.008070632651062937
380,0.005452939491349505,-0.0035604971482381606,0.005242788891436141,0.004952142183394627,0.007624544035980024
381,0.004212671487728651,-0.003290451008282522,0.004949172296788855,0.0028703272201879427,0.007807839889738902
382,0.0012825357613703776,-0.003799939959266753,0.0035520829331994485,-0.000607400856821828,0.00820956072672374
383,-0.0014075033608802025,-0.005045264196722335,0.002509000211498743,-0.0028519667390647123,0.008681095822933431
384,-0.003028499165436236,-0.006567111199867701,0.001698612565477243,-0.0030752447348894275,0.008524856667058817
385,-0.003516606009905681,-0.007956713646701887,0.0008957598831770319,-0.0021431563192158332,0.007348159249501457
386,-0.0021322958407333907,-0.00863280603931147,0.0011203342333860854,-0.00023579923048220529,0.005983917832178719
387,0.00032206899133984627,-0.008573981386314768,0.0022582675728747242,0.0024330099154988485,0.00516676828026965
388,0.0014137374657039944,-0.008056515516229554,0.003068551125982851,0.005101950450048077,0.0053594162029063355
389,0.0003608267743211643,-0.0077508539588746084,0.0034400397646540044,0.0072181628168371086,0.005512677061835042
390,-0.0015175581711547748,-0.007713584246551154,0.004119731430863173,0.008313338825756203,0.005038021373030804
391,-0.002765785521300116,-0.007002200384676736,0.00495671243943818,0.008432501476068686,0.005297566990627738
392,-0.003148614941023695,-0.005982900168275093,0.00540812617486567,0.008291177829286057,0.00665766358507314
393,-0.0030533868003271097,-0.00553861966385706,0.005953362440577867,0.007989560937966194,0.008388004929221107
394,-0.0030419690973506924,-0.005523446586197949,0.00656979246506116,0.006943224918827809,0.009537273663815037
395,-0.003481338827672729,-0.00541968513856415,0.006523096924966899,0.005519110955806144,0.009663127881680042
396,-0.0037326308734266125,-0.004729080411951468,0.006168967416323213,0.004620912473558057,0.009601666592258482
397,-0.0034327120225541635,-0.0037976337459449286,0.005668382423473345,0.003755051215311787,0.009278311424197211
398,-0.002448014726726512,-0.002538997199037875,0.005174199917251408,0.002606941691007656,0.009159015115642537
399,-0.001109109027195427,-0.0010273682844092837,0.0051018395086020315,0.0016426833908644051,0.01069336454024401
400,-0.0013985233636203828,-0.0015493136260295412,0.004333664979147786,0.0005098035274831954,0.012438031050978161
401,-0.0031859516729224277,-0.004704972566087282,0.0029490362401479926,0.0004346181901344549,0.012325528152511641
402,-0.0037080611334378297,-0.007857168988013563,0.002287593342901266,0.0028310713453982453,0.010688048729810063
403,-0.00250351925962278,-0.00896370301180391,0.0017287214800518654,0.005666400645529188,0.009094459220502735
404,-0.0006001554395883951,-0.008061873007975298,0.001279601659519328,0.007517079954568977,0.00852852928333933
405,0.0019905552389821776,-0.00612222961696361,0.002560939049577274,0.009468310879193448,0.009169445145582359
406,0.005002912116168476,-0.004724887137768484,0.005453780171473606,0.011655749172566498,0.010972372814142884
407,0.007451933497828247,-0.0045980954035290365,0.007752929586289849,0.01255431387172227,0.013141440326905575
408,0.00872917623362776,-0.0043818406115454745,0.0074185717556392635,0.011039537453127657,0.01430523943947681
409,0.009054387642719024,-0.0036566190259937396,0.00455927549027258,0.00831881523041038,0.013559247533514816
410,0.008704771589149653,-0.003339392030186082,0.001328514467033723,0.006835759759845802,0.01173258185020706
411,0.0076492473965940515,-0.0031469474867371165,-0.00026561475636466427,0.009020230438596814,0.01053665796815541
412,0.0062179110576750995,-0.0030273227441771737,0.0002522659042374735,0.016177026789741988,0.009241353785214844
413,0.0050425581803757984,-0.0038422063406562752,0.0018722856302827175,0.024730430763739878,0.006226485011884892
414,0.0041570543206344585,-0.005036611063114031,0.0027533441168583303,0.02756710031728088,0.0031298357095610714
415,0.003253552067166939,-0.005611623612692746,0.0016690434217988867,0.021785650192185663,0.0015504305113368255
416,0.0020285618954577612,-0.005907948569618968,-0.0011245368576469747,0.011002399391574186,0.0005710694255989664
417,0.0006134406610532222,-0.006158935559291393,-0.004078574206724528,0.000995252795786463,-0.00047585354750595663
418,9.515260793514443e-05,-0.005915630054842351,-0.005310771963375954,-0.004368959417248884,-0.0017054634754577517
419,0.0010770610872965548,-0.0046861174770814985,-0.004280995824921483,-0.005358397191864821,-0.0027814928057589604
420,0.0024429522079802693,-0.0028883257930046274,-0.002348566565628983,-0.004745258477956347,-0.0032970903181584773
421,0.003331122277822822,-0.001665024456391931,-0.0007259091804829614,-0.0037386642104012143,-0.003307761153794576
422,0.0051335533289286394,-0.0008381163978678413,0.0017245442169471616,-0.0012103916445718923,-0.002456325925471322
423,0.008830324834694533,-0.00015577313233885092,0.005944422771418651,0.0036206346561557384,-0.001291567311621793
424,0.0117940415310051,-0.000614548900684583,0.009164039551671098,0.008776988953399694,-0.0010991307468562876
425,0.01118032721896563,-0.0021840512373388736,0.008499432532017435,0.011349202246346708,-0.0019096647838792759
426,0.008425238754065872,-0.0034287208610534405,0.005598240422829698,0.01068068198340105,-0.0028278764503509063
427,0.0065839046871292006,-0.0033007229752122992,0.00379958979104413,0.0076955609608520496,-0.0030405282132414464
428,0.006258652117280787,-0.0023927356197118305,0.0036543951326697007,0.003414070884800399,-0.0029738074426429806
429,0.006019691618169582,-0.0016356293936728257,0.004347525523189323,-0.0009016341665398379,-0.0022924948777403517
430,0.00474634204995094,-0.0004863673360483229,0.006078566823796111,-0.0033539692746750414,0.0008397713908137805
431,0.0022332111936471414,0.0010114977200964114,0.007790521834980895,-0.0039043944847880546,0.005121793865991471
432,-0.0006241923000030325,0.0014872450986923862,0.00791324619664177,-0.004159131450869115,0.007276144191138722
433,-0.0018640351051244573,0.0007908141791620783,0.0073117253492016,-0.0033610928696957173,0.0073971216255851145
434,-0.0010479578695345838,6.577347597588372e-06,0.007040055089168203,-0.00038699850241164863,0.00780848596578759
435,-0.0003091825842970482,-0.0001749382049462692,0.0063989651519275395,0.002534107803471516,0.009476941034152931
436,-0.0011521497979885733,0.0004074698989006276,0.004816520086875908,0.002495316197016994,0.01150882971227357
437,-0.002588386989310099,0.001661288750104182,0.003204355254272999,0.0006222156779757761,0.012604054441918465
438,-0.003481105348839063,0.0035141914966619514,0.0022348128339730643,0.00028668398835995825,0.012903617254042305
439,-0.003706005038144055,0.005817710169472219,0.0016357551990016858,0.0019119600467826417,0.013236906936615592
440,-0.0034619591726793453,0.007884591436309986,0.0017349945455579965,0.0032849375953791465,0.013341759055880318
441,-0.0027635357434051136,0.009033376890791391,0.0031973138828303802,0.003651789517258762,0.01271541004993747
442,-0.0010388924595045145,0.009178052711000133,0.006005597459191994,0.004469814022687966,0.011272839378380832
443,0.0016530763818874985,0.00865758479919049,0.008930167234072908,0.006085934059405418,0.00875711311205975
444,0.003949193789149085,0.00794093027249731,0.010294144235765969,0.006808146543112438,0.0060165729950691065
445,0.004735310390386115,0.007059962597813137,0.009912560882270377,0.006141893959207954,0.005284985507949623
446,0.004723902592654862,0.006013114246186962,0.008931358475064466,0.005864420251383744,0.006998640318383622
447,0.004899313828355547,0.004983659612181918,0.00792218491583051,0.0064428550067643885,0.009098843369781449
448,0.004750817701727096,0.0036090067723949727,0.006448553801361232,0.005932124388749014,0.009834981560691788
449,0.004458031602784719,0.0024107208306041153,0.005101610592530748,0.004209482623685569,0.009989324158990438
450,0.005389951007788964,0.003028457829410661,0.005825847472726627,0.004093174325739489,0.012052753589313658
451,0.007419366282689031,0.005080926412829805,0.008652710472036904,0.006786991484058249,0.01568557627163312
452,0.008451544076859002,0.005929058316316944,0.010657018722047216,0.009538948886218701,0.01668459880762839
453,0.007428842052555413,0.004651353537811179,0.01015439015058697,0.009840999736504947,0.013199365768100987
454,0.005742334069060933,0.0030478892632425287,0.008417785898713132,0.008368113682898116,0.007989326356390719
455,0.0050063366595681615,0.0027768179694390637,0.006889941306854711,0.006867152045151714,0.00383059739642086
456,0.006052747357360506,0.003242326196596471,0.007240637130885246,0.007599883829374413,0.0005440232992745794
457,0.008401116562945402,0.003283453461222092,0.010111294872309787,0.011077775231327925,-0.0021318180091120416
458,0.009943192755573399,0.0036634292552600554,0.01319805042404751,0.013960418802480886,-0.0025454086265348608
459,0.00896950090472299,0.004494613159061881,0.014324903896732577,0.013593155893838475,-0.0013336711521745263
460,0.0059925554215475,0.004942037869243612,0.013862065390339738,0.011294530558295355,-0.00032155850309691705
461,0.0035725989949808514,0.005734487224826787,0.013228013436733846,0.009645591610452182,0.0008878768234826887
462,0.0028103595880662885,0.006716348578777741,0.011598722095798254,0.007991720540288634,0.0021729072839145355
463,0.002202608196343091,0.0060417060794084815,0.007604417064840917,0.004284238957923528,0.0020368497284321855
464,0.0010842590971030612,0.003184624825982422,0.0027079271302055726,-0.0006856347790279939,-0.00022396232848216795
465,-2.3900261839478537e-05,-0.000681588734700801,-0.0011176005705765665,-0.005174111345677534,-0.004294659179547795
466,-0.0006311107789657245,-0.0036280205360342973,-0.003727655262257474,-0.008725872311124042,-0.008788642435925871
467,-0.00012009970378849958,-0.0039161244299445955,-0.005800602603800655,-0.01130650992437488,-0.011390725348934275
468,0.0011820116744734684,-0.002249918847153507,-0.00499176778147389,-0.010259188009697879,-0.009893719361529016
469,0.0017940116688506438,-0.0008277798099418185,-0.002786424604782284,-0.008343662527907922,-0.007521895008244637
470,0.0010535705518283623,0.00021044002092274937,-0.0016038482089065535,-0.008097534820433964,-0.005320264495327955
471,-0.0004957386280682777,0.0014478053672265458,-0.0019185163675703232,-0.00854653017859171,-0.0023845680075472706
472,-0.0018196491592170044,0.002393384883666751,-0.004029285776799255,-0.009494989142987737,-0.0009901987935865152
473,-0.0025853905945534945,0.0025941124762096117,-0.0057308376326009915,-0.009235411818091913,-0.001159650227493969
474,-0.0033432637080604345,0.002132824039655969,-0.005932344020933788,-0.007447837963891081,-0.0024902318925418194
475,-0.00416054697280563,0.001903349075021651,-0.004927752925451282,-0.004786796114224232,-0.004127135326588896
476,-0.004712438987969328,0.0025704316407157684,-0.003889393448861819,-0.0027253053165602037,-0.005430679569011495
477,-0.004951599956511739,0.003647558138651115,-0.0022389537967769818,-0.0009545695521006318,-0.005704441251742142
478,-0.0052631135170178155,0.004548470559589749,-0.00025263268696744444,-0.00016003067181707915,-0.0042189812787771066
479,-0.005284372402706221,0.005729351082462927,0.0011659346695978626,-0.0003565948803648549,-0.0010991822905217085
480,-0.004421789477150153,0.007210237125462587,0.0027720872145217852,0.001533171313834208,0.002243171603107597
481,-0.003304345239918129,0.008234227249360591,0.0044484505853806715,0.005548769991108367,0.00436433769140344
482,-0.002684442553804897,0.008982461387265675,0.0065099394004380605,0.010075405115308965,0.006540904754581124
483,-0.0029741550344427096,0.009501388345776381,0.008832367280324658,0.013799377503338999,0.009279243472709135
484,-0.0043972864153445914,0.009201860477506358,0.007070398632168878,0.011087056783023271,0.008344546720077214
485,-0.006491735792437008,0.008300077365538642,0.004390381342321267,0.005774709340934692,0.00565211216454995
486,-0.00853210619702998,0.0074770463270601596,0.0031845771230138297,0.0013837758030230223,0.0034971148645657445
487,-0.009939311207154468,0.0071096005394004754,0.001123084497971808,-0.0029136235721479685,0.000838989316817464
488,-0.010458716001310332,0.0072999731884181174,-0.0005048697696106794,-0.00402718302780224,-0.0010422617141092724
489,-0.010551946861064984,0.007887306287246864,-0.002296197912754127,-0.004043733999262502,-0.002309179591569766
490,-0.010994579376576672,0.008689376847552846,-0.005190027879588276,-0.006049278707708825,-0.002971824690738692
491,-0.012188478262820473,0.008797058562006757,-0.008813930350814273,-0.009777636212504754,-0.003803375375043322
492,-0.013103719919906777,0.0073981921055647085,-0.010595276850889224,-0.011245246647906727,-0.00528728932743128
493,-0.011881573508710875,0.005634421160175988,-0.010217697053149679,-0.010062765542357863,-0.007832724640398005
494,-0.008815913175330016,0.004494132598921379,-0.008416597072504698,-0.007541178910043915,-0.010654588011568657
495,-0.006450169196748729,0.0034311954446637006,-0.006220635120349507,-0.0049758268992816665,-0.01283982989175576
496,-0.0060311123870110065,0.0026485851270484618,-0.0055062170520386,-0.004653458665653047,-0.01351621315652638
497,-0.006733874971499781,0.0027117991652328296,-0.004764402979888197,-0.004699093946719346,-0.00992599658707553
498,-0.007433261862586685,0.003076299855119207,-0.002850010315010752,-0.0035333467185520696,-0.003084448923801684
499,-0.007428023927755009,0.0030151928116096925,-1.31910664828927e-05,-0.0014221225112089435,0.0029518299281021923
500,-0.006704526586333962,0.0027374661004072516,0.0006882693676336957,-0.0009437160648145818,0.0032754184493228784
501,-0.005302875367062152,0.003285689342683332,0.0004700540577893034,-0.0009069436391754569,0.001022502911297312
502,-0.0032443188477263105,0.004822789377688465,-0.0001314555924722585,-0.0009675254128313158,-0.0013358334259156953
503,-0.0014186270287455784,0.0059872923847656915,-0.0028448339942566906,-0.002861512777479043,-0.004547232517169963
504,-0.0009476127454700323,0.005547083158030933,-0.006120986759340328,-0.005246571214601729,-0.006743696972800944
505,-0.0015704483568308113,0.00415140214887157,-0.010100480469073409,-0.008220581556963678,-0.009443171544932502
506,-0.002328457822999085,0.00311302781116464,-0.014886631320035378,-0.012084878711852357,-0.013678276331750044
507,-0.002853081678398668,0.0027947006361634845,-0.01930512637911949,-0.0158080581853786,-0.017600898084911262
508,-0.002632519337586778,0.0031012291115353158,-0.021410016746049136,-0.01748983716619424,-0.01880106492630584
509,-0.001089951660460144,0.0035533708427682954,-0.022737838123262123,-0.017857260988943406,-0.020089048331231475
510,0.001177791623415189,0.003733696250905714,-0.024824584508623987,-0.01841878835996559,-0.023390474280024005
511,0.0026570281076458927,0.0034782391588063324,-0.02732757385309082,-0.020692338160108306,-0.027048720264058974
512,0.0024714250556086355,0.002356541144023793,-0.03438593635617855,-0.02651546293433865,-0.03233685566837242
513,0.0007517748295820704,0.00040877024823375157,-0.03972410503708133,-0.03391387685157115,-0.039026413518304444
514,-0.001141250531847741,-0.0009531697747725678,-0.046470001554063306,-0.041570738926151034,-0.04572553726086959
515,-0.00170253416491171,-0.0008495023842726996,-0.053339480129111216,-0.04797433568275841,-0.051074191679763264
516,-0.0013667423143280898,-0.00034925446465319804,-0.05256109211251701,-0.045833154601079965,-0.04984866384075976
517,-0.0009505512668555397,-0.00036295407453972825,-0.04895394517114578,-0.04069265183628327,-0.04738846925775957
518,-0.0008343237453742935,-0.0008080173977960309,-0.045773857556593696,-0.03686069440176236,-0.04540533747449573
519,-0.0016379772828401566,-0.001484430265760869,-0.04083102031651272,-0.03240141035410056,-0.04038056917785485
520,-0.0031895030707082064,-0.0025522763567354715,-0.038512025434583604,-0.031076421831924123,-0.036908498249876034
521,-0.004258981279370135,-0.0034948083456907125,-0.036022277833413864,-0.029833076923881714,-0.033481828814863536
522,-0.0036223876450646965,-0.003015802885129651,-0.02942602199144092,-0.024981153657759377,-0.027012667749785484
523,-0.0015685908659526756,-0.0017251410076320227,-0.020300548987928917,-0.017559641868708207,-0.019983930628654566
524,8.893832297206363e-05,-0.0015166557749416185,-0.01531526981156708,-0.012815041955207709,-0.01776723197758271
525,0.00022495981715155592,-0.0028100810091397244,-0.01437067958980421,-0.010228957338682355,-0.017645450216870785
526,0.0003283057129311664,-0.004327996276324963,-0.014289041229232824,-0.007720044805904461,-0.01707480879311923
527,0.002578495573288261,-0.004625510944000626,-0.013375055280272639,-0.004606065819682952,-0.01740580650629702
528,0.0062502976201361535,-0.0035296213574254106,-0.009385961878953755,0.0011011992194718174,-0.01635944499768007
529,0.009437660487382754,-0.0014559695485688753,-0.004233123115637566,0.007306668419457404,-0.0131163529660682
530,0.011496150794246365,0.0008296971134904934,0.000975034122976322,0.012581585704795015,-0.008369094171909097
531,0.011775920447439378,0.0018539033508845127,0.006170410552413055,0.016747481876054404,-0.0029541098746948893
532,0.01060580633474237,0.0014736548030098665,0.008029555787155826,0.01717909797449446,-0.000165633197470843
533,0.009301396509801042,0.0010328784058176604,0.007320274912433414,0.016026618779326464,0.0004967182364499509
534,0.008097733426357046,0.0011995896396700448,0.0050661373600635095,0.014409296575272007,3.63897578038438e-05
535,0.0063613937835932605,0.001380422733793613,0.0014765547546206073,0.011370800249168974,-0.0017345465475838743
536,0.003515027812750566,0.0009542620730048628,-0.0010204034163264044,0.008726351122458552,-0.002885910860133823
537,-0.0003524666937642737,2.7507512880145806e-05,-0.0026537474748863587,0.006092386610014532,-0.003140411539001204
538,-0.0044530646209860235,-0.0015910375512515312,-0.00457826726162428,0.0026980936018996416,-0.004425796900284662
539,-0.007454730894157843,-0.003912459629127223,-0.0058017562996963154,0.00015070334155255986,-0.008017381770880423
540,-0.008230082058324765,-0.00586577661229868,-0.003524363304557119,0.0005358926842390367,-0.01115080951735026
541,-0.006842975979279694,-0.006240920052556164,0.001505495394119086,0.002484537311570082,-0.011424758079604812
542,-0.004641040021951782,-0.004858908041785968,0.006145788764847854,0.004177617536867617,-0.00930692507209556
543,-0.0027265528878591427,-0.0023759249773453355,0.008713048741002066,0.005551801904800384,-0.00586075819825815
544,-0.0011216626184703165,0.00031472757855322356,0.008976711007330258,0.007186359883752298,-0.002296346080347931
545,9.659617668204594e-05,0.00199790429335752,0.008008752717246003,0.009776728940840048,1.56832330474109e-05
546,0.0009127784687971329,0.0021913353875494925,0.006921992179210186,0.012606171251313518,0.0007754469068020484
547,0.0012317480483152495,0.001138485049495817,0.005823241357995458,0.013924345039158579,0.0007878165575324705
548,0.0003862738628153481,-0.0009899779568118413,0.004444756129779905,0.012389791647337375,0.0005785173931814222
549,-0.0019184503055917116,-0.0038486144368694627,0.00403326395763736,0.009219657061505421,0.0005771558556522037
550,-0.004570430443745624,-0.006501159967754899,0.0058526592084378985,0.0072152109888036645,0.0004396980928868899
551,-0.006208960753139847,-0.007548510127530236,0.009196065569938197,0.007449097407614246,0.0003330305132829653
552,-0.00669751810154501,-0.006564477789689912,0.01262484938557529,0.009072034589949542,0.0016736286501408996
553,-0.0060131830194704505,-0.004317226706727043,0.015517800452371864,0.011666670650414471,0.0046016758131024234
554,-0.00412545484264581,-0.0019596325162376266,0.017966591671534516,0.015369883337994461,0.0081067078203768
555,-0.0018286845348548261,-0.00031132512033013273,0.019871633727827163,0.01934527013353255,0.01166817997117744
556,-0.00017840444717227982,0.000584994873297426,0.020959182445612786,0.022169156143722286,0.014777804820333956
557,0.00044706869929851456,0.0008154976953024108,0.0213997497444473,0.02352041317973661,0.016611892696391222
558,0.0001298846658657839,0.00037180536781783284,0.02172394051198092,0.023926570025344453,0.01732445472258439
559,-0.00013602563329724945,0.0002916567928474504,0.022336484457280637,0.023915853376131356,0.018423641620724476
560,0.0005897651613077833,0.001021273029335069,0.022505929668010793,0.0234815020060738,0.019860443523011535
561,0.0012464341259091738,0.0012790033007667675,0.02146030475683478,0.022379347202832793,0.02020128129375631
562,0.0010730161454847297,0.000992233714016239,0.020461221572028242,0.021919993984370476,0.019760880281885575
563,0.0003878791155639432,0.0005511745361815692,0.02081906285657973,0.022766862843266962,0.018954903371204656
564,-0.0004832033701192027,-0.00022609342952013898,0.022160564536574296,0.0234459181428644,0.017765421334798935
565,-0.0011684195733024062,-0.000766908326795657,0.02328955335555609,0.02289770989862022,0.017001351766756094
566,-0.0017449071623117838,-0.0008462978283207328,0.023391927409497866,0.021437833708219653,0.016779322949104683
567,-0.0023572960438562013,-0.0007886639786396349,0.02222700381800954,0.019606697077938724,0.016887621673201646
568,-0.0029859899368596824,-0.0005184688643135602,0.01985463189442064,0.01732393998961988,0.018057005242274875
569,-0.0035731874208615845,3.941462247476791e-06,0.01750435924943691,0.015081170406198255,0.02022474599239788
570,-0.003811223506891632,0.00028322066782135815,0.01654515991593256,0.014197599277365046,0.021604675897143964
571,-0.0032054551862129295,-4.950483222258979e-06,0.01707408390266034,0.015289898036025196,0.02148791569105231
572,-0.0019962412679627407,-0.0008335841181646237,0.018772906322505868,0.017734719299431066,0.021216399393114375
573,-0.0010893265333508707,-0.00188539421866517,0.021246312968743793,0.020470265717526137,0.022442243588410713
574,-0.0003298008062182932,-0.001977781823182617,0.023986374081779505,0.02321376699402171,0.025597556496060568
575,0.0006574258025728605,-0.001005086835842211,0.026475585876479746,0.025968353893848686,0.028602961776851264
576,0.0015039475566556496,-3.320597616155678e-05,0.02857730704016161,0.028265594964264618,0.0300041905167771
577,0.0016927170778843357,0.00019687263205924615,0.02974633246312487,0.029506677244340734,0.029888709391790235
578,0.000520556694987399,-0.0011826530125628734,0.028561209116396778,0.029143850251751622,0.027298312838139847
579,-0.0016629321228956377,-0.0033824167532192045,0.02564515421605641,0.027630922624080102,0.023164735624309332
580,-0.003534309530344533,-0.004374473899880694,0.023157947975958246,0.02635009368959915,0.02030038432647154
581,-0.004538048170029574,-0.0037121428404282312,0.021833556683059363,0.0258998510218376,0.019734791851798134
582,-0.004522123296716717,-0.001885068988898572,0.021947070907634505,0.02603094014748776,0.021151072447547645
583,-0.003390999890550674,0.00033402454260745255,0.02334990390636864,0.0264015404921185,0.022610978510955095
584,-0.0016849564513433573,0.0018780475681576274,0.024938598751121713,0.026926816817043515,0.022290056988948793
585,-7.276128698999915e-05,0.0027270508310058878,0.02636007623547895,0.028114042606877263,0.022126986593090318
586,0.0014117244518097507,0.0034971947015918995,0.027926860303800278,0.0300672024993963,0.023831778368245526
587,0.0025620648371725845,0.0035941361644193444,0.028923529414305486,0.03132024253755697,0.025283626725318996
588,0.0027033828249692815,0.002156957076612448,0.02823525869184374,0.03071725398309136,0.024352410947347365
589,0.001991632487917004,0.0002338227017923812,0.026272811533308446,0.029320771896000703,0.021903374643595954
590,0.0010464869070114283,-0.00020679560929713346,0.024258170487182693,0.028265236785221224,0.021275544127329012
591,0.0002304436252166831,0.0014962116875209778,0.022965692741585,0.02725770682221181,0.025205137815933386
592,-0.00020068526607000038,0.003750203458972206,0.02295907211264165,0.025973429815558398,0.03142593878155003
593,-0.00015997668570815442,0.003989626692653172,0.024410813337054395,0.02506462201919678,0.03414611716979347
594,0.0003069327591533477,0.0017382864385255402,0.026405628861117775,0.025164876847307244,0.03144408441731866
595,0.0011456515573949563,-0.0009536894551745668,0.02759231062404783,0.026015852517984772,0.0270849112715166
596,0.0023272979319539813,-0.002122140489110018,0.027630558301917744,0.027215518959202753,0.02476289163202863
597,0.003311490570298238,-0.0019419012525378812,0.026804582882505566,0.02819787360093323,0.02426807354510067
598,0.003242802099293444,-0.0019994764438795334,0.02513027006259444,0.028183376385541137,0.023299449259259617
599,0.0023401464980704056,-0.0029569181930095864,0.022954160359691233,0.027385593645032468,0.020653209534804713
600,0.0015824360757824103,-0.004570119215633048,0.020881971964936567,0.02690497517133965,0.016431484695565997
601,0.0008018922151158872,-0.006784615336434764,0.018884363431291212,0.026438787882572538,0.011935052540847374
602,-0.00026947104821211705,-0.008379936749769962,0.017390867030218138,0.025113304695399227,0.010483135039570124
603,-0.0007703666654599334,-0.008011839471340999,0.017246669794192464,0.02366723628244204,0.012770341786440586
604,-0.0004150131990364775,-0.006432423756489898,0.017908289647659788,0.022640807851491817,0.01500440110489824
605,0.00013235694160446823,-0.0046779279845840915,0.018417682938665806,0.021609932590365793,0.015510466444807816
606,0.0006684529175753419,-0.002690578002157196,0.018985289785332746,0.02069205223462899,0.016480954151398223
607,0.0013961421999316979,-0.00046240235158651207,0.020074752599235683,0.02028486383052216,0.01962494828693562
608,0.002007624918541249,0.0011447570612766911,0.021181922385741323,0.019767914502950373,0.02298726837502801
609,0.0020609827129375144,0.001642085804364177,0.021540387746342246,0.018298999601482333,0.023695751784368505
610,0.001030741515409295,0.0013597008385951876,0.020911793350844417,0.015762727779194862,0.022065866121831902
611,-0.0013078474961951728,0.00028566507696125366,0.019640201234079904,0.012671145146779427,0.019448685393446317
612,-0.004293558651725424,-0.0020165042796592,0.018048854535924405,0.009897209376271478,0.016543499272563628
613,-0.007160047501726511,-0.005233115330818132,0.015708962618420554,0.007475262986911596,0.014322998256677814
614,-0.009482688503959136,-0.008067750054966228,0.012743355227937443,0.005063424757077839,0.012485966889360475
615,-0.01103940687994431,-0.009680892733550847,0.010521187666645197,0.003051505027099535,0.009908349358177504
616,-0.011417726408700911,-0.01064829336014699,0.010104664236885327,0.0024529853173553976,0.007282356898839497
617,-0.011004734124304296,-0.011935133985286072,0.010472745319196874,0.003426824998754999,0.005228326757195958
618,-0.011026511116758841,-0.012480431743286004,0.00955245487405558,0.004556858830826205,0.0036438655433616105
619,-0.011340641916496691,-0.010848824188667096,0.007739864642674414,0.005437102792362168,0.003582857716641453
620,-0.010660161252038084,-0.007381521180822682,0.007460291960499585,0.007035905863058695,0.00618575499365895
621,-0.007865405715411807,-0.0020405613446719713,0.009831551647159603,0.009974771840421842,0.011845013530720387
622,-0.002678762904688067,0.0048686422645961005,0.014715728226625356,0.014897965877782209,0.019437086211344618
623,0.003314449906174789,0.010573661777008633,0.020607836311672477,0.021068322184079277,0.02528956169475129
624,0.006871047398567972,0.012138451790775039,0.023456317325215994,0.02458167978598463,0.02589919116379074
625,0.00677202589900863,0.01030406499668654,0.021327596553248385,0.023055682838975296,0.022276237118813536
626,0.005016452446611409,0.007410713189316806,0.016996964803741837,0.018886883890191414,0.017059364562202656
627,0.0030233784804541333,0.0036805636424783916,0.013284384566155667,0.015092384856043578,0.01059415828453603
628,0.0010376242555568712,-0.0007804519345104473,0.011202618400113794,0.01285716921822725,0.0036276188164180417
629,-0.0005872197260024196,-0.004735330576821765,0.01073603626094254,0.012252755224397534,-0.001979959742963754
630,-0.00194117874602184,-0.007474962966282124,0.010889120640411469,0.012556620903459709,-0.00549533134997263
631,-0.003403444178440863,-0.00934003216669276,0.010460911577377252,0.012776128891826213,-0.0076805943034141105
632,-0.0046961286532801036,-0.010275489229323895,0.009144187086413109,0.012655479850383964,-0.008702620554741372
633,-0.004798820251795536,-0.009299038552025653,0.00823307087260851,0.013153588977435926,-0.00749897829720622
634,-0.003413169487956896,-0.006801890206085478,0.008723057909405115,0.014703665770295216,-0.00432095633704819
635,-0.0017454714024297791,-0.004701674255428051,0.009852432900113409,0.016133626758246394,-0.0006017318922508687
636,-0.0011230002828763136,-0.00426737413651865,0.010635227234279402,0.01633577992638493,0.002676983810300789
637,-0.0019729594270856384,-0.005310460895133451,0.01063989965354006,0.014821930221868309,0.0052456375647962055
638,-0.0035049599243118443,-0.006161581716674761,0.009999729810153473,0.01192830590949901,0.00764783518680278
639,-0.004482896439552723,-0.005815605363110669,0.009106288341348532,0.009128071311161848,0.009692904350488333
640,-0.004748439460194155,-0.00485956544365206,0.00831570890380957,0.0074908633870333875,0.01055062499407132
641,-0.00490215559784631,-0.003755475278847776,0.007579951488026841,0.006673307912904014,0.010081381472262367
642,-0.004964646404154958,-0.002466288032719038,0.00697831193561786,0.006429778363476341,0.009527989010053271
643,-0.004725406673263355,-0.0007755124177281182,0.007237859893906595,0.007531739815107573,0.010808482728328347
644,-0.004549700900040062,0.001278384637737537,0.008578954587373823,0.010077884622382955,0.013807155455231479
645,-0.004184760941983828,0.0032408150043083997,0.010662710772641954,0.012962564225321892,0.016842498889697233
646,-0.002907326141488551,0.004255366666515424,0.012608336238325926,0.015031902259048593,0.018068512523993475
647,-0.0011305187161171145,0.00427846244782686,0.013325867282738017,0.015461498011084688,0.017248800503809423
648,0.0002616344169157123,0.004834800396153614,0.012796694411999114,0.013826908913055854,0.016692815309984437
649,0.0009595755494655357,0.006562724906930272,0.011770943969459076,0.010594988390675724,0.017302181086369682
650,0.0012676154347469265,0.008502336785548932,0.011085900884241927,0.007136952318799312,0.017982721757472474
651,0.0014117607875128969,0.009741365616720466,0.011007440675346503,0.004219114909270775,0.01832387234903291
652,0.0014702973410706103,0.010341518610829846,0.011145290272188546,0.0018469275693380085,0.018097614403087655
653,0.0011690665771608925,0.010467815068553104,0.010681507518173925,-0.00016748616045254516,0.016319861146341815
654,-0.0004216266648364201,0.009505432275407075,0.008786206803216295,-0.002475505888690301,0.012364157238051338
655,-0.002318443632858738,0.008190987853603612,0.0068712889128333355,-0.0043222893101421715,0.008550004880253597
656,-0.0026020067760148353,0.008350654647976127,0.006958925926619853,-0.004444879626853993,0.008705499670473418
657,-0.0018287211689265576,0.009693821061159857,0.008261591986455062,-0.003596263417428532,0.012677850850171318
658,-0.0014717049059696482,0.010340214974147645,0.008981905638364042,-0.0028939154548166877,0.016893348314825377
659,-0.001903849900245153,0.009465301305031627,0.008528739837646486,-0.002600601995916627,0.019617314189414772
660,-0.002347371324758342,0.008001171164202606,0.0075287014301144775,-0.002261593933773102,0.02135250958624223
661,-0.0018720734208157478,0.0074260711704062085,0.007013006449922413,-0.001297543023546103,0.022596286326784988
662,-0.0010510864942979722,0.007557221568555491,0.006910160608823596,-0.0005046148420680606,0.022767258162515503
663,-0.000686202960628706,0.007942237767501215,0.006784276442334904,-0.0007788413564143995,0.022026943515456015
664,3.972086223731578e-05,0.009467353062960296,0.00731373974868652,-0.001201358497879545,0.022150619139688275
665,0.0017631135359999553,0.011353349197367758,0.008596478173828595,-0.0003683427148758173,0.021993425760333085
666,0.004160821221039791,0.01209965435182599,0.00991052376478724,0.0025649778178397863,0.019361451004377646
667,0.007013867639053862,0.01159504559733702,0.011393111202628743,0.007388142005398698,0.01585274414262283
668,0.009003684691741513,0.009883771280573266,0.012593141750597836,0.011501472683451676,0.013385244947800799
669,0.008194600389705247,0.007787352731680709,0.011426632342967208,0.011287621404016974,0.011123881133489196
670,0.004771866453107533,0.00600684890689969,0.007001754092089043,0.006228951125879219,0.007401231173624424
671,0.0006528728135418341,0.004204921575864428,0.001303236266182526,-0.000457673387101235,0.0025821691644137886
672,-0.0029499882890384344,0.0022870371609508737,-0.00378724429208789,-0.006377014088201917,-0.001781065475064561
673,-0.0056766221472703505,0.0002720568097083025,-0.007578885884599141,-0.01100427019484914,-0.005217904140175686
674,-0.006720318319769309,-0.0013853178365561324,-0.008921700034171486,-0.013134463656288224,-0.00704351647283864
675,-0.006050420476471639,-0.0021616026328168674,-0.0078878318541942,-0.012560071019483723,-0.006000052799285041
676,-0.004732900900053396,-0.0020941894938510354,-0.006155411400194571,-0.010787292677890428,-0.002386489451904359
677,-0.0032701902194114682,-0.0015134288784647114,-0.0047159851076084575,-0.008705224063770734,0.00133766279154016
678,-0.001738954360850873,-0.0008836224307186158,-0.00327314637014495,-0.006473072367588573,0.0033471478576551804
679,-0.0004046735145940212,-0.0003823106962319571,-0.0010974510136593058,-0.004172869773030682,0.004060586877667217
680,0.0003295776529109138,5.634313641254258e-05,0.0016006113644616842,-0.00207525126606765,0.004319144644397046
681,0.0002594275540190609,0.00041179929858022263,0.0034750661971203953,-0.0008397624460387667,0.004330041008372533
682,-0.00037732767509289326,0.0005256952697498202,0.0035078397118441557,-0.0009343222757523504,0.004349291349580596
683,-0.0008619507707818983,0.0006359639887489299,0.002399740418570681,-0.0015563252265672477,0.005030037052377413
684,-0.0004350728208091315,0.0009790269246658027,0.0016278125837345103,-0.0010237427423763572,0.006079784174730813
685,0.0008506245737352759,0.0013308388067118095,0.0014428827986957618,0.0010044081654550516,0.0066129593337064165
686,0.002530042391045025,0.0016734300393603807,0.0016266302379462528,0.003632700407057643,0.00694335175862635
687,0.003682455783500308,0.0016327261700677127,0.0018002884276029634,0.005659153022045151,0.007286723202260161
688,0.003789703848785597,0.0008267196322309197,0.0015855535719211911,0.006311048191767955,0.0074733999313102905
689,0.004226195795175407,0.000126888284842837,0.0019236409301456407,0.006873169016616915,0.007948552286781495
690,0.005750006214999802,0.00019647993121956188,0.0033007660659689674,0.008664838362331383,0.008080326154968478
691,0.0071343631509939555,7.629428175366461e-05,0.004656918843564053,0.011000343842937656,0.005761376603645585
692,0.0069443098203364724,-0.0014089343278218464,0.004256487984848561,0.01164645841839996,-0.00022305634504674583
693,0.004997659860262687,-0.0036770019587086824,0.0014496155756571212,0.008669253992414217,-0.007495407018110729
694,0.0024691513227332,-0.005601593697064201,-0.0019051294702503157,0.0032416515457306095,-0.012443961652251279
695,0.00030858291252439557,-0.007235808499307656,-0.0037928666434686275,-0.002105177509129046,-0.01447631068853474
696,-0.001808044260958381,-0.007964658388575513,-0.0047007365367483745,-0.006644694024976299,-0.01348625241805781
697,-0.004354639604165366,-0.006845676985563704,-0.0063430715799875905,-0.010566639825971193,-0.008680883701759892
698,-0.006755988938317579,-0.004970698842718181,-0.008939200690291756,-0.013539781710132804,-0.0017031542475621493
699,-0.007745603702465632,-0.0029992348417285063,-0.010730089959579527,-0.014476647840623452,0.005363333564450311
700,-0.006963293624274704,-0.0004899073532478643,-0.010160318974786914,-0.012769953166124379,0.011844895001234229
701,-0.005474381965520147,0.0016635920701359957,-0.007939628965518997,-0.009606140329409365,0.016157742051546905
702,-0.003567046840645186,0.0028194249635037074,-0.005131195994283296,-0.005833669953415694,0.01715030680185167
703,-0.0009387399817383818,0.0033013642946510694,-0.002075125509342362,-0.001770019519480996,0.016061394646964874
704,0.0017201989915180435,0.0027183683098537326,0.0008836086583302194,0.0015360227384023368,0.014519656833748111
705,0.00374006228017497,0.0004055315920898352,0.004247921603733348,0.004348044409404691,0.01267052194974309
706,0.005030413317165254,-0.0031562011020534503,0.0077862630412104325,0.007466059925636795,0.009794653717509826
707,0.005667397129251269,-0.006202180009415732,0.009691364799246502,0.009980593462332486,0.006351373306347429
708,0.005675782100257967,-0.008154095943778684,0.0091127564959045,0.010574571972547901,0.0033072809956503314
709,0.004969750440183657,-0.009343999032804959,0.00706417547565,0.009332192978620106,0.0017077006418484014
710,0.003713330033583615,-0.008813974979148593,0.004905969224100906,0.007821829978128992,0.0019729918990594253
711,0.0031580864994420876,-0.006563023403358733,0.003711763421694035,0.007828456786772114,0.0024070240776105064
712,0.00411642216022261,-0.003841493613403793,0.004023307109125788,0.009403360280022971,0.0028849676706673984
713,0.005537759845554718,-0.0015953410940433733,0.005095519326058753,0.0112837570941611,0.003661615897610863
714,0.006524756847907234,-0.0002519879217416491,0.005820734566276447,0.012489822785108321,0.0027232462632567375
715,0.007017120141416449,0.0006706665153974665,0.00574536523459152,0.012256381182116709,1.321548114864577e-05
716,0.006957542522557722,0.0011167166620642513,0.005062030109287529,0.010847671012780778,-0.003300416300555866
717,0.0063206490474201965,0.0003814333262765654,0.0044183864147113805,0.009380415104927896,-0.006979020643885555
718,0.0055279193998283615,-0.0008649981922114267,0.004682318255404887,0.008436075246645702,-0.008760162151731839
719,0.00474641084056722,-0.001333336713360282,0.005172063303428037,0.007553927723033433,-0.006070720126471607
720,0.003364448278275496,-0.0010729390823351365,0.003557315655119438,0.0056130722806244536,-0.0008852587413009816
721,0.0011737895577052808,-0.001102710677440909,-0.0005904505102242607,0.002483140857053326,0.002700284566858684
722,-0.0009275369996092905,-0.002127316589624141,-0.004989168717132901,-0.0002828054061821427,0.002965084442073705
723,-0.0021348941162208763,-0.0042320511852229565,-0.007353227580875278,-0.0012923190736399295,0.0005817403222040428
724,-0.003048206776210947,-0.007100865435740438,-0.007622509665171001,-0.00143631272854154,-0.0023691080135529578
725,-0.003987906037289648,-0.009128423195308566,-0.007003306879015193,-0.0022046729201592413,-0.003160757840910047
726,-0.0039204474495316876,-0.008560222455067273,-0.005273996350943151,-0.0028741956758681565,-0.0013251929652249685
727,-0.0021515990357192276,-0.006240762602093898,-0.001673983634389149,-0.0017025555436194222,0.00039269620777510983
728,0.0004417202184239682,-0.004583517018945925,0.0017068658970021075,0.000711160789298366,-0.00034117358805390874
729,0.002070571846016414,-0.005368742625134127,0.00161220844126104,0.0017172997866615229,-0.004181374522352601
730,0.0022347741885386445,-0.008421464688737423,-0.0018483013435549665,0.0008851261948311234,-0.010172864561744361
731,0.0020334841121540347,-0.0116259859010451,-0.005804063373631398,0.0005745303088577435,-0.015568178073538393
732,0.002500323875600843,-0.013342122702909891,-0.008189861854801878,0.0025398721967159433,-0.018646047228892126
733,0.0037462991751596626,-0.01368880155479122,-0.008869822005987803,0.006442064435108616,-0.019994384821194044
734,0.004718813491736656,-0.013425909328640255,-0.008958657203259874,0.009619137070549896,-0.020610923673393563
735,0.004872031217640144,-0.012532799830042478,-0.009243959948210884,0.009439587322601535,-0.02059753850532653
736,0.0059686845083318655,-0.009627939204787056,-0.00865311091469224,0.006932775565266257,-0.01818028736500454
737,0.00915652971791895,-0.0048860596999235235,-0.006271034125178285,0.004834301831706848,-0.012831330160644938
738,0.013402425115130363,-0.000744903578663953,-0.0028860908362425206,0.004628526720076131,-0.007650282415158586
739,0.01696294790243831,0.0015233652678342399,-0.00021495449930207113,0.005724397483926532,-0.004533824002474177
740,0.018061725101629768,0.001696640766532557,0.00019728059034330918,0.005897063504817333,-0.0031333114654130507
741,0.0166560938050254,0.0001337484474975132,-0.0015543348078574137,0.00427359122997031,-0.004014413016414505
742,0.013765036454398138,-0.002057989077898183,-0.004519768016193738,0.0013507333442591958,-0.007092794995275742
743,0.010743281018473255,-0.0038153085595756405,-0.007223093555260984,-0.001798890309728487,-0.010022507501040815
744,0.008779709281208654,-0.005187850685395834,-0.00872297484943251,-0.004004277272499275,-0.012223737644325765
745,0.006938287210325275,-0.007727112461024311,-0.009820108052503945,-0.0057917837283953805,-0.01593373466127422
746,0.004455281518529906,-0.011821059452627078,-0.010356766675652902,-0.007273561159899479,-0.02173005428772874
747,0.0017163428897876913,-0.01578545658643237,-0.010113049970111932,-0.007858097563045473,-0.02698850033392196
748,-0.0011087079078978604,-0.018020190970994138,-0.01048741638531126,-0.008326406827208274,-0.029054008082670526
749,-0.003602653793912119,-0.01853108651201696,-0.011804810392494014,-0.009201922722381918,-0.02870353305419037
750,-0.005336329034557225,-0.018154135025397672,-0.0126719637438797,-0.009636556420906068,-0.02784925912721056
751,-0.005601868550095918,-0.016483330517354386,-0.011510872106667227,-0.008461039532731012,-0.025965931520081476
752,-0.004499796750534185,-0.013394843770662032,-0.008722737149572696,-0.0062174136179727205,-0.023016876741139124
753,-0.0036868552316543742,-0.010513784619453351,-0.006595854722009283,-0.00488557047620667,-0.02070554273411253
754,-0.0033872261166959855,-0.008657216705364507,-0.005476577721855635,-0.004129606128155773,-0.019248409345019982
755,-0.0024642830095540254,-0.007093982808063668,-0.003963739343467298,-0.0025537648051751185,-0.017226167629950603
756,-0.000880404602032846,-0.005126307575411047,-0.0025415734042665934,-0.0011106464457148572,-0.013402713448130248
757,0.0010637873186057974,-0.0028263763570760677,-0.0022747702387313066,-0.0007635007076170571,-0.008869164775470765
758,0.0037886183859213,-0.0005333897861409081,-0.0023042333555989996,-0.0008014415224290886,-0.006644823449274518
759,0.0071837529977335475,0.0018684418055677815,-0.0015553534445616095,-0.0006654146335407444,-0.006701673136739792
760,0.00967555165059707,0.0037622637910330855,-0.0005161804704667873,-0.0008795060809855465,-0.006409517530830004
761,0.010403387249927438,0.00422361255631844,0.00015554991565972613,-0.0011673965402279444,-0.0053993248890793115
762,0.009812077124592719,0.0033988829522688417,0.00030932351200949916,-0.00018404355949976658,-0.004902966368880277
763,0.008441512228039844,0.0019018636002021377,-0.0001876793258428647,0.0024788845473035386,-0.0054416289250428925
764,0.0074056046741125,0.0013339785712178681,-0.00028364534437811886,0.005651067378575923,-0.005886957402612039
765,0.006516854132553697,0.0021276998354638,0.0007095119738069429,0.006768874022978414,-0.005460430411269016
766,0.0038885513198935536,0.0017428997678752708,0.0009101197821235838,0.004244662827010611,-0.005927797172766238
767,0.00021068384162689722,-0.0006144017603152638,-0.0008043193502765106,0.00033508915319829216,-0.007594711230817129
768,-0.0016990133839194248,-0.0027882475841699934,-0.0029522346922993877,-0.0012635037290842765,-0.00795058013471425
769,-0.0012887822674634843,-0.003680620707212571,-0.004372026027996832,-0.00018876161725279913,-0.006396916167749275
770,0.000266938988135459,-0.0034422542238097317,-0.004791094762463788,0.001441592834740403,-0.004830525128376115
771,0.001785836190321532,-0.0025656193636348695,-0.004462469324942404,0.0018033162801327294,-0.004760577100659602
772,0.0023393788333034545,-0.0022552740483091365,-0.004046931509939102,0.00043337912315857596,-0.007292982643179571
773,0.0023109420090973755,-0.0027842692358274056,-0.003199226082193578,-0.000720713099321262,-0.01213502205319906
774,0.0022703622740277334,-0.0028059003740906947,-0.0017624158523552526,-0.00017845897039513975,-0.016048270662726547
775,0.001863142520841188,-0.001101289378048165,-0.0005280471834329514,0.0008683075831986333,-0.015927901445626017
776,0.001641633501445586,0.0021045949155779234,0.0009793764275802042,0.002179353154794916,-0.011919362414532274
777,0.0029980639929291977,0.005460321382363539,0.003975236903906528,0.005231867340474789,-0.00611061063660566
778,0.005252012101851706,0.007944487414992539,0.007462173520947581,0.009140463573863557,0.0004915233353217142
779,0.006358586443207765,0.009245064841117444,0.0095476130807046,0.011326717057317505,0.007483844110582013
780,0.006191759581978989,0.009596164206855344,0.010387631212538152,0.011318660053356387,0.013897361778110566
781,0.0056457647421981816,0.009659970082350455,0.010725571283018312,0.009890400948745406,0.019035079457671838
782,0.00439366663341954,0.009234880235127505,0.01009800512669106,0.007462006836106988,0.02145798520241666
783,0.002001282622567278,0.007870157108586228,0.008026596838793443,0.004644062263077882,0.02021501014399029
784,-0.0007275789661521119,0.006449887263300275,0.005516396840746278,0.00259972344863707,0.017086036027828023
785,-0.0031353246173952084,0.005513279180412901,0.0041280303942469185,0.0015134479548094197,0.013925111306613582
786,-0.0053710062638465976,0.004428893062003817,0.004064971514533502,-0.00011393186401379767,0.010847087858489373
787,-0.007518569362282495,0.0026584667520962303,0.003934792843089062,-0.0029426582169843913,0.007501884475426593
788,-0.009413852547026058,0.00034476922297217884,0.0024605467839502117,-0.006079329741026545,0.004562992728001228
789,-0.011037650109836025,-0.0014855731426884709,-0.0005449767841506748,-0.008712611972353408,0.003281028864943657
790,-0.012605759250496017,-0.002328966019177573,-0.00441810287677754,-0.010201809494880322,0.003501250733781098
791,-0.01392605597207823,-0.0029592146982427786,-0.007742634519081319,-0.010159781468123087,0.004210621319960719
792,-0.014119179332765103,-0.0035099513973868885,-0.009287382640839533,-0.009128800319589066,0.004845860618324359
793,-0.0122701219710894,-0.003288428196242045,-0.008521968778890289,-0.007491145540466044,0.004764625776299665
794,-0.008868112547418427,-0.0021191514239189283,-0.006187418388828632,-0.005584539717176566,0.0034934477919534752
795,-0.005907743870502214,0.0001733590661151067,-0.00411788314595662,-0.004519183851638868,0.002302414985038166
796,-0.004019148949040062,0.0036217620562616526,-0.002320219927458215,-0.0036171522944577717,0.002552040970390079
797,-0.001675177491721137,0.007556773128477208,0.0007937026485637927,-0.0006133112957536724,0.00417296670450292
798,0.0016229333290221756,0.011444538793270679,0.004985294236746387,0.0038589909937032873,0.007420777109382448
799,0.004258208048880187,0.014157582160381021,0.008461308110211584,0.006636840432918781,0.011393229830978091
800,0.005695977869238442,0.01496809408735757,0.010310590043886809,0.006915901973851941,0.014726466363509282
801,0.0071102603985198545,0.014938061575675662,0.010700736275857057,0.006453236315287132,0.01814838888667176
802,0.007553228332108593,0.013702655617645703,0.009000467571789402,0.005145687106825863,0.020487381448283666
803,0.005453212186850334,0.010184972843321524,0.004607048333797266,0.0017944241442983436,0.019125894794171094
804,0.0016443311706855117,0.005525705790697615,-0.0011541390953887754,-0.002868453835638747,0.01491225373630407
805,-0.002391393193570404,0.0015249124140192766,-0.0060561313495473505,-0.007277289089729898,0.010575981992203973
806,-0.005023505364043518,-0.0008223111608724931,-0.007855411031058855,-0.009681292617875113,0.0075355338754210105
807,-0.005108725973720716,-0.0018132207566902356,-0.005828103504112696,-0.009051156882286917,0.005461992023541423
808,-0.0031651005837040613,-0.0019177581106785088,-0.002220524461803243,-0.006393897013400255,0.004041299212557617
809,-0.00092801050407562,-0.0005752190987499245,-2.0230151118772333e-05,-0.003693463925710999,0.0043935278391856085
810,4.16655699846598e-05,0.0023931942976862255,5.115692503333359e-05,-0.002342501172442961,0.007392586802944024
811,-0.0007510577767818429,0.005529089607730957,-0.0007639329256944502,-0.0026861067750490564,0.011390595333587565
812,-0.0036395976088854196,0.006630237471650941,-0.001908992464367269,-0.004771472686455828,0.013209107304955345
813,-0.007596693392139212,0.005655514918374127,-0.0032869576208432905,-0.007762652390338645,0.012168698148744099
814,-0.010078499111677634,0.004403060917987791,-0.0036953267158189177,-0.009464145859808598,0.010272034935588526
815,-0.010379988622562444,0.00385110037077024,-0.0028715755084981792,-0.009103763117112397,0.009137814381741532
816,-0.008866486118611985,0.0049827876401995624,-0.0015480575823616683,-0.007323376893847971,0.010343007134058524
817,-0.005426707204316624,0.007517772680014043,0.0004312285949730155,-0.003999955626778805,0.013873669724986009
818,-0.0016437747263865106,0.008862839376534237,0.0024192570637750163,-0.00016063938531068976,0.016520246908149273
819,0.0003778811958615206,0.007925164851905312,0.003264924498076814,0.0021038382085244362,0.016338215637945696
820,0.0010471436336733167,0.006209966005664674,0.0034555420757327085,0.002814823875190372,0.014460588745362097
821,0.0023233102017596193,0.005289946601913613,0.004209496325982584,0.004270540349793346,0.011686498976305745
822,0.00451536377636546,0.005069092663442713,0.005540024261389594,0.007286603162604158,0.008424244893587797
823,0.0059520336845516044,0.0048960322877813715,0.006188135338330849,0.009024569418435754,0.007253060327869221
824,0.005412418218457397,0.004323084499944708,0.00527731928695324,0.007013265395280163,0.008849239355486798
825,0.002772312575107388,0.0028143152363401197,0.0030438801970864827,0.0019242629946966414,0.00985991196219912
826,-0.0011013844960264861,0.0010843275152957628,0.0005219462301800071,-0.004127321739066599,0.009437600904196809
827,-0.004333740877354089,0.0010021845701285064,-0.0005671773491086326,-0.008673366923395293,0.010312655488039522
828,-0.0054778541705591466,0.003204781897188283,0.0009348283821458553,-0.010097211657543473,0.013066572345206171
829,-0.005849618949579387,0.004980858617288544,0.0029275237936940432,-0.00998476197257888,0.013913358750785566
830,-0.007668676981078818,0.003227312884781358,0.00217287988375439,-0.010734908151628161,0.009632241664558549
831,-0.010098164251026985,-0.00043216781015362595,-0.001221607284368776,-0.012024864515502541,0.0028289524986914467
832,-0.010885606810822939,-0.002323755486322836,-0.004961102842534931,-0.01268644726635441,-0.0018649398868666742
833,-0.009980836566711412,-0.0024884015870695253,-0.007562046924998275,-0.01251850458089053,-0.0038990746354939827
834,-0.009010702063517126,-0.0028058969687705087,-0.008693353887015379,-0.012050742513219,-0.004510910066108255
835,-0.008194971425940398,-0.002868694557143171,-0.008058644535301291,-0.01137471492387958,-0.0034987882724441728
836,-0.006263275147579056,-0.0012557523562302256,-0.005610338208798351,-0.00971966192097048,-0.0008659791287227166
837,-0.0027602470414425295,0.0022441427680357233,-0.0021680574840288306,-0.006865855191555422,0.002611182267310833
838,0.0007415475789746789,0.005910589236469202,0.0008528392475915838,-0.0038722654693971424,0.00539361500068657
839,0.0022600307142886054,0.0072424114459857655,0.002451483883560746,-0.0017569212820258528,0.00494774447740357
840,0.001976724230102062,0.005475785331643781,0.0027896069586270285,-0.0005145340609962509,0.0001644145669275548
841,0.0014822214993477252,0.0022681948693935748,0.0025767534850939223,0.0006084927847790599,-0.005822132526239329
842,0.0017038148132577178,0.0006042419047857558,0.0022802516642023954,0.0022979092607571428,-0.008431073641333468
843,0.0027944959634079404,0.0019112730838607003,0.0023750788929349075,0.004582356185558011,-0.006510669912419711
844,0.004750406287845413,0.00430135203106901,0.003636141292274451,0.007604624561718929,-0.002491577733411011
845,0.00743452954766559,0.00560550107931927,0.006100083500505144,0.011480947583254603,0.0004550235317487416
846,0.0105413771947984,0.005675784689317192,0.008864033826509961,0.015670577243778936,0.0015820802562183792
847,0.012927522158008136,0.005166355813724813,0.010234931001545468,0.018435820946597875,0.002510531267892513
848,0.013098526183891719,0.004539488840591942,0.008654225286753471,0.01789070455938851,0.0035883151399802595
849,0.010372330768815887,0.0031421676723949266,0.004272459500047282,0.013749556165098901,0.0028082454379900765
850,0.0060309916575167904,0.0005213277545399968,-0.0005798021325075639,0.008055905680673086,-0.00040839750163517476
851,0.003183670583368628,-0.0018649367157724161,-0.002595339597044243,0.004505647345817198,-0.003854237546351177
852,0.002709983425883235,-0.0029713899038445292,-0.0018021660326420293,0.00380966623381321,-0.005813713404891903
853,0.003120265271320836,-0.003118646227557751,-0.0014543511105915882,0.0035432638278335613,-0.006901029522512436
854,0.0038028472937568962,-0.0027368399532296827,-0.0027502788342361893,0.0030374988221351716,-0.008255652931327415
855,0.005011928375247597,-0.0016897765689022396,-0.0040677774505117024,0.003493043961020605,-0.009248665514613893
856,0.006863980503669467,0.00030449561947804645,-0.004007583365612592,0.005518635665680144,-0.008907181834693276
857,0.008386127790992078,0.0023669009156980923,-0.0031227154271229727,0.007896664058574452,-0.008256929947441306
858,0.008587549277580033,0.003461326881310847,-0.002460215155295076,0.008824603143798876,-0.008351683658647913
859,0.007493171321298465,0.0028683915633140517,-0.0026278036604351364,0.007539678917239089,-0.009515259077388944
860,0.005687742590478228,0.00038813438532802393,-0.0038606583991454006,0.004639120501267871,-0.012523893813923173
861,0.0043516715906680515,-0.0023802241662411764,-0.005095986333578688,0.0019677901447743293,-0.016491375459702837
862,0.0037022171247244502,-0.004279392273154051,-0.005537791139417321,0.0004116852869154742,-0.019919967397813088
863,0.003083316568283401,-0.005805177591229173,-0.00556198463424365,-0.0006306768707456405,-0.02332335589661433
864,0.0031233809975746043,-0.0065269897279420595,-0.004901504968497816,-0.0011188140402364642,-0.025954672689379184
865,0.004929684632670799,-0.004873077839066957,-0.0028439730744131146,-0.00045882468432107066,-0.02465969042974342
866,0.007907042990575675,-0.0014229754895094002,4.15768438823923e-05,0.0015364322683867682,-0.01977441357902518
867,0.01001903804205484,0.0011704778214443874,0.0022308046866301176,0.004412794316287428,-0.015156186439646826
868,0.009864176396542607,0.0016063343356846765,0.002390046412868135,0.006487285911334402,-0.012772250782689175
869,0.007673048234993944,-0.0002049750828102859,-4.050677717258583e-05,0.005965866906129349,-0.0130493103224619
870,0.004718747734546123,-0.003750786622626561,-0.004042466574471488,0.0027223094344502345,-0.015837956217472908
871,0.001999585507395031,-0.007086736790166015,-0.0075875220824511485,-0.0021392743312584027,-0.019424038351906547
872,-0.00042056182240449895,-0.008079144279721812,-0.00891775247242674,-0.00734589869645054,-0.020464007331305423
873,-0.002093579178556103,-0.006235129205920788,-0.007194352175619065,-0.011323667344656911,-0.016497324762399502
874,-0.002427684362451739,-0.0034846902464854192,-0.0035939258393802103,-0.012898926051075357,-0.010154928356625048
875,-0.0020453191830579706,-0.0014925694474330232,-0.0009394964566981326,-0.01278399110249937,-0.005588703225903664
876,-0.0008684524548485946,0.0009973921538957687,-0.000497725678186945,-0.011729112868008117,-0.002182358787515523
877,0.0018449105287694108,0.0046336250989447115,-0.0005668224972205223,-0.009194465680927237,0.0016462229616552647
878,0.005182454232669278,0.008350253931549714,0.00032754790195148244,-0.0059250079511569765,0.005525535299923396
879,0.0076812541841068,0.011716547625260714,0.0011211615677355665,-0.0038866302177869836,0.008749649334602825
880,0.008927250852785224,0.013941643727561145,0.000537673988464364,-0.0032368100739997353,0.009493491149995687
881,0.008954582913136302,0.014409452665441724,-0.001181741588043911,-0.002965425887978132,0.00733577708662395
882,0.008554591228343535,0.014821786520212992,-0.0028020731090747457,-0.0025268902956626553,0.005169893137654178
883,0.009264041812058314,0.016682797148577747,-0.0029563389067986017,-0.0012078142971780844,0.00458361355485467
884,0.010632748796056773,0.018060843958898933,-0.0021101549235854806,0.0005867405802730559,0.003384721875593252
885,0.010359035300056945,0.01662070233129201,-0.0022111052629975266,0.0006130360825774592,-1.2834975800737203e-05
886,0.008147696220213224,0.013224345400844311,-0.003647570251486654,-0.001656733393881672,-0.004008672046093989
887,0.005738238259231515,0.009908499786822428,-0.00538028738974016,-0.004198413941346267,-0.00687816421560664
888,0.004367647802539695,0.007230832602840038,-0.006472568821287631,-0.005221862358679237,-0.008538183483087573
889,0.003946695241375867,0.005181555604023468,-0.006733013556641935,-0.00484342314102402,-0.008517167258486434
890,0.0030873217950183767,0.00410246827324382,-0.0073362367593830915,-0.005071740472788092,-0.006064948997988319
891,0.0014397201969533668,0.004034239463138555,-0.0085518452320249,-0.006538979897426836,-0.002315922518257949
892,0.00042683282758632996,0.004387386031427102,-0.00903917383474058,-0.007750348091626615,0.000369075707297418
893,0.0004135300659094997,0.004218204627422087,-0.00821739246914148,-0.008138220887656453,0.0006391693782847235
894,-9.060103992404952e-05,0.002655191469593474,-0.006785818301704592,-0.008713219703305236,-0.0012145199878169147
895,-0.001932188488018459,-0.0002969557817696769,-0.00590238494094915,-0.010208985302168802,-0.004201172660415285
896,-0.0036123769411620706,-0.003057586189006837,-0.005830644936824684,-0.011838788575938891,-0.006411403368126395
897,-0.0036141654700997555,-0.004024419479715621,-0.006070833871422342,-0.012904123927673818,-0.005937556777885285
898,-0.0024217921952214344,-0.003349245831026578,-0.006521050791690979,-0.013633523568951368,-0.003260069550593888
899,-0.0010664340380501318,-0.0018886017564206511,-0.007299966983621907,-0.014076649209285905,-0.0003952123930791881
900,-0.0004306256376082377,-8.655618572918014e-05,-0.008544918028139196,-0.014627062037575791,0.0015193013213871526
901,-0.000614062668995501,0.0014368822603059964,-0.009799022762581358,-0.015423831197967407,0.0019045960090886232
902,-0.00047637484476283,0.0020327112082770523,-0.010025668136797151,-0.015305259926356772,0.00029327610735505527
903,-0.00020879532071494243,0.00164714766675859,-0.009602155123133489,-0.01464628642767742,-0.00257330782540239
904,-0.0005423714291718065,0.0009801612471972917,-0.009612187853748046,-0.0149752781579073,-0.005033173523619632
905,-0.0006680456969789312,0.0007270126259210457,-0.009802341409084217,-0.01576639668345482,-0.005773488274704586
906,-0.0005464161557333672,0.0003201440223334962,-0.009936539182247654,-0.016069427081737496,-0.005165814239912844
907,-0.00070985078237965,-0.0006677201000215439,-0.009905159177345774,-0.015708540962806775,-0.00425961370903548
908,-0.0006409578050287514,-0.0013843688703401346,-0.009036325618248473,-0.014827438517738564,-0.0035237435886648675
909,-0.0008264551240851908,-0.0017887748881354798,-0.007970663150007511,-0.014581762632304067,-0.004140297148192937
910,-0.0025521510547459425,-0.0027572682565879464,-0.008022335042935569,-0.015613318694738828,-0.006660061065984282
911,-0.004928869060370294,-0.0037464882577695354,-0.008700833864494096,-0.0164955668273735,-0.009103894216971753
912,-0.006122569574102899,-0.0036569855922632816,-0.008795722680336621,-0.01599826310579223,-0.009587999347187065
913,-0.0060614677002810745,-0.0026353544950736903,-0.00831959373314901,-0.014922595295672653,-0.008630381610578242
914,-0.005424825746081997,-0.001116604081988499,-0.007977748219016435,-0.014417739061887033,-0.007679806863829188
915,-0.004366778194263595,0.000394665085928191,-0.007949859649145762,-0.01415521798426354,-0.008031641603220977
916,-0.0036329879343800164,0.00047527135943550635,-0.0082043883471148,-0.013675523351129319,-0.010628993239758626
917,-0.005147727332359036,-0.0021155491615923506,-0.00985930985034439,-0.01472773057100222,-0.0140400255439423
918,-0.009520552608199097,-0.006689358140168819,-0.013329715236566696,-0.018591535119798257,-0.015192169587977795
919,-0.014499958649066839,-0.011033129375511496,-0.016349307579719512,-0.02303333832085721,-0.013077429720974336
920,-0.017459552071397717,-0.013216103830347449,-0.016397968742539824,-0.025128052294345157,-0.009209499968170495
921,-0.017227284705684062,-0.012578321023185348,-0.013107618902585556,-0.023720632081889195,-0.005939893697019288
922,-0.014485144182130844,-0.009758146129858605,-0.008872118281981187,-0.019992796602898332,-0.004414976718918601
923,-0.01130610500174946,-0.006176073270877531,-0.006692903824186929,-0.016563294672827755,-0.004075359050147854
924,-0.009420951193416833,-0.003336549997515123,-0.007256272639515729,-0.014986063362458774,-0.00464147184351256
925,-0.008896557284397703,-0.0017942778028115349,-0.009113436457173097,-0.014785495151032148,-0.006020963187312916
926,-0.008229986337892743,-0.0007752734680359994,-0.01008413743127777,-0.014174098332228751,-0.007223290069932477
927,-0.006689630944554457,0.00046970546856050393,-0.008903902589012878,-0.011937598207106433,-0.007022351594235571
928,-0.005344591489929496,0.001681282498098866,-0.006413752536383682,-0.008675158861404514,-0.005233877047597561
929,-0.00406902959433095,0.003039699769082075,-0.003469903814887376,-0.005071231234418934,-0.0018635018329273638
930,-0.0011398353621933626,0.005452079325750466,0.00043506162474711715,-0.0007523574464125296,0.0034353974314246523
931,0.002426590692232441,0.007293939943638276,0.004017499529848977,0.003078175851678922,0.00769744067159924
932,0.0029194784986160084,0.005848938709191188,0.004292866318032064,0.0038954462954273027,0.00706695872719186
933,-0.0009022075707921656,0.001986213037681423,0.0010317909627363818,0.0016593261939256475,0.0030883704724270853
934,-0.005895854017212635,-0.0015858128328124768,-0.0029628928584388248,-0.000823823440975715,-0.00041580777443924523
935,-0.00874307291674776,-0.0037066350069627904,-0.005616909738114964,-0.001739848008511816,-0.002364846454921514
936,-0.009177139463360304,-0.004215019421778906,-0.0064387481081441544,-0.0017852444022371692,-0.002945992475901056
937,-0.00881133362799655,-0.003597830837560227,-0.006001505184247441,-0.00234846729517135,-0.0023064436467287765
938,-0.009617882707871866,-0.0034420653836722656,-0.0061510752760362076,-0.004607818422832003,-0.00192787229678981
939,-0.012417576832460116,-0.005268918281523869,-0.007717671356409077,-0.008408368409567895,-0.0037533741539090364
940,-0.01667610734144266,-0.009449380244217015,-0.009654492305770987,-0.012555141765431805,-0.008163290878998157
941,-0.021472300465488443,-0.014736753823984846,-0.010864323079689093,-0.016275110782873144,-0.013596511951984434
942,-0.02503547352265172,-0.01853310037719947,-0.01084180082940834,-0.018470041063698466,-0.018376589155221834
943,-0.02558487041237275,-0.018981803844590105,-0.00998168918933662,-0.01772618192423011,-0.02162137655809264
944,-0.023819764858821885,-0.01683367948932036,-0.009611699943246583,-0.014832620372833174,-0.02250626495002595
945,-0.021505077579200303,-0.0141644486483551,-0.009874106692083632,-0.012130711307120982,-0.020571171834628144
946,-0.01886150681707038,-0.011755335318223167,-0.00936332998330678,-0.010513285391795047,-0.0162099384006323
947,-0.015665763028245697,-0.009150131083323425,-0.007909300991927316,-0.009562831245451903,-0.011063891537273683
948,-0.012371022579775494,-0.006221770024908006,-0.006453370234048182,-0.008788401709501667,-0.006725874940602004
949,-0.009578544679765584,-0.004082877214538904,-0.005303823965313137,-0.00783930860064643,-0.005127048795641933
950,-0.007400426011451507,-0.0034709012375319375,-0.003995423968874044,-0.006431051826317471,-0.0066673202403213895
951,-0.00543108642849154,-0.0026004100631071094,-0.0020390598253687037,-0.004756976994935789,-0.00690008086550101
952,-0.003073657003397808,8.089917485181594e-05,0.0002360956680386649,-0.0030494771907099024,-0.003164291204069347
953,-4.8781804873503396e-05,0.003605147227485911,0.00243403669381663,-0.0007522921364029685,0.0020501295026601313
954,0.0032855177355612035,0.0069171758310420575,0.004720211157853189,0.002417353341152366,0.006862867078759437
955,0.00638510679663698,0.009768786820816592,0.006794875245140445,0.0054135409041280785,0.011281333441556338
956,0.008288048326599831,0.011152088205274052,0.00768862065027546,0.0067829131345495735,0.014380866321376532
957,0.008230116695352757,0.01012572184826855,0.007331917586171375,0.006715153589172764,0.014914812839474337
958,0.007072314037107234,0.0076494248186803416,0.006723181390816025,0.006859724816571343,0.01346835941580874
959,0.006161945630779637,0.005467257207942079,0.0063604132520593895,0.007821937743225763,0.011594792948863803
960,0.005436844349963067,0.003480410540659613,0.005783054759176211,0.008561275020777658,0.00906651874196138
961,0.0054372441116180585,0.001844272158292121,0.006089924840605307,0.010506403373835646,0.008012303978306925
962,0.004923615740403937,0.000419357358642766,0.006215551911336424,0.01260011524885327,0.00804012850938407
963,0.003778288661996436,-0.0007378302511231715,0.005502665726886439,0.013710605864249374,0.007403308782159857
964,0.003340212637640137,-0.0015057408790717251,0.005669583769571565,0.01435657488393064,0.005745003906981637
965,0.004285080724686867,-0.0012623676862337921,0.008332440779606088,0.01553530418081856,0.004972162313247078
966,0.005784526591180703,-0.00016452687857533528,0.011811062520603806,0.016841953151519762,0.005047339535391775
967,0.007123488561796934,0.00047451423461923056,0.013866425792090843,0.01778329066705855,0.004528266687207127
968,0.008172786212576418,0.0001149784009859926,0.014355963348140141,0.018553254958537088,0.003923456211538275
969,0.008284851014548506,-0.00016998142800360162,0.013788924503960008,0.01860816485277602,0.005274397587682809
970,0.00642562124075596,-0.0004071626081369055,0.011852964562497398,0.0166360679256781,0.007711935441796743
971,0.002743163480637106,-0.0018338072321681888,0.008182300329139296,0.012509034854858821,0.008487252994859298
972,-0.0010941900595250827,-0.004066980554714715,0.004042072053246695,0.00824509811256465,0.00784291919832477
973,-0.003288830255157035,-0.005950284363254012,0.0018764931047894043,0.00642190242263752,0.0069780751995673325
974,-0.003567544403953933,-0.007106039927267605,0.0024407505744105853,0.0067623290185427395,0.005612304398437475
975,-0.0027973050464871973,-0.007000177327900132,0.004290801049467765,0.006766691621176059,0.004502303428687875
976,-0.0018030110896408,-0.005794836384294682,0.0057179267867544905,0.005699894341734422,0.0046077448240770015
977,-0.0009479821814196884,-0.004629489747533396,0.005839858926611229,0.0045470525544362836,0.004896313429020136
978,0.00026605125794687594,-0.0034568157674785866,0.0050939547282798665,0.0042252956196047655,0.004503160472249026
979,0.002144024155119084,-0.0016556753421637551,0.0046058744973260166,0.005079100929287185,0.003912161309806029
980,0.0038471448227667066,0.00022718913496746929,0.004665970173760715,0.006604650879512811,0.003422169901227327
981,0.004534404503255253,0.0013906737246941353,0.004794865880410404,0.007861366049656789,0.002867593471008654
982,0.004147348561638285,0.0016721597146488291,0.004715450266499454,0.007958178133130735,0.002024988958487724
983,0.003145984605439605,0.0011329915469688349,0.004846575472240219,0.006874175081170827,0.0005875892167743012
984,0.001838419765358978,-0.000250305020770767,0.005214444864015406,0.005300396487290497,-0.001678838562425076
985,0.00039146014988926056,-0.00226341561003563,0.004796804748694447,0.0036893385987897586,-0.004594687603548254
986,-0.0007590093201460605,-0.004133897170886058,0.003248114020876235,0.0023962978153648706,-0.00745600180113618
987,-0.001395119102753741,-0.005145024823173025,0.001267392934263623,0.0014607480499401362,-0.009574385498057038
988,-0.0017552365133293238,-0.0051292605737334575,-0.0005087523473916448,0.0005187908688371052,-0.01028242557019456
989,-0.0020444207766275296,-0.004621915985147021,-0.001777250066308784,-0.00038315294269344565,-0.00958659165722636
990,-0.0019349845308757516,-0.00438947354364488,-0.0024305585754019567,-0.0006433861434649636,-0.008566221006540108
991,-0.0009717970910357911,-0.004489297370722332,-0.0023578677685854935,0.0002616769370201226,-0.00779466581937632
992,-2.7727261957377184e-05,-0.0047588159296329926,-0.002025617040734712,0.0014634793668821138,-0.007043797164511356
993,-0.00037359466039062867,-0.0050897236503699315,-0.002244947886388704,0.0014077962037595722,-0.0060855873737032115
994,-0.001470322467689134,-0.005085202082358328,-0.002700967929003835,0.0004031342044512263,-0.004955296449640564
995,-0.0019327534008892085,-0.004303318329733022,-0.002451353931737134,-0.0001884950424819579,-0.0034775278928654767
996,-0.0014024236503621338,-0.002689593380220435,-0.0014496254136776557,-9.075768193306556e-05,-0.0013471429891107178
997,-0.0005147965770128775,-0.0009207666106530975,-0.00037003964823711705,0.0002495882894270631,0.0008374367843656465
998,0.0002662134783942431,0.00012665104258877705,0.00045043760002153483,0.0007735740309392679,0.0016408847390498177
999,0.0009617246404457008,0.0003752330000204592,0.0011057312005617736,0.0015395639810764515,0.00073562247467396
