,AF3,AF4,Fp1,AF7,AF8
0,0.00037777931494927246,0.0025891055751611405,0.009604718393916219,0.009976852407993156,0.013627870494066321
1,0.0003454931960686048,0.0037646939276238605,0.010591553996458712,0.012031781803935004,0.012153622432501914
2,0.0004134814336721434,0.004192912214014708,0.012612314486704293,0.015958327918924563,0.01045623155215724
3,-2.2133525064077577e-05,0.003413223732292587,0.014817369065378257,0.01933245037649299,0.009686454854842921
4,-0.0007300745649171707,0.0015736831465150425,0.0173498749400686,0.021398999734659703,0.010567125226151365
5,-0.0009799092010440988,-0.000382727868500005,0.01992256742028582,0.023177150652500065,0.013430545900005732
6,-0.0006021777905418897,-0.0007284606595192261,0.021243079872897128,0.024743450818470458,0.017174045719375263
7,-0.00019111824213826443,0.000974552365577763,0.020168765088878285,0.025302256877266047,0.01891750574909089
8,0.0004550836955293672,0.00190751675029182,0.017904758121114778,0.026088000068474296,0.016218178469265338
9,0.0016123741526821692,1.9832132768894768e-05,0.01681634628734706,0.02848004032448008,0.011591312651848916
10,0.0018767763391417192,-0.0019071097123299042,0.016905097868237736,0.030345105475458295,0.01064743743141695
11,0.0008676283577135638,-0.0019866597486271663,0.016813796418954804,0.03005254696933488,0.01037459578234086
12,0.00012624895314240054,-0.003055602836618271,0.015668473887847287,0.0287765730020621,0.0022451248695290805
13,-0.00030530553481167007,-0.0037324947702222517,0.01313791467904638,0.026267000948115442,-0.004685333140786018
14,-0.0012460814805292071,-0.0005746614572555082,0.010480756524926188,0.02231863851461093,0.001747065451779903
15,-0.001923706852846172,0.002998071897384633,0.009631250230808559,0.019136356930975852,0.01174835709096459
16,-0.0022749102451763226,0.005142019334115153,0.010252100564115076,0.01689135979050683,0.017768667006018396
17,-0.0031180602564028527,0.00657070179517419,0.010496660650081178,0.014447528977420868,0.02057362587337444
18,-0.0043199909090526276,0.0053718556217794994,0.009598595463053163,0.012550407273315729,0.01815844978133342
19,-0.005087134337168187,0.0021916710978264636,0.008362381487500485,0.012334664524904582,0.013086287144043536
20,-0.0050012544582127266,-0.000296407171184355,0.008322743391576596,0.013248218741267784,0.010419065810385285
21,-0.00472104806582274,-0.0013443478991731676,0.009546714125205328,0.013381480976239337,0.009635814763393216
22,-0.004373159091259393,-0.001986582496687887,0.01050813734113114,0.012734900581961747,0.005017542487957853
23,-0.00368619581961546,-0.0030978716563855122,0.010811174978680501,0.01237654482511067,-0.003251492934147558
24,-0.003459446249204918,-0.003854140082556264,0.01063757476692235,0.011478909851750797,-0.008501924212781568
25,-0.003798766404648949,-0.003985735383035175,0.009605919280662768,0.009756273821998116,-0.009253997505534708
26,-0.0030136637020523535,-0.00549398171026116,0.008774362494597333,0.009461655538819709,-0.009614001978304228
27,-0.0010694141396337207,-0.008522942972063926,0.009156628728548064,0.01105480660825754,-0.009284774415628642
28,-0.000265951095887638,-0.009105202407488487,0.009022002333470369,0.011443496302085944,-0.005239846542965272
29,-0.0009949718170434072,-0.005579524492128455,0.007353445758228862,0.009512199989089186,-0.000280552325761998
30,-0.0019019926669106217,-0.0017944497661094181,0.005654251723574239,0.0072451977920849195,0.0021582253192420388
31,-0.0014141306665306937,-0.0009119345957451536,0.005384447450924686,0.006961896959533638,0.000941712252637667
32,0.0003295744738110322,-0.0006275598669392734,0.0066238364035850145,0.008336404049507971,-0.0005308409248935482
33,0.0007807368838558743,0.0023156113977808052,0.00815825738416402,0.007937742150950753,0.004043892511870086
34,-0.0008187714280718183,0.0060896076070554505,0.008041419779420881,0.004307382445401089,0.00992046970562728
35,-0.002920122788434227,0.006400336996562726,0.005635608273078053,-0.0005254203891574826,0.008120605320183452
36,-0.004636045394967202,0.0032022276977881118,0.00243964910428447,-0.00493693814915368,0.0023305518929343746
37,-0.005816404232295955,0.0006306528346017156,-0.00026257233066754465,-0.008302588584306148,0.00012147722094013198
38,-0.005910207292848963,0.0002805149662371921,-0.002145225867304127,-0.009567928765220531,-0.00039725240021096854
39,-0.005846442606060553,0.001098113017065375,-0.004079284839754897,-0.009845267869820349,-0.0010534324800727723
40,-0.007165114600060059,0.0028242828130844626,-0.006867992120923429,-0.010973586485258877,0.0013965896325445835
41,-0.009013842768739564,0.004677444097082541,-0.009657456168593585,-0.012568475320220875,0.004969232373267519
42,-0.009636498617665563,0.00544705409232873,-0.0115063587864656,-0.013327938453620711,0.004406814275815178
43,-0.007981788808528654,0.005086806595408558,-0.011885863936027427,-0.01195114270479243,-0.0005133015008569005
44,-0.004305376158000075,0.004395009519135723,-0.010590103783247776,-0.00862418569839802,-0.005032087788148644
45,-0.0003055707753263863,0.003874994375803531,-0.008461964666947338,-0.005272200868638822,-0.004883621055087433
46,0.002215673614606017,0.003121797986561171,-0.0069042290104348245,-0.0034269820834854307,-0.001906646371980412
47,0.002950493839827377,0.0006383594519908655,-0.006209711616481375,-0.0026789638243907617,-0.0026596029526924905
48,0.003049704206429656,-0.003955044630874418,-0.005590374556808346,-0.0017855698465380732,-0.009950580148593931
49,0.00335216671857931,-0.00786519895176485,-0.0044603923547620284,-0.0003625812959229474,-0.020409593258119633
50,0.0036021273777938497,-0.007872224647702115,-0.002653615340422012,0.000978361661951138,-0.02604070570581234
51,0.0033282249719333397,-0.0029884111900156454,-0.0009618480213040224,0.0008542076515987959,-0.019263886291987362
52,0.003047570092616611,0.0036531652767352136,-0.00044632509653299115,-0.0006411749389991011,-0.0064154682189173215
53,0.003215396741973369,0.006931961554733889,-0.0010130482219695073,-0.0017398961079818744,0.000512610434523908
54,0.0026230315081428963,0.007166283777060174,-0.002804804991129458,-0.002543501721275285,0.001653139073622779
55,0.00033488666166386216,0.006338293820332577,-0.005934973659944799,-0.004155204390132498,-0.00015678918029580886
56,-0.002323637920450242,0.0021089965610123994,-0.008543273417733652,-0.006037275746977917,-0.0060464452794155715
57,-0.004342409470028377,-0.00339312940910006,-0.009907753507827334,-0.008493444916417,-0.011416319878908726
58,-0.006520713285407093,-0.003897617497653394,-0.011598694141034724,-0.012949523934617254,-0.010960584397057275
59,-0.008920568263842805,-0.00014119928713822203,-0.014001459893688133,-0.01843769029195575,-0.007874799310383316
60,-0.010112739145998646,0.0034617949740494854,-0.015942824655975327,-0.022339825829153698,-0.007263542652324477
61,-0.009135553468132912,0.004690842080132779,-0.016026244109835684,-0.023105550297076567,-0.011029040010095413
62,-0.007571632858009647,0.0038434815382935666,-0.014428799664610543,-0.02219468655468439,-0.015437708276737802
63,-0.007302256377674435,0.003620851600388419,-0.012201567823911456,-0.021834586448993866,-0.014197100238370229
64,-0.007274952673832864,0.0044013766739658,-0.009081219936383939,-0.02109760315886089,-0.00918672763931535
65,-0.0067080258915566664,0.004574082083700941,-0.005860070044152919,-0.019275553210658377,-0.0056900189969711105
66,-0.005768504025899449,0.004312889632326519,-0.00405406932779975,-0.01666365632389673,-0.004372134011917087
67,-0.004360155071340831,0.003240566751138527,-0.003654845450211817,-0.013008986460619648,-0.005352606423727504
68,-0.003270295637344243,0.0006857473161158449,-0.004408576205821335,-0.009528825726986772,-0.009254915128368577
69,-0.0022992028978099446,-0.0029106691682613027,-0.005363963959770241,-0.006512600129456046,-0.01565194312100988
70,-0.0010024396843518243,-0.006117706275983783,-0.005178106195640712,-0.002927897179983991,-0.020614814477700694
71,-0.0002704271654543624,-0.006145766526223699,-0.004304541046820107,0.0003283112105700022,-0.01836467550066009
72,-2.3440333269660288e-05,-0.0039124271160881985,-0.0035448921468913246,0.0022621299500422813,-0.011033681266012174
73,0.0003579223626824947,-0.0028932423460074786,-0.0033097533391696883,0.002690265603248732,-0.005359122488509049
74,-0.00021072975493692774,-0.0027283530285724723,-0.004929995052609033,0.0004227658725435347,-0.00374614326645012
75,-0.0014768995985738789,-0.0019548721079401003,-0.00756002942962322,-0.0035593450303448206,-0.004830887162351799
76,-0.0018524878025701697,-0.0010217404161213001,-0.008650422364730221,-0.006750709026270155,-0.006070243581168922
77,-0.0024410196044569285,-0.0008030768199004053,-0.008389118357998429,-0.009213214101257984,-0.007286922493825632
78,-0.0036318195515063,-0.0014129570890424618,-0.007843687428629271,-0.010157925439210791,-0.00954938141477401
79,-0.0038195007896586544,-0.002273571312927499,-0.00772707625232261,-0.008319858240558255,-0.012626435589446098
80,-0.003095797627310707,-0.0034865336730183186,-0.008682557373331361,-0.005258044177428115,-0.015958952703888262
81,-0.0018755227674704235,-0.005658097235469124,-0.009678619896455026,-0.0026328468667437483,-0.01891924531381696
82,1.176120380627246e-05,-0.008446645510521971,-0.009528726046042461,-0.000657641931555481,-0.020120417622860553
83,0.0022078361298710335,-0.01026166850739687,-0.008560347907094971,0.0008793547294368864,-0.017388861664219987
84,0.004271357985870831,-0.009765824870238138,-0.008035815994877682,0.0015276953093288183,-0.010825205782630614
85,0.005913573516701899,-0.008110002901603696,-0.00866076082615015,0.001326371493346629,-0.004330541593277113
86,0.0066223373394481986,-0.006673086122826039,-0.009926207996974627,0.0008161266597300214,-0.0008445312034278328
87,0.0057826348636794075,-0.0053635177570909385,-0.010901714591701951,-0.00041779479729726665,0.0006135723034110163
88,0.0042553426250624546,-0.004706856555255892,-0.01065099186177548,-0.0018792556075706895,8.33602301098214e-05
89,0.003891368008642083,-0.006286627882710204,-0.009034453537031672,-0.0021407275643673513,-0.007075856218211889
90,0.004450407626516753,-0.010492702383739175,-0.007537964969525205,-0.001774329325738043,-0.02090291658314968
91,0.0036633040210618897,-0.014798690781151182,-0.008056053811759268,-0.0033346993923861973,-0.03096713434360755
92,-0.0002013751002817041,-0.014891653991881568,-0.011390664345314435,-0.00871533895795955,-0.028914515847508437
93,-0.006381901107950368,-0.00957547713407646,-0.01648690051204789,-0.016330782187491594,-0.018665099425642817
94,-0.011978208397449461,-0.003254457122840966,-0.02054605683170505,-0.02168918672409844,-0.010340831158257801
95,-0.015310785797555926,-0.00012353130766090591,-0.021881430725232957,-0.02296785879777665,-0.009118175599405962
96,-0.01645251266280559,-0.0002660635917251048,-0.02194222191887071,-0.022472702755135777,-0.01304269119096721
97,-0.01594631287494608,-0.0017000116058721794,-0.0229102345171581,-0.022445085987948383,-0.017913506163067507
98,-0.014657509015344749,-0.0032106607419977408,-0.024522984826919902,-0.022853853785424594,-0.020573743763534432
99,-0.012707010050690944,-0.005259391128215715,-0.02526614908694529,-0.022617822461320446,-0.020788568252102974
100,-0.010064751008663962,-0.008531629800042278,-0.02465041898917743,-0.021266469065640243,-0.02049719535752727
101,-0.007601884924392649,-0.012157949255010033,-0.023299111193609254,-0.019688193194129348,-0.021782711510540557
102,-0.006047485955518957,-0.014337610013575574,-0.02252667308307108,-0.0194537353523583,-0.024415178768266457
103,-0.00501248374260495,-0.01446525562539416,-0.022723711677180236,-0.020754586403560243,-0.02531520604991778
104,-0.003584487495825528,-0.013120111423050846,-0.02276855236507943,-0.022205996080472953,-0.02461872267418792
105,-0.001499344740927805,-0.009574756239729715,-0.021773673624170473,-0.022366295380854093,-0.022932025211368164
106,0.0006397329728421241,-0.004463009080015323,-0.020026680890949583,-0.020441609733444527,-0.01973370897056647
107,0.0012728809762581918,-0.001776277390055213,-0.01930351965647061,-0.01779302577126396,-0.017825039488843383
108,-0.00024711173653074124,-0.0032485299819910475,-0.020983345396604652,-0.016726607729671928,-0.01905940732446617
109,-0.001802295270497024,-0.007138213326583751,-0.02283427045979169,-0.016408660406503024,-0.022024021231082345
110,-0.0018333689464326264,-0.010374405424190072,-0.02250789405237212,-0.014705091247184032,-0.023866438480393378
111,-0.0011499328613283142,-0.011557043226468089,-0.020818660387617195,-0.011673469531095975,-0.024221574042594143
112,-0.0005056847332196076,-0.011208036182757302,-0.018794099322072478,-0.009240961987031117,-0.02422631007995086
113,0.00023979706884963106,-0.008749080480585175,-0.0167246044524208,-0.00896719818038167,-0.022170773660552315
114,0.0010204061189432836,-0.004139179780013477,-0.01461985009541606,-0.010254061771414781,-0.01642108963070431
115,0.0013062498000661507,0.0011497424680924112,-0.012298054831886054,-0.011573027451280957,-0.008808495362048788
116,0.0016760122719256328,0.004445448196195707,-0.010125979225746618,-0.011523623018224252,-0.004733860872528561
117,0.0030814828320353824,0.004497982570820626,-0.009190254719341822,-0.01022097242289922,-0.006619182386108971
118,0.0044638280508505985,0.002640484693974438,-0.010691166212413625,-0.009843999244488404,-0.010946118223276593
119,0.004703633046420356,-0.00023107858435638678,-0.014073764723890079,-0.01106317969996011,-0.01419947969216204
120,0.004570677797762145,-0.0028722497572953322,-0.016990225662315762,-0.01226822011637164,-0.01462418777329348
121,0.004465769310011587,-0.004538317853461949,-0.018395119892288515,-0.01266401345049359,-0.01389763626150656
122,0.004101068400412515,-0.006548539195253489,-0.018616959797904963,-0.012314133916080288,-0.016349257767871904
123,0.0034667736598602947,-0.008764623623050524,-0.018103177387181292,-0.011759593569093599,-0.021391836519527863
124,0.002854572621080405,-0.00956212531359072,-0.01727943870457966,-0.011229517555129473,-0.024975789049430062
125,0.003338071726576458,-0.008461318691659852,-0.016029321359812766,-0.009517543470438768,-0.026222341596386145
126,0.004635362824022929,-0.005188475566425755,-0.014954068940396187,-0.007245675784037258,-0.023785475861245985
127,0.005388306783030819,-0.0010427228036770909,-0.014457184740523037,-0.006059353981459693,-0.01736418825224003
128,0.005829023182032687,0.0013392116190433434,-0.014183817481364405,-0.005835011279070043,-0.012211307453830067
129,0.0068388710359157355,0.0018459383873001762,-0.014290977270143607,-0.005826562050542061,-0.012881498044077016
130,0.007976532966153428,0.001565901063994762,-0.014682312544789024,-0.005216553404720551,-0.01706710831990179
131,0.007566980721123073,0.0011496807320341708,-0.015027572853842094,-0.003754460151139771,-0.018005974429049783
132,0.005555532763838405,0.0013623447867576834,-0.014725906365871353,-0.0014164200442905108,-0.013342714386800644
133,0.003412283812032453,0.0022736107344400445,-0.013571726640093469,0.0006890461062842882,-0.006327956532687279
134,0.0015616006901725808,0.003252266172959415,-0.012627377712053958,-5.0361815088444494e-05,-0.0009458318824384739
135,-0.0004114982759913278,0.0030028240183937543,-0.012806223654693968,-0.004186075016946351,4.487780687053391e-05
136,-0.002630045238915622,0.0013909410610039522,-0.013998291281142008,-0.009878301132101315,-0.0028947314470232667
137,-0.0038388858037882428,-0.00013244877043115728,-0.01459443509042156,-0.01413330703870225,-0.007558599469211315
138,-0.0035084541278948395,-0.0005043737644610292,-0.013135227122835099,-0.014975294245897991,-0.009828891694054138
139,-0.0028931877900780518,0.0005759191725214979,-0.010485935105275236,-0.013473146340915424,-0.006906862998577322
140,-0.0019359371648368213,0.0021333270777391315,-0.007917257081266735,-0.010421735966464925,-0.0037929513409527557
141,-0.0007596179911216826,0.0035535160830573913,-0.006121637553767309,-0.006404464994861308,-0.003140354809093426
142,-0.0005267148901918697,0.0049262901528198426,-0.005038984901709003,-0.00262933981221021,-0.0004996631067509351
143,-0.0014801331532822454,0.00568349316846397,-0.004261027195569567,9.152376230337082e-05,0.004286412433528658
144,-0.0031416680060430604,0.005744531038564055,-0.00379186862976271,0.0008339623822912109,0.006798732726918541
145,-0.004353824950273913,0.006842554788696484,-0.003144823391503485,-0.0001236633499238641,0.0073440189967474345
146,-0.004705429571424715,0.009562026828274034,-0.002541382416332584,-0.001802014030051626,0.009027529425566517
147,-0.004881227755921628,0.010492974019737224,-0.002930512488273156,-0.003644204453818658,0.009988629660291104
148,-0.0046663487268077805,0.00903745580386945,-0.0037861698542530926,-0.005118825856792842,0.009902882367915233
149,-0.0037249763978285102,0.008795838783315997,-0.004385571425194765,-0.006350776911714894,0.010470436518332033
150,-0.00264555383967669,0.009131698268111475,-0.004772416313929832,-0.00705074405273675,0.007336108816638448
151,-0.0023181962343778386,0.0073805345116184015,-0.004715349616754841,-0.006560482379677134,-0.00021134241387681622
152,-0.003593931121154168,0.005064331788629162,-0.004955170979889349,-0.0066877056964836775,-0.004829018488196904
153,-0.006021639652103097,0.004420709615125987,-0.006389986021001956,-0.00897245172710865,-0.0027099713479351293
154,-0.007656185748259366,0.004631400665779984,-0.007902362311425284,-0.011131532807553529,0.0033609437747998514
155,-0.007273981514753304,0.0035822469458791314,-0.008169786934606427,-0.010605488156549488,0.008449207798152511
156,-0.006450237516634532,0.00096660526124638,-0.00861599233582403,-0.00951628961243421,0.009242598496100683
157,-0.006641966411663975,-0.001381667592127019,-0.01020176634571952,-0.010592742039997905,0.006441689957393602
158,-0.006684775065656855,-0.003006849187543134,-0.010825008752099352,-0.01182440583689103,0.0023496251520591055
159,-0.006537298186542712,-0.00342490071181022,-0.010684648279218941,-0.011822846604747637,-0.0007215544113642619
160,-0.007090196637247411,-0.0010780114494989958,-0.011764037956692968,-0.011708907262001125,-0.0023729081875463643
161,-0.00765287031248582,0.0027406293646268965,-0.012827326799560742,-0.011144188885973896,-0.003430440947655897
162,-0.007450102829484815,0.0058400858351906,-0.01192490659354937,-0.009484087665652181,-0.0021966835510810823
163,-0.006323676183631533,0.007653134535739424,-0.009871307528530016,-0.007545359467392691,0.00048373018204838025
164,-0.0047742844553815365,0.008082198503387024,-0.008816244827653582,-0.006494072252826378,-6.435821468324862e-05
165,-0.003318813666119558,0.007502391674002325,-0.00904409891844565,-0.006015409140224014,-0.004928781658287027
166,-0.0011057440409247873,0.006993735318526681,-0.008305931767833057,-0.0038249838926011095,-0.010076518261503953
167,0.0021543480390159727,0.006136407844006058,-0.005496771693930793,0.0010234733598309957,-0.01187794666881182
168,0.004782947143001081,0.0038625235726739153,-0.0029120142503395664,0.005669250754085304,-0.010771238103734525
169,0.005814776249420101,0.0014016191980129123,-0.003013326821463954,0.00717142649345214,-0.010201965990241878
170,0.005840298038565734,0.0005951743616310268,-0.005319092932141006,0.005811003187327307,-0.011861489719695707
171,0.005576443532111988,0.0012072733639687519,-0.007239124541753203,0.004016229353020278,-0.013527698163448244
172,0.0060069465142846175,0.0011618828731575436,-0.006516373769151489,0.0044444096052870365,-0.014037953709652821
173,0.007259482595276529,0.00043737738862425937,-0.00369973961570283,0.006419302441003438,-0.013132994218541244
174,0.007605894427257384,0.0012427274277471221,-0.0020216805385786657,0.006004250597290492,-0.009053988532795649
175,0.00620825917975607,0.003204194190651723,-0.0029778641461480015,0.0027565868472225787,-0.0037858388011603357
176,0.0041510805667082165,0.004101235280048895,-0.004571939864311444,0.0004601898680393071,-0.001078414306003692
177,0.0024611331981052526,0.002859340411909591,-0.005007435268200294,0.0017628657585792371,-0.0010871760803001366
178,0.001295297955616189,0.0005687352141486874,-0.004964771326039019,0.005470794375487664,-0.0025282000696391733
179,0.0003415229616996527,0.0002150274875611307,-0.005465187462403639,0.007625925312630521,-0.0025103448887229428
180,-0.00029866248302024516,0.0019988943850356594,-0.005902785247360706,0.006487619179561374,0.00011821745735632676
181,-0.000871668075651508,0.0032291682097286183,-0.005963557678152931,0.0034126921655214947,0.0030054107204702802
182,-0.0022378639780203766,0.0024594264692507006,-0.006009520626821871,0.0002851309842123351,0.004723523277763394
183,-0.003966476962478148,0.0008179341327394452,-0.005504267325480455,-0.0015014672034786992,0.0056608882963813814
184,-0.004683786660605024,0.0002389705591523769,-0.003864236316203524,-0.0017445932863962201,0.00580180226517974
185,-0.0034893167892651226,-6.448379481348089e-07,-0.001255362919852362,-0.00044083328960914554,0.0024914519328176473
186,-0.0015545986632410074,-0.00028093696016171047,0.0004222669322534085,0.0003130812936738688,-0.002937418738413712
187,-0.0015923000984264068,0.0007953331016644388,-0.0012616858936663053,-0.0031027041772182574,-0.004275060350142768
188,-0.0041850540355389135,0.0028458923233010656,-0.006056687072203446,-0.010343646312245009,-0.0010966849344686727
189,-0.007126725701389271,0.004583689299414832,-0.011553134888620968,-0.017361134893797817,0.000576725288424831
190,-0.0080751897351423,0.006227805034296952,-0.014993709073135979,-0.020734002460245964,-0.0014996295179270079
191,-0.006997333671966004,0.00807797561496054,-0.015172661631954873,-0.020277379096068207,-0.003925641983930835
192,-0.005327964926452159,0.008824000758444027,-0.013613149212430427,-0.01820367510109953,-0.0066282228938082735
193,-0.0034719542876129844,0.008447878599051804,-0.012356739904668247,-0.016420667053449144,-0.011321984692228693
194,-0.0015084419797144885,0.00786212610079196,-0.011876952652293792,-0.015444173116545855,-0.01661110686595634
195,-0.00036538513918944087,0.006745287605052226,-0.011560603875688618,-0.015018237506224134,-0.020415992838877007
196,-6.11072890461402e-05,0.005855070953676807,-0.010494626037051808,-0.014463514052342507,-0.020189759630392986
197,0.0003490542208224582,0.005672158349735529,-0.008307756937586367,-0.013150895882879383,-0.01574524983616908
198,0.00044427623428471474,0.004949870284890281,-0.006682412464664524,-0.012167852676435062,-0.010565553365498115
199,-2.8093536132977417e-06,0.00216455330035276,-0.006880362746538702,-0.012033277989345621,-0.009193413407723977
200,0.0010258286072588737,-0.004720174544027949,-0.006299659603448477,-0.009871836076037529,-0.015774596947961326
201,0.0031197532100829444,-0.01177142506973426,-0.003801792362295984,-0.006336607384199767,-0.024450216488420343
202,0.002878327274113931,-0.011589570327166789,-0.0022166028567493262,-0.00607855708960482,-0.025243014683476128
203,0.0004099130067929995,-0.00684238988805052,-0.0015288794153789905,-0.007980448160936706,-0.020651886041595822
204,-0.001794391694596658,-0.003476234984672446,0.0001484133750922866,-0.00839068577496592,-0.014719748049475017
205,-0.0030512412049291593,-0.0012386182772586081,0.0017119123138542097,-0.007810263694525013,-0.006232331760098359
206,-0.0040292063373440256,0.0013093749874710581,0.0014587026606700543,-0.007923979847640254,0.002447915784352915
207,-0.0054811238295912204,0.004350221576638837,-0.000625760369449656,-0.00921466542630391,0.007656041185411094
208,-0.007196826553856036,0.006794355961453036,-0.003476786862519697,-0.01097970841239785,0.007956717694726341
209,-0.008171642122510325,0.007463811693166217,-0.005668848829313525,-0.011967033275602532,0.00467516037372276
210,-0.007759565813489757,0.007282157053737688,-0.006267603923418404,-0.011733583960880834,0.0022429167353774293
211,-0.006423021809255459,0.007054861623717469,-0.005383488481777294,-0.010800748588455755,0.0029676910632162735
212,-0.004618114313069525,0.006910124154841366,-0.0032862006549425776,-0.009358742604338126,0.005505004892098778
213,-0.0019825529140890096,0.007274649965093769,8.588027734883454e-05,-0.006597528017050178,0.008852682458389625
214,0.0005260229812166207,0.007677295379772017,0.0030427783941915816,-0.003553625296451109,0.01136029050847901
215,0.0009201981625715065,0.007044373356088245,0.002777594184056555,-0.0028646372329317526,0.009153611225880607
216,-0.00020137723130731866,0.004887661597866024,-1.4275650146093005e-05,-0.0034485406707835506,0.0012684667119206416
217,-0.00046625722741761944,0.0029191897057167285,-0.0019100237198265094,-0.002833284689901926,-0.005712713550392173
218,0.000589251917436934,0.002697285280955372,-0.0014493251712959076,-0.0019184911249610585,-0.006085538947023228
219,0.002130677593800275,0.0034276191142878385,0.0003947236866088073,-0.0019293917911966578,-0.0021666822049393212
220,0.003632402068850524,0.004851175022413713,0.002280303291688152,-0.0023831580522714873,0.0035701857265289004
221,0.004681370129986991,0.006243117195875412,0.0034750696612186925,-0.0026042250485103636,0.008667001646145776
222,0.004891293378866033,0.005916567328648425,0.0035463047674496773,-0.0027646814589438328,0.008830770631208433
223,0.004234544696595509,0.0044830497007189865,0.003052088737890127,-0.003225647490472641,0.006452291088700425
224,0.0033805925142544094,0.0033589273025475277,0.0032193337241345947,-0.0036071090065879215,0.006262929832719378
225,0.0032541579837172523,0.002510984901807497,0.003969894132866637,-0.0034364421402486834,0.006230192339929178
226,0.004449906446054053,0.0017238945733737783,0.005031125954388806,-0.0016750564888196064,0.004055875022916195
227,0.006700687852493668,0.0006634331772218672,0.006909265302725129,0.0036637246749776802,0.0009607304856595274
228,0.008891518127855404,-0.001292762119998531,0.009651672860759155,0.013018950404771546,-0.002827332605758322
229,0.009629144741156559,-0.00374561355889917,0.012368349706344739,0.02233669113116903,-0.005686292116462259
230,0.008739354730440982,-0.005683057352649563,0.013953433084681083,0.026363258614889754,-0.005367241567983076
231,0.00713813157937612,-0.006459407605244978,0.013833246632027375,0.023486412541438042,-0.003182945431321474
232,0.004951957551370364,-0.006102658185739853,0.012185182105620257,0.015625419287533686,-0.000425127795666214
233,0.002938679688794335,-0.005697949326783786,0.010290629835127112,0.0073729839199782946,0.0026584150475404784
234,0.0026132975574308737,-0.006702129343652608,0.009354270750108364,0.0028507959840612467,0.0037181208030260767
235,0.0036152391831539184,-0.008939805032998087,0.00948096236068648,0.00305701943366391,0.0015053519143799633
236,0.0045384991537848725,-0.01034193432726632,0.010339375751271923,0.006759737850529295,0.00044376075638430314
237,0.004856380282743631,-0.010005649360641796,0.01058269854661865,0.010758502127904369,0.0023512931916162693
238,0.004958388942052132,-0.008795475482327068,0.008934316519099575,0.011876707893438386,0.003741505390364185
239,0.005704066414399225,-0.00808667675180001,0.006866951013781823,0.010532827096203299,0.0043074011891291565
240,0.0068442000377048505,-0.008650199718312353,0.006476231507702531,0.009792748578401785,0.004324207191853158
241,0.0073120335712085534,-0.008773836297315814,0.008038815155988711,0.012082573009722007,0.003893228246180893
242,0.006381342136630471,-0.006514696334976042,0.01038053720802015,0.01604513671006446,0.0062190435265768
243,0.0038931040253124354,-0.003103184167745305,0.012225628323450161,0.01771365326902753,0.011356003504076473
244,0.0012951015125833775,-0.0008675355836578294,0.013463740866599046,0.016220034892337344,0.014467265816654407
245,0.0004099398817124099,-0.00037784246677095477,0.014157008749190797,0.013800722073253458,0.012405604051196607
246,0.0012931470047878985,-0.0011969891029404965,0.014066618388382813,0.012029677463798124,0.006340850450778764
247,0.002795692235661527,-0.0027018916111339543,0.013477944965926955,0.011379120684400557,-2.724458514246986e-05
248,0.004244958347802513,-0.0038912906299755235,0.013350580811047466,0.012286336592144172,-0.003564123146239198
249,0.00562780986622632,-0.004009235052337135,0.014304189377480622,0.014561053393030307,-0.003081572470007057
250,0.0070904879203776165,-0.0035565523871000275,0.015546390676692813,0.016748443117162608,-0.0005148420538103465
251,0.008503921078236595,-0.004490771352379924,0.016153368700275277,0.017607227896604512,0.000262238941319477
252,0.00931269148349066,-0.0061954974708886895,0.01645969806748245,0.016943445073862116,0.0008831754302731491
253,0.009364044660072323,-0.005161684449657523,0.016653705389860708,0.015038171860289957,0.00489894344637275
254,0.008821593162059539,-0.0024331036785779437,0.016411571723439843,0.012698545107258779,0.008951811642932192
255,0.007383267312304502,-0.001574513508771831,0.016093802680008047,0.01077899671736959,0.009543206563780044
256,0.004985340586134614,-0.0025834898444622345,0.01592904665906987,0.00987381183867432,0.007590816959035344
257,0.002558644507696719,-0.00330657895168817,0.015407192903873932,0.01028382535121043,0.00573699005393131
258,0.0013399207109591597,-0.001924814987041588,0.014129938629656918,0.011229042239161754,0.006115352959870244
259,0.001721130454579496,0.0005294001276907752,0.01159032797335257,0.011357450021398798,0.005408797861230686
260,0.002838552278573774,0.0014970280383511609,0.007374791482894433,0.00977511437133673,-0.0010081772460563958
261,0.002974018993976801,0.0011148527690654556,0.0022293791484725442,0.0059749790402384,-0.009386566884941338
262,0.0015613456203874847,0.00039777962896946393,-0.002209824886700524,0.0009989876279298197,-0.013787281439309799
263,-0.00023654130716932093,-0.0009676467808747246,-0.004803385062293987,-0.0027134351496799604,-0.014425545033804001
264,-0.0020112041107994754,-0.0018884829194968768,-0.005564049311021414,-0.0045465688730096515,-0.011814813690109826
265,-0.004201817962054645,-0.0009140015082063729,-0.005020805217551379,-0.005411342770541042,-0.005900457205045046
266,-0.00580791854180796,0.00042120123251472027,-0.003409550456694204,-0.004770191761052617,-0.00047015641155900064
267,-0.004690357999260663,0.00030969340832864937,-0.0013782790710805853,-0.001714418789935951,0.0007249342730095093
268,-0.0010361263291212663,-0.0008309879066418526,-0.00039304591278508484,0.002094946456442247,-0.002332823884577169
269,0.0021394326968598412,-0.00238876691489814,0.000193251019662825,0.004515424220062235,-0.007085662867766508
270,0.002974636949301139,-0.0041140170385614615,0.0028584330407123012,0.006408568719933393,-0.009476467325681382
271,0.0021847379540450374,-0.005615875535647251,0.006725353329011596,0.008450040253724107,-0.008720374118700257
272,0.0015545348577534791,-0.006842919627992629,0.008830985519863086,0.009140345347524517,-0.00929123680346592
273,0.0018833493719688573,-0.007591481150692323,0.008475716892585675,0.007178666239847883,-0.013012132111489412
274,0.0013947898936512617,-0.007012470503335929,0.005209690197258538,0.0011641591892935994,-0.015577428925941899
275,-0.0005052761739808178,-0.004900775990614181,-0.0004640342971132514,-0.0077958030807036335,-0.012981592529639112
276,-0.0014134985082100836,-0.0026515637697477083,-0.005605190434045171,-0.015441423915405412,-0.007671712011242526
277,-0.0013541059486474835,-0.0008384088271021776,-0.009321298643685767,-0.020421477890208015,-0.0036593065827887216
278,-0.002272521857396985,0.0019718958276614238,-0.012248009366367909,-0.023653974161198726,0.0002766509723816464
279,-0.003743771102281532,0.005347830404155701,-0.013938930907281235,-0.02456551502427149,0.0028625071265603584
280,-0.0047111624464425865,0.0071438220049087255,-0.01450805032413393,-0.022604465993367743,8.81224126224179e-06
281,-0.005416610813931981,0.007607228459002577,-0.014565891264349528,-0.019453591973071872,-0.0046145209105119
282,-0.006401510473882745,0.008195021453967362,-0.014473325279430129,-0.018013403184221663,-0.005826410005198029
283,-0.007482669501607006,0.00880972032033839,-0.01459125754419816,-0.018954443695947443,-0.0049586745111343785
284,-0.007951649597144013,0.008734090185106918,-0.014630405374482847,-0.020846145491566857,-0.003804529771938701
285,-0.007600260273667084,0.00786632297196941,-0.01371586123286149,-0.022874930655242896,-0.001381136510319844
286,-0.006750797970497143,0.0069709403597096485,-0.012159537423444403,-0.024978735329670626,0.002501528226007804
287,-0.005787408259181772,0.006336589848623633,-0.012229500005320294,-0.027051477697828556,0.004659075622010089
288,-0.0050729457462731975,0.0042328344069891615,-0.014134914238304307,-0.027850698559017308,0.0024575955175637114
289,-0.004276651375725436,-0.0007288686664890273,-0.013485217784920626,-0.025119482629402418,-0.0017534697912233456
290,-0.0037378247453030656,-0.006252955331858668,-0.008546269092863362,-0.020089079089657097,-0.0041776635376513825
291,-0.004841078186614275,-0.008191140114755566,-0.0036624102384457636,-0.017140004475541832,-0.0036125762200995256
292,-0.006844513777946533,-0.006850541438220274,-0.0017411296078022795,-0.016805958672853696,-0.0027516659909546694
293,-0.007895715248439876,-0.005366477381284526,-0.001076179033199186,-0.015738959925089988,-0.0031006194808892995
294,-0.00810525031039019,-0.003051152168993666,0.00016035754439872092,-0.013144366591073903,-0.0013353366386844262
295,-0.007876883789099114,0.0011385630570458535,0.0022905862587917236,-0.010751965166471303,0.002457289408034032
296,-0.006971279923394431,0.005487843669141924,0.00547197581326853,-0.008404405143402578,0.005736072537342358
297,-0.006140181049119232,0.009198670617576966,0.00869624345565235,-0.005388792851236237,0.00979245927037233
298,-0.006157740386585502,0.011665418628435141,0.010299039884496004,-0.0020790285249605886,0.01428140214560696
299,-0.006677446049477901,0.012040801909196147,0.010169741629187058,0.0012263212870508285,0.017682979533046116
300,-0.006919279711729242,0.011617623134432056,0.009536031482668735,0.004359574321235574,0.021520407729898987
301,-0.00639938176802357,0.0116855557296399,0.009640638135394683,0.007290494698313165,0.02579812170848397
302,-0.004887597460215561,0.011225903501109778,0.011341972949040512,0.010367466355195639,0.02730425252939807
303,-0.0026588890364836254,0.009328260713997952,0.01450525756801099,0.013113761644750706,0.025846583091492795
304,-0.0009616478158353766,0.006482175012797698,0.01695156906115885,0.013689573328632734,0.024502825708271978
305,-0.0002470505546357714,0.003491965002499641,0.017124663197691993,0.01235561953112296,0.024390746198182302
306,0.0006779165599451113,0.0016060444000031455,0.016745896119097135,0.012238767730299844,0.025885531944814855
307,0.0030767062872707612,0.001184566720392822,0.018431806665074286,0.01539196948383885,0.027997496589413504
308,0.006216590056615072,0.0013553680007710328,0.02232760226553265,0.020229495498914448,0.029093619868641396
309,0.007528903424512944,0.0021344274751049124,0.025889794480994294,0.023246542673279143,0.030515923014214255
310,0.006884821880030777,0.0037744049887763506,0.028144359657711233,0.024341355878304837,0.033038754002082
311,0.006320154849034583,0.005471751293872441,0.030105184373487404,0.025819178815516392,0.03508101934267498
312,0.006442202152516304,0.0062534473392579625,0.03169802205145353,0.028162549982936342,0.03540164768016503
313,0.006832358236034795,0.005977242445835275,0.03252741847502384,0.03081640318258663,0.035010645090635006
314,0.007227306728151468,0.00474780678775658,0.032900346126025694,0.03335178674334437,0.0353997377227125
315,0.007649190930718713,0.002773524714317257,0.033269117755478146,0.035430952429499576,0.035790624652878876
316,0.007503050485067849,0.0008999842314954244,0.03249292658172468,0.03597085826899295,0.03404410518206643
317,0.0065571310480877975,-0.0007173798743933158,0.029238309574820102,0.03437076439776517,0.02843524113176949
318,0.005651590503225645,-0.00334061945595702,0.025012048782214812,0.03148377386943138,0.019828508099722107
319,0.005362498100453512,-0.006710664773008092,0.022567737776782122,0.027946489786244137,0.01256648080812807
320,0.005299352739102485,-0.007861658799429573,0.022170805139326916,0.023425046811710485,0.010172295143359994
321,0.004334969700565783,-0.0060702156014157795,0.021548168092960614,0.017852502287522012,0.011290830988956417
322,0.002476297337924192,-0.004183505420750599,0.01941202746782095,0.012824120927631215,0.011890940288262972
323,0.0010873096343248384,-0.0035321467889426845,0.016623275251592115,0.010038823662002991,0.00998838510413967
324,0.0010023081345756336,-0.0029270647791989476,0.014734409049106207,0.00973724891093804,0.0071757677801726205
325,0.001852181599341148,-0.0018754053655017772,0.014237716823966632,0.01071966840949182,0.004884882924753297
326,0.00256226788660043,-0.0013368506108498773,0.014165812769950025,0.011060563458826196,0.0031895013118945176
327,0.0022131233112272016,-0.002200042688662861,0.01356648553342784,0.01011976387322749,0.003391675024506098
328,0.0008087761080319681,-0.003960081379365849,0.012520663591368353,0.00895077472263519,0.006707266911786572
329,-0.0005436858797516281,-0.005055406029955382,0.011535346136902276,0.008260211320000658,0.01187088788372865
330,-0.0003540455952938836,-0.0049345258425420695,0.011278008974832261,0.008120381434493767,0.016040359678911473
331,0.0012602570018338027,-0.003836715526692446,0.012076617014235026,0.008503387147800686,0.018598305862275698
332,0.0018325033977894057,-0.002194892708191497,0.012478493855585606,0.008026471297297067,0.02070246801879904
333,-0.00010659679345668121,-0.00152453342846507,0.011315841594784649,0.00562774711720845,0.021601420396688747
334,-0.002549282933160816,-0.002751195148593114,0.01049143002241958,0.0035512612489255937,0.020525327234226867
335,-0.003352216473210338,-0.005401953898477639,0.012096757685486558,0.004427008760961295,0.01904648628893514
336,-0.00329195003113685,-0.007590808589200682,0.015081839802782581,0.007284005469674114,0.020182435397908996
337,-0.0037359083174425974,-0.007516151553695699,0.01724391211741737,0.009627611325267687,0.023507618604859004
338,-0.00410108001922264,-0.006289954233498466,0.018468918095340948,0.011084289714324125,0.02458312567908717
339,-0.003193291560513477,-0.005397832355201459,0.019865579836597272,0.012403756789852102,0.022880039993027856
340,-0.0013514516020478912,-0.0046564254873888945,0.021129055564111068,0.01326222155592299,0.02146431220165865
341,-1.585276018549342e-05,-0.00381117544637329,0.021165323250749712,0.013281317958380553,0.021790108520890746
342,0.0007820654347029588,-0.0027644104540890356,0.020346346628970228,0.013482088483817949,0.024027342589201545
343,0.0019950016625844996,-0.0018983746056684583,0.019777624534131576,0.014812307289773294,0.026871481646698503
344,0.0026996179499243806,-0.0025287251523428023,0.019070383867354615,0.016176184644812394,0.027626068353057198
345,0.0017037850858289073,-0.004744471117560227,0.017487525808749942,0.016465066676792022,0.025492751225583834
346,0.0003834819498408284,-0.007816686536900872,0.016008328036952603,0.017242690163416764,0.020780875741627545
347,0.0001338173588621272,-0.010893758359417978,0.015922898056707994,0.019821672380080754,0.015792117386425733
348,-0.00044636116478255353,-0.011446046548459569,0.016354014401052396,0.021678418378136145,0.015777789992414786
349,-0.002321552406407359,-0.00952907533248953,0.016067970456924888,0.02059650364200738,0.0197703233090166
350,-0.003946082543694784,-0.007702669259636565,0.01562601622768336,0.01726639714589521,0.022679723962431706
351,-0.004001538787421915,-0.005913141934821515,0.015632208090270237,0.012554359884471634,0.024088697317194777
352,-0.0034286206214146774,-0.0037265432921618383,0.01580822782951212,0.007661813724884625,0.02500500214410958
353,-0.0037741462499112435,-0.0015204148857797814,0.01591672191784283,0.004296172278537055,0.025848725285130103
354,-0.004660898756995002,0.0009690331781301004,0.015966174788827055,0.003047792921424663,0.0266618821457147
355,-0.005271495380020451,0.003333659666145453,0.01551192796410415,0.0031040421390450186,0.026471927974038672
356,-0.005684559732911731,0.004306441929404326,0.014339266048596533,0.003983506637760743,0.024445016470112425
357,-0.005384481355418495,0.0036487716191500276,0.013928757809059783,0.00640689823183436,0.02139723242452439
358,-0.0039598973997308955,0.0031124622013173923,0.015553467764570013,0.010173971788605067,0.0206897455101065
359,-0.0023706384826449782,0.004606560012654135,0.018374844367651976,0.013333669318890596,0.02468049490732112
360,-0.0014249464270687862,0.007707488980843442,0.02125944387342385,0.014864572985017848,0.031137887377315883
361,-0.0011604552297588705,0.009924215624064385,0.022850431824999667,0.015347518606102223,0.03564249093019337
362,-0.001179013867108553,0.010007554575714459,0.022124968892018978,0.01675354934217513,0.0364237187456589
363,-0.0013187186534589466,0.008701697240788741,0.019910550838794557,0.020614603978782366,0.03449340504700836
364,-0.0017264702547647077,0.006935127939507056,0.017804072931346726,0.024709790881845106,0.03131700623018693
365,-0.0021838446907028845,0.005640532664346307,0.017089812133070748,0.025763075362841267,0.028935923101463673
366,-0.002558997357916557,0.004659861522954834,0.017811025160163304,0.02346330097778815,0.02716335240328493
367,-0.0029564341356872483,0.0033492353234895254,0.018812490018725418,0.01958616235457899,0.024044513836791806
368,-0.003527163840407356,0.002444259079707648,0.019185904440374914,0.015478126665076907,0.020690078137002296
369,-0.003721001612786341,0.0027142813800129987,0.01981290811127995,0.012505760447772239,0.01988915965716707
370,-0.0031360573421524056,0.0034885069134487708,0.021435859413706577,0.01160225467836425,0.022588715058591228
371,-0.002260385551344858,0.00348779186066203,0.022947794366212918,0.012333478195804583,0.02678343974968389
372,-0.0015445819440656548,0.0024874890354262707,0.023415004628833568,0.014119716925686898,0.02775660699400732
373,-0.0014266968659821808,0.0011161177867027683,0.022632531287198988,0.016247398069346417,0.02524820429786192
374,-0.001852074256406573,-0.00041205078852678034,0.02135677182125675,0.018474923939015897,0.02021689676611717
375,-0.0020654755603466625,-0.0015879899306117855,0.021369707765114317,0.02150113780871278,0.01491400714994323
376,-0.0018839684663818064,-0.0003170489767899116,0.023061598875958492,0.0250355895484355,0.014792268957835756
377,-0.0016312893872210096,0.003984649618806933,0.024783070694424442,0.02757276347638618,0.018342626176778537
378,-0.001070500990373008,0.008399068392334109,0.025495972770400218,0.02850660214532274,0.01897362605125292
379,0.00010672804295129665,0.010834574324132906,0.025858633698738538,0.02832223248441018,0.014979431333647908
380,0.002110211202970864,0.011571468651570917,0.027006323838114257,0.028157761533341624,0.00978872615256075
381,0.004012927950485223,0.011098051882267338,0.028378895349771064,0.028325737596002244,0.005125928008206503
382,0.004261915994566076,0.009957475713203925,0.028560544822644918,0.028167679519092336,0.002501273793046297
383,0.003260144080577718,0.00932179536481909,0.027893700233993932,0.02825018375398616,0.002739192144269408
384,0.002007404566135447,0.009293337788009842,0.027479738372176616,0.02916421766088103,0.0017126965102135685
385,0.0008128199154760189,0.008969967819099572,0.028121897395537148,0.029998373543387583,-0.0015447913056055105
386,-0.0002012652089247966,0.009298849607203202,0.029720181657177245,0.02958842694302391,-0.004809474844543991
387,-0.0012301096861489509,0.011110609992665665,0.030863816345953348,0.027688831475512807,-0.007161415227351305
388,-0.002194027525862412,0.013390175166096559,0.030612697608016406,0.02488070649089379,-0.004891122269936868
389,-0.0021259716910975437,0.015565643044711978,0.02937790309575405,0.022151616180969027,-0.0009084131165577885
390,-0.00040014737707701984,0.017395335264709388,0.027434933268965386,0.020082790400787254,0.0021896127481843305
391,0.002143863496712296,0.017828447877383635,0.02489515728023533,0.01905211680149274,0.003555123752463651
392,0.003388280952666657,0.015587990363219692,0.02176586961943366,0.01917444417598928,-0.0005996114857655553
393,0.002414393955337143,0.011499384503973375,0.018582169534907222,0.02038918929818695,-0.004500641893625058
394,0.0014505341206670075,0.00793401451141219,0.01745779654059726,0.023490808945130188,-0.0025699910400548056
395,0.0024279923607779456,0.005763809659154491,0.01895907515458164,0.028223992045347642,0.003025066275097289
396,0.004978806664953398,0.004816157642053118,0.02128478515577476,0.032711385605828695,0.007400424677357895
397,0.007979071406291404,0.004905932923697788,0.02285209470835261,0.03553421879333881,0.0120339783752669
398,0.010524286561152266,0.005804215474024484,0.02303133697215634,0.03642641415904037,0.017533611304012906
399,0.011807006137174732,0.006410038595600139,0.022301393593542225,0.03580563226545978,0.021243938655027092
400,0.010988543366286534,0.005591836076062913,0.021601084312338426,0.034090089769550955,0.02495599921757537
401,0.008284230190636404,0.0039022098437217745,0.020944223109881296,0.03165499122355597,0.02879558519433563
402,0.005189741221025046,0.0019569145105922817,0.019882585386522742,0.02920620642780767,0.030873047790260708
403,0.003320141474273253,-0.0004650453177999813,0.01856497572000938,0.027549243761125167,0.03144911655830084
404,0.0030512329544546287,-0.003184005911047637,0.017629487423209342,0.02705686149590237,0.0265124235812692
405,0.003419756221231707,-0.0053245618989868895,0.017599482158797034,0.027376779660864596,0.020071693163728282
406,0.003328593280374646,-0.006909050087133029,0.018420156785658545,0.027868225392945273,0.014971446207845598
407,0.003262543162938984,-0.008108811304707923,0.020567002791363462,0.02925349382719591,0.009785905779149846
408,0.003957772096523581,-0.008147450155798536,0.023627799339167223,0.03203667133204319,0.007946990175061602
409,0.004849584456556503,-0.007266828103143544,0.025436578969655704,0.03543062338302714,0.00793851145035007
410,0.0057892654083229024,-0.006679761594344072,0.02558170530493226,0.03873636897968875,0.007328665642148755
411,0.0069309652609970095,-0.006959946938033864,0.025010931860054562,0.04006080313075129,0.006071553653950255
412,0.007875021466040135,-0.00742760312276504,0.02383450254683877,0.03732367076366854,0.007117735314396531
413,0.008095496680562364,-0.006945018735898594,0.021877745174025034,0.031023860200357647,0.01008143327063651
414,0.007404242370741472,-0.005334192094354901,0.019374280686363,0.02379699327147472,0.013131090954230385
415,0.006202617608603576,-0.0036205280941945628,0.017468511044580463,0.01847675491061359,0.01522991958274504
416,0.0055332873709735666,-0.0029451130479010075,0.017290291809586716,0.016797317851261397,0.013525003302335695
417,0.006342242531348318,-0.00308488641960826,0.01814786949121005,0.018270354974437075,0.009955968702444086
418,0.008473348664956087,-0.003065205209832639,0.018412563956487375,0.020966671281161763,0.007884354476217468
419,0.010421560001989445,-0.002764392145058421,0.017271997148753205,0.023339122198847657,0.006711521992158963
420,0.010829217200587899,-0.002424064894256048,0.015830356182829394,0.024887030284039373,0.006973625644851475
421,0.009921580512782002,-0.0019914851937569097,0.015823136529596382,0.025736302108860337,0.00787131590210342
422,0.008766205751594699,-0.0014859506939680685,0.016708459800664866,0.026119020982713324,0.007722021922504273
423,0.0076967879356207945,-0.001457476449452557,0.01660754866524025,0.026130857214306368,0.005692264574529472
424,0.00639893470118704,-0.0021803426779447087,0.014812470743912216,0.025410074749893215,0.0023771473320665436
425,0.005328407602068558,-0.002827577182113272,0.011960582779905773,0.02435299188558638,0.0004766365010878057
426,0.005596617861613968,-0.002630841946102161,0.009170402990650224,0.024021174043547915,-7.823680926519788e-05
427,0.007332933343882065,-0.0018354916299323876,0.0073994953542981185,0.024087780418362376,-0.001406937017671668
428,0.009021580140181236,-0.0011582395212472207,0.006905177962056999,0.023211103028262816,-0.004334250139345734
429,0.009486385970517736,-0.0008275036621408353,0.006630301347102844,0.02072244941809924,-0.006367327537736302
430,0.008946637350286864,-0.0008184146919895785,0.004865392760449268,0.017124786301088542,-0.00696491593429569
431,0.008021614501684659,-0.001404241000673431,0.001512708802749774,0.013482937100288292,-0.008599537148995822
432,0.006955508385582051,-0.0026050900020607877,-0.0024515092966536827,0.009998176743029259,-0.011952109423323953
433,0.00563899385769735,-0.0036550947636192137,-0.006415151400874127,0.006406961998181244,-0.015975221782441148
434,0.00391510766712408,-0.0039195592901490215,-0.009601399977734577,0.002902476708193846,-0.01868097318805768
435,0.0016911186912231897,-0.0035813958808463145,-0.012012563128285704,-0.0006339182112125929,-0.019673904387846483
436,-9.514829186770011e-05,-0.0028182599577924318,-0.013963951361281863,-0.003768186451883239,-0.020183975190718174
437,-0.000449563138532147,-0.001955360309696063,-0.015154389721842222,-0.005638607717079905,-0.020788554963516927
438,6.409915896541128e-05,-0.0014897789509698688,-0.015727629363763044,-0.006748368784763734,-0.021163210768198465
439,0.000835155862694997,-0.0010066589108804586,-0.01598192764099441,-0.007897863641222363,-0.02092200070482284
440,0.001598298958102426,-0.0004950983044237543,-0.01606704789380436,-0.009169713923019723,-0.020115826346267813
441,0.0018185831515622533,-0.0011899360201443041,-0.015948630770270936,-0.010501040560238874,-0.019027573031575196
442,0.0011175267721379011,-0.0025212549182710635,-0.016290223757601443,-0.012790195368284308,-0.018346554628904752
443,-0.00018453305087376352,-0.0020152683867243177,-0.01837710644407,-0.017059150011584697,-0.018340763561239374
444,-0.001244989054639999,-3.937207141766969e-05,-0.021778071082983175,-0.02220220249163107,-0.019769161689600898
445,-0.0025672473934207594,6.908925280398349e-05,-0.025855413133823717,-0.027076420070926786,-0.02420888990030523
446,-0.005284837786910047,-0.002120587005021901,-0.030907976983734622,-0.03221260922599823,-0.028865685686806797
447,-0.008313010923128002,-0.00398608924093254,-0.03580046688133069,-0.03721344996667336,-0.030001518516149725
448,-0.009359765888968946,-0.004226896329649594,-0.03835212137280315,-0.03704200160613751,-0.02960233692959665
449,-0.008274345690282653,-0.002696287171865307,-0.0383252194085785,-0.037108781791627875,-0.02942159727881284
450,-0.007306564837575849,-0.00030290397254325603,-0.03835873122253731,-0.03648536953921361,-0.028405492945310695
451,-0.007460409054428668,0.001583112416453161,-0.04028300784723449,-0.03687636719083238,-0.02671186369473246
452,-0.0078120473137648465,0.002620810004064051,-0.04097198829037522,-0.036202688826792256,-0.02356848862454137
453,-0.008010735164752824,0.00277952072448084,-0.041086428903828714,-0.03540703577705803,-0.02090756053601203
454,-0.008338850114152658,0.002090777392804627,-0.041069805718764105,-0.03519038899411388,-0.019795488867466644
455,-0.008956849788501867,0.00044342079602812,-0.03972358495826024,-0.03440608993486939,-0.01970074667071428
456,-0.009461437603430923,-0.0017154772238312324,-0.0379637775625339,-0.03272400213305481,-0.020311629102679783
457,-0.009211149875992341,-0.003025559960188686,-0.03426535932271642,-0.028425657180112463,-0.018864349531093217
458,-0.00849434143519335,-0.002884291872526043,-0.028411010025192415,-0.02232552223737436,-0.014979808067742208
459,-0.008118630691294924,-0.0020893173192052155,-0.02240171692648707,-0.017085576545412724,-0.011026289614550195
460,-0.008571122344853657,-0.001890049144874063,-0.018542493325659964,-0.014543854467835536,-0.009795023598947702
461,-0.009901503120404567,-0.0025784037005295215,-0.015809756463989594,-0.013744028732881648,-0.010242499006879553
462,-0.011462687055739995,-0.003480925579778148,-0.012741265318453824,-0.012879213812491875,-0.009770282655512098
463,-0.012602711806252663,-0.00416737679823414,-0.009421732427695303,-0.011004072235709515,-0.007772476046988968
464,-0.01300748025340883,-0.004310535958757802,-0.004606726095313625,-0.00728327239606721,-0.0037879000812648276
465,-0.012916105566912977,-0.004441903889278658,0.0015225501045085911,-0.0022107627180480145,0.0011943164952482582
466,-0.01285307400796686,-0.005340751842865185,0.007755301859124155,0.0031319308353584905,0.00601942964359433
467,-0.012242636241117173,-0.005749168592670414,0.014052452325011913,0.00854145034385036,0.011407537637744833
468,-0.010900967706533628,-0.004833738780392138,0.012806627739811062,0.00792257874893621,0.011614902250309596
469,-0.009835031047321391,-0.004310744197416506,0.007996437563107646,0.004172723816701569,0.00829938692212295
470,-0.009024059565850411,-0.004989905569795819,0.004067440469033869,0.0008816491852638431,0.003259042391024984
471,-0.007971971208722745,-0.005457125962302143,-0.000569781964872964,-0.0027710927322263704,-0.0033878860978719125
472,-0.006727269696952941,-0.00493967068595494,-0.0024231880980003836,-0.004208955682712861,-0.007680916099796388
473,-0.005352252591217326,-0.003727778424535704,-0.003938202372924651,-0.005559660133946446,-0.01221588615184715
474,-0.004172828560604084,-0.002020315075866741,-0.007597065769619898,-0.00886696877670321,-0.018051407322849534
475,-0.0032089617068264305,-0.00010546872491928778,-0.01211093214008004,-0.012074600525495787,-0.02302678963232458
476,-0.0029219044947793016,0.0009417116629678647,-0.013924521067738171,-0.01189857667402147,-0.023771236803863328
477,-0.0038208655373329803,0.0008796604194209784,-0.016151587582251107,-0.011958469059961493,-0.022124881926379923
478,-0.004714882896491746,0.001202641428321257,-0.020349401831051838,-0.015196952637540737,-0.0198876139338383
479,-0.004898418606534565,0.0019278656507198347,-0.024852517171981576,-0.020465939833859702,-0.019079428067108908
480,-0.0043062951271549,0.0023930383938324017,-0.03106371336461449,-0.0270730742971726,-0.023554217967776892
481,-0.002859812832310499,0.0032242594962624146,-0.03710864812030167,-0.03350258670849108,-0.0294825303925857
482,-0.0014468210350000678,0.0042704899123666195,-0.04292418830581993,-0.0403714950227166,-0.033753891101549804
483,-0.0007772219056178037,0.004625045116551802,-0.05028340946513012,-0.048401058177380746,-0.03869392702784655
484,-0.0008785496448273566,0.0038487487125359546,-0.05122603143290933,-0.050446160165381594,-0.03960138742781195
485,-0.0010846380929775167,0.002310157724727299,-0.04840069987491952,-0.04867738844643113,-0.03879507396365684
486,-0.0013173694221360372,0.00027686155784190975,-0.04532766551079121,-0.04593593295375969,-0.03839874247486481
487,-0.0018833435681576438,-0.0022461686519721223,-0.04071066725555349,-0.041347202151805276,-0.037437366557226875
488,-0.0018102921543585503,-0.004344582405309382,-0.037998343190765255,-0.03797961673265527,-0.03934883482516022
489,-0.0003711121055682582,-0.004992750678025306,-0.0345942448356339,-0.0340023007383372,-0.041145691489705684
490,0.002133110956738293,-0.004454226468622788,-0.028481957929781653,-0.028061106720276046,-0.04034442093019695
491,0.004539855148521965,-0.003817273566661569,-0.02176424389813754,-0.02208881972785364,-0.03813209464904242
492,0.00563626279515908,-0.0035430547996399366,-0.019150263133938746,-0.02001896156632845,-0.037282530642422367
493,0.005283584150821133,-0.0038160542589870715,-0.01823911634541706,-0.01976929776977519,-0.03572442314038185
494,0.004398098673675556,-0.004257661149538413,-0.016709405659466648,-0.018950206737849928,-0.032168865121731144
495,0.004002219325830105,-0.003968221797856938,-0.015632636317161705,-0.01789212108650198,-0.028223184578677715
496,0.003805080135728865,-0.0032554402403839034,-0.01310493428198997,-0.015279733214353833,-0.023332650912619626
497,0.0034194814367885388,-0.0027208513606987094,-0.009965354553937331,-0.011977050686414557,-0.01933635185107407
498,0.0026429318213366595,-0.002108514334968962,-0.00737974801756357,-0.008932255855933713,-0.01694446058483814
499,0.001185526511162782,-0.0007302239024197361,-0.004508345353167047,-0.00607450902748715,-0.014077890054284663
500,-2.4853705062845375e-05,0.001073943967316919,-0.0026390186053242555,-0.004969622538590027,-0.01252241318476181
501,-0.0007033641021005881,0.0016881812666975412,-0.0017504813160304188,-0.004267280435439082,-0.01299170005151085
502,-0.0014315895735513102,0.0011760290224094242,-0.0021700459226116383,-0.003549337933448984,-0.013899730059693291
503,-0.002191586546883836,0.0006212190601534243,-0.004195916289745408,-0.004451676720390462,-0.01456842359420755
504,-0.0027573289862470787,-0.0001997980834373344,-0.006126864667880885,-0.006349925604688345,-0.015494902290461549
505,-0.002836320700883908,-0.00137570021237315,-0.007891911943069712,-0.00888449343406505,-0.017406024115431247
506,-0.002524156245724685,-0.002457095276200568,-0.00978613435029954,-0.011798373542165942,-0.018744198954191077
507,-0.0017517823700934135,-0.0030384550358433762,-0.010945918978009039,-0.013762265772375961,-0.018004767919187484
508,0.00016049891755020885,-0.003025785844663265,-0.009151141943904468,-0.012344010970183313,-0.015490779927503565
509,0.0032073491801352574,-0.0027637874748570406,-0.0052827434903582144,-0.008557765399910601,-0.014483227724920077
510,0.006179881338624302,-0.0024607395417350865,-0.0014023157414951538,-0.0047332741055382465,-0.015571385438083748
511,0.007998886471297614,-0.002397807637822452,0.0017421923145330839,-0.0015140981109442364,-0.01583471300971375
512,0.008560680708666366,-0.0029248223463143696,0.003437642328626168,0.0006217928705088149,-0.014536220616596691
513,0.008415236368441346,-0.003853699302372279,0.004543398349489482,0.002312037097387106,-0.012717779603639168
514,0.007867314110251355,-0.004881372565065745,0.005446347297558244,0.0036371510103266305,-0.011779876882984826
515,0.0070149791779568335,-0.005737754067841474,0.005732281978300689,0.004130195973149012,-0.012229534931744274
516,0.006020886818328628,-0.006470951855705283,0.0050648691077103325,0.003631240062406941,-0.014257835316188317
517,0.004682361429121916,-0.007493431088851725,0.003332491283961626,0.002278436053287471,-0.017287980074489385
518,0.003399794154326008,-0.008156340789053942,0.0013715968096167635,0.0010786766831537358,-0.01932045296205843
519,0.0027798822381718013,-0.007750084438881629,0.0002077409000443624,0.0009418985257976362,-0.01958953729590197
520,0.0023979430004167565,-0.006941677608789906,6.123791780129595e-05,0.0015559293847268874,-0.018994367135971118
521,0.0017970562524308434,-0.006152624779262654,0.0010123779484236396,0.0023824113193294696,-0.01704616664971786
522,0.001258464342902839,-0.004974204295067185,0.003167358953495347,0.0035522446995768448,-0.013040772819419896
523,0.0008013685002116781,-0.003788669999908685,0.005106579368694535,0.005227141045483771,-0.009638758359403077
524,-3.5748036130214174e-05,-0.0035527965035194076,0.005181215307168714,0.008061073196276051,-0.009209746500688024
525,-0.001037971506852411,-0.004461503930503199,0.00417924113492248,0.01237775705984541,-0.011010252062431843
526,-0.0007251482779878695,-0.005289241962651881,0.0042610639232595485,0.016305153226576753,-0.013519938327306098
527,0.0017070839396420789,-0.004493764017984555,0.006185582370551068,0.017499166206483188,-0.014657917321046151
528,0.004604011317291427,-0.002522022573952237,0.009006294766477968,0.015793825405001623,-0.01319418571838699
529,0.005914111947134984,-0.00066878632073235,0.011599915438834436,0.012684353863317427,-0.009695302713892831
530,0.005636293477896973,0.0008229544832747116,0.013377600290049996,0.009710200735846818,-0.005315740754104946
531,0.0055720705245182345,0.0020260803412831,0.014859202440136832,0.008372241107890813,-0.001274518807679205
532,0.0065908029833018356,0.0027712420516814384,0.01680645695854624,0.009242441690605117,0.0022419694180057705
533,0.007247710654671685,0.002875406860096666,0.0186770529094134,0.010966837162584843,0.005577325569350546
534,0.005823250821055988,0.002082897561946263,0.019179494850591363,0.011282436630981862,0.007781789918722552
535,0.0028269422017794615,0.00027406543855995814,0.01820088095658906,0.009896951261779658,0.007241927994996204
536,0.0006604154726488937,-0.0018105838713436257,0.017214297038404165,0.009483883578196928,0.004226324003587969
537,0.00027084226594259616,-0.0032104070905022743,0.01665046684248103,0.01137657709311408,0.00026834306123070404
538,0.0003511063796347428,-0.00406589730481008,0.015168284328910112,0.01348411196317059,-0.004128999205807586
539,-0.00021467503993906185,-0.005020803610766087,0.012238702960067068,0.013722559053598657,-0.008232445169177214
540,-0.0014985986149351883,-0.005870874217310785,0.008692200635487321,0.011847555473754627,-0.010234928418023865
541,-0.0026219211361162196,-0.00575436616220278,0.005987347344961277,0.009356865882299363,-0.008897190570099581
542,-0.0028425928726189425,-0.004962378771057713,0.0047900870142731046,0.007560477219816543,-0.005171683396225198
543,-0.002691708832785138,-0.004733878406576231,0.004052786136546595,0.005841380807221273,-0.0020177685229563844
544,-0.0027312234605676713,-0.005463067356845371,0.0033793470059834446,0.004208570596082919,-0.0018798191300654244
545,-0.002938341465768769,-0.006485410145858625,0.0032824967526550895,0.0034955969486515255,-0.004332985730319837
546,-0.003211556601281058,-0.00672605663189196,0.0036976228224427925,0.0033886261259154886,-0.006743868258848243
547,-0.003443295987770341,-0.005812970856230408,0.004433711914683904,0.0035376119595779396,-0.00756516677526883
548,-0.003105255256295255,-0.003886067192066205,0.005741860012917398,0.0039944020963046285,-0.007253645617043395
549,-0.0016936675962304754,-0.0011511352369569263,0.0073399164107922675,0.003927176169561261,-0.006613860955006743
550,0.0004174720532111986,0.0014471536652727816,0.007607137879962364,0.002820459591497978,-0.007079322193367004
551,0.002418558216335133,0.0025622438679735473,0.0056122683709654165,0.0018887883313481058,-0.010552112784146746
552,0.003809059713428424,0.0016844478106263585,0.002443352163163161,0.002353339795406986,-0.016850113139222654
553,0.004698229284895853,-0.00028131471625104915,-0.000371611574678899,0.004001551193544041,-0.023124998589486648
554,0.005067296110935229,-0.002053934781128838,-0.0025328718271115285,0.005155554220912536,-0.02685462579498646
555,0.004695167923626431,-0.0028112132201302156,-0.004636107048006801,0.004294090548804451,-0.027525877024191518
556,0.0042029535124782315,-0.002321264082683539,-0.006414787420192924,0.0024188781528423184,-0.02543426507509601
557,0.004193707513131387,-0.0014098059083485117,-0.007075908322721453,0.0013858591395031913,-0.02202024457154767
558,0.00441338746468115,-0.0006088660478669393,-0.006543209404323362,0.0007359881847065188,-0.0187485380094954
559,0.004597921493907388,0.0005500926467052182,-0.0053704428032159465,-0.0012127540313330784,-0.015499616179404914
560,0.003997969772564526,0.0013908950092274388,-0.005654860584479415,-0.005702838970684258,-0.013628721812765516
561,0.00248949246180105,0.0006892532706419211,-0.008637597762770458,-0.011549936458809355,-0.016498015315005547
562,0.0018940915472519307,-0.0007530572869871787,-0.012343206121584006,-0.01503586451227041,-0.02410632875645479
563,0.0024490379768814592,-0.0014136815542887186,-0.015926267650179557,-0.015899522502544887,-0.031964791774162796
564,0.0022488697376505163,-0.0017858146840295927,-0.0176069761526765,-0.015075772072947318,-0.03505961949649665
565,0.0007979723409317713,-0.002870175882337256,-0.01871644275435793,-0.015017188426506903,-0.035943585006801705
566,-0.0004426907263180144,-0.004071689308547594,-0.020324712310834266,-0.015681791899777826,-0.035671815192973244
567,-0.0002758098445026777,-0.004792035666502483,-0.021088908139290444,-0.014237521000441079,-0.032634180435449855
568,0.00041924457925453907,-0.00530751081020929,-0.021434354233189946,-0.01112111248518472,-0.029156068404357787
569,0.0005879574141544652,-0.00547862232136967,-0.020351178902738472,-0.00753236446886649,-0.026181612560304598
570,0.0005075058399732874,-0.004476211522171667,-0.01761619080394322,-0.005015049204770638,-0.02299722081394048
571,0.00046632774906777774,-0.0016870476821379018,-0.01436720268977705,-0.004734075105945881,-0.018026573813786813
572,0.0005820283636224055,0.0021104476622560943,-0.011879452140564255,-0.006639518142297566,-0.01230289324741051
573,0.0007433861389359523,0.005006033186203311,-0.009520833942572212,-0.008588998195852229,-0.00780218489388605
574,0.0006711322719167896,0.0065127137972827666,-0.007114475783860099,-0.009469478536425713,-0.004956183884707358
575,0.0002884634178459801,0.007581897560671777,-0.004901054513996076,-0.009763643465196117,-0.0019028630119628947
576,-0.00035982842452923704,0.00850040052376348,-0.001150257317752055,-0.008394319146366722,0.003985930160041351
577,-0.0010512325517144164,0.00874051565556684,0.0026950863312469077,-0.005846621336167186,0.009723735657015885
578,-0.0009070738282652719,0.00814872038420549,0.006783623723750828,0.0004126184648494813,0.014258274553601413
579,0.001152622674178012,0.007470028901101237,0.010980828988741198,0.010243709100366044,0.017275450398602395
580,0.004239851946300807,0.0071300303835169655,0.009087566063471586,0.01469691906735274,0.01345998697620552
581,0.006693331852009039,0.007304605939389373,0.004565255878313978,0.01283312446510109,0.006215789045632321
582,0.008233643345644345,0.007808172691882793,0.0021114484424591606,0.008431180835113811,0.0005252412591557001
583,0.008517668650232426,0.007378712095007476,0.0005603656840852385,0.002412685004088658,-0.0034228169987332887
584,0.007409244308160535,0.005693648379555464,0.0011184604460857401,-0.0019090026805369841,-0.002753137247117105
585,0.006103410487038733,0.0038558396804239236,0.0011335431001248545,-0.004615555119676664,0.00031748154285263225
586,0.005833262134548584,0.0026648025907745057,-0.0007657940165861645,-0.006682157110470355,0.0015425927827183747
587,0.006855248353634206,0.0019525476165494046,-0.002725206350223629,-0.007333503927595907,0.0005156698210193319
588,0.008164406090095411,0.0010599613831246712,-0.0019542801953134903,-0.004925928370337666,0.0008845331475908564
589,0.008026937412822895,-0.0007445760623782997,-0.0013588202148420818,-0.0026985381685172777,0.0017543664909585996
590,0.00622902756887327,-0.0036300302161070778,-0.0025792236941117757,-0.0022679662226369277,0.0010800181579051858
591,0.004926929221501556,-0.006498417989145344,-0.0037640147896342885,-0.0016953400119840215,-1.7125819758313737e-06
592,0.005456272730224888,-0.008302586368442012,-0.006713756368578341,-0.00199752961330453,-0.0018337354903067893
593,0.006579054898367555,-0.008664192879556722,-0.011501946359164638,-0.00308433499811369,-0.003387936607454335
594,0.00725816952938827,-0.007438425817551658,-0.016499054870153854,-0.004741269810522847,-0.0027933255330977375
595,0.00754513805168057,-0.005273825273873436,-0.020911049514090316,-0.008509948464816999,0.00039606705309369795
596,0.006996331219453482,-0.0037665536945243336,-0.022159916406952997,-0.013441716930669001,0.001732745202236014
597,0.005455966926077929,-0.004114946986121342,-0.021570323758589145,-0.01851174285171781,-0.00014263559296102875
598,0.00429468308125692,-0.0052822306778421676,-0.019726700511568558,-0.02169012809858322,-0.0036528496225131705
599,0.0041566119582820025,-0.005846560551419559,-0.01596386680254356,-0.021614581224852897,-0.00723086484240528
600,0.004134790912026026,-0.005901058762416827,-0.013235247134629922,-0.020743131636877597,-0.009029279673041578
601,0.004165657445463381,-0.00531337520991379,-0.012237665905556435,-0.02029623437117169,-0.011266955828673788
602,0.004756154000441191,-0.003988811077205025,-0.012214738834360528,-0.0200922985540167,-0.015596486833990062
603,0.005441837288328052,-0.0030138511717750813,-0.01290743966048234,-0.019749508505608922,-0.021379415704541778
604,0.005526223617292689,-0.0030028132689395065,-0.015058886326491052,-0.019241404518327353,-0.02619612770447455
605,0.004876765151377495,-0.0034199868390485284,-0.017138914213650724,-0.017657036664471635,-0.028673044555131706
606,0.004289409613329664,-0.003553594364031194,-0.018066196386497393,-0.01504607344027757,-0.028344459291049513
607,0.005144312215101858,-0.003115331176621074,-0.017992108132625438,-0.012113062241941384,-0.026660367648088833
608,0.006948720324577469,-0.002466621549205384,-0.016380195453221426,-0.009316173585619618,-0.027043616936743425
609,0.007632156621507783,-0.0018860185874633663,-0.014826391510117548,-0.008555648698696107,-0.02961341623397074
610,0.006629288206527436,-0.0014566859119336754,-0.01352325106563622,-0.009398031434108566,-0.0333307759049921
611,0.004835219858191673,-0.0013561308891137957,-0.011188067858034728,-0.009650283239101798,-0.037727131438599217
612,0.0027357163500528604,-0.0016839647290621605,-0.008548841910084853,-0.008879243797005915,-0.035136090255530286
613,0.0005190361895330132,-0.002708079214874374,-0.007887357630865817,-0.008184270943349508,-0.030942350488907835
614,-0.002041450125455794,-0.0047634622307396075,-0.010645615693232245,-0.0075009171096773785,-0.030173085673392344
615,-0.005384561473197456,-0.0072032106713855034,-0.016255579235187848,-0.006754530333886502,-0.029622108386689303
616,-0.008265157909650057,-0.008011124407715316,-0.021303665509791122,-0.006625605333877547,-0.029859003841048573
617,-0.009529430030041126,-0.0062547659438524665,-0.022956349739978947,-0.007704483409566345,-0.026655728049768092
618,-0.010119384487772234,-0.0034645077052660217,-0.021629912637871975,-0.01003245765687866,-0.018982861899932375
619,-0.010522858686919297,-0.000914768977121616,-0.018702321456331775,-0.012523150084774597,-0.010398227043377978
620,-0.010387422847906315,0.0013387257245579768,-0.01496350895794106,-0.01406018014486452,-0.005574986776378361
621,-0.010193690071058994,0.003017361141192321,-0.012125118780409816,-0.015320631593593951,-0.0022257727314237918
622,-0.010080298308955127,0.004009470473543991,-0.010527740678007023,-0.015279673226227386,0.002026584228935231
623,-0.009930322199966228,0.004241221054083405,-0.009055416986106977,-0.011788035574822142,0.006079243139015748
624,-0.010288663988259708,0.0038181538555505366,-0.007859833191100141,-0.007493165604172902,0.011406697031319392
625,-0.010777423995357218,0.003836576164680315,-0.006068138392192882,-0.00583905960275762,0.016808612199569913
626,-0.010626919331546372,0.004644791880955527,-0.002579314210114777,-0.006640533562174421,0.021463431426449534
627,-0.010108773271164748,0.005645427368325785,0.001980270983562098,-0.008325287570527244,0.02668887732599872
628,-0.00952740559411256,0.00633566428818693,0.006090723208914201,-0.009665291493974243,0.025745867328055828
629,-0.00870454274662811,0.006697552698955813,0.009406260532177977,-0.008978795405328796,0.021160363554356625
630,-0.00731054283192139,0.007534108143286693,0.012126996333546101,-0.00547475767186788,0.01717236647198133
631,-0.005528257242319032,0.008670053244098017,0.014198556495913039,-0.000821938734475993,0.01291170270815852
632,-0.004333732447206975,0.008946366673049527,0.015532624626786699,0.0018756513358641742,0.012012906293374133
633,-0.004045744466401021,0.008548226836446488,0.015934489258060285,0.0011866424653117428,0.013547949468004463
634,-0.003998421057015389,0.008396611898703235,0.015655042338557464,-0.0010866539347656136,0.01443522623264362
635,-0.0037001806892757614,0.008685865363353371,0.015318040300621005,-0.002230892984981055,0.013450522045447395
636,-0.0032073989538698136,0.008794904709618466,0.015708873963464827,-0.0006566511095372414,0.012803966967777728
637,-0.0023392390208562745,0.008659974103097134,0.017751979122285794,0.0038293866191243266,0.011095410665028721
638,-0.0009725375868499804,0.009214315263494845,0.021760578684220058,0.009807486679788377,0.00867679680635769
639,-0.00011178269615730831,0.010142781333029966,0.02642622638155615,0.014908164140391998,0.00710407873052449
640,-0.00019998559944473071,0.01069092150000023,0.03047628008674312,0.01846804697437218,0.0032018915520491444
641,-0.0004958392785857059,0.01098835219260183,0.033661767074279786,0.021264051843274828,-0.0005978270653837917
642,-0.0006499024396525947,0.010911978224613147,0.03534255024892688,0.02282101666786623,-0.0051542505827625795
643,-0.0012674250658069408,0.010011159163396576,0.03508033009876738,0.021892898071114376,-0.011294699843272587
644,-0.0026728877365137962,0.008253871937685087,0.033772234127342135,0.01864532150141599,-0.013205646064387457
645,-0.003898508400834043,0.006502717255569294,0.03285741197229805,0.015028460436052632,-0.01246073596315845
646,-0.004170959609445674,0.005678378193484373,0.03287813084758613,0.012917378911113275,-0.01105481593424852
647,-0.0037550157416410992,0.005288549157338506,0.03354986687629089,0.012859167961693924,-0.008660340028737811
648,-0.0028836711682866684,0.004777187599367682,0.03465029346217354,0.014189260357247668,-0.007732987816831225
649,-0.001514911973546888,0.005330205066165056,0.03618298171715355,0.015872504289803774,-0.004182284022439155
650,0.00016928536790910631,0.00732687549875832,0.03800031167204991,0.017758627179132215,0.00288528267306143
651,0.0019331591287475754,0.009422718586416119,0.03996351446902379,0.020611587231409968,0.008456752382753818
652,0.0029342321584453607,0.010640271448740057,0.04161588989254603,0.024168063890792756,0.008918675056543568
653,0.002016252996434532,0.010654276371351707,0.0419234367536246,0.026815987634837554,0.007167209640035456
654,-0.0006350729376449183,0.009743321880740652,0.0406672844429702,0.027504332394205206,0.005268836347879283
655,-0.003793974364890919,0.008469128776716513,0.03873447418654028,0.026337046031998934,0.003089958375542969
656,-0.006376753037730792,0.007216896806568493,0.037057510454626054,0.02420042445286122,0.0022141283955610406
657,-0.007633790818812912,0.0063827738452791735,0.036401766091149215,0.0224839383445186,0.0017115163856107217
658,-0.00783147325227036,0.005943112685048962,0.03657941625443562,0.021808996486413167,0.00044238093614601604
659,-0.008203768778717225,0.005211516449139219,0.03613961346976667,0.0215038437269438,-0.0016043494111131812
660,-0.008689444799832467,0.004218720111242534,0.03491064807690864,0.02155975561924461,-0.004816978281466585
661,-0.008041058962163667,0.003737709196190428,0.034451930247585326,0.022694725980720667,-0.007571822327191748
662,-0.006018633136501278,0.004243038048547959,0.03539515343808354,0.024880729249521814,-0.0077113879949125995
663,-0.0036975211869167287,0.006085874238370749,0.03706980585290032,0.028139990106606658,-0.004342278210463787
664,-0.002923627406847472,0.008214909892234145,0.038165512154864016,0.03193921774226214,0.00025244108481172866
665,-0.004323666339137005,0.008903287367615066,0.03795440551642977,0.034179646125263974,0.002287659506270034
666,-0.006412859357561512,0.008383459361988192,0.037316260450860284,0.03339921328249059,0.0014827056544356421
667,-0.0075041198676559576,0.007980908043736799,0.03735404082316179,0.0307994731206012,2.315500314121755e-05
668,-0.006964702456196897,0.008427222311524268,0.038166036713454234,0.028897889700941412,0.00015029251543734532
669,-0.005589298397906706,0.009409579811614175,0.03861819702202335,0.028177229185508,0.0022399706302843343
670,-0.004570035263011466,0.009925227867109762,0.03769339980948181,0.027226468939302143,0.004524963848298583
671,-0.004624835355760683,0.009440520009568165,0.035331900136254424,0.02502039579305815,0.005259014128990588
672,-0.005841665517910684,0.008469782318791256,0.03204849687620671,0.021406352470508976,0.004883506022321759
673,-0.007434203254204365,0.0072973246458351146,0.029235704288184713,0.017493355332830397,0.004545895651991721
674,-0.009373859869349663,0.005255352692873812,0.027444485836293258,0.01413035054154812,0.003836178585517501
675,-0.011740052586984608,0.002712257890550667,0.02619595566300211,0.011392943558173073,0.0024427465072565154
676,-0.013359060774313725,0.0007814232128750267,0.02577170094908806,0.010151258343809907,0.00048559059950757167
677,-0.013745935489928293,-0.0008239533364888849,0.02622556670217818,0.011024248369396425,-0.0017854265844686446
678,-0.013312929475931158,-0.0024861015617668207,0.027061779495722155,0.013280687545930535,-0.0038725550940601505
679,-0.012426710933680633,-0.003688103559980196,0.027819702558514448,0.01550548682020373,-0.005167850911430308
680,-0.011226780767380885,-0.0038243375670498018,0.02845468709976485,0.01723423234558737,-0.005162943284806957
681,-0.009768451088317223,-0.0025794641603247735,0.029043819075734698,0.01870616520477576,-0.0038985666292711634
682,-0.008754407479056205,-0.0007821698013808936,0.029036670175224776,0.01948495227860182,-0.001971391061351722
683,-0.008994262503335744,-0.00030183943439215135,0.028417405850271693,0.019492562334488938,-0.001182371885989018
684,-0.009719490488690547,-0.0013979341789744715,0.028203273858402808,0.019668929253874735,-0.0022120659487569203
685,-0.009530292012137493,-0.0025762299623476254,0.029002916914003217,0.020854458072208516,-0.0029674938362687143
686,-0.008754803482331031,-0.0037232285372559406,0.030387342517168844,0.02286862657500314,-0.0026062527713618827
687,-0.008151341506963231,-0.00527188312925031,0.03209489044943079,0.0253117534490892,-0.002306742861678358
688,-0.007605568292504315,-0.0065660342369626284,0.033561749335584264,0.027506216924378768,-0.002545732850676147
689,-0.006961548030388768,-0.007087122523859033,0.0337217446389081,0.028196926530127602,-0.0029236000331384223
690,-0.006128538396972896,-0.006984911602502262,0.033213617863545555,0.027513165271689587,-0.002578408526164594
691,-0.00537092710345463,-0.006794154329194717,0.03332632236229976,0.02670849358466139,-0.0009076830903455328
692,-0.00521835973304417,-0.007024787122800787,0.03375414849875436,0.02670688028763169,0.0020962525518127347
693,-0.005039221777516971,-0.007293885637178212,0.0340194120094298,0.028485789082301146,0.005361181929248475
694,-0.003638669500507602,-0.006630092225112303,0.0341667140021791,0.03193497312105761,0.008736057874175675
695,-0.0016896106715375751,-0.005537675892823884,0.033406108270354305,0.03486844978637172,0.011689733248578981
696,-0.0006230193119333604,-0.0052093505205938395,0.031265370832315766,0.03558794744865778,0.012971942716892396
697,-0.0002521701949045808,-0.005465189553295556,0.028889977231316973,0.03467518360477951,0.013536884648579994
698,0.0002908802169575763,-0.005603925148809783,0.027577565878881924,0.033453781918543736,0.014898202923373806
699,0.0007813480173127397,-0.00548700998354317,0.027206394537491473,0.03235134403065524,0.017766885348248742
700,0.0006718295535578117,-0.005073566447424516,0.02709466793234555,0.031393624215810614,0.022102203869710353
701,0.000479928669215317,-0.004235197806909518,0.027173043067979047,0.030919643556854275,0.027304078989761994
702,0.0003161356575631876,-0.003643840600284884,0.02713343019492394,0.03082531445108191,0.031320751638718426
703,-0.0010180351315666697,-0.004165126025791049,0.02617337828817027,0.030219998645010095,0.03313290067639818
704,-0.003979051229470158,-0.005827775586930085,0.023934028636135626,0.028461795208646137,0.036730574079858094
705,-0.00722504093047038,-0.007741796046160317,0.021216149161306787,0.02620992014169068,0.03687476033691628
706,-0.009413136699718886,-0.00873533526405654,0.018841853340801285,0.024412932427726117,0.036880095825405884
707,-0.010320090439883856,-0.008561525614921121,0.016817140043861954,0.023148455115989647,0.03700501062734026
708,-0.009747317776632364,-0.007450399550761487,0.015759707894084107,0.022544804688807228,0.03487413591935381
709,-0.008030737097916522,-0.005680472835394096,0.016227698933663093,0.022620207530528867,0.03363035982571367
710,-0.006697598303890044,-0.004082404025954933,0.01742150573277595,0.022786460872874396,0.03373956802435075
711,-0.006194505553643861,-0.0029893145363834154,0.018664093718695964,0.023292739828921657,0.031901244928947504
712,-0.005689923328333464,-0.0019515976419614822,0.019958174217249804,0.0245398943820874,0.029821411428023144
713,-0.004894298322971504,-0.0010196639862470342,0.02099107882927171,0.025451208573647993,0.02781259721231853
714,-0.0037904259614201527,-0.0003839492711668418,0.02155051300183929,0.025330955281658418,0.02580376818565753
715,-0.0027869197838311017,-0.00010597847754299711,0.021883696362887187,0.025015160744368867,0.025027065534818583
716,-0.001972763337416612,0.00021000313486882024,0.022767468957478408,0.025726237979455162,0.027448056163807927
717,-0.0004378820111363197,0.001078324714102852,0.02481178116947136,0.027963338286675517,0.030559186967932108
718,0.0018650470950045122,0.00167017164153779,0.027046881099352278,0.030944455496677473,0.03108678852510392
719,0.003996482583462381,0.001305933955704798,0.02805770643658994,0.033353395103272,0.029496323437596762
720,0.005001446470345004,0.0002713409424119884,0.027463294093026225,0.034404231261440536,0.02632986455414878
721,0.004593117458104833,-0.0012464676303283958,0.02582042556767566,0.0348279983504059,0.02253595669127631
722,0.003851931951460182,-0.0024234427806358915,0.02419189932716096,0.0363106340733572,0.018897735618973316
723,0.004093175201907219,-0.0022147881547627864,0.02346781271411535,0.03875730507503431,0.01576959579880955
724,0.005637592202721543,-0.0006599208370269577,0.023758086307297473,0.040155219400084236,0.015158631957971938
725,0.007673595254409076,0.0012700748638457722,0.023994610366847306,0.03876166084763448,0.015811231656676503
726,0.0088516880485273,0.0019754128179776346,0.022774441940197034,0.03452950110530033,0.015236049118101056
727,0.008587392003162162,0.0008756492877157089,0.02011568318998902,0.029721917350940284,0.01296260106770006
728,0.007252405809295097,-0.0011294746229561752,0.01730507976665302,0.026366059475180937,0.009562828573322552
729,0.005351460629833979,-0.0035263645837068326,0.01519641995751015,0.023344652614590743,0.006384152147530021
730,0.0036937584248006717,-0.005547508443787083,0.014034615301787326,0.019128110154575117,0.004556800149397472
731,0.003276313088641737,-0.005827924023786993,0.013769526494763748,0.014775046447741932,0.004975031746455923
732,0.004030222161062748,-0.00411036395105703,0.013695090790138718,0.0118917714039181,0.006127159119482163
733,0.004752217877412801,-0.001622584539638355,0.013258320941321598,0.01092364139058047,0.0066257938969871664
734,0.004642227653979284,-5.291369580618681e-05,0.012650076637084782,0.011788410737009983,0.006010208462559189
735,0.0041355983527182885,0.00013435637932865743,0.011961602897643949,0.013643918905386588,0.004014768047288644
736,0.0037192875000392374,-0.00022913908868135642,0.01108365293771827,0.01491305738581468,0.0019817700900432336
737,0.0033841059145344778,-0.0005725621070305854,0.010197839054834663,0.014892890213783618,0.0009118147020170561
738,0.0033645715361156027,-0.0006727109284099854,0.009599409393102755,0.013997669557035778,0.000263738470437511
739,0.0038291864622832044,-0.0003166239431638135,0.009233892609790958,0.012615912926293618,-7.43355144153073e-05
740,0.004257957237389601,-0.00017152084234117317,0.008457651115337297,0.010863230163589175,-2.124699649632604e-05
741,0.004572016492477756,-0.0008368707492027863,0.007036005552877509,0.009330927977999125,-0.0007573362163711332
742,0.005552328811013301,-0.00165803929779718,0.005651837506148509,0.009019722129800702,-0.002605376394286305
743,0.0077238987635995324,-0.0018004675924263684,0.005283708162885912,0.011015391305117762,-0.004043099866475232
744,0.01026276514646581,-0.001655017221928919,0.006091415369713708,0.01523973198215089,-0.003935943060937388
745,0.012112986436614745,-0.002021443175215093,0.007247722268824092,0.019517224199666585,-0.002607985426049333
746,0.013956716328334434,-0.0024241438806625426,0.008435950074498494,0.022261021741456374,-0.0016567191765644717
747,0.015746623127893416,-0.002626421630625755,0.009455209059731214,0.023348883369464814,-0.0029798434580977835
748,0.015711903139485787,-0.003212325894471125,0.009753351460527278,0.022897861514696975,-0.00620028320731792
749,0.013275934546239255,-0.00436256576754355,0.009275004009666722,0.02158609285325346,-0.009884408144747236
750,0.009790978231550273,-0.00588368900611873,0.008346843896359256,0.020573505502427335,-0.013863469055658073
751,0.007073427161336773,-0.007267041964321646,0.007529820225125736,0.0205944798651768,-0.017312037930999807
752,0.00561378576917281,-0.008318662632739922,0.007042341241630113,0.020777795873055095,-0.018858910830500803
753,0.004869443314809102,-0.009025271702027786,0.006646086734271541,0.019630225109242897,-0.018635174891658012
754,0.0046931695110680955,-0.008978083775272358,0.006684294869002787,0.017490498737719937,-0.017473629797671652
755,0.004940586273029148,-0.00836767594470125,0.00738741650637958,0.015391726781026911,-0.015810708278963054
756,0.004816280084794033,-0.008161395894759485,0.007447424252549028,0.012921546669722114,-0.014768912401330495
757,0.0037021375268184763,-0.009153970738397627,0.0056234461054950145,0.010001090921352426,-0.015782189521046465
758,0.0021491414192668897,-0.010870844883309975,0.0031158221817724724,0.008161863918333161,-0.017338066727996003
759,0.001129638236719016,-0.01172260821613315,0.001981213486721564,0.008157953761728533,-0.01663591259421623
760,0.0008450002748285215,-0.011133490074731687,0.002539762613962,0.009121412103602792,-0.01452381015022829
761,0.000553465550136616,-0.009847946914630465,0.003560438113781028,0.009778825925685974,-0.013759235137598486
762,-0.0004325309736777946,-0.008480461744010815,0.003978743498225187,0.009154868415210592,-0.014784605676173495
763,-0.0013504292362132718,-0.007113508932207332,0.0040245079010208604,0.007564470431959209,-0.01655935658050287
764,-0.0007824150338791036,-0.005929324794588283,0.004456394800892704,0.006622252944041012,-0.019112462166418643
765,0.0014827712749713817,-0.004312098195270884,0.005378451799887673,0.0073123609927863405,-0.02015307341762727
766,0.005175504439969678,-0.00033463008433154504,0.007199339347998792,0.009551624977309298,-0.015303965275715344
767,0.010334245576607098,0.006143310313781558,0.010670623002566992,0.013301999393728357,-0.005908368838109854
768,0.016080021833437833,0.012897724527184275,0.014772592953273224,0.0179115515317065,0.0031373366522494664
769,0.02076253763270518,0.01781979207426814,0.017579857575235544,0.021914581024450448,0.009717127801309036
770,0.023126173304308918,0.02010719280606808,0.01800156436371007,0.023995419505155026,0.013747876547112042
771,0.023031428530313328,0.020230212235944053,0.015657809703739218,0.023295286495227985,0.014997651597605107
772,0.0215892041590651,0.018945647884234113,0.01140938632709439,0.020250800097503695,0.012755346654497039
773,0.01890831101418491,0.015672434627720985,0.006242975289970927,0.015844575249199962,0.006372902010249716
774,0.012987575079084981,0.008559324842341256,-0.0006344461847362379,0.009369822301312484,-0.004429688233874098
775,0.003821919519183197,-0.0017826282285549131,-0.009503766999519806,0.0004813987259139538,-0.01766846091033109
776,-0.00481925786520556,-0.011484768027375128,-0.0179014457891459,-0.008169252076285521,-0.02891305771004221
777,-0.009889807594263729,-0.017359886794785014,-0.0231233665394029,-0.013887775418862115,-0.03481298625233129
778,-0.0113771217696034,-0.018713258684594492,-0.024580160828013106,-0.01654953802763886,-0.03483757651700578
779,-0.010650967601651696,-0.016835145794796426,-0.023187041594415404,-0.01724458349555155,-0.030569814343189908
780,-0.008859543881011305,-0.013404089851298802,-0.020276408130162786,-0.016478290058702362,-0.023967888604484087
781,-0.006282001542997582,-0.009308758417475173,-0.016910383334562632,-0.014209476589348806,-0.01667747706004263
782,-0.003173263255257678,-0.005836646378596986,-0.013643756728153583,-0.01082220324206321,-0.011803143014142958
783,-0.0002985081627370462,-0.003921932380069998,-0.01103317203079558,-0.007368474115120901,-0.011494363144887132
784,0.0008282200091152415,-0.003093540666252678,-0.010426065880347262,-0.006030626800005251,-0.013977484292011856
785,-0.0006868694028603676,-0.0025044252858124096,-0.012088925523386636,-0.00797045220692186,-0.015358093111127043
786,-0.003158116834511478,-0.0013967512823106272,-0.013948058736766755,-0.01116631895550993,-0.013149757080449935
787,-0.004771834711166136,-9.387750993037485e-06,-0.014800589172709901,-0.013447560156963327,-0.009119386322555732
788,-0.005503124487767877,0.001001777890616353,-0.015170418172078917,-0.01458867981248867,-0.0063135092078118295
789,-0.005904320741324899,0.0016097363560957226,-0.015349040578419458,-0.015388842891984217,-0.005324132505217126
790,-0.006181938682498887,0.002048850737711341,-0.015325331396413663,-0.016642952014414045,-0.004841757343922749
791,-0.005903948701933579,0.0028722925083259888,-0.01506371601107416,-0.01818311162568841,-0.0030773381125045103
792,-0.004662953480455455,0.0043301067216462395,-0.01405138536495782,-0.018896625805504354,0.00027351027542459104
793,-0.00235668543916569,0.005933744566545663,-0.011443822559599633,-0.017518558433005895,0.0035401803663299564
794,0.00040694102037861694,0.006938680327683865,-0.008206196575150485,-0.014363509817163791,0.005332809955764746
795,0.002374678496625737,0.006898102592210132,-0.0068174894688248075,-0.011524626359104935,0.00586675783879101
796,0.0033814596131922663,0.0062704244634784545,-0.007507200663278916,-0.010015116386169122,0.00600153945654633
797,0.003955713018289154,0.005677152415354877,-0.008823680958265731,-0.009506886576435043,0.005921317904319506
798,0.004292311879853574,0.005275558116148392,-0.00965972746385289,-0.009575978215197595,0.006056389884852085
799,0.00420050922840603,0.00508735171123618,-0.00975987686782436,-0.010046567018211452,0.006815765752039161
800,0.003393030263168965,0.005013209058233385,-0.009842919056056675,-0.011070892958124929,0.007113478204303955
801,0.0017909338120200278,0.004635179069928574,-0.010375288469370574,-0.012576163617654337,0.006044901459504387
802,-0.0004428963773270326,0.0034548021746837014,-0.01124258849237358,-0.014218524500374478,0.003484882941876295
803,-0.0025595660129735984,0.0019457665856030734,-0.011648669612217158,-0.015217678490892434,0.00019145723458698828
804,-0.0035391833675331003,0.0015365749322342193,-0.010470715706143162,-0.01475988123772634,-0.0016583500651959138
805,-0.0029330880645449756,0.0030910310605408186,-0.0077920454665995,-0.013159834049299815,-0.0002596316691491517
806,-0.0018283344482906165,0.005643578133149574,-0.00515373899523195,-0.011901317495452816,0.00355481489261582
807,-0.0014636755591762739,0.007357002138269824,-0.003546412032186105,-0.011509299998571075,0.006721222856455687
808,-0.0017706271265348918,0.0073575370737154824,-0.0027113915410612913,-0.010910008394951088,0.007135255381030696
809,-0.0022304448666355873,0.0058111828738004415,-0.0026099403983468527,-0.00978371232004695,0.0044776900732442825
810,-0.0024704536522296727,0.003575338495981933,-0.004365116949661414,-0.009526306382304056,-0.0010787196042753842
811,-0.002086179598140795,0.0022988009943218494,-0.008691170266164174,-0.011077599095697943,-0.008375896912780997
812,-0.0011087113032121135,0.0028365631115004728,-0.014092667291347116,-0.013436101102408537,-0.015148992475764832
813,-0.0003663065035229776,0.004484362339789025,-0.018308874035013176,-0.015030424669645994,-0.019137793431681933
814,-0.00034305762497653896,0.006248437504590492,-0.01993449486212919,-0.014990970203670522,-0.0189972295434716
815,-0.0008436890270921663,0.0070757964666260794,-0.018844204885085748,-0.013352228136737565,-0.015371015125307403
816,-0.0012648101742772711,0.006974667377689602,-0.015898319548083885,-0.010727687741167054,-0.010355078475611072
817,-0.0010414738672081263,0.007095556981270285,-0.012395119092658913,-0.008008442514972512,-0.006023801810637553
818,0.00026596605283390047,0.007995260327672117,-0.009114248780228436,-0.005265522216741961,-0.0037075685485961113
819,0.0026040754193582217,0.009189549335458465,-0.005634522717430886,-0.0018098802811570465,-0.002627597026951156
820,0.00443748529619319,0.009778078131893735,-0.0015462199299741955,0.0015614181840276822,-0.0008105955373193123
821,0.004238607511863967,0.00953878021044702,0.0019205530659769732,0.002907574793694224,0.0012633794646657913
822,0.0025889195771552805,0.00919979832451114,0.0027105273750426045,0.0016915492301139657,0.0017395270992905012
823,0.001456463723957496,0.009529790482678243,0.0007582817510736003,-0.0004081646078084148,0.0007032246354714942
824,0.0019495988352386641,0.010312370568173957,-0.002016741838893914,-0.0011193567715058865,-0.0010693938881338413
825,0.003281135048908158,0.010141688621751615,-0.004029138290773444,0.000209670005884479,-0.0035222010155555464
826,0.003777913971519813,0.007887579134266366,-0.004803409296754862,0.0023092104777960973,-0.006014932406731323
827,0.0033198326052555544,0.004725869637971555,-0.004304219477126164,0.003956805171968741,-0.007322588686437588
828,0.0027678240914052114,0.0023794495019418375,-0.003318953889129734,0.004454112941999804,-0.007654885037913664
829,0.0020830587559831906,0.0008760076898126568,-0.0029703764789415893,0.0034318566330783086,-0.008082844848423818
830,0.002030065809257222,0.00011573596597985035,-0.0026692924875016035,0.002233423841653532,-0.008899002929812468
831,0.0030365933488802673,-0.0002323007641522768,-0.0017093629198689138,0.0022225718441411467,-0.010697233521933042
832,0.0032266886100557985,-0.0015754973168665292,-0.0011108959976837466,0.0027954543720198673,-0.014563284912231035
833,0.002225051962790724,-0.0037471201776683597,-0.0012654923185030922,0.003578403192757675,-0.019026700803692488
834,0.0016928780119580538,-0.0047579782528856,-0.0015266876034496053,0.004605467998100295,-0.020397346732843363
835,0.0020760608717865017,-0.0038653833741500872,-0.0015715295348577361,0.005418343430393483,-0.017014538573330462
836,0.0035287020129007403,-0.0017402875429865104,-0.00095679230226265,0.006633835270372818,-0.010660823722308171
837,0.006226949671972942,0.0004441992134670992,0.00041856120601511254,0.008892114131677604,-0.0049369871109796425
838,0.00885076750094646,0.0015589412897919859,0.0016685586632612691,0.010923235782580143,-0.0018386762339028142
839,0.009986145477064298,0.0015269868091740129,0.0018980613756297616,0.011246721028991477,-0.0010805412201089714
840,0.009838087102451576,0.0010535036346818825,0.0012882496165993488,0.010166552980803089,-0.002379183464111639
841,0.009412578961232277,0.0008996867626293179,0.0006143772813422543,0.008951229484733354,-0.004655629054586234
842,0.009274477420022326,0.0013216394983166762,0.0002619776697149398,0.00824213098509672,-0.006374868951940809
843,0.009158234418354842,0.0020338142721017752,6.314908763733008e-05,0.007653200831784062,-0.007133997904894271
844,0.008062174321751416,0.00254772220350359,-0.0005485457168310675,0.006193601819840724,-0.007174252110487338
845,0.005970446032417932,0.0024269795137104246,-0.0016873676014793966,0.0035756637541067473,-0.007644467322131759
846,0.004507784668884708,0.00204048310941029,-0.002543509191754508,0.0008035389245366508,-0.009005805691516324
847,0.004484303115621524,0.002430788276885605,-0.0027180265793041555,-0.001378922397988684,-0.009644703986425914
848,0.005208767352979602,0.0038001217975075683,-0.00265173478510972,-0.003019443989470436,-0.008793601757688634
849,0.005826711419348805,0.005154926221814538,-0.0025226680458718515,-0.004160460791308454,-0.007720474019011701
850,0.005426397705938751,0.005607256027629534,-0.002705349897217193,-0.0053064048862437145,-0.007367604410132304
851,0.0035302442146150637,0.005129161027422192,-0.0036973567559267155,-0.007135987820813201,-0.007840472563929527
852,0.0012265691477369737,0.004318418104752285,-0.004656341235900016,-0.00896753536546531,-0.008664882946051413
853,0.00021096125734497068,0.0036502117576935177,-0.0045997959954821345,-0.009476638260625857,-0.008844794388836412
854,0.0006544868958330744,0.0029363394107438188,-0.003941855541114107,-0.008564128601919897,-0.008593600318697202
855,0.0009651214940991524,0.0016527602420622139,-0.003518128147043062,-0.007204400218196894,-0.009481763863214709
856,-0.0001976919087851009,-0.0003627187704413771,-0.003786246808010125,-0.006199690451298875,-0.01230591360608736
857,-0.002409499708711256,-0.002282707277438432,-0.004865126192574207,-0.005995008312384643,-0.016028545864317467
858,-0.0041003674537110485,-0.00276395483915695,-0.006235142960409324,-0.006714972826209977,-0.019072736282770272
859,-0.004317180777241074,-0.0016524722905538244,-0.0072850993972717335,-0.00791934934985102,-0.020860045829974017
860,-0.003307763524412915,0.00041394718768068665,-0.00766153854264115,-0.008995118146567659,-0.020791354005418226
861,-0.0016807495851943017,0.0030013037525231504,-0.00679926871863482,-0.009332699450583909,-0.018483981007405125
862,-0.00028790781308205444,0.005440601527427401,-0.004779267185356868,-0.008789658143721327,-0.014577350667713568
863,0.0003322340683986983,0.007420063123560385,-0.002406192573146473,-0.007860480214403458,-0.008803969932203653
864,0.0006971964025116825,0.008664977027615674,-0.0005744387542666258,-0.0068237743228474175,-0.002900818655899798
865,0.0013013918270549218,0.008642339590535012,-0.000330457956906418,-0.00601312897277604,-0.0011061030841370632
866,0.0013577487544391236,0.00729720917947165,-0.0022912827022488038,-0.0064559196872625855,-0.00401584142680598
867,0.00013176413763789076,0.005321297163812635,-0.005688648295807635,-0.008364079955259571,-0.008736923919166193
868,-0.0013359858583609626,0.004234842170964163,-0.008283299418519812,-0.01017937404112246,-0.011877432205045352
869,-0.001892199492109511,0.004722516914869495,-0.00887564020695583,-0.011071607446700972,-0.011832254867483497
870,-0.0019992996264507554,0.005511544217175584,-0.008650031214912696,-0.012152327679912067,-0.010264014177858336
871,-0.002055553882253032,0.005526846595829449,-0.008420552838687017,-0.013775337310403549,-0.009773842296176798
872,-0.001197935487732188,0.005309227727530634,-0.007730204508289422,-0.01452680082764376,-0.01109246767209764
873,0.0005319676801154345,0.005061457046143351,-0.006955276470303023,-0.013655931829787223,-0.01348875272033232
874,0.0026730087099931946,0.004686915467938924,-0.006363573114098891,-0.011110484326036375,-0.01655470390956761
875,0.005517374871495497,0.004667747698382239,-0.00554787501091718,-0.007259968087261964,-0.020291185093792068
876,0.007529647008324563,0.004411534709433884,-0.0059405010144735326,-0.004976169839064186,-0.024589688643064794
877,0.006154434558978026,0.0029864315296894753,-0.009150538902778532,-0.00762168567149261,-0.028232758089513265
878,0.001255455992755357,0.0007375697083280986,-0.014297671872023524,-0.015049105704952366,-0.030017800166405494
879,-0.004564025164512701,-0.001421290809677858,-0.019239712443683516,-0.023620479193644583,-0.03045710798676786
880,-0.008565922200976624,-0.002968557521488,-0.022493307656703675,-0.029402244669835716,-0.030977819550946733
881,-0.0096152130732279,-0.003933298755015646,-0.023501447503878333,-0.0307505116741598,-0.032722933053449046
882,-0.008089223650120787,-0.004371024077496619,-0.022404177967245923,-0.028855938008755216,-0.03443586724873322
883,-0.005625363451761799,-0.004108538697023059,-0.020506456498023976,-0.026406031072401217,-0.0335890791146935
884,-0.0036668051458794166,-0.0032840304618136306,-0.01912102655512216,-0.02508080841477947,-0.030220431121309205
885,-0.0024688227904972634,-0.002338085391069474,-0.018253684424343875,-0.02473452467980935,-0.02621614361805043
886,-0.0018332537708006954,-0.0017134818963742357,-0.01751375133981866,-0.024292436520709938,-0.023501823656599422
887,-0.001471474554607126,-0.0013812230280726644,-0.01691678413296214,-0.023344297383702306,-0.022641502508207855
888,-0.0008062708365677754,-0.0007760884871726246,-0.01628908571222377,-0.02234632784271368,-0.02187479712246269
889,0.00028582427174939404,-8.144720213965306e-05,-0.015461427605780783,-0.021506057394986684,-0.020248485999016255
890,0.0008544280814877538,-0.0003366094848119098,-0.014885937542453601,-0.020962302544488953,-0.01951601607360357
891,0.0001651486487300822,-0.0019375485592486427,-0.014951584806522844,-0.020957848904265504,-0.020693613387417997
892,-0.0010114119294366032,-0.0038855062486207285,-0.015202152393687695,-0.021318562476306036,-0.02194350979885086
893,-0.001852486272143962,-0.00513775576313561,-0.015396087685479103,-0.02184958358385345,-0.022406655742251008
894,-0.0027029780110132454,-0.005705914137288472,-0.016240466591002273,-0.022769101532236904,-0.023094103954489915
895,-0.003528600127847185,-0.00568839120680818,-0.017594112806542026,-0.02372941164419831,-0.02341336252539174
896,-0.004040902376130615,-0.0052329783805493465,-0.018680798038535104,-0.024374170255588492,-0.02274872636149623
897,-0.004632838896454921,-0.004842134317517812,-0.019551718328126067,-0.0253817274518459,-0.022249640035949512
898,-0.005473231024259564,-0.004328247751473208,-0.020468952915370077,-0.027101765809468745,-0.022005709561544465
899,-0.006346402593526879,-0.003319755430587426,-0.021193224120954327,-0.028736075527571448,-0.02162214052173673
900,-0.007158178769056378,-0.0022702426996021657,-0.021257590695658277,-0.029666864421595364,-0.022124348604272467
901,-0.008022128975898156,-0.0015069074997604679,-0.020628217458270846,-0.03031841383984136,-0.02341095626156454
902,-0.009014081327889058,-0.0013044119203711529,-0.019903819884102725,-0.031066166510896196,-0.025282386329459446
903,-0.00968799891779067,-0.0018411300609411233,-0.019445037681710672,-0.03140586759356285,-0.028254640506226055
904,-0.009200750732171865,-0.0025047553162270524,-0.018625562032442446,-0.03039365556733162,-0.030793226591617016
905,-0.007782269062106281,-0.0033641071591660006,-0.01713165654142481,-0.0279126721054938,-0.03142582648362729
906,-0.006936661395156453,-0.004899705573334583,-0.015729576348765626,-0.025287518903312628,-0.02999859071614458
907,-0.007282925521695966,-0.006303077776867722,-0.014883079368671167,-0.02372217267111801,-0.026349331604800328
908,-0.008349558215186079,-0.00738759652065564,-0.01459146929020521,-0.023298826400863108,-0.02253943406087142
909,-0.009651503129592108,-0.009169841907097792,-0.015269397383557787,-0.023464551973235763,-0.02142854833633711
910,-0.010708528820322373,-0.010973761877449991,-0.017353646929647856,-0.023698358084824622,-0.022024459145034057
911,-0.011301423942715638,-0.011586862621773823,-0.020236809846855604,-0.02384028238882323,-0.02240248762525002
912,-0.011574728418190152,-0.01142454543135891,-0.022581865101454105,-0.02406686604208378,-0.022358602101197035
913,-0.011807126097762565,-0.011061924156984456,-0.023840344396762345,-0.02481825908293227,-0.021848439480665605
914,-0.011392698471431833,-0.010334606254463686,-0.023495116625026187,-0.025158321560479435,-0.02113721837630661
915,-0.009673474895562303,-0.009120558574819809,-0.021478357984783366,-0.02382484619541415,-0.020607476862414174
916,-0.007638447625122618,-0.007973259565746689,-0.019246704285068778,-0.021454763677960904,-0.020600755076902642
917,-0.005925274874588066,-0.007338933823202611,-0.017316241252535183,-0.018468893029805387,-0.020988844099353057
918,-0.004259140980306266,-0.0070772469280716835,-0.015244489024019654,-0.014854602575858836,-0.020738396361743034
919,-0.0027792748245554495,-0.007192798792242803,-0.01308668890117494,-0.011086811597810055,-0.019536396454604085
920,-0.0014493137972240787,-0.0075920736120296236,-0.010974445074479932,-0.007372261176078274,-0.018519822550974275
921,0.0001666379562075966,-0.007269302818836008,-0.008515720050984858,-0.0038934201172269056,-0.01746728414989848
922,0.002247759427364495,-0.005556132335909229,-0.0050726872903060355,-0.0007622224320917399,-0.014852513508880786
923,0.003786756596987773,-0.00394967561286596,-0.0017207142200570754,0.0012895329994120795,-0.011528681463406019
924,0.004292415329330486,-0.0037561995250483173,-5.307490034325164e-05,0.0017939777535832294,-0.009451759057157753
925,0.004790262542532633,-0.004239931697674881,-0.00014558923685573092,0.0016523427015716395,-0.009580753929046067
926,0.005472197904709154,-0.004572887692284732,-0.0012997848642309208,0.0016293232662439089,-0.011836542119161856
927,0.006425041407305871,-0.003862151307272831,-0.0016462207809179244,0.0027361370580488713,-0.013983912164538839
928,0.007712643420156775,-0.0016070980823514776,0.00012182587942723156,0.005348708550139159,-0.013474764222063134
929,0.008485249272114016,0.0007338833425029423,0.002654642395653592,0.008020478203552707,-0.010614036841785059
930,0.00861005136437254,0.0017388278417512992,0.004078924642562357,0.009497813859661692,-0.007039380594889874
931,0.007992045466262879,0.001299916455752739,0.003631838431003931,0.009224741013807151,-0.0042596130572867515
932,0.006466549571151589,-5.272084159116034e-05,0.001979190967915344,0.0075543660825768124,-0.0032226540418843395
933,0.0046388237940158256,-0.0012839796125467303,0.000470303882340844,0.005761131216228566,-0.002706647213515418
934,0.0025699118203168893,-0.0026654429455843375,-0.0008011884984932066,0.004332028765387645,-0.0028887043648541436
935,0.00044932193056832,-0.0047924326433291175,-0.0014056529862204114,0.0035228988856448053,-0.004791388734375094
936,-0.0008287788564717495,-0.006363270310234652,-6.949370645425666e-05,0.004155436774791381,-0.006069230991231799
937,-0.0003755219938779203,-0.006373324792101004,0.0028093791583759064,0.007062930948030726,-0.005701160763570175
938,0.0013857811640858634,-0.005566016937952307,0.0050886417161839295,0.011151096905059367,-0.005293656014784014
939,0.0022752185160574263,-0.004883195227436033,0.0047185901472471805,0.0132145227681717,-0.005306992295218817
940,0.0017828693123967778,-0.004358821875062783,0.0022745073710156542,0.012497924506920244,-0.005915587349742382
941,0.0015623741535277166,-0.003568044468165363,0.0001949846073468183,0.011001812996360596,-0.00646921050824354
942,0.0024001163359853098,-0.00197675997871172,-0.0002936317241818793,0.009939146901105714,-0.004683560911816749
943,0.003840061370906753,0.0004619699855292778,0.0006460136011117623,0.00955560977450683,6.319889873434954e-05
944,0.00523389024240809,0.002733376186006592,0.0022757837096662008,0.009665840921409553,0.005640735976945556
945,0.005530808284669072,0.0029839029287242083,0.002932438589343747,0.008964811299873844,0.008461053695435011
946,0.004079563396222472,0.0009721479945555082,0.0018485383644642475,0.006693720261602201,0.007306875739080729
947,0.0018258982314909205,-0.0005770009580581292,0.00039003502797241687,0.0038852660394798613,0.0061755215539921705
948,-0.0002849555602509154,5.240364367770659e-05,-0.000819878908084208,0.0008141259895225802,0.00805049106302662
949,-0.0018650541003367674,0.0014725230174840757,-0.0019225782583623466,-0.0025205819895468343,0.010154275095393626
950,-0.002122498280088195,0.0025162883581289573,-0.0018601345607565654,-0.004577680955235301,0.010139748758149969
951,-0.0010283165106535102,0.003569280944347149,-0.0004708496076822474,-0.00484792145468747,0.009666306710047153
952,0.0007243256926350934,0.004601035774969812,0.0011592243023174425,-0.004131657208604341,0.009770921755791865
953,0.0019151487321963897,0.004484416363394438,0.0023386568273478805,-0.003254977822238877,0.009415715636967276
954,0.0010756260693522456,0.002134065956055416,0.0022377200447638275,-0.003294241340561682,0.007737937525758811
955,-0.0006355049975855004,-0.00216878732721631,0.0013195611684100228,-0.0035077446414306522,0.005153851370422936
956,-0.0010740316201289888,-0.00595065016619089,0.0013034693272370832,-0.0022341982586498604,0.0037642076782458374
957,-0.0004390624575413477,-0.00647727548767434,0.0024980780799775835,-0.00011956165827535214,0.004613571668356405
958,2.212968241913849e-05,-0.0047294520517242675,0.003788159264642546,0.001141886957133391,0.005351615835678486
959,1.908562509980756e-05,-0.003228946162517419,0.0042552397659562724,0.0013467662622968983,0.004996972766834387
960,-0.00019625136890914882,-0.0024496528485969307,0.003177291171172616,0.0009634975148601308,0.004203489992554962
961,-0.0008109049256946075,-0.002773614960190974,0.00104450845785137,0.00013697490016874818,0.003110910720575214
962,-0.0019346025802809749,-0.003715655552054621,-0.0016541743419115332,-0.0011574716650481424,0.00091474852545465
963,-0.0031763077113011145,-0.004448969676954737,-0.0035065234444037544,-0.0021728584920781484,-0.001311756174090617
964,-0.003649998826733942,-0.003692889189625993,-0.0034999770126842534,-0.0021243666935788553,-0.0012264552204144749
965,-0.0027775757427150197,-0.0012504146792846763,-0.0018455320135338682,-0.0008761608319633318,0.0016455597100031164
966,-0.0011341394306987127,0.001040761306082719,0.0005691157873853518,0.0013120354779348566,0.004294708110258787
967,3.4808330408344064e-06,0.001684013720650011,0.003031512256162026,0.0036137180628126875,0.004838915504119513
968,-1.5450266931337063e-05,0.0017736604411861838,0.004584139247956556,0.0045370828433514135,0.004892270697937116
969,-0.0010022788910966417,0.002862089028753573,0.004581463723084451,0.0033001574141053275,0.006254641813821481
970,-0.002578669460999215,0.0041866609458015925,0.0031922574712596836,0.0006493840911934186,0.0076165819907578185
971,-0.0042653227733984115,0.004127601831379761,0.0009877844188453848,-0.001831022391146732,0.006453293853375853
972,-0.00578424765997765,0.002929163034575555,-0.0007552236001226291,-0.0029488294590042877,0.004120299267203717
973,-0.006565738846949493,0.002914536420330993,-0.0005157406481254254,-0.0021875776320335514,0.005054933573948271
974,-0.006378880009591306,0.004412813371711682,0.001278917248739148,-8.24331717017184e-05,0.00926790050914252
975,-0.0059596857408585925,0.004848926762967948,0.0027606192551497748,0.001876253691401047,0.012344155560313682
976,-0.0056224817645348325,0.003309879688800395,0.0034970509620858544,0.0030993578267385995,0.01228233765526435
977,-0.005112615215067682,0.000977959157868338,0.00433574347371356,0.00416099840731706,0.010293861829936779
978,-0.003994064876504739,-0.0005879740942794365,0.005713642593183408,0.005650786012079246,0.00919384972934664
979,-0.0018767809156635333,-0.00040850154291261626,0.007699999054500548,0.008028548198132493,0.011506824806214322
980,0.0007534369487833936,0.0007093306995526476,0.010084853872662131,0.010959109056605453,0.016349361276346865
981,0.0025312738835547065,0.001584303751283052,0.011764651845259579,0.012955876475098797,0.021141898568647576
982,0.002601170065436172,0.0016978361694605939,0.01152231920750111,0.012920667933771883,0.023773480794711786
983,0.0016175499415485414,0.0008616217149886669,0.009690085752887333,0.011192528048356265,0.022896396121341096
984,0.0007958068236753052,-0.00046594398713247165,0.007951325349902972,0.009186339674288682,0.01958812724660476
985,0.0005580183601784101,-0.0016549004795646072,0.007494500671737727,0.008076099864212054,0.016362895758878997
986,0.0005305309890750762,-0.0021803954984604855,0.007782084355736285,0.007474236615849059,0.01456902654459163
987,0.000259504486290481,-0.0019738823664604333,0.007780146651174913,0.006555963525775705,0.01365677701021746
988,-0.00019436915925678726,-0.0016538708570090228,0.0077855690122056115,0.005658947629096031,0.01270516633331734
989,-0.0005780710682409861,-0.0014370910717580758,0.008312328068116768,0.005251453090659012,0.011995994878629233
990,-0.001028254123286629,-0.0011117304460056966,0.00890509987666175,0.005078170559971618,0.012262705108029166
991,-0.0016912600072686052,-0.0009694667667262408,0.009014311785250766,0.004806875255392286,0.013274805486966882
992,-0.002409265293121911,-0.0011636047195273233,0.008300049669939994,0.004128869435137934,0.01408420176861395
993,-0.002917042583968263,-0.0013390067332178493,0.006489585229618379,0.002911535680225123,0.013925393238377631
994,-0.003052219899073518,-0.0016373856865118876,0.003968764072364154,0.0015848639580321694,0.012363633901879072
995,-0.0026635533552140213,-0.0019756998704356836,0.0019537060722359316,0.0008737354869094023,0.00985670641087134
996,-0.0017714652610657335,-0.0015148925158676783,0.001287177978171587,0.0011089665453241943,0.007560362189737799
997,-0.0008465072814202009,-0.0004575017167675535,0.0016431005937434,0.0018843730022080093,0.005997331397229513
998,-5.8309830045793655e-05,0.0002792462247810893,0.0024534173820818083,0.0027685345634174733,0.005076190430806842
999,0.0005412792476469395,0.0005375943821132164,0.003263861507278772,0.00338358092934256,0.004887409904168077
