,AF3,AF4,Fp1,Fp2,AF7,AF8
0,0.00470302673056722,0.0741338208317757,-0.00799338985234499,-0.000446600461145863,0.00421692477539182,-0.0047352840192616
1,-0.000993018154986203,0.0690517276525497,-0.0127933491021395,-0.00762839848175645,-0.0013474402949214,-0.00911703985184431
2,-0.00274380622431636,0.0691199898719788,-0.0131825674325228,-0.0108881071209908,-0.00529101397842169,-0.00850541144609451
3,-0.00326005951501429,0.0694710984826088,-0.0135013861581683,-0.013217362575233,-0.00929094664752483,-0.00822125189006329
4,-0.00403317762538791,0.068627655506134,-0.0153717733919621,-0.0155288120731711,-0.0142795387655497,-0.00945776142179966
5,-0.0040501574985683,0.0685638040304184,-0.0158431716263294,-0.0160673446953297,-0.0188428368419409,-0.00993154942989349
6,-0.00233649834990501,0.0703233331441879,-0.0131168765947223,-0.0140513405203819,-0.0216203164309263,-0.00820720475167036
7,8.45064714667387E-05,0.0721609890460968,-0.00946205295622349,-0.011588616296649,-0.0222445465624332,-0.00599779887124896
8,0.00263225892558694,0.0731792226433754,-0.00621593045070767,-0.00993731711059809,-0.019343001767993,-0.00451409397646785
9,0.00436837412416935,0.073018342256546,-0.00407813582569361,-0.00926388334482908,-0.0138860112056136,-0.00412005325779319
10,0.00277963536791503,0.0695030093193054,-0.00555892335250974,-0.0112584885209799,-0.0102853449061513,-0.00699216313660145
11,-0.000935820455197245,0.0642860978841782,-0.00923865661025047,-0.0149309597909451,-0.00981769431382418,-0.011456779204309
12,-0.00357915856875479,0.0604961849749088,-0.011842823587358,-0.0179251339286566,-0.0103441877290607,-0.0143229551613331
13,-0.00603903969749808,0.0559087805449963,-0.0149357914924622,-0.021808048710227,-0.0118599515408278,-0.0182689540088177
14,-0.00993625167757273,0.0484874844551086,-0.0207127146422863,-0.0282762125134468,-0.0155665874481201,-0.0261875670403242
15,-0.0129257198423147,0.0417445041239262,-0.0257269777357578,-0.0344461500644684,-0.0193608403205872,-0.0347186289727688
16,-0.0141062159091234,0.0374826267361641,-0.0271748546510935,-0.0381032675504684,-0.0213045794516802,-0.0409965217113495
17,-0.0146403685212135,0.0350545421242714,-0.0258314851671457,-0.0389269702136517,-0.0219502337276936,-0.0440007336437702
18,-0.0138856982812285,0.035045649856329,-0.0222698487341404,-0.0361378975212574,-0.0221340153366327,-0.0423955656588078
19,-0.0120997168123722,0.0362151265144348,-0.0189563035964966,-0.0317517295479774,-0.0234579239040613,-0.0382211916148663
20,-0.0093374028801918,0.0385247729718685,-0.0164669398218393,-0.0270029082894325,-0.0261939037591219,-0.0323616787791252
21,-0.00624072458595037,0.041954293847084,-0.0131342727690935,-0.0218319538980722,-0.0292288735508919,-0.025232907384634
22,-0.00569569179788232,0.0432126522064209,-0.0106814708560705,-0.0188894737511873,-0.0325466729700565,-0.0205908939242363
23,-0.00880475342273712,0.0405546762049198,-0.0113940350711346,-0.0200602319091558,-0.0364036746323109,-0.020690793171525
24,-0.0128785502165556,0.0367874205112457,-0.0137634631246328,-0.023198526352644,-0.0392821915447712,-0.0229155905544758
25,-0.0151436887681484,0.0346763096749783,-0.0158682577311993,-0.0258259046822786,-0.0392226874828339,-0.024216515943408
26,-0.0151577899232507,0.0345305241644382,-0.0173651594668627,-0.0268108397722244,-0.035724826157093,-0.0237772352993488
27,-0.0141676012426615,0.0353902615606785,-0.0181340035051107,-0.0257151499390602,-0.0300546530634165,-0.0219951216131449
28,-0.01390550006181,0.0356057249009609,-0.0181163791567087,-0.0236600749194622,-0.0240040607750416,-0.0200649332255125
29,-0.0147889219224453,0.0343341082334518,-0.0175720155239105,-0.0224679317325354,-0.0187417287379503,-0.0188478417694569
30,-0.0154073480516672,0.0321920998394489,-0.0169391017407179,-0.0227749012410641,-0.0149427810683846,-0.0183289293199778
31,-0.0144461877644062,0.030038645491004,-0.0163063500076532,-0.0237238965928555,-0.0120294457301497,-0.0185186006128788
32,-0.0136468196287751,0.026396756991744,-0.0175505913794041,-0.0262873750180006,-0.0104397498071194,-0.0215509403496981
33,-0.0134313348680735,0.0221820697188377,-0.0202752612531185,-0.0299904830753803,-0.0102927638217807,-0.0263845361769199
34,-0.00998225994408131,0.0233373325318098,-0.018542567268014,-0.0288532432168722,-0.00833120662719011,-0.0260436814278364
35,-0.00278844032436609,0.0307598505169153,-0.0105587430298328,-0.020585622638464,-0.00315650133416057,-0.0187681615352631
36,0.00257754139602184,0.0363104343414307,-0.00394762959331274,-0.0125355692580342,0.00115837471093982,-0.0131165804341435
37,0.00377372303046286,0.0356404967606068,-0.00362007436342537,-0.0103385243564844,0.0015627114335075,-0.013978916220367
38,0.00367393530905247,0.0325251258909702,-0.00568712735548615,-0.0116851339116693,-9.32726979954168E-05,-0.0174241159111261
39,0.00488917855545878,0.0317559577524662,-0.00464579230174422,-0.0115895569324493,5.19845307280775E-05,-0.0182930044829845
40,0.00882099382579327,0.036069929599762,0.00155888602603227,-0.00646217539906502,0.00450783083215356,-0.0133652966469526
41,0.0128568885847926,0.0423059947788715,0.00840518064796925,0.00084487086860463,0.0103789083659649,-0.00561129255220294
42,0.0131846079602838,0.0454373806715012,0.0106784254312515,0.00462087662890553,0.0129925683140755,-0.000132128188852221
43,0.00928478594869375,0.0435205027461052,0.00806944817304611,0.00264483806677163,0.0114167258143425,0.000574123405385762
44,0.00279458193108439,0.0372202321887016,0.00251838564872742,-0.00385145493783057,0.00724190380424261,-0.00400428753346205
45,-0.00423768348991871,0.0292147137224674,-0.00397183420136571,-0.0118185821920633,0.00234579155221581,-0.0119804665446281
46,-0.0109738064929843,0.0213820263743401,-0.0108056897297502,-0.0196710508316755,-0.00250420602969825,-0.021339125931263
47,-0.0153993908315897,0.0168756749480963,-0.0160534046590328,-0.0253891162574291,-0.00618513580411673,-0.0280312094837427
48,-0.0149538302794099,0.0187050141394138,-0.0166385732591152,-0.0257316417992115,-0.00731689250096679,-0.0279250796884298
49,-0.0121544655412436,0.0228118225932121,-0.0147097473964095,-0.0227512158453465,-0.00798551924526691,-0.0248851869255304
50,-0.012551985681057,0.0220579579472542,-0.0160686671733856,-0.0227720849215984,-0.0117972493171692,-0.0266916863620281
51,-0.016668887808919,0.0162963438779116,-0.0216284114867449,-0.0267013777047396,-0.0184626691043377,-0.0333863608539104
52,-0.0181058347225189,0.0138946482911706,-0.024342542514205,-0.0277159232646227,-0.0232160873711109,-0.0360869616270065
53,-0.0120551884174347,0.0200529359281063,-0.0187223572283983,-0.0215263143181801,-0.0216933470219374,-0.0299172811210155
54,-0.00230133952572942,0.0292547196149826,-0.00958948209881783,-0.0126195242628455,-0.0156793259084225,-0.0206791646778584
55,0.00571925099939108,0.0363359786570072,-0.00269470107741654,-0.00500646559521556,-0.00967255979776382,-0.0125233186408877
56,0.0106693133711815,0.0408755615353584,0.0015474894316867,0.00128819595556706,-0.0053262934088707,-0.00514891324564815
57,0.0122404294088483,0.0417111068964005,0.00301296776160598,0.00506169116124511,-0.0029059739317745,-0.000749246682971716
58,0.0089357802644372,0.0363051705062389,-0.000356087723048404,0.00361705082468688,-0.00317530636675656,-0.00294511811807752
59,-0.000474013766506687,0.0226150378584862,-0.0108784530311823,-0.00489339185878634,-0.00737205892801285,-0.0137046268209815
60,-0.0120423156768084,0.00596622005105019,-0.0246774945408106,-0.0161362960934639,-0.0142484856769443,-0.0269108787178993
61,-0.0173096284270287,-0.00172589241992682,-0.0314165465533733,-0.020510820671916,-0.0186178293079138,-0.0301535874605179
62,-0.0137579357251525,0.00237874034792185,-0.0271834749728441,-0.0156084718182683,-0.0181254837661982,-0.0212428458034992
63,-0.00842464063316584,0.00812348909676075,-0.0201913695782423,-0.00984481628984213,-0.0170627813786268,-0.0113505823537707
64,-0.00541982147842646,0.0104756643995643,-0.0164056122303009,-0.00775451585650444,-0.0174553506076336,-0.00559310568496585
65,-0.00160293711815029,0.0143578555434942,-0.0126276770606637,-0.00493809953331947,-0.0157201997935772,0.000960886187385768
66,0.0030025583691895,0.020158663392067,-0.00790208857506514,-0.000299155130051076,-0.0109928082674742,0.00804095901548862
67,0.00548204453662038,0.0239911824464798,-0.00482554547488689,0.00287477090023458,-0.00584326311945915,0.0117915160953999
68,0.00692174397408962,0.0266573876142502,-0.00210217153653502,0.00505670765414834,-0.000812980346381664,0.0139102153480053
69,0.0077234567143023,0.0287244766950607,0.00114546297118068,0.00700184842571616,0.00377830257639289,0.0157965067774057
70,0.00513498671352863,0.0275647956877947,0.0020763895008713,0.00639086216688156,0.00545915216207504,0.0154578350484371
71,-0.000451929547125474,0.0233018472790718,-2.96222915494582E-05,0.00322497636079788,0.00296486145816743,0.0133102154359221
72,-0.00604062620550394,0.018154751509428,-0.00346709904260933,-0.000448481412604451,-0.00244342070072889,0.0113438069820404
73,-0.00981708336621523,0.0137496711686254,-0.00651919422671199,-0.00321584613993764,-0.00837816670536995,0.0103798303753138
74,-0.0118808001279831,0.00990375503897667,-0.00866887252777815,-0.00491368630900979,-0.0134507017210126,0.00921074580401182
75,-0.0122949620708823,0.00669806776568294,-0.0096387742087245,-0.005172582808882,-0.0170413088053465,0.00745146069675684
76,-0.0120146721601486,0.00389359379187226,-0.0101296883076429,-0.00429383851587772,-0.0195174068212509,0.00462853768840432
77,-0.0144074223935604,-0.00140978372655809,-0.0132416533306241,-0.00539976265281439,-0.0232256986200809,-0.00216223206371069
78,-0.0198455918580294,-0.00896867644041777,-0.0190517082810402,-0.00920622982084751,-0.028705608099699,-0.0116897998377681
79,-0.0253635682165623,-0.0156206861138344,-0.0245629940181971,-0.0130811538547277,-0.0342416390776634,-0.0194155611097813
80,-0.0277418289333582,-0.0179427433758974,-0.0266856793314219,-0.0133973294869065,-0.0376410782337189,-0.0209058746695518
81,-0.0247029960155487,-0.0127259874716401,-0.0232387632131577,-0.00709190918132663,-0.0368337780237198,-0.0131432237103581
82,-0.0176051706075668,-0.00171374971978366,-0.0157334934920073,0.00422341842204332,-0.0325605049729347,0.000694782938808203
83,-0.0112055903300643,0.00760148512199521,-0.00947930756956339,0.0139474263414741,-0.028690991923213,0.0118878502398729
84,-0.00934184063225985,0.00904388539493084,-0.00905990041792393,0.0161522272974253,-0.0285795014351606,0.0140194268897176
85,-0.0123889967799187,0.0030116478446871,-0.0144006628543139,0.0109098581597209,-0.0329774208366871,0.00793178845196962
86,-0.0171498283743858,-0.00478920293971896,-0.0209557842463255,0.0040186233818531,-0.0385941378772259,-0.000116725139378104
87,-0.0174128618091345,-0.00641516502946615,-0.0213596411049366,0.00340475654229522,-0.0383209697902203,-0.00137739034835249
88,-0.0112935435026884,-0.000585900328587741,-0.0136722158640623,0.010465401224792,-0.0301018413156271,0.00567607255652547
89,-0.00538961542770267,0.00407015951350331,-0.00585668161511421,0.0171917509287596,-0.0203401446342468,0.0115085998550057
90,-0.00442553125321865,0.00302942492999136,-0.00321769202128053,0.0188210755586624,-0.0138007262721658,0.0112395901232958
91,-0.00549374939873815,0.000926843145862222,-0.00234844163060188,0.0186916999518871,-0.00955120474100113,0.00997211318463087
92,-0.00522528076544404,0.00109471601899713,-0.000412587862228975,0.0194255821406841,-0.00593517674133182,0.011131651699543
93,-0.00442929146811366,0.00192964018788189,0.00102300080470741,0.0200029369443655,-0.00325846183113754,0.0129725998267531
94,-0.00575519818812609,0.00013263379514683,-0.000237701227888465,0.0186082608997822,-0.00301793310791254,0.012215631082654
95,-0.00916815362870693,-0.00477879028767347,-0.00338251958601177,0.0152280684560537,-0.00437419628724456,0.00851831119507551
96,-0.0128715485334396,-0.0103528164327145,-0.00593721261247993,0.011459450237453,-0.00497773615643382,0.00456168968230486
97,-0.0179457031190395,-0.0169018376618624,-0.00873984210193157,0.00642247777432203,-0.00623912317678332,-0.000359694968210533
98,-0.0238940436393023,-0.0236359778791666,-0.0122015858069062,0.000178190850419924,-0.00993064325302839,-0.0062621608376503
99,-0.0263822786509991,-0.0263504143804312,-0.0124407503753901,-0.00298929121345282,-0.0136722885072231,-0.00890711043030024
100,-0.023484168574214,-0.0237412676215172,-0.0064689670689404,-0.000160046649398282,-0.0141651835292578,-0.0059505864046514
101,-0.0188901368528605,-0.0203332584351301,0.00160199380479753,0.00560918403789401,-0.0120875705033541,-0.000810081895906478
102,-0.0168873928487301,-0.0202674195170403,0.00523681007325649,0.00968916434794664,-0.0109332241117954,0.00214982661418617
103,-0.0167959984391928,-0.0212064310908318,0.00500810984522104,0.0122569818049669,-0.0110458582639694,0.00398342404514551
104,-0.0177334379404783,-0.0222203843295574,0.00287067890167236,0.0132403448224068,-0.0108687691390514,0.00471310736611485
105,-0.019373444840312,-0.0240994617342949,-0.00100634526461363,0.0121753504499793,-0.00954817142337561,0.00342544168233871
106,-0.0204328447580338,-0.0252247732132673,-0.00470986543223262,0.0111497305333614,-0.00661437958478928,0.00228123343549669
107,-0.01949911005795,-0.0232578255236149,-0.0050895381718874,0.012696972116828,-0.00125899852719158,0.00434974301606417
108,-0.0147483758628368,-0.0165991894900799,-0.000340353813953698,0.0178564358502626,0.00747973565012217,0.0109372474253178
109,-0.00930462870746851,-0.00947218295186758,0.00493596587330103,0.022131348028779,0.0165076721459627,0.0169456154108047
110,-0.00749816326424479,-0.00641574617475271,0.00624413276091218,0.0218346212059259,0.0215766876935959,0.0184408519417048
111,-0.00675355829298496,-0.00460358476266265,0.00669565703719854,0.0206137634813786,0.0240087993443012,0.0193404853343964
112,-0.00487811909988523,-0.00265113683417439,0.00848083849996328,0.0209391433745623,0.0259714983403683,0.0210007559508085
113,-0.00373215251602232,-0.00337190227583051,0.0101357148960233,0.0217521842569113,0.0273333508521318,0.020904865115881
114,-0.00215685553848743,-0.00543755199760199,0.013473586179316,0.024489613249898,0.0302342679351568,0.0213439706712961
115,0.00211191084235907,-0.00592742813751101,0.0203815810382366,0.0303244311362505,0.0364684537053108,0.0251542460173368
116,0.00716728344559669,-0.00589802488684654,0.0278647150844336,0.0365895554423332,0.043633621186018,0.0300109460949898
117,0.010141764767468,-0.00746998889371753,0.0322240777313709,0.0401376634836197,0.0485288016498089,0.032735712826252
118,0.0110282609239221,-0.0106983240693808,0.0330665111541748,0.0406043268740177,0.0506105311214924,0.0333241522312164
119,0.00942797400057316,-0.0166872311383486,0.0299781747162342,0.0380352064967155,0.0498942360281944,0.031489297747612
120,0.00398758379742503,-0.0270541626960039,0.0217655580490828,0.0319273993372917,0.045710813254118,0.0258546713739634
121,-0.00459637073799968,-0.0403194688260555,0.00948620494455099,0.0230823308229446,0.0383321046829224,0.0168400481343269
122,-0.0110459364950657,-0.0493826009333134,-4.60017290606629E-05,0.0172031689435244,0.0318809598684311,0.0109854340553284
123,-0.0106224222108722,-0.048749852925539,-0.000431841152021661,0.0199309159070253,0.0306888017803431,0.014685788191855
124,-0.00743826059624553,-0.0447590053081512,0.003500567516312,0.0263678766787052,0.0314071327447891,0.0218313429504633
125,-0.00619468931108713,-0.0445653200149536,0.00569697562605143,0.0295688658952713,0.0302494689822197,0.0240414384752512
126,-0.00659287720918655,-0.0480164997279644,0.00669040810316801,0.0286021679639816,0.0286231078207493,0.0205458644777536
127,-0.00723336497321725,-0.0522055551409721,0.00795426685363054,0.0254152044653893,0.0276371352374554,0.0152315404266119
128,-0.00580461882054806,-0.0530119873583317,0.0110846972092986,0.023900805041194,0.0276830308139324,0.0141953667625785
129,-0.00200150068849325,-0.0495719537138939,0.0163650959730148,0.0260494295507669,0.0288667790591717,0.0186797846108675
130,-0.000270024669589475,-0.0485328622162342,0.0189912114292383,0.0269794557243586,0.0290750674903393,0.0203845612704754
131,-0.0034532337449491,-0.0543564148247242,0.0156177934259176,0.0225304830819368,0.0271058324724436,0.0142385857179761
132,-0.00811934936791658,-0.0618072524666786,0.0105980029329658,0.0168742220848799,0.0249448530375957,0.00696303276345134
133,-0.0102470340207219,-0.0655506029725075,0.00834194105118513,0.0142343686893582,0.0242877583950758,0.00399775523692369
134,-0.0109078530222178,-0.0677870884537697,0.00636466545984149,0.0118794962763786,0.0243562757968903,0.0015656155301258
135,-0.012231370434165,-0.0714353173971176,0.00204743258655071,0.00721957441419363,0.0246956162154675,-0.00300623732618988
136,-0.0122080314904451,-0.0736498534679413,-0.000551716366317123,0.00418633967638016,0.0271435435861349,-0.00465971324592829
137,-0.00958165153861046,-0.0722732245922089,0.00165047158952802,0.00585108390077949,0.0318390764296055,-0.000165967619977891
138,-0.00783463940024376,-0.0716808214783669,0.00450825458392501,0.00811885856091976,0.0353105627000332,0.00468298606574535
139,-0.00957185868173838,-0.0757051929831505,0.00383939477615058,0.00685230130329728,0.0357786528766155,0.00404689228162169
140,-0.0121568636968732,-0.0808985605835915,0.00216242973692715,0.00454448536038399,0.0359786599874496,0.000933686620555818
141,-0.014973321929574,-0.0861181989312172,0.000321359082590789,0.00167202739976346,0.0366824679076672,-0.00294824247248471
142,-0.0213780049234629,-0.0951914340257645,-0.00576560571789742,-0.00591039704158902,0.0353161096572876,-0.011435030028224
143,-0.0291517786681652,-0.105528309941292,-0.013793284073472,-0.01569620706141,0.0332026258111,-0.0221104547381401
144,-0.032340083271265,-0.110183723270893,-0.0167188905179501,-0.0204917527735233,0.0340944267809391,-0.0274493973702192
145,-0.0293734390288591,-0.106560654938221,-0.0126850120723248,-0.0179298836737871,0.0381520763039589,-0.0241128299385309
146,-0.0229097437113523,-0.0975050628185272,-0.00501585705205798,-0.0112816849723458,0.0428431332111359,-0.0151816830039024
147,-0.0172069370746613,-0.0885248780250549,0.00147051422391087,-0.00542787695303559,0.0457035824656487,-0.00675352429971099
148,-0.013763421215117,-0.082004614174366,0.00513795763254166,-0.00153439410496503,0.0465049631893635,-0.000850504089612514
149,-0.0117276012897491,-0.0778466910123825,0.00728221610188484,0.00171303644310683,0.0451348423957825,0.00361078302375972
150,-0.0136810634285212,-0.0798307508230209,0.00579154584556818,0.00145373458508402,0.0389202386140823,0.00324508897028863
151,-0.0191742219030857,-0.0875717326998711,0.000705634127371013,-0.00326752802357078,0.0295783802866936,-0.00185239769052714
152,-0.0225657783448696,-0.093823529779911,-0.00324193318374455,-0.00748532032594085,0.0225706249475479,-0.0050389738753438
153,-0.0233473200351,-0.0972677692770958,-0.00593799352645874,-0.0103239836171269,0.0185638554394245,-0.00616419408470392
154,-0.022362694144249,-0.0977684631943703,-0.0069874245673418,-0.0114951701834798,0.0171858835965395,-0.00535933952778578
155,-0.0188893731683493,-0.0935959219932556,-0.00423580268397927,-0.0086638992652297,0.0186752490699291,1.67454472830286E-05
156,-0.0164884869009256,-0.0898267403244972,-0.00193323020357639,-0.00593442004173994,0.020194323733449,0.00523775164037943
157,-0.016283143311739,-0.0886085629463196,-0.00216749706305563,-0.00615972653031349,0.0208357628434896,0.00768506713211536
158,-0.014604676514864,-0.0855053439736366,-0.000903406122233719,-0.00601801322773099,0.0228320248425007,0.0108942771330476
159,-0.0107578933238983,-0.0798396244645119,0.00323042995296419,-0.00393857294693589,0.026976665481925,0.0155358212068677
160,-0.00560650508850813,-0.0726986080408096,0.0101622669026256,0.000428539235144854,0.0335170775651932,0.0214313641190529
161,0.000255993276368827,-0.0644320324063301,0.0190709959715605,0.00667383847758174,0.0417183302342892,0.028501121327281
162,0.00313415238633752,-0.059444971382618,0.0243148393929005,0.0103028006851673,0.0473452173173428,0.0322231724858284
163,-0.000418502051616088,-0.0621269457042217,0.020999651402235,0.00733587937429547,0.0459986999630928,0.0283173192292452
164,-0.00651370687410235,-0.0680062249302864,0.0134405037388206,0.00171683996450156,0.0387550517916679,0.0213722139596939
165,-0.00864463392645121,-0.0694914162158966,0.00974665116518736,0.000296402693493292,0.0317173004150391,0.01864068582654
166,-0.00648415181785822,-0.0658656284213066,0.0114104794338346,0.0038227392360568,0.0292182825505733,0.0204153265804052
167,-0.0028715196531266,-0.0600005351006985,0.0155402226373553,0.00947923585772514,0.0303151942789555,0.0244554355740547
168,0.0011922885896638,-0.0529750362038612,0.021020270884037,0.0158730950206518,0.0328983068466187,0.0311584491282701
169,0.00603376515209675,-0.0445735640823841,0.0282691959291697,0.0234877746552229,0.0366762466728687,0.0414940677583218
170,0.0110930418595672,-0.0361371897161007,0.0361188948154449,0.0318984501063824,0.0413238108158112,0.0527811013162136
171,0.0132019938901067,-0.0322838611900806,0.040404099971056,0.0367006324231625,0.0449321642518044,0.0577236860990524
172,0.00936259888112545,-0.0373007617890835,0.0373982600867748,0.0326651930809021,0.045349657535553,0.0505977794528008
173,0.000719023635610938,-0.0495975315570831,0.0281135383993387,0.0202473197132349,0.0423810109496117,0.0337155759334564
174,-0.00959431473165751,-0.0639055147767067,0.0160385109484196,0.00440721632912755,0.037086483091116,0.014016586355865
175,-0.0177091415971518,-0.0744382441043854,0.005840880330652,-0.00836529769003391,0.0316727235913277,-0.000840431486722082
176,-0.0211042296141386,-0.078131414949894,0.000920467136893421,-0.0135863898321986,0.0282601993530989,-0.00661163264885545
177,-0.0213501732796431,-0.0775188356637955,-6.39556601527147E-05,-0.0128226047381759,0.0263343248516321,-0.0060926117002964
178,-0.0199017655104399,-0.0749233439564705,0.00149573618546128,-0.00900128670036793,0.0246928781270981,-0.00232160929590464
179,-0.0168520994484425,-0.0705374181270599,0.0052667697891593,-0.00409592827782035,0.0234983004629612,0.00369875389151275
180,-0.0125801004469395,-0.0649757012724876,0.0104137342423201,0.000390911038266495,0.0237112976610661,0.0105814198032022
181,-0.00756742665544152,-0.0593252927064896,0.0160131100565195,0.00454737478867173,0.0250934660434723,0.0173994433134794
182,-0.00162423145957291,-0.0532975979149342,0.0215952396392822,0.00923321768641472,0.0268046855926514,0.0249100383371115
183,0.00575583288446069,-0.0453146770596504,0.02793656475842,0.015563846565783,0.0295348279178143,0.0347232148051262
184,0.0120630012825131,-0.0383307747542858,0.0332705564796925,0.0218515880405903,0.0327178537845612,0.0434723608195782
185,0.0123929949477315,-0.0394088439643383,0.0322645045816898,0.0225619319826365,0.0323996394872665,0.0431208945810795
186,0.00642868829891086,-0.0490438044071198,0.0240430943667889,0.0158840417861938,0.0266178268939257,0.0327785983681679
187,0.000510681886225939,-0.0583959668874741,0.0154771870002151,0.0080310795456171,0.0193214118480682,0.0220398735255003
188,0.000444316421635449,-0.0597601644694805,0.0132134752348065,0.0064063617028296,0.0161451790481806,0.01974156498909
189,0.00563379004597664,-0.0542830266058445,0.0165772214531899,0.0117604909464717,0.0185993183404207,0.0255793556571007
190,0.0119489701464772,-0.0476340129971504,0.0206364374607801,0.0191960427910089,0.0240233428776264,0.0337606631219387
191,0.0176937598735094,-0.0418597497045994,0.0240812096744776,0.02557073533535,0.0307545587420464,0.0412649288773537
192,0.0224786195904016,-0.037105567753315,0.0275120884180069,0.0298255253583193,0.0382341407239437,0.0467056557536125
193,0.024890748783946,-0.0347630828619003,0.0292007923126221,0.0304223913699389,0.044263944029808,0.0477605052292347
194,0.0229116603732109,-0.036863200366497,0.0259332079440355,0.025979733094573,0.045288510620594,0.0424277260899544
195,0.01602478697896,-0.0436914004385471,0.0164958573877811,0.0167535562068224,0.0390451103448868,0.031367227435112
196,0.00925294402986765,-0.0491411164402962,0.00688043050467968,0.00831175502389669,0.0293402560055256,0.0216887146234512
197,0.00741781946271658,-0.0483918040990829,0.00347601226530969,0.00573717709630728,0.0224922057241201,0.0185820832848549
198,0.0085308076813817,-0.0453684367239475,0.00443000951781869,0.00655953818932176,0.0194364413619041,0.017729764804244
199,0.00996024999767542,-0.0434417985379696,0.00608196388930082,0.00766527000814676,0.017928583547473,0.0156021201983094
200,0.01252181828022,-0.0401552952826023,0.00879691541194916,0.0105750458315015,0.017934774979949,0.0155346235260367
201,0.0161001831293106,-0.0345999449491501,0.012815285474062,0.0159992091357708,0.0198037922382355,0.0193252395838499
202,0.0179052837193012,-0.0306315720081329,0.015318114310503,0.0203585121780634,0.0210206508636475,0.023379310965538
203,0.0158913545310497,-0.0311440099030733,0.0137881152331829,0.0202487744390965,0.0192188210785389,0.0244356654584408
204,0.0113551113754511,-0.0347920693457127,0.00906828138977289,0.0160965770483017,0.0153947807848454,0.0228398684412241
205,0.00688377022743225,-0.0392180159687996,0.00359678524546325,0.0104477414861321,0.0114407725632191,0.0200468394905329
206,0.00463816476985812,-0.0422031544148922,-0.000272010831395164,0.00573022291064262,0.00870557129383087,0.0177539084106684
207,0.00556130474433303,-0.0420158952474594,-0.00153977703303099,0.00239029666408896,0.00769810797646642,0.0169732719659805
208,0.00884360354393721,-0.0389678589999676,-0.000446575111709535,0.000148579696542583,0.0080517278984189,0.0173643939197063
209,0.0140657098963857,-0.0335494391620159,0.00424431217834353,0.00117286527529359,0.0110195763409138,0.0203911308199167
210,0.0197324696928263,-0.0272819865494967,0.0116207264363766,0.00623835669830441,0.0168441869318485,0.0265650488436222
211,0.0231633875519037,-0.0231836214661598,0.0176633093506098,0.0118980864062905,0.0223417188972235,0.0321060568094254
212,0.0250382144004107,-0.0213710833340883,0.0216154120862484,0.0158141870051622,0.0262779463082552,0.0346914045512676
213,0.0267684813588858,-0.0207690838724375,0.0239480659365654,0.0180212315171957,0.0299603864550591,0.034893985837698
214,0.0266188327223063,-0.0225756503641605,0.0227114111185074,0.0173835773020983,0.0329530872404575,0.0320314094424248
215,0.023272167891264,-0.0268797352910042,0.0176638383418322,0.0134581103920937,0.0338922813534737,0.0262825917452574
216,0.0189053472131491,-0.0303793251514435,0.0122287794947624,0.00951855909079313,0.032103069126606,0.0213317014276981
217,0.017375286668539,-0.0303382761776447,0.00988099258393049,0.00868742633610964,0.0291364006698132,0.0198317114263773
218,0.0197499915957451,-0.0283219050616026,0.0105725871399045,0.00949027575552464,0.0284098796546459,0.0196030586957932
219,0.0232181306928396,-0.0268821902573109,0.0119303902611136,0.00922478549182415,0.0307036656886339,0.0182328931987286
220,0.0246815700083971,-0.0268540903925896,0.0120540941134095,0.00740523776039481,0.0335983671247959,0.015908494591713
221,0.0235106721520424,-0.0282596293836832,0.0103866560384631,0.00455631269142032,0.0350212790071964,0.0131860077381134
222,0.0218234937638044,-0.0291913971304893,0.00893053598701954,0.00263538560830057,0.0354555882513523,0.0118172382935882
223,0.0209446866065264,-0.0292792599648237,0.00852472428232431,0.0022521847859025,0.0350478030741215,0.0117611633613706
224,0.0211361795663834,-0.0296298246830702,0.00804486591368914,0.00220309081487358,0.0331837758421898,0.0116261094808578
225,0.0235245823860168,-0.0283963270485401,0.0085280230268836,0.00387537060305476,0.0312527865171433,0.0133221764117479
226,0.0268728174269199,-0.025486821308732,0.00994575116783381,0.00772695383056998,0.0300108026713133,0.0167662296444178
227,0.0285102277994156,-0.0241411775350571,0.00998694263398647,0.0105323269963264,0.0292275696992874,0.0180027186870575
228,0.0270952209830284,-0.0268814321607351,0.00667567923665047,0.0089880833402276,0.0289331264793873,0.014053619466722
229,0.022830480709672,-0.0332003608345985,-0.000155966321472079,0.00292537081986666,0.0282021909952164,0.00584861077368259
230,0.0181885957717896,-0.0392172522842884,-0.00765254022553563,-0.00469386531040072,0.0260025504976511,-0.00211046845652163
231,0.0151844155043364,-0.0421973057091236,-0.0132295098155737,-0.0112543199211359,0.0224722642451525,-0.00661887275055051
232,0.0128339929506183,-0.0438784956932068,-0.0181394182145596,-0.0167306307703257,0.0181695930659771,-0.0090382881462574
233,0.011046851053834,-0.0451015755534172,-0.0225583501160145,-0.020618574693799,0.0145826321095228,-0.0106470547616482
234,0.0110274292528629,-0.0443509891629219,-0.024536220356822,-0.0219243690371513,0.0130484709516168,-0.0109580541029572
235,0.0127686010673642,-0.0412949472665787,-0.0241783428937197,-0.0214757081121206,0.0129455532878637,-0.0100865950807929
236,0.0172001868486404,-0.0347485430538654,-0.0207405723631382,-0.0182757433503866,0.0142459655180573,-0.0064217047765851
237,0.0235485769808292,-0.0256067700684071,-0.0146111538633704,-0.0121623864397407,0.0165828913450241,-0.000290132564259693
238,0.0264613479375839,-0.0204897969961166,-0.011472599580884,-0.00888589397072792,0.0163576565682888,0.00177319708745927
239,0.0217437949031591,-0.0246588848531246,-0.0160131603479385,-0.0139405392110348,0.00990233477205038,-0.00556618487462401
240,0.0134513089433312,-0.0330008864402771,-0.0237159784883261,-0.0236647687852383,-0.000806547177489847,-0.016896165907383
241,0.00965077616274357,-0.0351990349590778,-0.0260609071701765,-0.028804887086153,-0.0102245435118675,-0.0214412808418274
242,0.0121836774051189,-0.0287707950919867,-0.0219020545482636,-0.0260216146707535,-0.0164541117846966,-0.0165288913995028
243,0.0168228354305029,-0.0195758957415819,-0.0167530532926321,-0.0198102779686451,-0.0216146074235439,-0.00854826346039772
244,0.0189485754817724,-0.0142457941547036,-0.0161175653338432,-0.0165178887546062,-0.0276962108910084,-0.00499946717172861
245,0.0178704299032688,-0.0137397814542055,-0.0200218353420496,-0.0176654458045959,-0.034271240234375,-0.0065089319832623
246,0.0158821139484644,-0.0150390490889549,-0.0242428630590439,-0.0203307121992111,-0.0397022664546967,-0.00881643779575825
247,0.0128794405609369,-0.0181588269770145,-0.0279277004301548,-0.023759076371789,-0.0435837656259537,-0.0115380557253957
248,0.00758940679952502,-0.02376295812428,-0.0327822081744671,-0.0287254583090544,-0.0465196147561073,-0.0160955563187599
249,0.00253366259858012,-0.0280780736356974,-0.0366847068071365,-0.0325757972896099,-0.0478331223130226,-0.0195392947643995
250,0.00106176326517016,-0.0278255008161068,-0.0364207960665226,-0.0319723002612591,-0.0461244098842144,-0.0190787184983492
251,0.00247865100391209,-0.0249451454728842,-0.0329860709607601,-0.0283702816814184,-0.0416000969707966,-0.01740931160748
252,0.00455631222575903,-0.022308012470603,-0.02933737821877,-0.025439940392971,-0.0358661822974682,-0.017918823286891
253,0.00669211242347956,-0.0198879539966583,-0.0270348638296127,-0.0243220757693052,-0.0309744831174612,-0.019958920776844
254,0.00797351635992527,-0.0182422585785389,-0.0275059603154659,-0.0257286801934242,-0.029619786888361,-0.0230059735476971
255,0.00674832705408335,-0.0195540003478527,-0.0324077159166336,-0.0314263589680195,-0.0331034101545811,-0.0287528540939093
256,0.00487092230468988,-0.0213886462152004,-0.0391430668532848,-0.0389056615531445,-0.0386669114232063,-0.0343706831336021
257,0.00489736394956708,-0.0205041859298944,-0.0435325279831886,-0.0436433590948582,-0.0431691557168961,-0.0360222421586514
258,0.00475137960165739,-0.0198252629488707,-0.0466009750962257,-0.0464824140071869,-0.0467829741537571,-0.0368307530879974
259,0.00258043594658375,-0.0219728089869022,-0.0499747171998024,-0.0498198419809341,-0.0502523481845856,-0.0402654707431793
260,0.00121825258247554,-0.0235036686062813,-0.0501178242266178,-0.0512963533401489,-0.0517539195716381,-0.043143268674612
261,0.00555453775450587,-0.0181501656770706,-0.0423390716314316,-0.045600987970829,-0.0479381382465363,-0.0387936234474182
262,0.01424874458462,-0.00757326371967793,-0.0304280538111925,-0.0346205458045006,-0.0404851175844669,-0.0287589933723211
263,0.0213033985346556,0.00138669821899384,-0.0220625344663858,-0.0256786420941353,-0.0342614986002445,-0.0198301058262587
264,0.0252028349786997,0.00769304810091853,-0.017754964530468,-0.0205638818442822,-0.0299783013761044,-0.0129977893084288
265,0.0251303967088461,0.00978561025112867,-0.017336854711175,-0.0200806632637978,-0.0286792013794184,-0.01037981454283
266,0.0213189013302326,0.00690279016271234,-0.0204596072435379,-0.0237567592412233,-0.0314064808189869,-0.012638408690691
267,0.016578471288085,0.00228431937284768,-0.0240736212581396,-0.0275962613523006,-0.0358406007289886,-0.0158670078963041
268,0.0120052555575967,-0.00236067641526461,-0.0273007582873106,-0.0301727615296841,-0.0395415648818016,-0.0181714668869972
269,0.00829099118709564,-0.00580204138532281,-0.0300000868737698,-0.0319192446768284,-0.0409475676715374,-0.018598074093461
270,0.00577962351962924,-0.00785688683390617,-0.0323352999985218,-0.033794566988945,-0.0403424426913261,-0.0179917048662901
271,0.00457989843562245,-0.00888656266033649,-0.0340971983969212,-0.0356486178934574,-0.0389596037566662,-0.0176526736468077
272,0.00528695341199636,-0.00742522766813636,-0.0335352346301079,-0.0350377298891544,-0.0376363806426525,-0.0159457046538591
273,0.00660175504162908,-0.00426543178036809,-0.031381968408823,-0.0323522984981537,-0.0386066362261772,-0.0128014199435711
274,0.00686985487118363,-0.00184768240433186,-0.0299002807587385,-0.0302318166941404,-0.0431743003427982,-0.0103468149900436
275,0.00763908354565501,0.00153308152221143,-0.0277288388460875,-0.0274867527186871,-0.0485433265566826,-0.0072446265257895
276,0.0101059535518289,0.00756558496505022,-0.0232025254517794,-0.0222951229661703,-0.0520778186619282,-0.00197167810983956
277,0.0116377556696534,0.0125255845487118,-0.0194679796695709,-0.017774797976017,-0.055340088903904,0.00192359020002186
278,0.0103441067039967,0.0128214322030544,-0.0198009256273508,-0.017203314229846,-0.060275174677372,0.00111031357664615
279,0.00667259655892849,0.00811056047677994,-0.0239222515374422,-0.0202789772301912,-0.0658638328313828,-0.00440060487017035
280,7.27445076336153E-05,-0.00173273391555995,-0.0313730761408806,-0.0266967061907053,-0.071512833237648,-0.0146571788936853
281,-0.00893802847713232,-0.0147563349455595,-0.0411752015352249,-0.0360046438872814,-0.0780438482761383,-0.0282167047262192
282,-0.015920527279377,-0.0252284407615662,-0.0491368286311626,-0.0446583405137062,-0.0833728089928627,-0.0395290590822697
283,-0.0168663486838341,-0.0286062508821487,-0.0514239147305489,-0.0486643128097057,-0.0839054882526398,-0.044054638594389
284,-0.0145560270175338,-0.0279996227473021,-0.0508079715073109,-0.0501066744327545,-0.0812447816133499,-0.0450115501880646
285,-0.0129040647298098,-0.0274298451840878,-0.0507106520235538,-0.0518620684742928,-0.0789378732442856,-0.0456045344471931
286,-0.0094322981312871,-0.0233745221048594,-0.0475751012563705,-0.0501662343740463,-0.0755528062582016,-0.0417600832879543
287,-0.00281172478571534,-0.0147881684824824,-0.0396482236683369,-0.0436654314398766,-0.0699024945497513,-0.0334546901285648
288,0.003723916830495,-0.00666830781847239,-0.0310533698648214,-0.0367661640048027,-0.0646374523639679,-0.0266125537455082
289,0.00842034351080656,-0.0013227773597464,-0.0242429710924625,-0.0317110195755959,-0.06084393709898,-0.0230139158666134
290,0.0110105071216822,0.00170547177549452,-0.0194123983383179,-0.0281857904046774,-0.0574393421411514,-0.0210169441998005
291,0.0128968544304371,0.00491391867399216,-0.0150742800906301,-0.0240853857249022,-0.0527665577828884,-0.0177719537168741
292,0.0148337632417679,0.00912039913237095,-0.01088912691921,-0.0188926793634892,-0.0468668937683105,-0.0135241653770208
293,0.0139386942610145,0.0100660966709256,-0.0108747268095613,-0.0172798056155443,-0.0428667813539505,-0.0137194329872727
294,0.0102754849940538,0.00746568711474538,-0.0155372442677617,-0.0207102950662375,-0.0414772145450115,-0.0186825431883335
295,0.00676507968455553,0.00513904169201851,-0.020778538659215,-0.0255708526819944,-0.0403692163527012,-0.0241303630173206
296,0.00516702141612768,0.00502289365977049,-0.0230610501021147,-0.0286131035536528,-0.0371626652777195,-0.02767114341259
297,0.00744910957291722,0.00885156448930502,-0.0199827793985605,-0.027059268206358,-0.0302560701966286,-0.026595801115036
298,0.0110503621399403,0.0133139071986079,-0.0154120130464435,-0.0235054641962051,-0.0226751547306776,-0.0234793741255999
299,0.00949080847203732,0.0108669092878699,-0.0171584244817495,-0.0254104025661945,-0.0201298370957375,-0.0263195876032114
300,0.00464494666084647,0.00473433267325163,-0.0231127738952637,-0.0310938600450754,-0.0217481702566147,-0.0322924256324768
301,0.00346249877475202,0.00395345082506537,-0.0253379307687283,-0.0324585922062397,-0.0223143473267555,-0.0323640443384647
302,0.00439678784459829,0.00594965647906065,-0.0253358837217093,-0.0309723298996687,-0.0228287260979414,-0.0299949888139963
303,0.00352902826853096,0.00530069367960095,-0.0275603979825974,-0.0320513471961021,-0.0268881842494011,-0.0315608009696007
304,0.000851963006425649,0.00190342683345079,-0.0319542810320854,-0.0367693975567818,-0.0345550253987312,-0.0369240380823612
305,-0.00232460373081267,-0.00233262381516397,-0.0365390293300152,-0.0428920835256577,-0.0434909276664257,-0.0426596216857433
306,-0.00127845583483577,-0.000918795471079648,-0.0350137613713741,-0.0432064384222031,-0.0475623346865177,-0.0408470071852207
307,0.00507556926459074,0.00702085252851248,-0.0257320366799831,-0.0357803590595722,-0.0433552823960781,-0.0312256533652544
308,0.0110701834782958,0.0134283639490604,-0.0168192703276873,-0.0281619057059288,-0.036064300686121,-0.0231343116611242
309,0.0129116615280509,0.0140017746016383,-0.0142671009525657,-0.0257491953670979,-0.0317608751356602,-0.0213394425809383
310,0.00938221346586943,0.00859482493251562,-0.0184960756450891,-0.0296927485615015,-0.0332049541175365,-0.0266424044966698
311,0.000156655893079005,-0.00272559956647456,-0.0283389706164598,-0.0398376807570457,-0.0415852926671505,-0.0395454652607441
312,-0.00946815218776464,-0.0142545429989696,-0.0384368747472763,-0.0512990765273571,-0.0529238842427731,-0.0539246834814548
313,-0.0122367590665817,-0.0178980771452188,-0.0419264584779739,-0.0574930123984814,-0.0602304264903069,-0.0613542832434177
314,-0.00934398639947176,-0.0144625762477517,-0.0401784963905811,-0.0586155988276005,-0.0627221986651421,-0.0622475929558277
315,-0.00686602108180523,-0.00939603708684444,-0.0388406366109848,-0.0577874220907688,-0.0640519708395004,-0.0602792911231518
316,-0.00589493988081813,-0.0035125995054841,-0.0375924184918404,-0.0539871565997601,-0.0644690468907356,-0.0551151260733604
317,-0.00315391388721764,0.00486077647656202,-0.032482672482729,-0.0454573482275009,-0.0610109120607376,-0.0461325943470001
318,0.0018092185491696,0.0133644957095385,-0.0242892149835825,-0.0354020930826664,-0.0533006973564625,-0.0370586290955544
319,0.00560890696942806,0.0172158479690552,-0.0181214641779661,-0.0293642561882734,-0.0446155108511448,-0.0332859456539154
320,0.00517512997612357,0.0146741066128016,-0.0173918195068836,-0.0301017183810472,-0.0384149327874184,-0.0366719216108322
321,0.000943723192904145,0.00845418591052294,-0.0204411204904318,-0.03557413443923,-0.0354980975389481,-0.0438644774258137
322,-0.00429590744897723,0.002117735799402,-0.023901104927063,-0.0415116660296917,-0.0345705859363079,-0.0506414286792278
323,-0.00815534126013517,-0.00226379744708538,-0.0263728816062212,-0.045405451208353,-0.0341660007834435,-0.0546535365283489
324,-0.00909861922264099,-0.00275610643438995,-0.0269388128072023,-0.046200156211853,-0.0332523994147778,-0.0535690151154995
325,-0.00753100775182247,0.000867904513143003,-0.0257089175283909,-0.0440088398754597,-0.0324011407792568,-0.0474767982959747
326,-0.00496999360620975,0.0072543048299849,-0.0236380081623793,-0.0396874845027924,-0.0329749211668968,-0.0387607514858246
327,-0.00272348686121404,0.0135048003867269,-0.0216177515685558,-0.0352513864636421,-0.0344210676848888,-0.0311585925519466
328,-0.00218594074249268,0.0155284004285932,-0.0214227885007858,-0.0336125642061234,-0.0349878035485744,-0.0291904658079147
329,-0.00398568715900183,0.0123711284250021,-0.0241910759359598,-0.0353926979005337,-0.0343050509691238,-0.0334953814744949
330,-0.00642900029197335,0.0075389570556581,-0.0276915598660707,-0.0377426892518997,-0.0321819707751274,-0.0394593290984631
331,-0.00888138357549906,0.00275369943119586,-0.0308099258691072,-0.0392173081636429,-0.0297070052474737,-0.044716265052557
332,-0.0123756807297468,-0.00255038449540734,-0.0354764014482498,-0.0415464974939823,-0.0294957142323256,-0.050344180315733
333,-0.015517215244472,-0.00635453732684255,-0.0409885495901108,-0.0448833703994751,-0.0318752750754356,-0.0547640323638916
334,-0.0183010250329971,-0.00962953548878431,-0.0472796820104122,-0.0499693378806114,-0.0368004143238068,-0.0585419498383999
335,-0.0211446527391672,-0.0140869347378612,-0.0542921349406242,-0.0564773678779602,-0.0437179617583752,-0.0623604878783226
336,-0.0211476925760508,-0.0158994197845459,-0.057193148881197,-0.0590538755059242,-0.0491054356098175,-0.0617992505431175
337,-0.0187196377664804,-0.0147175220772624,-0.0548148304224014,-0.0565837398171425,-0.0508590377867222,-0.0575189478695393
338,-0.0178260467946529,-0.0154021857306361,-0.0521379709243774,-0.0543975420296192,-0.0504257008433342,-0.0565273277461529
339,-0.0187607482075691,-0.0178385619074106,-0.0510758869349957,-0.0539407432079315,-0.0493025071918964,-0.0598257258534431
340,-0.0180143751204014,-0.0158931985497475,-0.0483236610889435,-0.050753153860569,-0.0476555787026882,-0.0603700391948223
341,-0.0134547306224704,-0.00638415338471532,-0.0417013354599476,-0.0421935431659222,-0.0454338788986206,-0.0537041611969471
342,-0.0079833148047328,0.00491802534088492,-0.0349552184343338,-0.0325632579624653,-0.0440929159522057,-0.0448216162621975
343,-0.00439306488260627,0.0121955201029778,-0.0314149223268032,-0.0261896327137947,-0.0443152412772179,-0.0387520529329777
344,-0.00145490223076195,0.0166171155869961,-0.0288345646113157,-0.0216040201485157,-0.0436781980097294,-0.0338410921394825
345,0.000651382957585156,0.0190553665161133,-0.0261184982955456,-0.0180938951671124,-0.0412743166089058,-0.0297705698758364
346,0.00160215562209487,0.0197519734501839,-0.023469490930438,-0.0160406939685345,-0.037613607943058,-0.027599984779954
347,0.0021225216332823,0.0190962944179773,-0.0209877267479897,-0.0148321576416492,-0.0330355614423752,-0.027568444609642
348,0.00097493635257706,0.0160977989435196,-0.0206340048462152,-0.0150941768661141,-0.0299564320594072,-0.0303114075213671
349,-0.00185210595373064,0.0124877812340856,-0.0221466533839703,-0.0160029754042625,-0.0298186261206865,-0.0337435081601143
350,-0.00429446715861559,0.0105296485126019,-0.0232537221163511,-0.0161227267235518,-0.0307929459959269,-0.0357634946703911
351,-0.00597076676785946,0.00927999056875706,-0.0243216529488564,-0.0167884640395641,-0.0318719297647476,-0.0375165455043316
352,-0.00811414700001478,0.00794634316116571,-0.0271785873919725,-0.0192049201577902,-0.03441122174263,-0.0393914580345154
353,-0.0105328690260649,0.00757847679778934,-0.0314712226390839,-0.0220378953963518,-0.0383588075637817,-0.0399887077510357
354,-0.0107732955366373,0.0104011241346598,-0.0338263101875782,-0.0221780147403479,-0.0407796129584312,-0.0370041206479073
355,-0.00605172943323851,0.0190997961908579,-0.0296811703592539,-0.0160221103578806,-0.0380166321992874,-0.0275864414870739
356,0.00191058788914233,0.0307027455419302,-0.0202074740082026,-0.00583526073023677,-0.0302369054406881,-0.0149851506575942
357,0.00803547259420156,0.0388674549758434,-0.011865028180182,0.00152428599540144,-0.0214358400553465,-0.00609316537156701
358,0.00915628392249346,0.0407627150416374,-0.0084894560277462,0.00292880623601377,-0.0146106174215674,-0.00433009536936879
359,0.00435121497139335,0.0353669859468937,-0.0112870549783111,-0.00231469236314297,-0.0109452698379755,-0.0112523837015033
360,-0.00351746939122677,0.0257989540696144,-0.0181914865970612,-0.0114922244101763,-0.00993507914245129,-0.0230776946991682
361,-0.0103503046557307,0.0172644425183535,-0.0248928517103195,-0.0189826637506485,-0.0109920352697372,-0.0327176004648209
362,-0.0144686503335834,0.0122356098145247,-0.0287999864667654,-0.0216743480414152,-0.0139391981065273,-0.0367758721113205
363,-0.0149276237934828,0.0122082615271211,-0.0288574304431677,-0.0191250499337912,-0.0167275313287973,-0.0347733609378338
364,-0.0127939321100712,0.0153729431331158,-0.0268692169338465,-0.0143803283572197,-0.0180568415671587,-0.0298828762024641
365,-0.0111435679718852,0.0167698375880718,-0.0263170041143894,-0.0127683198079467,-0.0190135519951582,-0.027598200365901
366,-0.0116931106895208,0.0138798132538795,-0.0285446103662252,-0.0170319080352783,-0.0202221907675266,-0.0304300505667925
367,-0.0139323882758617,0.00858246628195047,-0.0327527970075607,-0.0251347497105598,-0.021009499207139,-0.0363754257559776
368,-0.0161960311233997,0.00514585990458727,-0.0368624031543732,-0.0317757688462734,-0.0207782685756683,-0.040394738316536
369,-0.0154417306184769,0.00811739824712276,-0.0361914709210396,-0.0310592520982027,-0.0182196516543627,-0.0363304354250431
370,-0.00965381693094969,0.0182706136256456,-0.0277776475995779,-0.0217383448034525,-0.0117836492136121,-0.0232442729175091
371,-0.00269386125728488,0.0284133218228817,-0.0173239968717098,-0.0114832939580083,-0.00426344247534871,-0.0109256943687797
372,0.00106692791450769,0.0320241264998913,-0.011609491892159,-0.00773213058710098,4.54327437182656E-06,-0.00794353522360325
373,0.00322271278128028,0.0316253677010536,-0.00976869463920593,-0.00855311378836632,0.00146382057573646,-0.0106178419664502
374,0.00553224608302116,0.0305431913584471,-0.00940608698874712,-0.00985672324895859,0.00274651753716171,-0.0136616788804531
375,0.00538734719157219,0.0263590980321169,-0.0128220347687602,-0.0129495561122894,0.00379190943203866,-0.0191139969974756
376,0.00202758447267115,0.0190359503030777,-0.0207200944423676,-0.0181963201612234,0.00393999274820089,-0.0272829402238131
377,-0.00134733750019223,0.0140241617336869,-0.0285335835069418,-0.0210844893008471,0.00419999985024333,-0.0323706306517124
378,-0.00323478900827467,0.0137318335473537,-0.033104233443737,-0.019159184768796,0.00524642178788781,-0.0314687341451645
379,-0.00299260835163295,0.0173463951796293,-0.0335682481527328,-0.0132924541831017,0.00813629198819399,-0.0258663240820169
380,-0.0013120990479365,0.0212737638503313,-0.0329446084797382,-0.00750259822234511,0.0114184664562345,-0.0204985029995441
381,-0.000725269201211631,0.0214620344340801,-0.0356792919337749,-0.00609427457675338,0.0111726308241487,-0.0201827622950077
382,-0.00142446393147111,0.0193603094667196,-0.0398749150335789,-0.00781870074570179,0.00745328003540635,-0.0231517180800438
383,-0.00289443135261536,0.0167626887559891,-0.0426560342311859,-0.010333358310163,0.00216240272857249,-0.0274182911962271
384,-0.00368306809104979,0.0154203474521637,-0.0429354682564735,-0.0117087829858065,-0.00294568878598511,-0.0316858254373074
385,-0.00187657389324158,0.016973415389657,-0.0401458963751793,-0.0109886163845658,-0.00590642355382442,-0.0344474501907825
386,0.0023320559412241,0.0204803068190813,-0.0351133942604065,-0.00930807553231716,-0.00590622937306762,-0.0356617197394371
387,0.00581742078065872,0.0231548715382814,-0.0312379021197557,-0.00809108093380928,-0.00459642568603158,-0.0365684740245342
388,0.00496181007474661,0.0222149565815926,-0.0328712575137615,-0.00874837394803762,-0.00556338764727116,-0.0388406030833721
389,0.00201964378356934,0.0209368169307709,-0.0376442484557629,-0.009053367190063,-0.00949532072991133,-0.0390102043747902
390,-0.000934496463742107,0.0212125014513731,-0.0423069596290588,-0.00850762892514467,-0.0157596673816442,-0.0363148078322411
391,-0.00561966607347131,0.0191719271242619,-0.0478303618729115,-0.0109904622659087,-0.0241712741553783,-0.0362737849354744
392,-0.0111795617267489,0.0135924415662885,-0.0531320385634899,-0.0168472360819578,-0.0324780568480492,-0.0406581498682499
393,-0.0139904329553247,0.00828183256089687,-0.0543158128857613,-0.0215322505682707,-0.0372080840170383,-0.045288909226656
394,-0.0108941458165646,0.00894371420145035,-0.0489204376935959,-0.0202510971575975,-0.0355865657329559,-0.044947411864996
395,-0.00342771806754172,0.0161339156329632,-0.0407703183591366,-0.0144390296190977,-0.0289678033441305,-0.0408621914684772
396,0.00402181828394532,0.0259510260075331,-0.035474106669426,-0.0095004765316844,-0.021821977570653,-0.0377726405858994
397,0.00850876420736313,0.0342754647135735,-0.0346537716686726,-0.00915056373924017,-0.017263151705265,-0.038515530526638
398,0.00765263382345438,0.0362434983253479,-0.0400960482656956,-0.0166973453015089,-0.0177543945610523,-0.04622483253479
399,0.00162733974866569,0.0314527563750744,-0.0520409271121025,-0.0311909355223179,-0.0240283273160458,-0.0599615052342415
400,-0.00543560041114688,0.0259926840662956,-0.0643891394138336,-0.0446598157286644,-0.0328492671251297,-0.0723041966557503
401,-0.0093532856553793,0.0255045276135206,-0.0708080232143402,-0.0501420460641384,-0.0399872250854969,-0.0767735317349434
402,-0.00911386404186487,0.0307775270193815,-0.0709780529141426,-0.0475149489939213,-0.0438582599163055,-0.0726267173886299
403,-0.00602528033778071,0.0396919064223766,-0.0676165074110031,-0.0405222065746784,-0.0455170199275017,-0.0633140951395035
404,-0.0041858833283186,0.0470243766903877,-0.0661937445402145,-0.0355364866554737,-0.0482240617275238,-0.0567307025194168
405,-0.00669410265982151,0.0485976822674274,-0.0707807987928391,-0.0371777601540089,-0.0540028475224972,-0.0588797368109226
406,-0.0095088817179203,0.0490106903016567,-0.0760408937931061,-0.0410119630396366,-0.0593300461769104,-0.0649430230259895
407,-0.00833648163825274,0.053827777504921,-0.0763436853885651,-0.0414654724299908,-0.0609171949326992,-0.0682081580162048
408,-0.00443501211702824,0.0613356716930866,-0.0736975967884064,-0.0396636538207531,-0.0608818456530571,-0.0691511332988739
409,-0.000647555803880095,0.0674453899264336,-0.071357898414135,-0.0384437628090382,-0.0623476952314377,-0.0703463107347488
410,0.00242817681282759,0.0717790424823761,-0.0688149631023407,-0.0372854843735695,-0.0639786049723625,-0.0706427246332169
411,0.00598234916105866,0.0766919851303101,-0.0647439360618591,-0.0339567437767982,-0.0626119077205658,-0.0675071775913239
412,0.00923285447061062,0.0817182585597038,-0.0616466253995895,-0.0295568872243166,-0.0593271888792515,-0.0625739097595215
413,0.0102784084156156,0.084670677781105,-0.0622355341911316,-0.02684086561203,-0.0575089082121849,-0.0591639615595341
414,0.0106470603495836,0.087573453783989,-0.0631822124123573,-0.0237674620002508,-0.0572445094585419,-0.054999440908432
415,0.0111152119934559,0.09117691218853,-0.0619099512696266,-0.0183699242770672,-0.0580503903329372,-0.0486518666148186
416,0.0090846735984087,0.0917098447680473,-0.0616952776908875,-0.0143605330958962,-0.061885017901659,-0.0447300747036934
417,0.00603201054036617,0.0904009714722633,-0.0624618753790855,-0.0130338771268725,-0.067533478140831,-0.0436641573905945
418,0.00553594343364239,0.0908966213464737,-0.0614533759653568,-0.0125992484390736,-0.0714835450053215,-0.0435023456811905
419,0.00565131474286318,0.0908224210143089,-0.0610916577279568,-0.0150884687900543,-0.0747774541378021,-0.0472437180578709
420,0.00318679725751281,0.0874917209148407,-0.0650070980191231,-0.0221306215971708,-0.0810312479734421,-0.0554551109671593
421,-0.000359605153789744,0.0837801471352577,-0.0720905661582947,-0.0298269204795361,-0.0901210531592369,-0.0623211264610291
422,-0.00152006046846509,0.084277905523777,-0.076893724501133,-0.0322569273412228,-0.0970453545451164,-0.0619900450110435
423,0.00144615094177425,0.0905200019478798,-0.074213370680809,-0.0261813439428806,-0.0965537428855896,-0.05298762768507
424,0.00568662490695715,0.0976137667894363,-0.0668636411428452,-0.0156869031488895,-0.0906096994876862,-0.0413180552423
425,0.00589567190036178,0.0978538319468498,-0.0642511323094368,-0.0106902597472072,-0.0871825963258743,-0.0367994382977486
426,0.00277407630346715,0.0917986631393433,-0.0688770487904549,-0.0140772676095366,-0.0892530679702759,-0.0406877100467682
427,0.000536640989594162,0.0857429206371307,-0.0756544917821884,-0.0202819649130106,-0.0939543023705482,-0.0470102801918983
428,-0.000774993328377604,0.0812370851635933,-0.0819919481873512,-0.0263896584510803,-0.100126869976521,-0.0532246381044388
429,-0.00210370519198477,0.0775083005428314,-0.0869947075843811,-0.0319490805268288,-0.107459254562855,-0.0586156733334064
430,-0.000983709818683565,0.0773304775357246,-0.0868640542030334,-0.0329290367662907,-0.112002059817314,-0.0596954300999641
431,0.003859888529405,0.0826530456542969,-0.0801125317811966,-0.0265792310237885,-0.110987707972527,-0.0552064329385757
432,0.00896925944834948,0.0899763852357864,-0.0717640668153763,-0.0171575285494328,-0.108177043497562,-0.0492876917123795
433,0.0098263043910265,0.0936654359102249,-0.06803859770298,-0.0110999792814255,-0.108964912593365,-0.046769917011261
434,0.00609422754496336,0.0921746492385864,-0.0700895935297012,-0.0104596223682165,-0.11433070898056,-0.0483178235590458
435,0.00329859182238579,0.0902335047721863,-0.0719343647360802,-0.0111685479059815,-0.119781374931335,-0.0497828461229801
436,0.00394563609734178,0.0896143242716789,-0.0700339525938034,-0.0112843932583928,-0.122428953647614,-0.05095299705863
437,0.00395355746150017,0.0864427760243416,-0.0690501853823662,-0.0149549301713705,-0.125618532299995,-0.0569013506174088
438,0.00324998050928116,0.0827958360314369,-0.0698118433356285,-0.0211520232260227,-0.130825683474541,-0.0648615434765816
439,0.00572589552029967,0.0845869556069374,-0.0676599517464638,-0.0232776161283255,-0.135082259774208,-0.066795751452446
440,0.0102526023983955,0.0896844938397408,-0.0633647218346596,-0.02113963291049,-0.136752337217331,-0.0631324499845505
441,0.013498873449862,0.0927277505397797,-0.0602661743760109,-0.0190209783613682,-0.135681673884392,-0.05886110663414
442,0.014622550457716,0.0929507091641426,-0.058454092592001,-0.0183955561369658,-0.132176637649536,-0.0555102601647377
443,0.0142031973227859,0.0918295234441757,-0.0563504993915558,-0.0184764564037323,-0.126685082912445,-0.0529943220317364
444,0.0130510590970516,0.089584082365036,-0.0533755719661713,-0.0196097269654274,-0.119385316967964,-0.0528656356036663
445,0.0115023031830788,0.0856864005327225,-0.0511869862675667,-0.0231985989958048,-0.111518353223801,-0.0561683252453804
446,0.00980478059500456,0.0811232626438141,-0.0510616898536682,-0.027948834002018,-0.104972749948502,-0.0601708814501762
447,0.00807601679116488,0.0771864056587219,-0.0527446083724499,-0.0315361209213734,-0.100764892995358,-0.0620265901088715
448,0.00747837917879224,0.0758245289325714,-0.0535261817276478,-0.0321353673934937,-0.0972036346793175,-0.059782836586237
449,0.00774916168302298,0.0764521136879921,-0.0519913919270039,-0.0303566083312035,-0.0932094901800156,-0.0549652017652988
450,0.00596721656620502,0.0745757520198822,-0.0507709830999374,-0.0302692670375109,-0.0907964929938316,-0.0533356741070747
451,0.00167087453883141,0.0691166296601295,-0.0510408617556095,-0.0332402437925339,-0.0906320735812187,-0.0565170310437679
452,-0.0031813879031688,0.0630640238523483,-0.0520096682012081,-0.0371744632720947,-0.0916415154933929,-0.0616333931684494
453,-0.00677006738260388,0.0592450834810734,-0.0529384128749371,-0.0401503890752792,-0.0925143957138062,-0.065707765519619
454,-0.00793305970728397,0.0589107125997543,-0.0529359355568886,-0.0405343510210514,-0.0921089351177216,-0.0664907991886139
455,-0.00732161803171039,0.0605193935334682,-0.0520488768815994,-0.0380753912031651,-0.0909393876791,-0.0646620616316795
456,-0.00575097044929862,0.061760775744915,-0.0503552667796612,-0.0341643206775188,-0.0892322510480881,-0.0623154826462269
457,-0.00152390904258937,0.0643856450915337,-0.0451799519360065,-0.028238320723176,-0.0844590291380882,-0.0577261187136173
458,0.00286733685061336,0.0666119754314423,-0.0383276045322418,-0.0227285958826542,-0.0776820331811905,-0.0531146228313446
459,0.00225002528168261,0.0639521405100822,-0.0351490266621113,-0.0218689888715744,-0.0739521607756615,-0.0529173314571381
460,-0.00125801865942776,0.06044876947999,-0.033592663705349,-0.022136814892292,-0.0741084665060043,-0.0523688644170761
461,-0.0040710000321269,0.0595237165689468,-0.0307767558842897,-0.0202600583434105,-0.0759308338165283,-0.048055212944746
462,-0.00601211376488209,0.0587174259126186,-0.0282360557466745,-0.0186732579022646,-0.0771930292248726,-0.0435494221746922
463,-0.00638846401125193,0.0576002895832062,-0.0261932201683521,-0.0179640632122755,-0.0762762725353241,-0.040516085922718
464,-0.00419891765341163,0.0578257255256176,-0.0232208743691444,-0.0160735975950956,-0.0728154331445694,-0.0373473204672337
465,-0.000894970376975834,0.0583323538303375,-0.0206223633140326,-0.0137270493432879,-0.0679230093955994,-0.03468968719244
466,0.00154179683886468,0.0573124922811985,-0.0204325523227453,-0.0132054062560201,-0.0630063936114311,-0.0346349440515041
467,0.00369763607159257,0.0564527660608292,-0.0211236048489809,-0.0132819963619113,-0.057599738240242,-0.035193033516407
468,0.00539462082087994,0.0565320029854774,-0.0217559821903706,-0.0125745330005884,-0.0516953691840172,-0.0344468578696251
469,0.00420066760852933,0.0547580644488335,-0.023700512945652,-0.013059388846159,-0.0468550771474838,-0.0349800735712051
470,0.000769033504184335,0.0518079176545143,-0.0250254068523645,-0.0142624154686928,-0.0429339930415154,-0.0364761054515839
471,-0.00154644600115716,0.0510046444833279,-0.0220825988799334,-0.0131460772827268,-0.0390440821647644,-0.0357951484620571
472,-0.00308072497136891,0.0500750951468945,-0.017237912863493,-0.0123770460486412,-0.0367084145545959,-0.0361413061618805
473,-0.00546280480921268,0.0463248491287231,-0.0151688745245337,-0.0158508829772472,-0.0372998677194119,-0.0409703254699707
474,-0.00637185759842396,0.0435860976576805,-0.0144470045343041,-0.0198972336947918,-0.0387853644788265,-0.0455851815640926
475,-0.00327443308196962,0.0459389500319958,-0.0111901583150029,-0.0189927816390991,-0.0384155549108982,-0.0444472506642342
476,0.00317815574817359,0.0528729222714901,-0.00450184941291809,-0.0120924664661288,-0.0352016240358353,-0.0372690558433533
477,0.0093904035165906,0.0596888698637486,0.00279734563082457,-0.00319303013384342,-0.02992794662714,-0.0287145748734474
478,0.010026584379375,0.0595214813947678,0.00531538017094135,0.000792742299381644,-0.0258160121738911,-0.0262124314904213
479,0.00512224435806274,0.0523957908153534,0.00284464773721993,-0.0011393481399864,-0.0246029905974865,-0.0300441142171621
480,0.00294830463826656,0.0483247637748718,0.00379688944667578,-0.000761878094635904,-0.0221346616744995,-0.0296908058226109
481,0.00657108705490828,0.0506286136806011,0.0105833914130926,0.00502646341919899,-0.0158627796918154,-0.0223628673702478
482,0.00842004548758268,0.0500283129513264,0.0132608590647578,0.00744851306080818,-0.0107675464823842,-0.0192133765667677
483,0.00537618342787027,0.0434858910739422,0.0076599232852459,0.00207567517645657,-0.00994005240499973,-0.0239869579672813
484,3.83216429327149E-05,0.0344866439700127,-0.00219688517972827,-0.0079107042402029,-0.012243390083313,-0.0327344499528408
485,-0.00665277568623424,0.0238130073994398,-0.0139080360531807,-0.0198248233646154,-0.0166643392294645,-0.0439846366643906
486,-0.0105265593156219,0.0168430954217911,-0.0212606284767389,-0.0270318984985352,-0.0187797136604786,-0.0509134903550148
487,-0.00817139726132154,0.0183944404125214,-0.0187567099928856,-0.023618645966053,-0.0150025831535459,-0.0473296418786049
488,-0.00317489472217858,0.0237411446869373,-0.0112233618274331,-0.014627113007009,-0.00832701195031405,-0.0384316518902779
489,0.000327240966726094,0.0265710633248091,-0.0059867687523365,-0.00879550538957119,-0.00229141116142273,-0.0323052145540714
490,0.00140576355624944,0.0251024104654789,-0.00495977094396949,-0.0082385241985321,0.00221589603461325,-0.0314803458750248
491,0.000781373004429042,0.0206445958465338,-0.00589666096493602,-0.00991823337972164,0.00520062353461981,-0.0338706709444523
492,0.000653613300528377,0.0172191057354212,-0.00524529302492738,-0.0100575834512711,0.00784201547503471,-0.0346597209572792
493,0.00322176399640739,0.0191266257315874,-0.00137594726402313,-0.00613251747563481,0.0109484754502773,-0.0298173651099205
494,0.00821791402995586,0.0257868207991123,0.00422459281980991,0.000733638182282448,0.013739394955337,-0.0207472238689661
495,0.0130064422264695,0.0321483053267002,0.00826313998550177,0.00632493430748582,0.0152389695867896,-0.0130187859758735
496,0.0144710158929229,0.033097181469202,0.00718993321061134,0.00710997823625803,0.0150211695581675,-0.0114730168133974
497,0.0127876289188862,0.0292269568890333,0.00250767241232097,0.0046666357666254,0.0145172886550426,-0.0143072800710797
498,0.0112142469733953,0.0264026541262865,0.000360072473995388,0.00421590264886618,0.0164206027984619,-0.0147423511371017
499,0.011463975533843,0.0277206916362047,0.00366702093742788,0.00817077420651913,0.0216822195798159,-0.00976652465760708
500,0.0127467270940542,0.0311195310205221,0.00995625462383032,0.0149264931678772,0.0279332958161831,-0.00217869365587831
501,0.0136640220880508,0.0329336188733578,0.0152337877079844,0.0211500804871321,0.031120652332902,0.00295620993711054
502,0.0145219229161739,0.0326062552630901,0.0187990311533213,0.0248272828757763,0.0303970649838448,0.00385950272902846
503,0.0174119118601084,0.033764909952879,0.0230914782732725,0.0277982447296381,0.0288161616772413,0.00455641839653254
504,0.0222566816955805,0.0380195789039135,0.0281162839382887,0.0317048989236355,0.0276168305426836,0.00783003401011229
505,0.0254368130117655,0.0409573912620544,0.0298259947448969,0.0331069342792034,0.0248878914862871,0.00932402908802032
506,0.0251056253910065,0.0391195900738239,0.0265790168195963,0.0296069458127022,0.0206753574311733,0.00579556310549378
507,0.0229495856910944,0.0350912176072598,0.0217764433473349,0.024738997220993,0.0177236255258322,0.00108272151555866
508,0.0200668945908546,0.0321286506950855,0.0190416537225246,0.0226173736155033,0.0175541527569294,-0.00108048634137958
509,0.0155110796913505,0.02906259521842,0.0183237120509148,0.0226769484579563,0.0189485047012568,-0.00223560142330825
510,0.00989536847919226,0.0245154872536659,0.0186261422932148,0.0221227519214153,0.0208737533539534,-0.00430202623829246
511,0.00518312444910407,0.0196406580507755,0.0191798415035009,0.019847646355629,0.0225975811481476,-0.00656960112974048
512,0.00128672178834677,0.0152166904881597,0.0178854297846556,0.0163303576409817,0.0223227124661207,-0.0080370856449008
513,-0.00215674634091556,0.0112819969654083,0.0142683852463961,0.0126409027725458,0.0211083516478539,-0.00864296313375235
514,-0.00417123408988118,0.00771303987130523,0.0105372704565525,0.00992389675229788,0.0226511210203171,-0.00903816614300013
515,-0.00423142919316888,0.00499141402542591,0.00931607652455568,0.00930752698332071,0.0278920400887728,-0.00887108128517866
516,-0.00329523673281074,0.00387450377456844,0.0110647268593311,0.0105904089286923,0.0345562361180782,-0.00737257534638047
517,-0.00258055818267167,0.00415618764236569,0.0139433210715652,0.0118969595059752,0.0406421981751919,-0.00507939280942082
518,-0.00399320246651769,0.00294290576130152,0.0144346300512552,0.0101608140394092,0.0444668792188168,-0.00501395901665092
519,-0.008915975689888,-0.00207450590096414,0.00988765805959702,0.00415836973115802,0.0436982698738575,-0.00886002648621798
520,-0.0146345188841224,-0.00762903923168778,0.00352346524596214,-0.00221286667510867,0.0390213467180729,-0.0129625964909792
521,-0.0166041478514671,-0.00900139473378658,0.00161960849072784,-0.00397051870822906,0.034881915897131,-0.0133831575512886
522,-0.0132652772590518,-0.0049672476015985,0.00668661715462804,0.00038052664604038,0.0339508838951588,-0.00930783897638321
523,-0.00719581311568618,0.00175595236942172,0.0156202903017402,0.00864044670015574,0.0350043214857578,-0.00299445143900812
524,-0.00342979398556054,0.00529845803976059,0.0213714614510536,0.015036036260426,0.0352717079222202,-0.000231613419600762
525,-0.00374322454445064,0.00336621911264956,0.0209980066865683,0.0159876644611359,0.0342793613672256,-0.00306886434555054
526,-0.00295688421465456,0.00298431608825922,0.0213747378438711,0.0166830308735371,0.0358175374567509,-0.00345527473837137
527,0.00275486847385764,0.0100885229185224,0.0283371731638908,0.0229166951030493,0.0424620062112808,0.00529111735522747
528,0.00963485334068537,0.0202509686350822,0.0381071828305721,0.0322119109332561,0.0513595193624496,0.0189427677541971
529,0.013204300776124,0.0268998686224222,0.0453916937112808,0.0395313389599323,0.0587501786649227,0.0306848529726267
530,0.0125791411846876,0.0281156841665506,0.0489840544760227,0.0425541736185551,0.0635316967964172,0.036885179579258
531,0.00788754969835281,0.0234660636633635,0.0483536012470722,0.0399097055196762,0.0652799904346466,0.0349520295858383
532,0.0015731843886897,0.0152454022318125,0.0446313172578812,0.0333066284656525,0.0645997747778893,0.0269265491515398
533,-0.0016066204989329,0.00997843313962221,0.0420682542026043,0.0282670594751835,0.0635916367173195,0.0203328244388103
534,-0.000232213569688611,0.0114387152716517,0.0424952656030655,0.027912812307477,0.0621156059205532,0.0198748428374529
535,0.00402495497837663,0.0180903431028128,0.0453082583844662,0.0315847359597683,0.0603404827415943,0.0249335989356041
536,0.00800689589232206,0.0242450069636106,0.0487842261791229,0.0356385223567486,0.0598491057753563,0.0303689241409302
537,0.00896424893289804,0.025805601850152,0.0509642586112022,0.0373347997665405,0.0602716319262981,0.0327849984169006
538,0.00816424749791622,0.0251969080418348,0.05365976318717,0.0397367477416992,0.0619752518832684,0.0351712107658386
539,0.00587240420281887,0.0227141734212637,0.0564609169960022,0.0431549064815044,0.0640224888920784,0.0370571650564671
540,-7.91215788922273E-05,0.0149888349696994,0.0543496869504452,0.0419224910438061,0.062866248190403,0.0336012877523899
541,-0.00830832496285439,0.00348518299870193,0.0468054749071598,0.0345179587602615,0.0585112683475018,0.0241552423685789
542,-0.0141347823664546,-0.00571465073153377,0.039043128490448,0.0258230827748775,0.0549996718764305,0.0133097106590867
543,-0.0145049523562193,-0.00791623815894127,0.0353367701172829,0.0212461184710264,0.0555365905165672,0.00740378396585584
544,-0.00985601264983416,-0.00258446577936411,0.0374966859817505,0.0233391113579273,0.0609531179070473,0.0103402230888605
545,-0.00302746123634279,0.00654439767822623,0.0445997752249241,0.0303405895829201,0.0701847225427628,0.0199299696832895
546,0.00122446136083454,0.0125039638951421,0.050497118383646,0.0356238074600697,0.0788792818784714,0.0278946273028851
547,-0.00082159589510411,0.0102156633511186,0.0486922264099121,0.0330238156020641,0.0813348814845085,0.0271023325622082
548,-0.0063549755141139,0.00324842124246061,0.0411690287292004,0.0249307192862034,0.0773152932524681,0.0204885862767696
549,-0.0105947498232126,-0.00267876614816487,0.0336787067353725,0.0170826092362404,0.0712110996246338,0.0141964415088296
550,-0.0143896760419011,-0.00873993337154388,0.0269355271011591,0.00979636423289776,0.0650824084877968,0.00793732702732086
551,-0.0177450273185968,-0.0146746132522821,0.0225499141961336,0.00479747541248798,0.0605919696390629,0.00307407951913774
552,-0.0177038367837667,-0.0168162733316422,0.0241698529571295,0.00601612031459808,0.0601888485252857,0.00329053797759116
553,-0.0145292934030294,-0.0152850598096848,0.0301457811146975,0.0115142809227109,0.0626717805862427,0.00642309430986643
554,-0.00905115902423859,-0.0106605440378189,0.0370622798800468,0.0174038913100958,0.0654994994401932,0.00949484389275312
555,-0.00107802136335522,-0.00193692685570568,0.0441724173724651,0.0235024411231279,0.0680495053529739,0.0140999602153897
556,0.00588541617617011,0.00677728233858943,0.0483823157846928,0.0278324317187071,0.0684003978967667,0.0184891261160374
557,0.00810541957616806,0.00963672623038292,0.0459266044199467,0.0265213083475828,0.0642438530921936,0.0176572278141975
558,0.00715297646820545,0.00798157416284084,0.039240688085556,0.021267008036375,0.0575490891933441,0.0130403283983469
559,0.00533602992072701,0.00467180740088224,0.0328273512423038,0.0153471045196056,0.0523415543138981,0.00762285897508264
560,0.00212717964313924,-0.00105966220144182,0.0276550818234682,0.00879550259560347,0.0498416349291801,0.000727848382666707
561,-0.00275171082466841,-0.00775374658405781,0.0231919102370739,0.00287837092764676,0.0476939976215363,-0.00551216956228018
562,-0.00698519265279174,-0.0107434941455722,0.0199968237429857,0.000656014832202345,0.0442886725068092,-0.0058801076374948
563,-0.00902935769408941,-0.00963983125984669,0.0182235669344664,0.00197481457144022,0.0414468348026276,-0.000164648343343288
564,-0.0104639818891883,-0.00878483895212412,0.0173777546733618,0.00423517776653171,0.0405540876090527,0.00670862989500165
565,-0.0121017461642623,-0.0100448383018374,0.0186264421790838,0.00650663767009974,0.0411829091608524,0.011547964066267
566,-0.0124402530491352,-0.0114959124475718,0.0234597101807594,0.00937266182154417,0.0436729975044727,0.0146346483379602
567,-0.0109499087557197,-0.0116627383977175,0.0299718417227268,0.0126173114404082,0.0474513061344624,0.0166939850896597
568,-0.00951639842242002,-0.0120438085868955,0.033355250954628,0.0138526782393456,0.0495270825922489,0.0161308944225311
569,-0.00971369352191687,-0.0142259933054447,0.0318561494350433,0.0118478583171964,0.0488583073019981,0.0121382912620902
570,-0.00899782497435808,-0.0145659707486629,0.0310843829065561,0.0112340031191707,0.0497584752738476,0.0103866122663021
571,-0.0037388529162854,-0.00897240452468395,0.0372410863637924,0.0171683598309755,0.0568948648869991,0.0163436830043793
572,0.00304107205010951,-0.00229585194028914,0.0471954606473446,0.0264103654772043,0.0677660405635834,0.0252366494387388
573,0.00594790000468493,-0.00119050859939307,0.0542795918881893,0.0325709246098995,0.0764782577753067,0.0301767941564322
574,0.00478270137682557,-0.0052839620038867,0.0570194125175476,0.0342713594436646,0.0806413143873215,0.0305722411721945
575,0.00101561401970685,-0.0122227445244789,0.055207621306181,0.0322745554149151,0.0790823400020599,0.0275934711098671
576,-0.00277340086176991,-0.0183322932571173,0.0506677441298962,0.0290286596864462,0.0729985386133194,0.0245995745062828
577,-0.00227493676356971,-0.0184246134012938,0.0495891384780407,0.0295335464179516,0.0680802837014198,0.0268258266150951
578,0.0018166023073718,-0.0140420394018292,0.0527136661112309,0.0337356962263584,0.066553607583046,0.0328921638429165
579,0.00630561355501413,-0.00934672262519598,0.0568996742367744,0.0387803390622139,0.0667882040143013,0.0393384844064713
580,0.0102315964177251,-0.00528003880754113,0.0614606253802776,0.0440210960805416,0.0679463893175125,0.0448722206056118
581,0.00984058622270823,-0.00617654155939817,0.0612273477017879,0.0441623590886593,0.0664246007800102,0.0433568693697453
582,0.00448772590607405,-0.0121408235281706,0.054318618029356,0.0376972854137421,0.0606987625360489,0.0352717339992523
583,0.000317333993734792,-0.0161168370395899,0.0483461879193783,0.0327271372079849,0.055981308221817,0.0304031185805798
584,0.000680187018588185,-0.0155444843694568,0.0484091527760029,0.033718466758728,0.0564065203070641,0.0320448391139507
585,0.00523079186677933,-0.0104904631152749,0.0541166476905346,0.0397541709244251,0.0611093379557133,0.038653340190649
586,0.0102782379835844,-0.00427611218765378,0.0602292194962502,0.0462262853980064,0.0653959214687347,0.045614056289196
587,0.00925429258495569,-0.004903519526124,0.0592356212437153,0.0459174439311028,0.0638570711016655,0.0454836934804916
588,0.00120705866720527,-0.0141556151211262,0.0510713271796703,0.0382615216076374,0.0566846244037151,0.0379418805241585
589,-0.00728475349023938,-0.02444963529706,0.0438784621655941,0.0304386485368013,0.0506570786237717,0.0309747979044914
590,-0.0106612341478467,-0.028863413259387,0.0434927605092525,0.0282934904098511,0.0507941208779812,0.0307882279157639
591,-0.0104402285069227,-0.0290620196610689,0.0466308370232582,0.0297720730304718,0.0544646382331848,0.0338540300726891
592,-0.00991391018033028,-0.0291477143764496,0.0485581085085869,0.0301251448690891,0.0575119331479073,0.0340271517634392
593,-0.00949267856776714,-0.0297726280987263,0.0488835200667381,0.0285833403468132,0.059012308716774,0.0308864880353212
594,-0.0086935693398118,-0.0297719649970531,0.0486657470464706,0.0271173790097237,0.0590985119342804,0.0282777361571789
595,-0.0078763784840703,-0.0287826787680388,0.0488313958048821,0.027149548754096,0.0580889284610748,0.0291452147066593
596,-0.00717212865129113,-0.0270852334797382,0.0504828952252865,0.0289947092533112,0.0575201585888863,0.0333586856722832
597,-0.00466306041926146,-0.022647513076663,0.0562613941729069,0.0339306816458702,0.060036912560463,0.0412733219563961
598,-0.000439076509792358,-0.0163860637694597,0.0652824193239212,0.0408995784819126,0.0654439702630043,0.0510347262024879
599,0.00198836415074766,-0.0139692751690745,0.0716326013207436,0.0453669130802155,0.0705991163849831,0.0573367923498154
600,0.00158440775703639,-0.0168093778192997,0.0726637989282608,0.045648455619812,0.0736233294010162,0.0589377693831921
601,0.000664067047182471,-0.021537933498621,0.070421002805233,0.0437583923339844,0.0740187540650368,0.0591181926429272
602,-0.0010361090535298,-0.0290986429899931,0.0659857094287872,0.0397946238517761,0.0719699487090111,0.0573399402201176
603,-0.00590659026056528,-0.0427989587187767,0.0591082386672497,0.0326679982244968,0.0687589943408966,0.0506781935691834
604,-0.0122036952525377,-0.0589462220668793,0.0523787289857864,0.0255070496350527,0.0666663348674774,0.0420166440308094
605,-0.0149838728830218,-0.0693657398223877,0.0507189035415649,0.0238974243402481,0.0679901987314224,0.0381414592266083
606,-0.0127426367253065,-0.0713141411542892,0.0553650297224522,0.0287951156497002,0.0724276527762413,0.0411035940051079
607,-0.00807617418467999,-0.0683569461107254,0.0625563710927963,0.0355737619102001,0.0776762366294861,0.0469574853777885
608,-0.00319199333898723,-0.0639597624540329,0.0686520040035248,0.0401903539896011,0.082484744489193,0.0521659031510353
609,0.000614511372987181,-0.060225572437048,0.0724272504448891,0.0420403704047203,0.0865386128425598,0.0555379018187523
610,0.00256505724973977,-0.0584482960402966,0.0740455389022827,0.0424295514822006,0.0895902663469315,0.056809987872839
611,0.00261036888696253,-0.0589321479201317,0.0738764330744743,0.0422968938946724,0.0910630375146866,0.0557756684720516
612,-0.00122962880413979,-0.0645434036850929,0.0693277269601822,0.039203766733408,0.0886418297886848,0.0496402680873871
613,-0.00884487107396126,-0.0758346691727638,0.0596870332956314,0.0320535972714424,0.0827494785189629,0.0387398302555084
614,-0.013549187220633,-0.0843710601329803,0.0533125996589661,0.027515796944499,0.0798270553350449,0.0322622880339623
615,-0.012646852992475,-0.0858407691121101,0.0547961816191673,0.0294244159013033,0.0823168382048607,0.033642090857029
616,-0.0104605192318559,-0.0847986862063408,0.058349434286356,0.0331771150231361,0.085275836288929,0.0364623628556728
617,-0.00920308753848076,-0.0834624543786049,0.0592231340706348,0.0358304530382156,0.0843956470489502,0.0382831059396267
618,-0.00914506800472736,-0.0824109017848969,0.0561713613569736,0.0370234325528145,0.0792054161429405,0.039838083088398
619,-0.00997711066156626,-0.0824503600597382,0.0506648123264313,0.0361557602882385,0.073574960231781,0.0405393354594707
620,-0.0095994034782052,-0.0816042944788933,0.047653678804636,0.0354646109044552,0.0721056088805199,0.0421314910054207
621,-0.00684147980064154,-0.0777453929185867,0.0503364428877831,0.0383488014340401,0.0741684138774872,0.0474676936864853
622,-0.00327517115511,-0.0723030790686607,0.0563313141465187,0.0439274050295353,0.0755190029740334,0.0550297386944294
623,-0.00205770251341164,-0.0697809457778931,0.0595286339521408,0.046767920255661,0.0733678564429283,0.059256087988615
624,-0.00329929147846997,-0.0709815919399261,0.0581003613770008,0.0447264090180397,0.070109598338604,0.0592247247695923
625,-0.00352970138192177,-0.0712777674198151,0.0571916624903679,0.0425846688449383,0.0701386779546738,0.0600447207689285
626,-0.00419096928089857,-0.0721324384212494,0.0565847903490067,0.0407575741410255,0.0712395682930946,0.0602699592709541
627,-0.00685679027810693,-0.0760503560304642,0.054236926138401,0.0370078533887863,0.0703807473182678,0.0571542344987392
628,-0.00771582731977105,-0.0786317437887192,0.0537025108933449,0.0339679569005966,0.0696039646863937,0.0542041696608067
629,-0.00630001537501812,-0.0785095393657684,0.0546267442405224,0.0321246609091759,0.0696706995368004,0.0517180971801281
630,-0.00511507503688335,-0.0780490934848785,0.0539285838603973,0.0297155175358057,0.0698556900024414,0.0479549653828144
631,-0.00487772654742002,-0.0781982615590096,0.051414180546999,0.0268914829939604,0.0697216093540192,0.0442163497209549
632,-0.00467905262485147,-0.0777270570397377,0.0492982566356659,0.0257020983844996,0.0692225024104118,0.0438045784831047
633,-0.00207553734071553,-0.0731541067361832,0.0515089295804501,0.0297324527055025,0.0705645903944969,0.0509679764509201
634,0.00455801840871572,-0.0625447556376457,0.0600026249885559,0.0409277826547623,0.07601697742939,0.0665220990777016
635,0.0112553760409355,-0.0515715181827545,0.0695724114775658,0.0536187030375004,0.0821967720985413,0.0819858387112617
636,0.0121680004522204,-0.0485147163271904,0.0730826556682587,0.0589363276958466,0.0835018306970596,0.0870862901210785
637,0.00680172955617309,-0.0545676089823246,0.0697347670793533,0.0548057295382023,0.079462856054306,0.0808611214160919
638,0.000312705291435122,-0.0628513172268867,0.0644594356417656,0.0467771552503109,0.0740673616528511,0.0706868842244148
639,-0.00267169345170259,-0.0671189948916435,0.0611095204949379,0.0402258932590485,0.0707783177495003,0.0627593100070953
640,-0.00388596905395389,-0.0689727514982224,0.0577977672219276,0.034600704908371,0.0684715360403061,0.0567418932914734
641,-0.00661334907636046,-0.0715986341238022,0.052825964987278,0.0290154423564672,0.0650635808706284,0.0515626668930054
642,-0.0109223136678338,-0.0754671469330788,0.0476725287735462,0.0247736163437366,0.0612199790775776,0.0472695305943489
643,-0.0155004365369678,-0.0803068876266479,0.0439328625798225,0.0223880931735039,0.0586237087845802,0.0435574352741241
644,-0.0193991623818874,-0.0856578573584557,0.0422551296651363,0.0213511195033789,0.0582326352596283,0.0399926565587521
645,-0.0217641796916723,-0.0905295684933662,0.0426664687693119,0.0207918100059032,0.0596717149019241,0.0361299142241478
646,-0.0243008397519588,-0.0962118953466415,0.0423272736370564,0.0181639455258846,0.0609626471996307,0.0298706330358982
647,-0.0305583756417036,-0.105814434587955,0.0368593223392963,0.0105558261275291,0.0594487972557545,0.0186674781143665
648,-0.039978913962841,-0.118282064795494,0.026505496352911,-0.000983429607003927,0.054317083209753,0.00440279161557555
649,-0.0479991883039474,-0.127783507108688,0.0161920562386513,-0.0113171702250838,0.0480882301926613,-0.00681391265243292
650,-0.050036609172821,-0.12926396727562,0.0112048340961337,-0.0153174176812172,0.0450240448117256,-0.0100061856210232
651,-0.0456410124897957,-0.124272890388966,0.0124484123662114,-0.0127963284030557,0.0464087836444378,-0.00642804708331823
652,-0.0367386229336262,-0.115428514778614,0.0189779307693243,-0.00567853869870305,0.0509395487606525,0.00202354043722153
653,-0.0254611782729626,-0.104048274457455,0.0296469423919916,0.00367316952906549,0.0571923665702343,0.0138471946120262
654,-0.0149032883346081,-0.0935621857643127,0.0412433557212353,0.0116034401580691,0.0642381832003593,0.0250685047358274
655,-0.0079934960231185,-0.0859329104423523,0.0506110936403275,0.0163298007100821,0.0722643062472343,0.0332753993570805
656,-0.00387058337219059,-0.0769954472780228,0.0589077845215797,0.0208775848150253,0.0818504020571709,0.0419183559715748
657,-9.98104151221924E-05,-0.0644987970590591,0.0681415572762489,0.027683874592185,0.091507650911808,0.0543602257966995
658,0.000894018332473934,-0.0569255761802197,0.0736083015799522,0.0320778079330921,0.0974586680531502,0.065387487411499
659,-0.0022579007782042,-0.0595702603459358,0.0721729397773743,0.0310934949666262,0.099426656961441,0.070046178996563
660,-0.00753092626109719,-0.0693424046039581,0.0666485726833344,0.0268461275845766,0.100467093288898,0.0670631378889084
661,-0.0128307249397039,-0.0816233232617378,0.0604215078055859,0.0217157918959856,0.103374280035496,0.0572884865105152
662,-0.0145282130688429,-0.0897371023893356,0.0577400252223015,0.0187906213104725,0.110163815319538,0.0473503023386002
663,-0.0112622017040849,-0.090677373111248,0.0607599653303623,0.0191655457019806,0.119415581226349,0.0421077758073807
664,-0.00599076459184289,-0.0899582430720329,0.0659998878836632,0.0194776635617018,0.127819940447807,0.038119800388813
665,-0.00059124588733539,-0.0921048894524574,0.0709479078650475,0.0182078313082457,0.136405915021896,0.0339276716113091
666,0.00549225695431232,-0.0907227620482445,0.0798414349555969,0.0203687380999327,0.150303304195404,0.0364571250975132
667,0.010024705901742,-0.0802720040082932,0.0943030491471291,0.0284601710736752,0.170684888958931,0.048012588173151
668,0.00985331647098064,-0.0677459165453911,0.109166041016579,0.0384176485240459,0.192505285143852,0.0623601526021957
669,0.00599804241210222,-0.0625255182385445,0.120031021535397,0.0459372624754906,0.207529053092003,0.0730172917246819
670,0.00180186133366078,-0.0642183721065521,0.12596307694912,0.0507491119205952,0.209271118044853,0.0786999389529228
671,-0.000417168659623712,-0.0647691860795021,0.128612995147705,0.0568381622433662,0.199927762150764,0.0840892121195793
672,-0.00314464652910829,-0.0612855926156044,0.127659603953362,0.064060851931572,0.185359999537468,0.0901484936475754
673,-0.00892753433436155,-0.0574714951217175,0.122562766075134,0.068477988243103,0.169981375336647,0.095741868019104
674,-0.012089847587049,-0.0537517853081226,0.119930930435658,0.074341394007206,0.16082775592804,0.108752056956291
675,-0.0072449017316103,-0.0475976802408695,0.126203671097755,0.0889331623911858,0.162574827671051,0.135360300540924
676,0.000150955209392123,-0.0401681326329708,0.137719333171844,0.107843659818172,0.17119200527668,0.164205342531204
677,0.00186830898746848,-0.0345402434468269,0.146640032529831,0.119804069399834,0.179950386285782,0.177313521504402
678,-0.00342037249356508,-0.0332371070981026,0.148954629898071,0.11928878724575,0.185947686433792,0.167771771550179
679,-0.0116553287953138,-0.0378235802054405,0.14569678902626,0.108740963041782,0.190719649195671,0.141740083694458
680,-0.0186782740056515,-0.0468873679637909,0.140633806586266,0.0945531725883484,0.196999236941338,0.111032761633396
681,-0.0228790398687124,-0.0562377758324146,0.137292936444283,0.0827908739447594,0.204798936843872,0.086053155362606
682,-0.0245978925377131,-0.0607182458043098,0.138450622558594,0.0772697851061821,0.211550235748291,0.0730847641825676
683,-0.0248601660132408,-0.0587310418486595,0.14475117623806,0.0778405591845512,0.214113384485245,0.071618489921093
684,-0.0252947639673948,-0.0551973953843117,0.152199849486351,0.0799341276288033,0.209890097379684,0.0748413130640984
685,-0.0272212382405996,-0.0547179691493511,0.155654788017273,0.0798794105648994,0.199878171086311,0.0779624059796333
686,-0.0300038829445839,-0.0556814931333065,0.153978139162064,0.0788082405924797,0.188348069787025,0.0824914798140526
687,-0.0316773094236851,-0.0537440441548824,0.15075808763504,0.0808508768677711,0.179508060216904,0.092814713716507
688,-0.0307405050843954,-0.0481360331177711,0.151502385735512,0.0893459916114807,0.178061425685883,0.112167336046696
689,-0.0294802058488131,-0.045015387237072,0.155931800603867,0.100479252636433,0.184570759534836,0.136724427342415
690,-0.0295964516699314,-0.0465864911675453,0.160610884428024,0.108650527894497,0.19390594959259,0.159275680780411
691,-0.0287453643977642,-0.0476822480559349,0.165012180805206,0.113758847117424,0.202565386891365,0.174345344305038
692,-0.0256242658942938,-0.0462297350168228,0.168383911252022,0.116401024162769,0.210368290543556,0.178553342819214
693,-0.0209064688533545,-0.0427788980305195,0.169745832681656,0.115895234048367,0.217012196779251,0.174347773194313
694,-0.0166795570403337,-0.03768315538764,0.168393641710281,0.111979797482491,0.221011504530907,0.168174728751183
695,-0.0130433514714241,-0.0307027604430914,0.166190817952156,0.108196020126343,0.224433049559593,0.168790891766548
696,-0.00679434649646282,-0.0220239106565714,0.168358087539673,0.109904117882252,0.233440265059471,0.181687235832214
697,0.000997571623884141,-0.0145529340952635,0.17552724480629,0.11566723883152,0.248778164386749,0.198675781488419
698,0.00493607204407454,-0.0105133065953851,0.183079272508621,0.119359441101551,0.264345765113831,0.205894514918327
699,0.0045570251531899,-0.00811457354575396,0.189786493778229,0.119986198842525,0.276426255702972,0.202287659049034
700,0.00434191152453423,-0.00530701410025358,0.197785153985024,0.121148079633713,0.287233084440231,0.197074621915817
701,0.00467309402301908,-0.00568464817479253,0.204803675413132,0.122539259493351,0.298920482397079,0.192463487386703
702,0.00328402291052043,-0.0118717681616545,0.207795053720474,0.122846499085426,0.307756870985031,0.1872598528862
703,0.0017047377768904,-0.0182436779141426,0.209249690175056,0.125272810459137,0.307122558355331,0.186198145151138
704,0.000968409178312868,-0.0213524512946606,0.209995701909065,0.129882767796516,0.2940514087677,0.189815923571587
705,0.000132824206957594,-0.0233165435492992,0.208030357956886,0.132990598678589,0.272280007600784,0.193645730614662
706,-0.00110873428639025,-0.0258869305253029,0.202951654791832,0.132178127765656,0.248424157500267,0.194935441017151
707,0.00025599414948374,-0.0267456658184528,0.198416411876678,0.129328742623329,0.228672206401825,0.194954797625542
708,0.00751573406159878,-0.0219020415097475,0.199986785650253,0.129980728030205,0.217903628945351,0.197094485163689
709,0.015401023440063,-0.0149268470704556,0.205224767327309,0.133279487490654,0.215512797236443,0.198417365550995
710,0.0173135101795197,-0.0112346643581986,0.208195060491562,0.134797915816307,0.216918379068375,0.196861773729324
711,0.0137781100347638,-0.0106282448396087,0.209121704101563,0.136067941784859,0.218851372599602,0.200277924537659
712,0.00824883952736855,-0.010755080729723,0.211079522967339,0.140678644180298,0.221078038215637,0.216016381978989
713,0.00299297948367894,-0.00979238655418158,0.214363664388657,0.147206619381905,0.22455358505249,0.238074541091919
714,-0.00151859258767217,-0.00798428431153297,0.216789320111275,0.150458097457886,0.229065701365471,0.251149356365204
715,-0.00510133523494005,-0.00607264554128051,0.21741347014904,0.148489609360695,0.23380970954895,0.247620537877083
716,-0.00889815855771303,-0.0040344069711864,0.215499952435493,0.142557844519615,0.236798748373985,0.23199874162674
717,-0.0133518762886524,0.000518008717335761,0.211417779326439,0.135512545704842,0.236811593174934,0.215190291404724
718,-0.0168917197734118,0.00762549880892038,0.207220584154129,0.13028709590435,0.23628643155098,0.20646558701992
719,-0.0202467609196901,0.0107248295098543,0.202309131622314,0.12579245865345,0.237307384610176,0.205232694745064
720,-0.025631058961153,0.0051181516610086,0.194551199674606,0.119581088423729,0.237901076674461,0.20470367372036
721,-0.0310846213251352,-0.00540777156129479,0.18586753308773,0.112911269068718,0.236707106232643,0.202203825116158
722,-0.0308128129690886,-0.011926619336009,0.181878373026848,0.110265344381332,0.23627133667469,0.201728790998459
723,-0.0240366216748953,-0.0111388489603996,0.184277221560478,0.113005355000496,0.23806919157505,0.204972237348557
724,-0.0162334479391575,-0.00895606819540262,0.188852369785309,0.117271460592747,0.240596041083336,0.207061618566513
725,-0.0118665965273976,-0.012409751303494,0.189768418669701,0.118367418646812,0.241470068693161,0.203677147626877
726,-0.00944473873823881,-0.0190815925598145,0.186715170741081,0.117765061557293,0.240568831562996,0.199975252151489
727,-0.00636145519092679,-0.0227084048092365,0.183302104473114,0.119063042104244,0.239331677556038,0.202456146478653
728,-0.00431715045124292,-0.0232036914676428,0.180189356207848,0.119696140289307,0.23721618950367,0.207329854369164
729,-0.0027373896446079,-0.018955560401082,0.180136695504189,0.119690842926502,0.235180586576462,0.210552513599396
730,0.000407567975344136,-0.00935781002044678,0.185517355799675,0.122128464281559,0.235509663820267,0.211194559931755
731,0.00315617118030787,-0.00116363202687353,0.19201622903347,0.124556213617325,0.236815348267555,0.206290706992149
732,0.00400668941438198,0.00121570995543152,0.19509519636631,0.124046012759209,0.236166372895241,0.195741429924965
733,0.00462535955011845,0.000319442158797756,0.194792076945305,0.122131086885929,0.233012050390244,0.184509053826332
734,0.00578597653657198,-0.00170913862530142,0.192485719919205,0.120147809386253,0.228132054209709,0.175896495580673
735,0.0051441821269691,-0.0063139209523797,0.187515646219254,0.116435043513775,0.222201868891716,0.168146267533302
736,0.00351300905458629,-0.0104455966502428,0.182662010192871,0.11305795609951,0.218898549675941,0.162686988711357
737,0.00349722313694656,-0.00985062401741743,0.182066425681114,0.11351627856493,0.22116594016552,0.162411376833916
738,0.00384727376513183,-0.00618169689550996,0.183703690767288,0.116061970591545,0.226590394973755,0.165768012404442
739,0.00369393592700362,-0.0015244553796947,0.184918910264969,0.118889078497887,0.232887580990791,0.171022295951843
740,0.00123785412870348,0.000536638603080064,0.182975247502327,0.119558863341808,0.236438393592834,0.174461379647255
741,-0.00327000604011118,0.000155122033902444,0.17820993065834,0.118406988680363,0.233943685889244,0.176389262080193
742,-0.00563056906685233,0.00235207681544125,0.175335302948952,0.119518019258976,0.227460563182831,0.180861428380013
743,-0.00717203645035625,0.00485809985548258,0.172419682145119,0.120314292609692,0.217664420604706,0.183650150895119
744,-0.011924309656024,0.00341818877495825,0.164258271455765,0.116287566721439,0.202042102813721,0.180160105228424
745,-0.0185552444308996,0.000346205459209159,0.152128145098686,0.109262868762016,0.181991457939148,0.173505201935768
746,-0.0242808982729912,-0.00190441810991615,0.139820083975792,0.102514371275902,0.16268165409565,0.166280031204224
747,-0.0286100674420595,-0.00328550674021244,0.129384502768517,0.0975130200386047,0.147458598017693,0.158888459205627
748,-0.0302824545651674,-0.00204228097572923,0.123242981731892,0.0959126800298691,0.137458443641663,0.153923600912094
749,-0.0274830646812916,0.00386232580058277,0.123101249337196,0.0987849831581116,0.132625341415405,0.153773590922356
750,-0.0215149279683828,0.0129333166405559,0.127325966954231,0.104993231594563,0.131214633584023,0.157555505633354
751,-0.0165358874946833,0.0202637016773224,0.130991980433464,0.111232034862041,0.130311712622643,0.161177739500999
752,-0.0147165479138494,0.0230486821383238,0.130311235785484,0.114433839917183,0.128683120012283,0.16149514913559
753,-0.0156855583190918,0.0218836665153503,0.124990448355675,0.112538382411003,0.126678466796875,0.157711923122406
754,-0.0186238903552294,0.0183076318353415,0.117013648152351,0.105596847832203,0.124285198748112,0.150565445423126
755,-0.0226402953267097,0.0136860189959407,0.108497969806194,0.0962664932012558,0.121371686458588,0.142398968338966
756,-0.0254979599267244,0.0109027102589607,0.101333603262901,0.0884976014494896,0.118765540421009,0.137324064970016
757,-0.0236012879759073,0.0160343833267689,0.0991532132029533,0.0871786996722221,0.118496626615524,0.13981106877327
758,-0.0181876216083765,0.0289948992431164,0.101747170090675,0.0918078199028969,0.11999373883009,0.146872118115425
759,-0.0148978028446436,0.0393731370568275,0.103143990039825,0.0950000733137131,0.119995348155499,0.149554774165154
760,-0.0155121609568596,0.0397109836339951,0.100599095225334,0.09262315928936,0.117718376219273,0.145367816090584
761,-0.0173759702593088,0.0334150567650795,0.0966920033097267,0.0877074301242828,0.114637985825539,0.139482706785202
762,-0.0184076726436615,0.0274731982499361,0.0940351709723473,0.0846695601940155,0.111445695161819,0.135811001062393
763,-0.0185784045606852,0.0247233510017395,0.0931149423122406,0.0841420292854309,0.108661182224751,0.133022874593735
764,-0.0191496126353741,0.0228065270930529,0.0917087718844414,0.0824233144521713,0.106003113090992,0.127197548747063
765,-0.0206509437412024,0.0189372394233942,0.087346725165844,0.0768686234951019,0.102168463170528,0.117655813694
766,-0.021628150716424,0.0143445013090968,0.0813423320651054,0.0701157376170158,0.0977790951728821,0.108703941106796
767,-0.0220778472721577,0.0107127381488681,0.0755507498979568,0.0653376132249832,0.0938867777585983,0.102949813008308
768,-0.023345896974206,0.00771984830498695,0.0699881985783577,0.0627632215619087,0.0901311114430428,0.0988707765936852
769,-0.0248757135123014,0.00541819864884019,0.0654060542583466,0.0612719170749187,0.086583711206913,0.0947059169411659
770,-0.0241610370576382,0.00594207644462585,0.0641893967986107,0.0610811486840248,0.0848193392157555,0.0915867611765862
771,-0.0202331747859716,0.0104401651769876,0.0668315887451172,0.0636119917035103,0.0850804820656776,0.0914217084646225
772,-0.0151745369657874,0.0158956982195377,0.0702911168336868,0.0682261437177658,0.0848424136638641,0.093362845480442
773,-0.0114332856610417,0.0185608230531216,0.071814052760601,0.0722473412752151,0.0822685807943344,0.0955809503793716
774,-0.0108660515397787,0.0170671492815018,0.0698791518807411,0.0727186501026154,0.077601358294487,0.0963817536830902
775,-0.0130130229517818,0.0132628493010998,0.0646324902772903,0.0688713118433952,0.0721117258071899,0.0949599891901016
776,-0.016178434714675,0.00925113912671804,0.0570887178182602,0.0615617968142033,0.0652250573039055,0.0910091921687126
777,-0.0200613792985678,0.00456672580912709,0.0476880893111229,0.051140058785677,0.0561510361731052,0.0833864584565163
778,-0.0228960253298283,0.000772426079493016,0.0396156832575798,0.0408482737839222,0.048410676419735,0.0741069614887238
779,-0.0216584280133247,0.00196553883142769,0.0376950427889824,0.0364109314978123,0.0461665913462639,0.0691818818449974
780,-0.0179825257509947,0.00623524188995361,0.0403733029961586,0.0374384596943855,0.0473846904933453,0.0695852339267731
781,-0.0151664484292269,0.00861947704106569,0.0424014776945114,0.0391673557460308,0.0460957996547222,0.0713329985737801
782,-0.0130529217422009,0.00876676756888628,0.041929580271244,0.0395031571388245,0.0392476990818977,0.0720264986157417
783,-0.0122165074571967,0.00671876640990376,0.0377103723585606,0.0365697331726551,0.0269935932010412,0.0691727995872498
784,-0.0139370067045093,0.00173790531698614,0.0291401632130146,0.0287769008427858,0.0121013754978776,0.0614356510341167
785,-0.0168079007416964,-0.00445124739781022,0.0190815087407827,0.0180616285651922,-0.000166212776093744,0.0515720099210739
786,-0.0164635833352804,-0.00611726520583034,0.0139234606176615,0.0108240274712443,-0.00443615857511759,0.0459811873733997
787,-0.0102717056870461,0.000609293696470559,0.0174301583319902,0.011807369068265,0.000238653330598027,0.0479308143258095
788,-0.00343831349164248,0.00888523738831282,0.0233304668217897,0.0156827215105295,0.0075232801027596,0.0502887554466724
789,-0.00254006590694189,0.0101239494979382,0.0230452753603458,0.0145939849317074,0.0103754699230194,0.0457005053758621
790,-0.00690952409058809,0.00550300441682339,0.0162052642554045,0.008450698107481,0.00751739786937833,0.0367534644901752
791,-0.0116693824529648,0.000734531844500452,0.00842451211065054,0.00234786327928305,0.00184607075061649,0.0295637361705303
792,-0.0138927577063441,-0.00133780820760876,0.00404583802446723,5.33202073711436E-05,-0.00366795482113957,0.0269034169614315
793,-0.0131706297397614,-0.000710260414052755,0.00425024470314384,0.00195474503561854,-0.00716656818985939,0.0283942259848118
794,-0.00952385552227497,0.00214426801539958,0.0085018202662468,0.00664550485089421,-0.00747397122904658,0.0323995053768158
795,-0.0049144416116178,0.00543368794023991,0.0130292512476444,0.0104176821187139,-0.00618433812633157,0.0355076268315315
796,-0.00126598682254553,0.00904655549675226,0.0149868689477444,0.0112041663378477,-0.00581178441643715,0.0365523286163807
797,0.00121615175157785,0.0143212974071503,0.0149257332086563,0.0103678246960044,-0.00737414276227355,0.0375176407396793
798,-0.000333402858814225,0.0159607939422131,0.0100113349035382,0.00566120445728302,-0.0131505075842142,0.035634882748127
799,-0.00677054328843951,0.0107029490172863,-9.51911060838029E-05,-0.00333857513032854,-0.022785110399127,0.0301401242613792
800,-0.0130047397688031,0.00522589357569814,-0.00792430806905031,-0.00983796641230583,-0.030613973736763,0.0285789873450994
801,-0.0155493905767798,0.00487498147413135,-0.00893911067396402,-0.0103411516174674,-0.0332138054072857,0.034463319927454
802,-0.0127832414582372,0.0117408772930503,-0.00243806606158614,-0.00514170387759805,-0.0297885071486235,0.04570397362113
803,-0.00424033356830478,0.0269140917807817,0.0101915402337909,0.00519688660278916,-0.0202386975288391,0.0598138682544231
804,0.00583587680011988,0.0468781404197216,0.0226860083639622,0.0167854372411966,-0.00780388945713639,0.0724159777164459
805,0.0121922735124826,0.0638307332992554,0.0291053485125303,0.025087021291256,0.00272055785171688,0.0790631547570229
806,0.0114081809297204,0.0683409199118614,0.0258700083941221,0.0261292289942503,0.00645787734538317,0.0759289562702179
807,0.00356937735341489,0.0579812414944172,0.0132320988923311,0.0181624311953783,0.00150677352212369,0.0628583654761314
808,-0.00628181733191013,0.041350495070219,-0.00222487817518413,0.00532753439620137,-0.00820191670209169,0.0464383997023106
809,-0.0113099245354533,0.0301818568259478,-0.0114005105569959,-0.00412143720313907,-0.0156134553253651,0.0359431393444538
810,-0.00905146636068821,0.0282565597444773,-0.0107204420492053,-0.00583439599722624,-0.0165516715496778,0.0341946184635162
811,-0.00409353198483586,0.0288807954639196,-0.00593681959435344,-0.00451966049149632,-0.0137221533805132,0.0339399576187134
812,-0.00132405303884298,0.0267271474003792,-0.00350923952646554,-0.00566206267103553,-0.0119494013488293,0.0296163614839315
813,-0.00162704708054662,0.023133896291256,-0.00472494820132852,-0.00890728924423456,-0.0136727383360267,0.0235030483454466
814,-0.00365929305553436,0.0201987195760012,-0.00822269637137651,-0.0115727921947837,-0.0181795563548803,0.0193150620907545
815,-0.00631643692031503,0.0171958580613136,-0.012898750603199,-0.013453914783895,-0.0235479958355427,0.0171176716685295
816,-0.00935603678226471,0.0137454457581043,-0.0180364083498716,-0.0160553101450205,-0.0297230742871761,0.0156315490603447
817,-0.0102424100041389,0.0138002196326852,-0.0203772950917482,-0.0171691291034222,-0.0348548889160156,0.0172962080687284
818,-0.00732802972197533,0.0190155897289515,-0.0183245241641998,-0.0145544679835439,-0.0357852652668953,0.0224917307496071
819,-0.00416250573471189,0.0244484376162291,-0.0160316899418831,-0.0115286698564887,-0.0340056195855141,0.0254355035722256
820,-0.00523473042994738,0.0242829024791718,-0.0183506775647402,-0.0129466988146305,-0.0338971018791199,0.0203083287924528
821,-0.0120611265301704,0.0157607421278954,-0.0273637734353542,-0.0215330924838781,-0.0383732467889786,0.00507180579006672
822,-0.0210397448390722,0.00310344318859279,-0.0399792604148388,-0.0343076549470425,-0.0465239882469177,-0.0142720183357596
823,-0.0262981988489628,-0.00523854652419686,-0.0493222996592522,-0.0439263768494129,-0.0547707565128803,-0.0272766556590796
824,-0.0258630476891994,-0.00604081386700273,-0.0522012151777744,-0.046746127307415,-0.0606399178504944,-0.0305039957165718
825,-0.0204421151429415,-0.000395609851693735,-0.0491769909858704,-0.0429719649255276,-0.0623562783002853,-0.0262931976467371
826,-0.013371279463172,0.00746650062501431,-0.0439026281237602,-0.0362802892923355,-0.0605617761611938,-0.0201487317681313
827,-0.00776918092742562,0.0137999597936869,-0.0397559069097042,-0.0306022223085165,-0.0571084022521973,-0.016169173642993
828,-0.00176691554952413,0.0209365598857403,-0.0343665517866611,-0.0244679786264896,-0.0511020570993423,-0.0109504414722323
829,0.00420731725171208,0.0284183770418167,-0.0279719680547714,-0.0182929914444685,-0.0441752299666405,-0.00340916239656508
830,0.00660967500880361,0.0318403467535973,-0.0244878269731998,-0.0155294723808765,-0.0400469750165939,0.00293716322630644
831,0.0051350980065763,0.0301489718258381,-0.0240941680967808,-0.0158611256629229,-0.0390714295208454,0.00669939257204533
832,0.000375870033167303,0.0231467913836241,-0.0266802050173283,-0.0189909599721432,-0.040693610906601,0.0051373764872551
833,-0.0051814173348248,0.0132179921492934,-0.0318764485418797,-0.0255667250603437,-0.0437520556151867,-0.00395297398790717
834,-0.00736267399042845,0.00513115106150508,-0.0382426045835018,-0.0346731618046761,-0.0471381954848766,-0.0192256011068821
835,-0.00796681363135576,-0.00268545374274254,-0.0490893647074699,-0.0473787188529968,-0.0540158860385418,-0.0406794250011444
836,-0.00946435332298279,-0.0117780780419707,-0.0646504238247871,-0.0617048889398575,-0.0656494423747063,-0.0641190409660339
837,-0.00811825413256884,-0.0161890629678965,-0.0748111605644226,-0.0685844793915749,-0.075575940310955,-0.0785596296191216
838,-0.00245583686046302,-0.012954019010067,-0.073083333671093,-0.0639243796467781,-0.0784568339586258,-0.0794532895088196
839,0.00449894601479173,-0.00534297805279493,-0.0637695789337158,-0.0530804917216301,-0.0752980560064316,-0.0708199590444565
840,0.0121709108352661,0.00483393901959062,-0.052186518907547,-0.0409911423921585,-0.0676088407635689,-0.0562221817672253
841,0.019875381141901,0.0152799217030406,-0.0424126572906971,-0.030696265399456,-0.0573702156543732,-0.040249016135931
842,0.0240419488400221,0.0217550303786993,-0.0392377935349941,-0.0258241184055805,-0.0493126474320889,-0.029880678281188
843,0.0234781857579947,0.0238548461347818,-0.0432392880320549,-0.0269465483725071,-0.0464872904121876,-0.0281509347259998
844,0.0191942788660526,0.0227674730122089,-0.051517229527235,-0.0325314775109291,-0.0485249720513821,-0.0342563800513744
845,0.0117946499958634,0.017773449420929,-0.0619612410664558,-0.0414256155490875,-0.0541137605905533,-0.0465046763420105
846,0.00359030091203749,0.0103690922260284,-0.0726166591048241,-0.0512217693030834,-0.0623868815600872,-0.06090297549963
847,-0.00128498824778944,0.00565087981522083,-0.0809198170900345,-0.0582712441682816,-0.0717435032129288,-0.0715527236461639
848,-0.0027078955899924,0.00450175348669291,-0.0869829654693604,-0.0622705556452274,-0.0812740102410316,-0.0778628885746002
849,-0.00594839220866561,0.00102652772329748,-0.0945460498332977,-0.0676615685224533,-0.0927212536334991,-0.0859875604510307
850,-0.011658787727356,-0.00524235935881734,-0.102482557296753,-0.074454590678215,-0.104824580252171,-0.0957359597086906
851,-0.0139255858957767,-0.0072981882840395,-0.104001380503178,-0.076180100440979,-0.111944183707237,-0.0992904230952263
852,-0.0119017846882343,-0.00491975480690598,-0.0995498895645142,-0.0726061388850212,-0.112300880253315,-0.0971433073282242
853,-0.0104406410828233,-0.00428188778460026,-0.0967957898974419,-0.0707653984427452,-0.110076062381268,-0.0972549021244049
854,-0.0103038409724832,-0.00608304515480995,-0.0979705676436424,-0.0728352069854736,-0.10881944000721,-0.100986748933792
855,-0.00694823125377297,-0.0045295818708837,-0.0975427478551865,-0.0732385069131851,-0.107461094856262,-0.101681068539619
856,0.00151488918345422,0.00363314035348594,-0.0915778800845146,-0.0673875287175179,-0.103985980153084,-0.0952789038419724
857,0.0101299649104476,0.0133124012500048,-0.0838835686445236,-0.0585821643471718,-0.100276529788971,-0.0865729451179504
858,0.0136368535459042,0.0180919654667377,-0.0803939923644066,-0.0531383976340294,-0.0997730866074562,-0.0817944332957268
859,0.0113517288118601,0.0162068102508783,-0.0832479223608971,-0.0542785786092281,-0.103440798819065,-0.0830615162849426
860,0.00712498975917697,0.0117410225793719,-0.0889351591467857,-0.059896282851696,-0.108241617679596,-0.0872850269079208
861,0.00438634771853685,0.00974851660430431,-0.0935190320014954,-0.065655030310154,-0.111034691333771,-0.0904031619429588
862,0.00180452316999435,0.00938817393034697,-0.0983279570937157,-0.0703980624675751,-0.113038100302219,-0.093353733420372
863,4.42403797933366E-05,0.0108094597235322,-0.102650061249733,-0.0729643031954765,-0.114409811794758,-0.0950092896819115
864,0.00330492737703025,0.0178564228117466,-0.101904541254044,-0.0704412013292313,-0.112052090466022,-0.0904483199119568
865,0.0114156557247043,0.0298419706523418,-0.0956915244460106,-0.0632355362176895,-0.105532832443714,-0.0802883431315422
866,0.0199082866311073,0.0419883839786053,-0.0878337323665619,-0.0555218234658241,-0.0979902073740959,-0.0703307390213013
867,0.0270952004939318,0.053127858787775,-0.0796176269650459,-0.0485663339495659,-0.0915820300579071,-0.0625018402934074
868,0.0329147018492222,0.0635085925459862,-0.0714436620473862,-0.0417133830487728,-0.087478406727314,-0.0562415756285191
869,0.0329365730285645,0.0664500519633293,-0.0704042464494705,-0.0407800078392029,-0.0896808207035065,-0.057374369353056
870,0.0251560937613249,0.0578209795057774,-0.0809459090232849,-0.0502878613770008,-0.0995565950870514,-0.0691813230514526
871,0.0164863653481007,0.0462854914367199,-0.0948453396558762,-0.0632587000727654,-0.110889844596386,-0.082890197634697
872,0.0119113689288497,0.0395553670823574,-0.10470212996006,-0.0722583085298538,-0.118936508893967,-0.0913923308253288
873,0.0102521274238825,0.0376928858458996,-0.110368378460407,-0.0760229527950287,-0.123959936201572,-0.0947243198752403
874,0.0108093162998557,0.0400248728692532,-0.111623674631119,-0.0742306560277939,-0.126166239380836,-0.0930041298270226
875,0.0113385235890746,0.0426038950681686,-0.111015304923058,-0.0700951591134071,-0.127392143011093,-0.0902667939662933
876,0.00918452069163322,0.0411852337419987,-0.112765580415726,-0.0684941411018372,-0.12965926527977,-0.0914552733302116
877,0.00755710806697607,0.0400701351463795,-0.114248380064964,-0.0671695992350578,-0.129981815814972,-0.0924876257777214
878,0.0107026537880301,0.0449075549840927,-0.111061319708824,-0.0617934092879295,-0.125544264912605,-0.0875711813569069
879,0.0163092855364084,0.0523532293736935,-0.106601126492023,-0.0558350384235382,-0.119684025645256,-0.0804099813103676
880,0.0210275501012802,0.0581253953278065,-0.104571841657162,-0.0530489608645439,-0.115207478404045,-0.0758518278598785
881,0.026361184194684,0.0641564652323723,-0.101876176893711,-0.0503215827047825,-0.109543070197105,-0.0715494453907013
882,0.0318785421550274,0.0697311386466026,-0.0985401794314384,-0.0472495257854462,-0.102468185126781,-0.0678243115544319
883,0.035115621984005,0.072284959256649,-0.0975890010595322,-0.0466909110546112,-0.0962462797760963,-0.0672686621546745
884,0.0357404761016369,0.0717758759856224,-0.0985935628414154,-0.0488108694553375,-0.0914975106716156,-0.0692367404699326
885,0.0322811342775822,0.065989263355732,-0.102524690330029,-0.0546017475426197,-0.0908269360661507,-0.075091540813446
886,0.0269430205225945,0.0573606677353382,-0.107588842511177,-0.0614823400974274,-0.0937930196523666,-0.0817766785621643
887,0.0255101770162582,0.0526109263300896,-0.108178690075874,-0.0636514350771904,-0.0949835553765297,-0.0827604308724403
888,0.0271866712719202,0.0504268109798431,-0.105369932949543,-0.0629237666726112,-0.093377910554409,-0.0811082646250725
889,0.0271011684089899,0.0462231189012527,-0.104643031954765,-0.0648328214883804,-0.0924090817570686,-0.0832153558731079
890,0.0242834780365229,0.0411631651222706,-0.106732159852982,-0.069653645157814,-0.0931636989116669,-0.0880041196942329
891,0.0230555813759565,0.0412376932799816,-0.105837062001228,-0.0715079307556152,-0.0924477651715279,-0.0883784890174866
892,0.0237973127514124,0.0457626953721046,-0.101487942039967,-0.0692323222756386,-0.0902407243847847,-0.0844561010599136
893,0.020952021703124,0.0460607223212719,-0.101579733192921,-0.0698352307081223,-0.0920069962739944,-0.0852944627404213
894,0.0163862928748131,0.0434237755835056,-0.105271719396114,-0.0725126564502716,-0.0980665907263756,-0.0894644185900688
895,0.0153592266142368,0.0458252839744091,-0.106085449457169,-0.0713906511664391,-0.104445017874241,-0.0893272683024406
896,0.0155985588207841,0.0520694851875305,-0.106132462620735,-0.069163866341114,-0.110732689499855,-0.0874633714556694
897,0.0151083553209901,0.0573991127312183,-0.107334613800049,-0.0685296878218651,-0.115652903914452,-0.0864952728152275
898,0.0180939268320799,0.062405701726675,-0.103913336992264,-0.0644967183470726,-0.114457845687866,-0.0815018117427826
899,0.0257322192192078,0.0666019544005394,-0.0948411673307419,-0.0561337769031525,-0.106760576367378,-0.0733271539211273
900,0.032196793705225,0.0646551921963692,-0.0885673090815544,-0.0513063035905361,-0.0986424535512924,-0.0708902552723885
901,0.0334478095173836,0.0551522001624107,-0.0899664610624313,-0.0541143603622913,-0.0943506062030792,-0.0769543349742889
902,0.0307999160140753,0.0433433540165424,-0.095313660800457,-0.0604550391435623,-0.0929765552282333,-0.0858441889286041
903,0.0276073459535837,0.0353735536336899,-0.098796546459198,-0.0649678036570549,-0.0926115661859512,-0.0913591235876083
904,0.0259296000003815,0.033014390617609,-0.0981475338339806,-0.0658604875206947,-0.0931819304823875,-0.0919192135334015
905,0.0242260470986366,0.032241016626358,-0.096580944955349,-0.065800279378891,-0.095712274312973,-0.0920379310846329
906,0.0192411318421364,0.0278320107609034,-0.0991083234548569,-0.0691527649760246,-0.100916817784309,-0.0973142683506012
907,0.0120689403265715,0.0212709549814463,-0.104747824370861,-0.0752879530191422,-0.107518687844276,-0.105581626296043
908,0.00704743666574359,0.0188025142997503,-0.108047753572464,-0.0790901109576225,-0.113013722002506,-0.109318546950817
909,0.00565334176644683,0.0222990475594997,-0.107245430350304,-0.0784845650196075,-0.115864850580692,-0.105915628373623
910,0.00724626751616597,0.0292973760515451,-0.10337445884943,-0.0747558102011681,-0.114723384380341,-0.0978669971227646
911,0.0101434895768762,0.0360176749527454,-0.0979074835777283,-0.0699732825160027,-0.110010020434856,-0.0892916992306709
912,0.0129584083333611,0.0405486896634102,-0.0922590792179108,-0.0652689263224602,-0.104217417538166,-0.0828080102801323
913,0.0156468730419874,0.0439642556011677,-0.0870406404137611,-0.0605352446436882,-0.0994584634900093,-0.0784604549407959
914,0.0163298044353724,0.0449515320360661,-0.0847582966089249,-0.0578970983624458,-0.0979829803109169,-0.0778300911188126
915,0.0123882461339235,0.0403681881725788,-0.0882172361016274,-0.060441181063652,-0.100949563086033,-0.083069309592247
916,0.00573184574022889,0.0324517078697681,-0.094333328306675,-0.0662060976028442,-0.105416879057884,-0.0910482183098793
917,0.00313153048045933,0.0293947476893663,-0.0949370265007019,-0.0677202939987183,-0.105488568544388,-0.0933093428611755
918,0.00722007779404521,0.033832136541605,-0.0879039019346237,-0.0622573979198933,-0.0995668917894363,-0.0877261608839035
919,0.0131778512150049,0.0401000753045082,-0.079736515879631,-0.0553895756602287,-0.0928668230772018,-0.0809954106807709
920,0.0189360473304987,0.0466889292001724,-0.072726309299469,-0.0493282005190849,-0.0878366827964783,-0.0749138742685318
921,0.025292007252574,0.054200891405344,-0.0653484985232353,-0.0433596670627594,-0.0823928564786911,-0.0681401118636131
922,0.0297833811491728,0.059330690652132,-0.0597441717982292,-0.0393008552491665,-0.0769826769828796,-0.0628279373049736
923,0.0299856457859278,0.059881616383791,-0.0585894659161568,-0.0383299179375172,-0.073893740773201,-0.0609093084931374
924,0.0275651402771473,0.0577951669692993,-0.0609999597072601,-0.0393558852374554,-0.0728113129734993,-0.0616356134414673
925,0.0263881515711546,0.0574183613061905,-0.0626372322440147,-0.0392807200551033,-0.0705163553357124,-0.0616132766008377
926,0.0278762467205524,0.0601558052003384,-0.0608098171651363,-0.0360992737114429,-0.065520279109478,-0.0588323920965195
927,0.0297835823148489,0.0624572448432446,-0.0576777569949627,-0.0315797440707684,-0.0609651803970337,-0.0553862378001213
928,0.0284116081893444,0.059846356511116,-0.0578104332089424,-0.0299634076654911,-0.0613718777894974,-0.0552327819168568
929,0.0234947744756937,0.0527950786054134,-0.0623340904712677,-0.032184224575758,-0.067102387547493,-0.0587104819715023
930,0.0185257010161877,0.0458985157310963,-0.0676746442914009,-0.0351085551083088,-0.0744393616914749,-0.0620309039950371
931,0.0158203281462193,0.0422123968601227,-0.0703286901116371,-0.036865409463644,-0.0800979658961296,-0.0626523196697235
932,0.0151016805320978,0.0416548363864422,-0.0697099566459656,-0.0376460961997509,-0.0829686000943184,-0.0612344369292259
933,0.0145543832331896,0.0419186986982822,-0.0682445541024208,-0.0383520498871803,-0.0844215229153633,-0.0600671544671059
934,0.0130722783505917,0.0413724295794964,-0.0676787719130516,-0.0390113033354282,-0.0864632129669189,-0.0597741976380348
935,0.0125268548727036,0.0417695790529251,-0.0661690831184387,-0.0376011505723,-0.0883572101593018,-0.0573881901800632
936,0.0141278281807899,0.0441071279346943,-0.0627973824739456,-0.033903855830431,-0.0889782309532166,-0.051955696195364
937,0.0150516368448734,0.0446341298520565,-0.0609196275472641,-0.0320308431982994,-0.089879147708416,-0.0488732755184174
938,0.0130269108340144,0.0402212627232075,-0.0637973621487617,-0.0351272933185101,-0.0926166102290154,-0.0526416972279549
939,0.0083480104804039,0.0313621982932091,-0.0718190222978592,-0.0425492934882641,-0.097207635641098,-0.0623287372291088
940,0.0041799433529377,0.0226903036236763,-0.0806711688637733,-0.0496131405234337,-0.100433707237244,-0.0709923058748245
941,0.00523106893524528,0.0206297859549522,-0.0832855999469757,-0.0500349514186382,-0.0977825969457626,-0.0699762180447578
942,0.0119729610159993,0.0264567397534847,-0.07761500030756,-0.0425214916467667,-0.0902661457657814,-0.0591803267598152
943,0.0208732523024082,0.0361480750143528,-0.0675697550177574,-0.0312669724225998,-0.0824752897024155,-0.0464328750967979
944,0.027689129114151,0.0437134951353073,-0.0590502172708511,-0.0224313773214817,-0.0771024227142334,-0.0399995557963848
945,0.0299494788050652,0.045661423355341,-0.0554898157715797,-0.0198012199252844,-0.07390546053648,-0.042630311101675
946,0.027147663757205,0.0414085313677788,-0.057557750493288,-0.0239441636949778,-0.0722457021474838,-0.0525381602346897
947,0.020855225622654,0.0326709002256393,-0.0636503621935844,-0.0324500389397144,-0.072491429746151,-0.0659997910261154
948,0.0143317244946957,0.0237315502017736,-0.0702742785215378,-0.0409404076635838,-0.0748953744769096,-0.0782986879348755
949,0.0118021899834275,0.0201617125421762,-0.0728676617145538,-0.0451348870992661,-0.0767390504479408,-0.0840116441249847
950,0.0159996747970581,0.024762324988842,-0.0677657797932625,-0.0424616299569607,-0.0731470882892609,-0.0801745727658272
951,0.022960102185607,0.0324931815266609,-0.0582768470048904,-0.0363337509334087,-0.0647075325250626,-0.0721474438905716
952,0.0261108838021755,0.0362294688820839,-0.0517425015568733,-0.0336411967873573,-0.057384941726923,-0.0680890381336212
953,0.0232223272323608,0.0334754474461079,-0.0517707280814648,-0.0374702326953411,-0.0555555820465088,-0.0709473714232445
954,0.0185822192579508,0.0290196966379881,-0.0546416901051998,-0.0432812981307507,-0.05744643881917,-0.0754191428422928
955,0.0178516432642937,0.0310519337654114,-0.0543734505772591,-0.0445819012820721,-0.0577390752732754,-0.0744314789772034
956,0.0211219396442175,0.0407714881002903,-0.0500931143760681,-0.0402308292686939,-0.0546824671328068,-0.0669578611850739
957,0.0245907809585333,0.0504433549940586,-0.0449523404240608,-0.0334677956998348,-0.051455769687891,-0.0561621375381947
958,0.0244607627391815,0.0513955652713776,-0.0436499714851379,-0.0297951102256775,-0.0521335192024708,-0.0480490513145924
959,0.0201667211949825,0.0425123646855354,-0.0483267866075039,-0.0321219749748707,-0.0575301088392735,-0.0460120290517807
960,0.0147507153451443,0.0296943392604589,-0.0558313839137554,-0.0375681780278683,-0.065290704369545,-0.0467876829206944
961,0.0101840076968074,0.017134714871645,-0.0631549283862114,-0.0431903339922428,-0.0734634250402451,-0.0488245822489262
962,0.00678696762770414,0.00583488261327147,-0.0694020986557007,-0.0483236126601696,-0.0798229798674583,-0.0537039004266262
963,0.00557968206703663,-0.00193254766054451,-0.0729760378599167,-0.0518384836614132,-0.0811517685651779,-0.0600003190338612
964,0.00762243242934346,-0.00386893283575773,-0.0722448378801346,-0.0525959208607674,-0.0774665102362633,-0.0642441958189011
965,0.0129154464229941,0.000182256218977273,-0.0667672827839851,-0.0500642210245132,-0.0721458718180656,-0.0633993223309517
966,0.0174309331923723,0.00581022072583437,-0.0601234175264835,-0.0466580055654049,-0.0698560178279877,-0.0608494095504284
967,0.0153827778995037,0.00621366687119007,-0.0585827641189098,-0.0476157814264297,-0.0741032212972641,-0.0658646374940872
968,0.00944806262850761,0.00405286764726043,-0.0606182292103767,-0.0510351434350014,-0.0813067927956581,-0.0758157595992088
969,0.00723488302901387,0.00738906534388661,-0.0589351356029511,-0.0493428222835064,-0.0850382447242737,-0.0785492584109306
970,0.00830596219748259,0.0134807992726564,-0.0542871095240116,-0.0430374816060066,-0.0866008698940277,-0.0740612596273422
971,0.00773782376199961,0.0149723272770643,-0.0522431395947933,-0.0378877706825733,-0.0903729274868965,-0.070475310087204
972,0.00563435442745686,0.0125985285267234,-0.0524573177099228,-0.0345371812582016,-0.0949233546853065,-0.06899643689394
973,0.00355573603883386,0.00943730492144823,-0.0527953468263149,-0.0313939265906811,-0.097906768321991,-0.0676630660891533
974,-0.000634139287285507,0.0040789358317852,-0.0559009499847889,-0.031483355909586,-0.101918876171112,-0.0689060389995575
975,-0.00668959179893136,-0.00202625151723623,-0.0624643452465534,-0.0365795195102692,-0.10760723054409,-0.0726599916815758
976,-0.00943696219474077,-0.00219081295654178,-0.066219374537468,-0.0403566285967827,-0.108713828027248,-0.0717604383826256
977,-0.00610021641477942,0.0066045387648046,-0.0619071200489998,-0.0367590822279453,-0.099872037768364,-0.0611320473253727
978,0.000690165150444955,0.0198542568832636,-0.051320306956768,-0.0279033742845058,-0.082786351442337,-0.0453378222882748
979,0.00512956408783793,0.0290381833910942,-0.0416194684803486,-0.020989865064621,-0.0642970651388168,-0.0359081327915192
980,0.00185294821858406,0.028478441759944,-0.04085523635149,-0.0228432733565569,-0.0525539629161358,-0.0390038453042507
981,-0.00619878899306059,0.0222166161984205,-0.0478972084820271,-0.0310766194015741,-0.0498584546148777,-0.0447886437177658
982,-0.0114491889253259,0.0173682030290365,-0.0544393099844456,-0.0376559644937515,-0.0518163442611694,-0.0426402799785137
983,-0.0135269556194544,0.0138645144179463,-0.0589525438845158,-0.0426989123225212,-0.0564558394253254,-0.0385190658271313
984,-0.0143634062260389,0.0111668426543474,-0.0627269819378853,-0.0481594726443291,-0.0639846175909042,-0.0409231446683407
985,-0.013720522634685,0.0103480704128742,-0.0642086565494537,-0.0516032166779041,-0.0726419910788536,-0.049181155860424
986,-0.0113967806100845,0.0113182477653027,-0.061739519238472,-0.0507738329470158,-0.0793293789029121,-0.0578066855669022
987,-0.00632031448185444,0.0153416702523828,-0.054114293307066,-0.0443618334829807,-0.0813095942139626,-0.0618353970348835
