,AF3,AF4,Fp1,Fp2,AF7,AF8
0,0.0397779308259487,0.419619768857956,0.0206919070333242,-6.21036815573461E-05,-0.0196342002600431,0.0201654750853777
1,0.038793258368969,0.413648158311844,0.0197952929884195,-0.00209729769267142,-0.0154073284938931,0.0197195839136839
2,0.0369103513658047,0.407088726758957,0.018324688076973,-0.00319037004373968,-0.0114817060530186,0.019705880433321
3,0.0338660888373852,0.399071097373962,0.0159668289124966,-0.00466245319694281,-0.00855716317892075,0.0185920391231775
4,0.0314517691731453,0.390743643045425,0.0140578020364046,-0.00647415779531002,-0.00598519528284669,0.0167367476969957
5,0.0303152408450842,0.383163332939148,0.0126991579309106,-0.00856338255107403,-0.00326931523159146,0.0150096248835325
6,0.0295109190046787,0.375885814428329,0.0110509172081947,-0.0112613085657358,-0.000663557322695851,0.0132688451558352
7,0.0279163829982281,0.367537796497345,0.0089057395234704,-0.0144427819177508,0.00108144781552255,0.0103640062734485
8,0.0256567373871803,0.35864245891571,0.00727572850883007,-0.0164944510906935,0.0015531099634245,0.00695324083790183
9,0.0243768244981766,0.351282089948654,0.00786666106432676,-0.015971913933754,0.00175103335641325,0.00535773579031229
10,0.0244962684810162,0.345070093870163,0.010072817094624,-0.0145770525559783,0.00240322039462626,0.00548402080312371
11,0.0242068842053413,0.337662577629089,0.0111079616472125,-0.0151185235008597,0.00267836963757873,0.00493193324655294
12,0.021296638995409,0.327198147773743,0.00841933116316795,-0.0190908368676901,0.0013872894924134,0.00096033449517563
13,0.0162218119949102,0.314346224069595,0.00226687430404127,-0.0254426673054695,-0.00124107790179551,-0.00680189672857523
14,0.0122128576040268,0.302220672369003,-0.00385058089159429,-0.0307777002453804,-0.00295212655328214,-0.0153034972026944
15,0.0117581617087126,0.293627947568893,-0.00662201223894954,-0.0322360694408417,-0.00182478909846395,-0.020952956750989
16,0.0149607034400105,0.289689689874649,-0.00489496439695358,-0.0290621649473906,0.00169244001153857,-0.0217565856873989
17,0.0197612699121237,0.289040803909302,0.00019597054051701,-0.0229577161371708,0.00614634761586785,-0.018597200512886
18,0.0226029641926289,0.287405043840408,0.00469898153096437,-0.0179702639579773,0.01001987606287,-0.0154592003673315
19,0.0221582055091858,0.281973987817764,0.00572269083932042,-0.016777515411377,0.0124455252662301,-0.0146869551390409
20,0.0203930214047432,0.273973435163498,0.00434402516111732,-0.0185705740004778,0.0137472823262215,-0.0149974161759019
21,0.0190650746226311,0.265634894371033,0.00254833768121898,-0.0209332276135683,0.0144702149555087,-0.0146037200465798
22,0.0194205921143293,0.259453743696213,0.00208576605655253,-0.0206417329609394,0.0149950962513685,-0.0112979654222727
23,0.0224673170596361,0.257141202688217,0.00436369609087706,-0.0157478041946888,0.015498198568821,-0.00359683809801936
24,0.0272133070975542,0.256871104240417,0.00850156974047422,-0.00793140847235918,0.0161412861198187,0.0059897624887526
25,0.031160669401288,0.254738211631775,0.0120662497356534,-0.00127269688528031,0.0175746213644743,0.0122935567051172
26,0.0331122167408466,0.248923629522324,0.0142191266641021,0.0013614899944514,0.0203182157129049,0.0128044337034225
27,0.0331878960132599,0.240136221051216,0.0147768147289753,-0.000267240131506696,0.0230010617524385,0.00926946848630905
28,0.0322656892240047,0.230929955840111,0.0136989066377282,-0.00368497893214226,0.0238110069185495,0.00603205664083362
29,0.0314558409154415,0.223582848906517,0.0117440288886428,-0.00591292977333069,0.0229262951761484,0.00601637130603194
30,0.0308369994163513,0.217931509017944,0.00948331970721483,-0.00643772957846522,0.0217467676848173,0.00826068408787251
31,0.0302403345704079,0.213092625141144,0.00746437488123775,-0.00618414534255862,0.0212606899440289,0.0106667364016175
32,0.0290872193872929,0.207646980881691,0.0056115947663784,-0.00670219631865621,0.021062295883894,0.0111386179924011
33,0.0271570719778538,0.20090688765049,0.00412152009084821,-0.00851591397076845,0.0204911604523659,0.00927774794399738
34,0.025464067235589,0.193608671426773,0.00372836692258716,-0.0105911269783974,0.0200488399714231,0.00626902375370264
35,0.0257684737443924,0.187227204442024,0.00550441816449165,-0.0110358549281955,0.02100545540452,0.00382997980341315
36,0.0297491513192654,0.184040307998657,0.0108829261735082,-0.00762119190767407,0.0241041481494904,0.00472181476652622
37,0.0361412353813648,0.183547079563141,0.0181855112314224,-0.00121798261534423,0.0285271666944027,0.00895355828106403
38,0.0411332063376904,0.181810542941093,0.0229152943938971,0.00445980345830321,0.0329913645982742,0.0128400595858693
39,0.0423129051923752,0.176111593842506,0.0222479347139597,0.00689785741269588,0.0369157493114471,0.0136835547164083
40,0.040969368070364,0.167884916067123,0.0177220366895199,0.00679192459210753,0.0403922833502293,0.0128609063103795
41,0.0407156459987164,0.160977974534035,0.0140517950057983,0.00732968235388398,0.043986976146698,0.0140219526365399
42,0.04329963773489,0.157649427652359,0.0142140630632639,0.0109006501734257,0.047410249710083,0.0189472362399101
43,0.0464158058166504,0.156080260872841,0.0163660179823637,0.0159556251019239,0.0490760616958141,0.0249985791742802
44,0.0465413779020309,0.15231317281723,0.0166410487145185,0.0188061408698559,0.0481035821139812,0.0276284497231245
45,0.0433611832559109,0.145124211907387,0.0142137594521046,0.0183234512805939,0.045486394315958,0.0258246269077063
46,0.0394460558891296,0.13669741153717,0.0113325091078877,0.0161645524203777,0.0426938273012638,0.0219645109027624
47,0.0369857102632523,0.130090445280075,0.010059273801744,0.01457997597754,0.0406754203140736,0.019075233489275
48,0.0362047702074051,0.126887828111649,0.0108000142499805,0.0148283112794161,0.0394806861877441,0.019508296623826
49,0.0360218659043312,0.125886350870132,0.0130133647471666,0.0161011777818203,0.0384301766753197,0.0231593400239944
50,0.0354301817715168,0.124466836452484,0.0155634051188827,0.0164240673184395,0.0372114963829517,0.0275019872933626
51,0.0342864319682121,0.121353507041931,0.0168381072580814,0.0147740393877029,0.0359523296356201,0.0304909106343985
52,0.0327042490243912,0.116705067455769,0.0158458855003119,0.0116933742538095,0.0345359146595001,0.0319405384361744
53,0.0298687051981688,0.110194519162178,0.0118451099842787,0.00772435683757067,0.0321674197912216,0.0320962443947792
54,0.0236846264451742,0.0997095480561256,0.00299616809934378,0.00137163954786956,0.0279148630797863,0.028992248699069
55,0.0140697993338108,0.0847958400845528,-0.0101204514503479,-0.00814808625727892,0.0225282199680805,0.021114643663168
56,0.00644486164674163,0.0716549828648567,-0.0202344283461571,-0.0156903956085444,0.0187923889607191,0.0139915850013494
57,0.00523934699594975,0.0660286545753479,-0.0210872162133455,-0.0157537572085857,0.0179135296493769,0.0138967595994473
58,0.0074350475333631,0.0649208500981331,-0.0162081643939018,-0.0109975412487984,0.0173468589782715,0.0177564173936844
59,0.00934479478746653,0.0638758316636086,-0.0116651281714439,-0.00627816002815962,0.0150260180234909,0.0200115013867617
60,0.0106166861951351,0.0621673353016377,-0.00933181215077639,-0.00303081423044205,0.0116321453824639,0.0195558685809374
61,0.0100662829354405,0.0584031939506531,-0.00988406967371702,-0.00274774734862149,0.00821210816502571,0.0159656517207623
62,0.00784669443964958,0.0525872074067593,-0.0116201844066381,-0.00483295088633895,0.00643864227458835,0.0109881423413754
63,0.00573624391108751,0.0465564168989658,-0.0123675987124443,-0.0065733240917325,0.00749595370143652,0.00795033294707537
64,0.00406826054677367,0.0409077815711498,-0.0129749393090606,-0.0072034546174109,0.0100201070308685,0.00734681030735374
65,0.00427563861012459,0.0378806069493294,-0.0126961069181561,-0.0054657831788063,0.0125887161120772,0.00992027763277292
66,0.00647429749369621,0.037753090262413,-0.0108974566683173,-0.00148902926594019,0.0143839186057448,0.0148247461766005
67,0.0088995574042201,0.0379233472049236,-0.00852879323065281,0.00249221455305815,0.0153584647923708,0.0192686803638935
68,0.0124125499278307,0.0388676822185516,-0.00399900274351239,0.00744117703288794,0.017116067931056,0.0241756029427052
69,0.0163658149540424,0.0399914644658566,0.00253580021671951,0.0135922525078058,0.0196070782840252,0.029543811455369
70,0.0169817227870226,0.0374361611902714,0.00665962416678667,0.016961358487606,0.0204009264707565,0.0314580127596855
71,0.0134902903810143,0.0304658859968185,0.00603068759664893,0.015311255119741,0.0187844075262547,0.0286030154675245
72,0.00947400089353323,0.0229261890053749,0.0034071528352797,0.0114184208214283,0.0167139545083046,0.0244773626327515
73,0.00717479176819324,0.0169811621308327,0.00129631615709513,0.00801288429647684,0.0152423521503806,0.0210637915879488
74,0.00604889215901494,0.0123540936037898,-0.000244444294366986,0.00570906233042479,0.0137925865128636,0.0182242263108492
75,0.00510195409879088,0.00895503535866737,-0.00168495683465153,0.00456613954156637,0.0121542429551482,0.0168988723307848
76,0.00293113011866808,0.0056596496142447,-0.00413620658218861,0.00357456668280065,0.0104683730751276,0.0170476473867893
77,-2.10519174288493E-05,0.00252842251211405,-0.00685381470248103,0.00274351448751986,0.00934452190995216,0.0184013545513153
78,-0.00177796243224293,0.000553654099348933,-0.00731311505660415,0.00285649788565934,0.0101487170904875,0.0204155966639519
79,-0.00203959457576275,-0.00130505382549018,-0.00511115370318294,0.00329444324597716,0.0134803196415305,0.0209861304610968
80,-0.00223172828555107,-0.00486801424995065,-0.00197790446691215,0.00307660340331495,0.0184653922915459,0.018354220315814
81,-0.00323135382495821,-0.0101689482107759,0.000882165564689785,0.00240731867961586,0.024165965616703,0.0132887959480286
82,-0.00418827962130308,-0.0154454139992595,0.00370523543097079,0.00228811055421829,0.0301508028060198,0.00837832037359476
83,-0.00482600275427103,-0.019990598782897,0.00642710318788886,0.00250713969580829,0.035513449460268,0.00464748498052359
84,-0.00580279063433409,-0.023866593837738,0.00814674980938435,0.00242755422368646,0.03878378495574,0.00206358963623643
85,-0.00701562501490116,-0.0267058406025171,0.00846660230308771,0.00240136357024312,0.0391488745808601,0.000941903446801007
86,-0.00814395770430565,-0.0286001767963171,0.00797185394912958,0.00293849478475749,0.0374456346035004,0.000694511865731329
87,-0.00897117052227259,-0.0295708701014519,0.00767065258696675,0.00440536439418793,0.03554492816329,0.000623797357548028
88,-0.00940886791795492,-0.0298323072493076,0.00786292459815741,0.00653830589726567,0.0343970358371735,0.000696596340276301
89,-0.0090532461181283,-0.0295230522751808,0.0092132817953825,0.00931459665298462,0.034410621970892,0.00170543417334557
90,-0.00825990177690983,-0.029465913772583,0.0114485938102007,0.0123910205438733,0.0354342348873615,0.0034522048663348
91,-0.00812599714845419,-0.03124157525599,0.0123346066102386,0.0146151455119252,0.0359859094023705,0.00412786100059748
92,-0.00803427770733833,-0.0345797911286354,0.0114308902993798,0.0161434635519981,0.0356203466653824,0.00332579272799194
93,-0.00735009228810668,-0.0384531170129776,0.00978720467537642,0.0171871893107891,0.0355655923485756,0.00134784413967282
94,-0.00572171295061708,-0.0414456762373447,0.00914165750145912,0.0183352585881948,0.037414513528347,-0.000763052375987172
95,-0.00259682070463896,-0.0423258394002914,0.0111357569694519,0.0207676254212856,0.0413133315742016,-0.00128906720783561
96,0.000461039890069515,-0.0425638817250729,0.0142663745209575,0.0233871322125196,0.04493173584342,-0.00128400104586035
97,0.000896013574674726,-0.0446265041828156,0.015393627807498,0.023996863514185,0.0460467860102654,-0.00346130295656621
98,-0.00121405010577291,-0.0484949089586735,0.0141158178448677,0.0227938983589411,0.0446253418922424,-0.00768846785649657
99,-0.00360889895819128,-0.052269272506237,0.0124516142532229,0.021647272631526,0.0416957512497902,-0.011308996938169
100,-0.00628150813281536,-0.0564319007098675,0.00981754623353481,0.0198790356516838,0.0376889668405056,-0.0139458607882261
101,-0.0102470619603992,-0.0622789897024632,0.004681003279984,0.0162673518061638,0.0328188836574554,-0.0167716424912214
102,-0.0140241496264935,-0.0678096041083336,-0.000933240982703865,0.0129442699253559,0.0279682967811823,-0.0187620427459478
103,-0.0150867821648717,-0.0698949620127678,-0.00359835592098534,0.0127634461969137,0.0249444358050823,-0.0177173372358084
104,-0.0131038911640644,-0.0687620490789413,-0.00225981860421598,0.0155641511082649,0.0249751694500446,-0.0140434056520462
105,-0.0109297810122371,-0.0682440549135208,0.000555330130737275,0.0181614346802235,0.0263957642018795,-0.0112108597531915
106,-0.0109173040837049,-0.0706452056765556,0.00198696367442608,0.0185392089188099,0.026635555550456,-0.0108341556042433
107,-0.0122722089290619,-0.0742382854223251,0.00233878754079342,0.0183308403939009,0.025070870295167,-0.0109912808984518
108,-0.0117685627192259,-0.0749756172299385,0.00488497316837311,0.0209623165428638,0.0231252498924732,-0.00817650090903044
109,-0.00833862088620663,-0.0719808489084244,0.0100720580667257,0.026165472343564,0.0218147020787001,-0.0025355804245919
110,-0.00520604662597179,-0.0694248080253601,0.0134063707664609,0.0294606667011976,0.0199409369379282,0.00096115778433159
111,-0.00491941580548882,-0.0704458057880402,0.0122974524274468,0.0284684505313635,0.01659837923944,-0.000136903327074833
112,-0.00665096426382661,-0.0742400363087654,0.00864077731966972,0.0248020496219397,0.0128370793536305,-0.00372562254779041
113,-0.00964065454900265,-0.079813726246357,0.00414419360458851,0.0201721657067537,0.00960952416062355,-0.00837186630815268
114,-0.0152780087664723,-0.0881649181246758,-0.00248896889388561,0.0136331068351865,0.00610419269651175,-0.0148544451221824
115,-0.022555086761713,-0.0975432768464088,-0.0109066106379032,0.00578679004684091,0.00170783523935825,-0.0210103020071983
116,-0.0278378315269947,-0.104083523154259,-0.017578799277544,-0.00019316966063343,-0.00176197697874159,-0.0235877465456724
117,-0.0291008576750755,-0.106728307902813,-0.0198330879211426,-0.00271053612232208,-0.00150648143608123,-0.0231013912707567
118,-0.0272510293871164,-0.107076048851013,-0.0176632460206747,-0.00235465099103749,0.00210108514875174,-0.0215744432061911
119,-0.025558577850461,-0.107801660895348,-0.0136876069009304,-0.00104288954753429,0.00532578723505139,-0.0207700822502375
120,-0.0252660233527422,-0.108568429946899,-0.00957477930933237,0.000999896903522313,0.00591711048036814,-0.0196690130978823
121,-0.0240958426147699,-0.106256492435932,-0.00457912310957909,0.00558428792282939,0.00456502288579941,-0.0152578726410866
122,-0.0201813951134682,-0.100042819976807,0.00157820072490722,0.0127992117777467,0.00253266212530434,-0.00730267772451043
123,-0.0146305505186319,-0.093156486749649,0.00742333475500345,0.0200595911592245,0.00105050019919872,0.000640361569821835
124,-0.0113939959555864,-0.0913121253252029,0.00971654430031776,0.0230823624879122,0.000964062754064798,0.00292659690603614
125,-0.0126222474500537,-0.0962260365486145,0.00710541941225529,0.0203917361795902,0.0013995097251609,-0.00185243447776884
126,-0.0159796457737684,-0.103915132582188,0.00208803778514266,0.0152876209467649,0.00134216411970556,-0.00950194988399744
127,-0.0174211300909519,-0.109367094933987,-0.00179005763493478,0.0122061809524894,0.00138235581107438,-0.0151329776272178
128,-0.0142713710665703,-0.109370529651642,-0.00173582555726171,0.0140742985531688,0.00226127565838397,-0.0152342291548848
129,-0.00775866815820336,-0.104728139936924,0.00188302143942565,0.0202250480651855,0.00362446974031627,-0.0101683717221022
130,-0.00187305174767971,-0.0997758358716965,0.00535666616633534,0.0265743490308523,0.00421865051612258,-0.00480970414355397
131,0.00107149290852249,-0.0977632999420166,0.00648325961083174,0.0296993646770716,0.00334917986765504,-0.00301551283337176
132,0.00182211701758206,-0.0981543660163879,0.0068942722864449,0.0299911182373762,0.00226223329082131,-0.00348976207897067
133,0.0025398712605238,-0.0984271988272667,0.00951686594635248,0.0305931083858013,0.00303582777269185,-0.00258530420251191
134,0.00417295703664422,-0.0975693613290787,0.0148069132119417,0.0331879407167435,0.00613034376874566,0.000804247334599495
135,0.00466937990859151,-0.0980497598648071,0.0193921085447073,0.0353972427546978,0.00967070367187262,0.00371861713938415
136,0.00162602227646858,-0.102768808603287,0.019401652738452,0.0336594395339489,0.0113938804715872,0.00249257497489452
137,-0.00464086653664708,-0.111496284604073,0.0138921933248639,0.0272102020680904,0.0105750756338239,-0.00343621056526899
138,-0.0100953858345747,-0.119742013514042,0.00722429761663079,0.020017946138978,0.00921724457293749,-0.00944739393889904
139,-0.0110522219911218,-0.123055912554264,0.00518700806424022,0.0166540946811438,0.00984153430908918,-0.0107798557728529
140,-0.0099272346124053,-0.123496130108833,0.00638851011171937,0.0154572734609246,0.0113181006163359,-0.0100262025371194
141,-0.0100992387160659,-0.125116795301437,0.00638088816776872,0.012810256332159,0.0116140590980649,-0.0116235706955194
142,-0.00971229374408722,-0.12675367295742,0.00656369794160128,0.0108141535893083,0.0120333824306726,-0.0136869391426444
143,-0.00683490186929703,-0.125816583633423,0.00958210416138172,0.0130779268220067,0.0132798803970218,-0.0123089086264372
144,-0.00395313184708357,-0.12370378524065,0.0128422481939197,0.0175461154431105,0.0121711324900389,-0.0087142838165164
145,-0.00296019203960896,-0.122648917138577,0.0136919617652893,0.0198983866721392,0.00763084925711155,-0.00662986561655998
146,-0.00345928897149861,-0.12368568778038,0.0123440362513065,0.0182869490236044,0.00240705697797239,-0.00829925760626793
147,-0.00687156105414033,-0.128903046250343,0.00733333453536034,0.0116865327581763,-0.0028398975264281,-0.0156888384371996
148,-0.013915840536356,-0.138590425252914,-0.00195510359480977,0.00109279877506197,-0.00877902004867792,-0.0280544180423021
149,-0.0216274987906218,-0.148831248283386,-0.0119343362748623,-0.00932502653449774,-0.0144738722592592,-0.040087603032589
150,-0.0255112424492836,-0.153914883732796,-0.0176263302564621,-0.0146891893818974,-0.0182943101972342,-0.0454603172838688
151,-0.023184459656477,-0.150842532515526,-0.0167984329164028,-0.0127906417474151,-0.0191109459847212,-0.0417933948338032
152,-0.017045222222805,-0.142744138836861,-0.012236550450325,-0.0066946018487215,-0.0170995630323887,-0.0330507233738899
153,-0.012133059091866,-0.135986268520355,-0.0080005656927824,-0.00132815539836884,-0.0138432867825031,-0.0254207290709019
154,-0.0108418334275484,-0.133766278624535,-0.00487141497433186,0.00164409971330315,-0.011365064419806,-0.0214962158352137
155,-0.0105776265263557,-0.133324429392815,-0.000990325468592346,0.00449968688189983,-0.0103337606415153,-0.0187454391270876
156,-0.00882833730429411,-0.131362169981003,0.00387179059907794,0.00933428760617971,-0.0108894547447562,-0.0143981650471687
157,-0.00732147553935647,-0.129503592848778,0.00691096112132072,0.0139721399173141,-0.0136140128597617,-0.0104182753711939
158,-0.00778046995401382,-0.130253747105598,0.0067850025370717,0.0156140932813287,-0.017219539731741,-0.00935854017734528
159,-0.0104125272482634,-0.134351551532745,0.00398278096690774,0.0133781712502241,-0.0198093168437481,-0.0119003178551793
160,-0.0143261887133121,-0.140166476368904,-0.000304212066112086,0.00831269100308418,-0.0209684278815985,-0.016743615269661
161,-0.0172565393149853,-0.144143164157867,-0.0041223238222301,0.00334195722825825,-0.0207390300929546,-0.0206588413566351
162,-0.0199292413890362,-0.146703317761421,-0.00866507086902857,-0.00135652127210051,-0.0203719101846218,-0.0242928564548492
163,-0.0237086061388254,-0.149340435862541,-0.01468251273036,-0.00590400351211429,-0.0205674823373556,-0.0289857089519501
164,-0.0258232727646828,-0.149598076939583,-0.017920259386301,-0.00721173593774438,-0.0193829983472824,-0.0313447825610638
165,-0.0235687885433435,-0.145617514848709,-0.0151518415659666,-0.00403363071382046,-0.0155794117599726,-0.0288238897919655
166,-0.0193488206714392,-0.140682145953178,-0.00963045656681061,-3.13335403916426E-05,-0.0107989553362131,-0.0248569846153259
167,-0.0167143829166889,-0.138476550579071,-0.00594321265816689,0.00156468385830522,-0.0065623689442873,-0.0228280555456877
168,-0.0153788989409804,-0.137927681207657,-0.00405737990513444,0.00185095891356468,-0.00262308749370277,-0.0208962988108397
169,-0.015465241856873,-0.138809770345688,-0.00413242587819695,0.000713440414983779,-2.95100599032594E-05,-0.0191558469086885
170,-0.0180395357310772,-0.142823278903961,-0.00795959960669279,-0.00345539534464478,-0.000221984460949898,-0.0202855002135038
171,-0.0218679457902908,-0.149343699216843,-0.0145746450871229,-0.00979258865118027,-0.00178231752943248,-0.0244418196380138
172,-0.0237170457839966,-0.154620155692101,-0.0194890201091766,-0.0148813594132662,-0.00189562735613436,-0.0280853658914566
173,-0.0206269323825836,-0.15445239841938,-0.0180999897420406,-0.014861392788589,0.00100691115949303,-0.0264720898121595
174,-0.0140656810253859,-0.150113463401794,-0.0110027343034744,-0.0103415129706264,0.00668805232271552,-0.0207477398216724
175,-0.00865047425031662,-0.146517351269722,-0.00291519495658576,-0.00536748068407178,0.0134930517524481,-0.0159874726086855
176,-0.00652217678725719,-0.145130842924118,0.0027525806799531,-0.00172120949719101,0.0190000981092453,-0.0133242532610893
177,-0.00557104498147964,-0.143196672201157,0.00678554829210043,0.00219270819798112,0.0223888251930475,-0.00987830571830273
178,-0.00437925476580858,-0.140035882592201,0.0101537704467773,0.00651471456512809,0.0240411274135113,-0.00534294359385967
179,-0.0040227510035038,-0.138157531619072,0.0114483684301376,0.0089406194165349,0.0235548317432404,-0.00256416155025363
180,-0.00433353427797556,-0.138071492314339,0.0108998343348503,0.00951318070292473,0.0209464300423861,-0.0019094857852906
181,-0.00569772394374013,-0.140043765306473,0.00883903261274099,0.0090150274336338,0.0167386848479509,-0.00326730730012059
182,-0.0103418109938502,-0.145644575357437,0.0034196344204247,0.00593292852863669,0.0106755392625928,-0.0082501657307148
183,-0.0174586325883865,-0.152988418936729,-0.00481818942353129,0.000421492877649143,0.0033028747420758,-0.0153493201360106
184,-0.0232267770916224,-0.157889112830162,-0.012185201048851,-0.00445111049339175,-0.00278655556030571,-0.0205800738185644
185,-0.0266527906060219,-0.160296812653542,-0.0172615107148886,-0.00819705985486507,-0.00621274532750249,-0.0238276422023773
186,-0.0280151646584272,-0.161195352673531,-0.019800491631031,-0.0112789245322347,-0.00727623282000422,-0.0256148967891932
187,-0.025274595245719,-0.158305943012238,-0.0175928045064211,-0.0107802422717214,-0.00521426694467664,-0.0227800570428371
188,-0.0187725126743317,-0.152146458625793,-0.0119358152151108,-0.00621329946443439,-0.000345810316503048,-0.0153106870129704
189,-0.0109211262315512,-0.145424589514732,-0.00618929881602526,-0.000131581706227735,0.00542011391371489,-0.00615453394129872
190,-0.00406018039211631,-0.140430361032486,-0.00174211082048714,0.0050220675766468,0.0101122697815299,0.00164789136033505
191,-0.000649214838631451,-0.13956306874752,0.000227245764108375,0.00693340925499797,0.0122218625620008,0.00496608670800924
192,0.000744082441087812,-0.140903323888779,0.0011770436540246,0.00686045037582517,0.01270482968539,0.00532219093292952
193,0.00180470722261816,-0.14237180352211,0.00218247878365219,0.00635656621307135,0.012699831277132,0.00439692009240389
194,0.00113938783761114,-0.14516369998455,0.00163364689797163,0.00459168152883649,0.0116306198760867,0.00105523900128901
195,-0.00160253804642707,-0.14926090836525,-0.000378923898097128,0.00221766019240022,0.0092143677175045,-0.00368045829236507
196,-0.00606783572584391,-0.154256328940392,-0.00333137717097998,0.000157447211677209,0.00551158282905817,-0.00839436333626509
197,-0.0115737589076161,-0.159626141190529,-0.00717293098568916,-0.00176875735633075,0.000781928771175444,-0.0124052222818136
198,-0.0161735117435455,-0.163756832480431,-0.0108924498781562,-0.00357839860953391,-0.00454539665952325,-0.0143978707492352
199,-0.0198882631957531,-0.167623490095139,-0.0151404663920403,-0.00633995421230793,-0.0112518798559904,-0.0157571900635958
200,-0.0249540098011494,-0.174509629607201,-0.0221359189599752,-0.0121688349172473,-0.0197404436767101,-0.0203514248132706
201,-0.0303099565207958,-0.183188825845718,-0.0302763320505619,-0.0194156691431999,-0.0271937642246485,-0.0271390993148088
202,-0.0313883572816849,-0.18755167722702,-0.0341183319687843,-0.0222506020218134,-0.0301039274781942,-0.029813576489687
203,-0.0272490605711937,-0.185708373785019,-0.0320369601249695,-0.0190847832709551,-0.0282137487083673,-0.0267127770930529
204,-0.0206361394375563,-0.180838584899902,-0.0268004089593887,-0.0133882034569979,-0.0233808737248182,-0.0213900711387396
205,-0.0125539507716894,-0.174116909503937,-0.0199061874300241,-0.00680161966010928,-0.0170536227524281,-0.0148990619927645
206,-0.00368557032197714,-0.16544446349144,-0.0121219884604216,0.000396164250560105,-0.010660701431334,-0.006639807485044
207,0.003369792830199,-0.157442733645439,-0.00491271540522575,0.00670538702979684,-0.00569743290543556,0.00131788791622967
208,0.0058062351308763,-0.154849648475647,-0.000698759744409472,0.00922098942101002,-0.00314973737113178,0.00408895080909133
209,0.0029348882380873,-0.159635230898857,-0.00164114497601986,0.00588669767603278,-0.00369985145516694,-0.000921323720831424
210,-0.00335021433420479,-0.16862216591835,-0.00654751807451248,-0.00116123293992132,-0.00734994653612375,-0.0102906124666333
211,-0.010398406535387,-0.177555590867996,-0.0121433902531862,-0.00822934601455927,-0.0127560468390584,-0.0192036405205727
212,-0.0171166937798262,-0.185739517211914,-0.0172387789934874,-0.0147546548396349,-0.0178993884474039,-0.026949929073453
213,-0.0226563047617674,-0.193675711750984,-0.0214734729379416,-0.020728275179863,-0.0209755003452301,-0.0339349359273911
214,-0.0240627583116293,-0.198715880513191,-0.0221253465861082,-0.0231726616621017,-0.0207475516945124,-0.0372411236166954
215,-0.0202731546014547,-0.19912588596344,-0.0183218978345394,-0.0203463546931744,-0.0177600439637899,-0.0348969213664532
216,-0.0142753617838025,-0.197062656283379,-0.0131855364888906,-0.0141943302005529,-0.0139569062739611,-0.029000798240304
217,-0.00971638597548008,-0.195661962032318,-0.0101377479732037,-0.00815718155354261,-0.0110829016193748,-0.0231107659637928
218,-0.00833868328481913,-0.197054445743561,-0.0102306390181184,-0.00479274475947022,-0.00944418925791979,-0.0197295993566513
219,-0.00866358168423176,-0.200204581022263,-0.0103201977908611,-0.00264493771828711,-0.00739532709121704,-0.0177988838404417
220,-0.00753918150439858,-0.2015161216259,-0.00574236176908016,0.00217255251482129,-0.00323541346006095,-0.0136805083602667
221,-0.00605731317773461,-0.202261000871658,0.00101553788408637,0.00797265488654375,0.00167377479374409,-0.00887120608240366
222,-0.00829101819545031,-0.20731408894062,0.00254288618452847,0.00889482907950878,0.00383729138411582,-0.00894638523459435
223,-0.0120696406811476,-0.214202359318733,-0.000206252894713543,0.00643073348328471,0.00319692469201982,-0.0117572713643312
224,-0.0134000452235341,-0.218328535556793,-0.00184215803164989,0.00548620568588376,0.0022131206933409,-0.012081234715879
225,-0.0137219745665789,-0.221029505133629,-0.00221175025217235,0.00586052192375064,0.00088194478303194,-0.0104260379448533
226,-0.0147410109639168,-0.224135100841522,-0.00222418550401926,0.0063032191246748,-0.00168774568010122,-0.00825444329530001
227,-0.0176974311470985,-0.22923119366169,-0.00355805712752044,0.00487684924155474,-0.00598200922831893,-0.00747585901990533
228,-0.0221070535480976,-0.235377609729767,-0.00653704069554806,0.00177878804970533,-0.0114231696352363,-0.007597416639328
229,-0.0239630732685328,-0.237678319215775,-0.00659371353685856,0.00206164875999093,-0.0155988400802016,-0.00380421802401543
230,-0.0225261207669973,-0.235661700367928,-0.00239695492200553,0.00712430896237493,-0.0175676587969065,0.00431532552465796
231,-0.0208689961582422,-0.23350815474987,0.00213453848846257,0.0130832670256495,-0.0186133999377489,0.0121370889246464
232,-0.0217182226479054,-0.2349623888731,0.0029241656884551,0.0155766168609262,-0.0205470342189074,0.0153993852436543
233,-0.0249476730823517,-0.240184590220451,-0.000361197744496167,0.0138360988348722,-0.0236862264573574,0.0142860533669591
234,-0.0282108169049025,-0.246742159128189,-0.00454931100830436,0.0109215844422579,-0.0262793749570847,0.0122888283804059
235,-0.0308306720107794,-0.254183351993561,-0.00829990766942501,0.00810136925429106,-0.0275177769362926,0.0101164281368256
236,-0.0321889109909534,-0.261348515748978,-0.0108912661671638,0.00605953950434923,-0.0278262756764889,0.00812872778624296
237,-0.0302406530827284,-0.264603346586227,-0.00984738208353519,0.00727773597463965,-0.0269289910793304,0.00912766251713037
238,-0.0245267245918512,-0.262523025274277,-0.00459136068820953,0.012030728161335,-0.0247116237878799,0.0143477553501725
239,-0.0180530678480864,-0.258302301168442,0.00151826080400497,0.0170080401003361,-0.022410286590457,0.0209101382642984
240,-0.0151455346494913,-0.256943047046661,0.00448171049356461,0.0183691084384918,-0.0211059246212244,0.0238950084894896
241,-0.0175877045840025,-0.260585516691208,0.00306003610603511,0.0145848654210567,-0.0212072320282459,0.0211432445794344
242,-0.0236338060349226,-0.266941070556641,-0.00152686715591699,0.00773056130856276,-0.0234717670828104,0.0151513889431953
243,-0.0300774816423655,-0.272709786891937,-0.00724244583398104,0.00112806458491832,-0.0275973584502935,0.00903904158622026
244,-0.0336160399019718,-0.275477349758148,-0.0109157571569085,-0.00267327227629721,-0.0310395564883947,0.00475145364180207
245,-0.0331797413527966,-0.274765253067017,-0.0102818924933672,-0.00300435535609722,-0.0321236252784729,0.00297115440480411
246,-0.0318286269903183,-0.274099767208099,-0.00753093045204878,-0.00305923563428223,-0.0316256433725357,0.0010346919298172
247,-0.0301319025456905,-0.273817330598831,-0.00328133278526366,-0.00310770515352488,-0.0289758257567883,-0.00036967103369534
248,-0.0254085324704647,-0.270148754119873,0.00459234695881605,0.000807017670013011,-0.0227006003260612,0.00332068162970245
249,-0.0212182980030775,-0.267257153987885,0.011037272401154,0.00538804894313216,-0.0151309007778764,0.0077639720402658
250,-0.0224447138607502,-0.271433532238007,0.00960245728492737,0.00425049802288413,-0.00942582823336124,0.00560002261772752
251,-0.0251202397048473,-0.278006851673126,0.00477421376854181,0.000644826330244541,-0.00480923661962152,0.00101374660152942
252,-0.0239981524646282,-0.280254483222961,0.00320524163544178,0.000425060687121004,-0.000360870995791629,0.00144150294363499
253,-0.0197561215609312,-0.278334110975266,0.00475761806592345,0.00355138117447495,0.00321536976844072,0.00754283322021365
254,-0.0154452128335834,-0.275427758693695,0.0072025521658361,0.00791728589683771,0.00591949420049787,0.0161441266536713
255,-0.0137556772679091,-0.274947643280029,0.00809497479349375,0.010979825630784,0.00758185144513845,0.0225958228111267
256,-0.0157987158745527,-0.279059678316116,0.00460480945184827,0.0100554563105106,0.00737733952701092,0.0230674464255571
257,-0.0199172291904688,-0.285874634981155,-0.00213938276283443,0.00637749768793583,0.00569685036316514,0.0193300265818834
258,-0.0232623256742954,-0.291227459907532,-0.00705865025520325,0.00432568090036511,0.00447226455435157,0.0166793502867222
259,-0.024511992931366,-0.293861955404282,-0.00736816693097353,0.00567186903208494,0.00495669571682811,0.0169009808450937
260,-0.0248303487896919,-0.296388417482376,-0.00502886204048991,0.00797456502914429,0.00678061274811625,0.0171052198857069
261,-0.0265755392611027,-0.30215910077095,-0.00391216389834881,0.00747748278081417,0.00898051355034113,0.0135159650817513
262,-0.0297901295125484,-0.310774087905884,-0.00552846724167466,0.00358131155371666,0.0110617112368345,0.00645860051736236
263,-0.0319348871707916,-0.317943662405014,-0.00798181258141994,-0.000516499392688274,0.0130926053971052,0.000683120335452259
264,-0.0315478555858135,-0.320967614650726,-0.00908297020941973,-0.00219939253292978,0.0151843652129173,-0.000551815610378981
265,-0.0300030987709761,-0.321820676326752,-0.00933500938117504,-0.00239175301976502,0.0170140415430069,0.00081454636529088
266,-0.0280609466135502,-0.322028905153275,-0.00885012745857239,-0.0020966837182641,0.0191163793206215,0.00270357867702842
267,-0.0248279012739658,-0.320550173521042,-0.00632305070757866,-0.00048843352124095,0.0220701228827238,0.00563163962215185
268,-0.0216101408004761,-0.318467438220978,-0.00402711890637875,0.00119719537906349,0.02347656711936,0.00801638048142195
269,-0.0201421231031418,-0.31769385933876,-0.0050174524076283,0.000682561134453863,0.0216653645038605,0.00741316191852093
270,-0.0196099448949099,-0.318022787570953,-0.0079152062535286,-0.00159686931874603,0.0189154539257288,0.00430779252201319
271,-0.0180385690182447,-0.317810505628586,-0.00882378406822681,-0.00299826450645924,0.017734594643116,0.00126576831098646
272,-0.0140520036220551,-0.315509855747223,-0.00585539499297738,-0.00156484916806221,0.0185601636767387,0.000846846320200711
273,-0.00829432997852564,-0.312076300382614,-0.000858009443618357,0.00184716994408518,0.0206485446542501,0.00339401373639703
274,-0.004401879850775,-0.312379091978073,0.00180539314169437,0.00289605651050806,0.0224694572389126,0.00454361876472831
275,-0.00512918317690492,-0.319825887680054,-0.00028812640812248,-0.0015560967149213,0.0228353999555111,0.000397470517782494
276,-0.00723442388698459,-0.330348014831543,-0.00346855260431767,-0.00735526392236352,0.0231300536543131,-0.00475992076098919
277,-0.00632045138627291,-0.338550806045532,-0.00337411742657423,-0.00883636064827442,0.0254636686295271,-0.00527890026569366
278,-0.00285862828604877,-0.344290673732758,-0.000591280986554921,-0.00620117876678705,0.0293277427554131,-0.00239037233404815
279,0.000252140103839338,-0.35002464056015,0.00169526040554047,-0.00311527866870165,0.032645221799612,-0.000615750439465046
280,0.00163467787206173,-0.356866091489792,0.00155739195179194,-0.00224637473002076,0.0343927703797817,-0.00201190402731299
281,0.000655290030408651,-0.365311026573181,-0.00159561715554446,-0.00494801299646497,0.0343299806118011,-0.00671304436400533
282,-0.00238882703706622,-0.3748459815979,-0.00674128672108054,-0.0104837520048022,0.0329632125794888,-0.0133614763617516
283,-0.00473342137411237,-0.382470011711121,-0.0104723926633596,-0.0153881413862109,0.0321477986872196,-0.0182171147316694
284,-0.00496659148484468,-0.386478185653687,-0.0114639988169074,-0.0177409145981073,0.0323679149150848,-0.0193521659821272
285,-0.00337154371663928,-0.386935740709305,-0.0107219889760017,-0.017525527626276,0.0326040834188461,-0.0170385260134935
286,-0.000222632064833306,-0.384818196296692,-0.00870268885046244,-0.0149920461699367,0.0324329100549221,-0.0124945677816868
287,0.00251299375668168,-0.383188307285309,-0.00639351410791278,-0.0119486805051565,0.0315234735608101,-0.00865389592945576
288,0.0031308070756495,-0.384172141551971,-0.00475009065121412,-0.0104212425649166,0.0300255864858627,-0.00711376499384642
289,0.00289556151255965,-0.386137366294861,-0.00304567674174905,-0.00998779479414225,0.0289718918502331,-0.00611994182690978
290,0.0038446793332696,-0.386461168527603,1.02008707472123E-05,-0.00902459397912025,0.0289286207407713,-0.00384177500382066
291,0.00492174457758665,-0.386287003755569,0.00291233928874135,-0.00863087084144354,0.0287561360746622,-0.00227622245438397
292,0.00513519812375307,-0.387134939432144,0.00396305695176125,-0.00973398890346289,0.0276265982538462,-0.00302811618894339
293,0.00651631876826286,-0.386934489011765,0.00466606486588717,-0.00993651896715164,0.0269829332828522,-0.00392901105806232
294,0.0102093163877726,-0.383358508348465,0.00705637224018574,-0.00671694427728653,0.0280353501439095,-0.0021838725078851
295,0.0139632057398558,-0.377551794052124,0.0109427561983466,-0.0009125005453825,0.0296155400574207,0.00192236411385238
296,0.013810177333653,-0.374067634344101,0.0134607590734959,0.00310469255782664,0.0297937765717506,0.00379825220443308
297,0.00896806549280882,-0.375153452157974,0.012490376830101,0.00282105547375977,0.028299817815423,0.000792289734818041
298,0.00314695830456913,-0.377774596214294,0.00899428222328424,0.00020164207671769,0.026476725935936,-0.00418841233476996
299,-5.26703406649176E-05,-0.377958029508591,0.00570544321089983,-0.00166085409000516,0.0259541925042868,-0.00725761102512479
300,-0.000128712737932801,-0.374461621046066,0.00506974337622523,-0.0008814986795187,0.0274679698050022,-0.00643970491364598
301,0.000997271272353828,-0.369000375270844,0.00697926059365273,0.00210348633117974,0.0298802629113197,-0.00253858580254018
302,0.000167065896675922,-0.365714520215988,0.00776707008481026,0.00349247036501765,0.0301432330161333,5.87855247431435E-05
303,-0.00362319615669549,-0.366545110940933,0.00434043444693089,0.000343714695191011,0.0261398628354073,-0.00149478018283844
304,-0.00813664961606264,-0.368728518486023,-0.00225533614866436,-0.00560566782951355,0.0189354792237282,-0.00517338560894132
305,-0.0117854587733746,-0.369760066270828,-0.00920324958860874,-0.0114593217149377,0.0113004548475146,-0.00844857096672058
306,-0.0133962295949459,-0.368357092142105,-0.0127163641154766,-0.0146856857463717,0.00614199135452509,-0.00945393834263086
307,-0.011900638230145,-0.363564103841782,-0.0104702031239867,-0.0134552689269185,0.00452762469649315,-0.00705874664708972
308,-0.00927661824971437,-0.357638001441956,-0.00588209088891745,-0.0101974792778492,0.00445944489911199,-0.0037668626755476
309,-0.00852441508322954,-0.354106068611145,-0.00389673048630357,-0.00898998603224754,0.00349036394618452,-0.00302102183923125
310,-0.00965120457112789,-0.352744936943054,-0.00467540975660086,-0.00948054995387793,0.00145860551856458,-0.00415687030181289
311,-0.00960399303585291,-0.349813938140869,-0.00431065913289785,-0.00781385321170092,6.29369969828986E-05,-0.00336382305249572
312,-0.00766707397997379,-0.344827800989151,-0.00211744522675872,-0.00394106982275844,-0.000280049775028601,-0.0007967310375534
313,-0.00624219188466668,-0.340759962797165,-0.000868876930326223,-0.0012553243432194,-0.000962464255280793,6.16292345512193E-06
314,-0.00510912714526057,-0.336976051330566,-7.54603170207702E-05,0.000595243589486927,-0.00213195779360831,-8.34608435980044E-05
315,-0.00342152849771082,-0.332371920347214,0.000954290851950645,0.0027321137022227,-0.00312248524278402,0.000332198047544807
316,-0.0017749744001776,-0.327765971422195,0.00149091321509331,0.00462614744901657,-0.00375897018238902,0.000576610735151917
317,0.000746600155252963,-0.3214410841465,0.00276653142645955,0.00786540098488331,-0.00342847290448844,0.0025844716001302
318,0.00485949544236064,-0.311924189329147,0.00568005722016096,0.0134054366499186,-0.00217358348891139,0.00748732360079885
319,0.00752799864858389,-0.303177416324615,0.00806061644107103,0.0173050053417683,-0.00196782313287258,0.0108377709984779
320,0.00569998053833842,-0.2994145154953,0.00768529390916228,0.0160968862473965,-0.00428674556314945,0.00882221572101116
321,0.000986093073152006,-0.298740684986115,0.00566069735214114,0.0118795856833458,-0.0083391647785902,0.00388432550244033
322,-0.00337596936151385,-0.297450751066208,0.00407975167036057,0.00780789833515882,-0.0122119300067425,-0.000428765022661537
323,-0.00557786738499999,-0.294494926929474,0.00342184212058783,0.00488346209749579,-0.0146663933992386,-0.00312511180527508
324,-0.00488571310415864,-0.290033996105194,0.00358938262797892,0.0037570025306195,-0.0161005631089211,-0.00389654049649835
325,4.99485067848582E-05,-0.282248228788376,0.00697814673185349,0.00666532572358847,-0.0160121526569128,-0.000525157898664474
326,0.00963103119283915,-0.269310861825943,0.0158302169293165,0.014485607855022,-0.0127295292913914,0.0085552716627717
327,0.0196154993027449,-0.254837781190872,0.0258287508040667,0.0225903484970331,-0.00717686302959919,0.0191281642764807
328,0.0251702815294266,-0.244693696498871,0.0301907882094383,0.0252107847481966,-0.00219876319169998,0.0250273272395134
329,0.0255303513258696,-0.241115599870682,0.0273310448974371,0.0212027821689844,0.000723856093827635,0.0236688368022442
330,0.0227081999182701,-0.242031186819077,0.021085100248456,0.0138751873746514,0.00191362306941301,0.0168341305106878
331,0.019855884835124,-0.24269300699234,0.0167764127254486,0.00840554386377335,0.00241447263397276,0.00967708230018616
332,0.016906326636672,-0.242044493556023,0.0139437448233366,0.00547040952369571,0.00189536868128926,0.0036370309535414
333,0.0108664110302925,-0.243511572480202,0.00769571308046579,0.000646033498924226,-0.000912281044293195,-0.00489698583260179
334,0.0028534063603729,-0.247030630707741,-0.000895623816177249,-0.00665650423616171,-0.00462980754673481,-0.0155958328396082
335,-0.00302181276492774,-0.248903572559357,-0.00632826425135136,-0.0124340672045946,-0.00604535918682814,-0.0236212704330683
336,-0.0048714610747993,-0.246495440602303,-0.00667457422241569,-0.013711086474359,-0.0040268269367516,-0.0253363698720932
337,-0.00306021911092103,-0.238932609558105,-0.00349262380041182,-0.00979171320796013,-6.24917229288258E-05,-0.0199014414101839
338,0.00128775567281991,-0.227109223604202,0.00187511194963008,-0.00187610147986561,0.00422269245609641,-0.00920012220740318
339,0.00549575872719288,-0.214766278862953,0.00763714127242565,0.00617787288501859,0.00774814840406179,0.00167801114730537
340,0.00792449712753296,-0.204658821225166,0.0121977990493178,0.0114691667258739,0.0100951949134469,0.00911941844969988
341,0.0102708730846643,-0.195660069584847,0.0161045473068953,0.0148976026102901,0.0126390531659126,0.0142756346613169
342,0.0131028974428773,-0.187067568302155,0.0186201725155115,0.0170742329210043,0.0160367004573345,0.0182863567024469
343,0.0149464197456837,-0.17952398955822,0.0178053062409163,0.0175927337259054,0.0184475779533386,0.0208932720124722
344,0.0140450252220035,-0.174975886940956,0.0128217041492462,0.0155213251709938,0.0180425066500902,0.0202931836247444
345,0.010106710717082,-0.174849480390549,0.00489651225507259,0.0104813436046243,0.0151070207357407,0.0153599707409739
346,0.0058009447529912,-0.176615744829178,-0.00182729540392756,0.00456816283985972,0.0120487390086055,0.00847282540053129
347,0.0035585721489042,-0.176814660429955,-0.00401293626055121,0.000124434198369272,0.0113900322467089,0.00233281846158206
348,0.00293201208114624,-0.174288481473923,-0.00275661260820925,-0.00177632900886238,0.0128307975828648,-0.0013292480725795
349,0.000980776036158204,-0.171195581555367,-0.00285438681021333,-0.00277897762134671,0.0135139105841517,-0.00376109289936721
350,-0.00249245762825012,-0.168180257081985,-0.00573134981095791,-0.00388798117637634,0.0127782868221402,-0.00597344292327762
351,-0.00328228948637843,-0.161630749702454,-0.00678532710298896,-0.00240396219305694,0.0126047171652317,-0.00496707949787378
352,8.15083549241535E-05,-0.150511503219604,-0.00352763198316097,0.00242693000473082,0.0133591713383794,-6.31898947176524E-05
353,0.00462954957038164,-0.138239905238152,0.00152096746023744,0.00779272988438606,0.0137263024225831,0.00555550260469317
354,0.00712339347228408,-0.128659158945084,0.00456318538635969,0.01082519069314,0.012714633718133,0.00880955532193184
355,0.00644667726010084,-0.123405620455742,0.00386583711951971,0.0103361327201128,0.0104952231049538,0.00882514379918575
356,0.00407146662473679,-0.120965540409088,0.00122591853141785,0.00763871381059289,0.00820323545485735,0.00745276361703873
357,0.00318487407639623,-0.117205746471882,0.000198465379071422,0.00642081722617149,0.00673423567786813,0.00834298320114613
358,0.0051821512170136,-0.109817124903202,0.00209499546326697,0.00856302212923765,0.00605420768260956,0.0129608819261193
359,0.00710246432572603,-0.102045811712742,0.00388197530992329,0.0107176089659333,0.00505027268081903,0.0171054620295763
360,0.00543992826715112,-0.0977199748158455,0.00212063197977841,0.008941107429564,0.00265669915825129,0.0159600023180246
361,0.00116532668471336,-0.0951715633273125,-0.00153823522850871,0.00481404457241297,-4.36927693954203E-05,0.0114351138472557
362,-0.00175260216929019,-0.0894770100712776,-0.00164982688147575,0.00375624373555183,-0.00062759016873315,0.0100575881078839
363,-0.00333170732483268,-0.0803899466991425,0.00191722670570016,0.00622416706755757,0.000488170859171078,0.0126803638413548
364,-0.00736749917268753,-0.0725403502583504,0.00308678043074906,0.00665577733889222,0.000341498060151935,0.013724303804338
365,-0.0127025656402111,-0.0655530691146851,0.000953168724663556,0.00390205974690616,-0.00139968353323638,0.0127665083855391
366,-0.0154292173683643,-0.055572684854269,-0.000689727778080851,0.00128084246534854,-0.00299621815793216,0.0130580896511674
367,-0.0167770516127348,-0.0436630137264729,-0.00239948369562626,-0.00139162491541356,-0.00399983953684568,0.0130543606355786
368,-0.0197933707386255,-0.0323535539209843,-0.00625727139413357,-0.00575579330325127,-0.00435393117368221,0.0105041181668639
369,-0.024555204436183,-0.0213300604373217,-0.0115651814267039,-0.0114036779850721,-0.00400712434202433,0.00564201222732663
370,-0.0285482984036207,-0.00762351276353002,-0.0163192544132471,-0.0168290622532368,-0.00332026276737452,0.000265732436673716
371,-0.0292507503181696,0.0128143727779388,-0.0182202998548746,-0.0207751877605915,-0.00193086522631347,-0.00299764727242291
372,-0.0279702953994274,0.040449745953083,-0.0175872649997473,-0.0241546202450991,9.77003946900368E-05,-0.00461987545713782
373,-0.0275594256818295,0.0729120299220085,-0.0165940169245005,-0.0279997680336237,0.00142536708153784,-0.00689211115241051
374,-0.0283078495413065,0.108852341771126,-0.0157078057527542,-0.0314002446830273,0.00111327494960278,-0.00986545812338591
375,-0.0297779440879822,0.146509364247322,-0.0156724117696285,-0.0339799150824547,-0.00171275332104415,-0.012873605825007
376,-0.0315262116491795,0.183516681194305,-0.0175519529730082,-0.0361216887831688,-0.00739419553428888,-0.0153826968744397
377,-0.0322313755750656,0.219217732548714,-0.0197719652205706,-0.0371869131922722,-0.0138172684237361,-0.0160317718982697
378,-0.0305845905095339,0.254343152046204,-0.0195832699537277,-0.0356544703245163,-0.0182875003665686,-0.0135290324687958
379,-0.027079014107585,0.287643909454346,-0.0174599401652813,-0.0323976911604404,-0.0204824507236481,-0.00933779869228601
380,-0.0242194458842278,0.316104352474213,-0.016832185909152,-0.0304162222892046,-0.021861931309104,-0.00654167775064707
381,-0.0228848736733198,0.340749770402908,-0.0185313206166029,-0.0294366180896759,-0.0235758945345879,-0.0042896312661469
382,-0.020922651514411,0.365760207176209,-0.0192966796457767,-0.0267931241542101,-0.025415925309062,0.000313594442559406
383,-0.0176229756325483,0.390853375196457,-0.0176165886223316,-0.0231309626251459,-0.0260949898511171,0.00543059688061476
384,-0.0145632568746805,0.412955552339554,-0.0151971913874149,-0.0209733638912439,-0.0245097242295742,0.00781838409602642
385,-0.0120333321392536,0.431973099708557,-0.0128022264689207,-0.0202813223004341,-0.0206490084528923,0.0079393619671464
386,-0.00890846084803343,0.449374854564667,-0.0103076882660389,-0.0198415387421846,-0.0151586961001158,0.00750138843432069
387,-0.00498427590355277,0.465486347675323,-0.00875630043447018,-0.019947275519371,-0.00933746248483658,0.00698951492086053
388,-0.00276833889074624,0.477801740169525,-0.0112044736742973,-0.0232048518955708,-0.00545833259820938,0.00393209932371974
389,-0.00265603046864271,0.486279726028442,-0.0170560702681541,-0.0292536150664091,-0.00428458582609892,-0.00137415144126862
390,-0.00194643519353122,0.494912981987,-0.0215915013104677,-0.0341943465173244,-0.00464738300070167,-0.00443921284750104
391,-0.00100916984956712,0.5,-0.0244135316461325,-0.0383424237370491,-0.00590710807591677,-0.00566682498902082
392,-0.000209395031561144,0.5,-0.0260768420994282,-0.0425916835665703,-0.00715216295793653,-0.00696416525170207
393,0.00163800513837487,0.5,-0.0252300556749105,-0.0447847545146942,-0.00757045764476061,-0.0077608865685761
394,0.00372360181063414,0.5,-0.0230662971735001,-0.0443143732845783,-0.00823400262743235,-0.00841180607676506
395,0.00598749099299312,0.5,-0.0204062964767218,-0.0410731174051762,-0.00962842162698507,-0.00788340717554092
396,0.00872433371841908,0.5,-0.0176453366875649,-0.0359983332455158,-0.0113407569006085,-0.00582558568567038
397,0.0100468508899212,0.5,-0.017307722941041,-0.032750878483057,-0.0138714341446757,-0.00521460175514221
398,0.0107563957571983,0.5,-0.0181846041232347,-0.0315696783363819,-0.0163339916616678,-0.00523533625528216
399,0.0137623120099306,0.5,-0.0167081449180841,-0.0297661665827036,-0.0168518386781216,-0.00250369659624994
400,0.0172407440841198,0.5,-0.0149584654718637,-0.0292086377739906,-0.016175601631403,0.000672181777190417
401,0.0191639922559261,0.5,-0.0149535806849599,-0.0313124880194664,-0.015774805098772,0.00242701661773026
402,0.0219846032559872,0.5,-0.0135912196710706,-0.0322181731462479,-0.0151178818196058,0.00587792508304119
403,0.0269058682024479,0.5,-0.00954940635710955,-0.0295961741358042,-0.0140152471140027,0.011778075248003
404,0.0317478962242603,0.5,-0.00569810485467315,-0.0250954758375883,-0.0139652071520686,0.0177248902618885
405,0.0341911539435387,0.5,-0.00520989531651139,-0.0221018511801958,-0.0162068009376526,0.0207428615540266
406,0.0344510152935982,0.5,-0.00810420699417591,-0.0227591376751661,-0.0199311729520559,0.0193212945014238
407,0.0342124216258526,0.5,-0.012223863042891,-0.0262288339436054,-0.0232258811593056,0.0148563785478473
408,0.0334899425506592,0.5,-0.0171743389219046,-0.0314941816031933,-0.0255062635987997,0.00878617633134127
409,0.0317185595631599,0.5,-0.0232820827513933,-0.0377042442560196,-0.0272605698555708,0.00226366822607815
410,0.0315166898071766,0.5,-0.0268064811825752,-0.0410311706364155,-0.0271506775170565,-0.0010070517892018
411,0.0355072245001793,0.5,-0.0243421718478203,-0.0386907868087292,-0.0234815888106823,0.00127281935419887
412,0.042143814265728,0.5,-0.0181975606828928,-0.033384133130312,-0.0176964569836855,0.0061436421237886
413,0.0488637536764145,0.5,-0.0115064345300198,-0.0287241172045469,-0.0127239301800728,0.0105302408337593
414,0.0541082806885242,0.5,-0.00596143817529082,-0.0258746538311243,-0.0107196466997266,0.0140711981803179
415,0.056837797164917,0.5,-0.00324049033224583,-0.0251279473304749,-0.0120703764259815,0.0164231527596712
416,0.0573742501437664,0.5,-0.00327987060882151,-0.0261509157717228,-0.014798735268414,0.0170327257364988
417,0.0565313249826431,0.5,-0.00511374790221453,-0.0286434814333916,-0.0175123810768127,0.0155510334298015
418,0.055027287453413,0.5,-0.0085268234834075,-0.0325872227549553,-0.0206727925688028,0.012603665702045
419,0.0543490760028362,0.5,-0.0116800153627992,-0.035972885787487,-0.0237894933670759,0.0110121043398976
420,0.0542382746934891,0.5,-0.0130863087251782,-0.037888802587986,-0.0255576875060797,0.010949713177979
421,0.0536676682531834,0.5,-0.0132671175524592,-0.039743073284626,-0.0249364599585533,0.0101223783567548
422,0.0540273189544678,0.5,-0.0116134881973267,-0.0407081916928291,-0.0214648470282555,0.00953297317028046
423,0.0564858205616474,0.5,-0.00747356237843633,-0.0386117622256279,-0.0165453068912029,0.0109047135338187
424,0.0594050064682961,0.5,-0.0030173275154084,-0.0343797653913498,-0.0127720879390836,0.01246746070683
425,0.0595359764993191,0.5,-0.00212950748391449,-0.0324061512947083,-0.0115578696131706,0.0103423912078142
426,0.055963683873415,0.5,-0.00605732668191195,-0.0351948067545891,-0.012150558643043,0.00400112615898252
427,0.0522763654589653,0.5,-0.0109006576240063,-0.0393623299896717,-0.0125495102256536,-0.00120415282435715
428,0.0514682233333588,0.5,-0.0133429877460003,-0.041353564709425,-0.0118299722671509,-0.00187080167233944
429,0.0520035102963448,0.5,-0.015155216678977,-0.0425581261515617,-0.0112126637250185,-0.00118153938092291
430,0.0538142248988152,0.5,-0.0156837664544582,-0.0421849228441715,-0.0110428668558598,0.000471300969365984
431,0.0582312531769276,0.5,-0.0122805275022984,-0.0376960001885891,-0.0108854193240404,0.00503927748650312
432,0.063146136701107,0.5,-0.00726149883121252,-0.0320336371660233,-0.0115223592147231,0.00960016623139381
433,0.0671666041016579,0.5,-0.0026907583232969,-0.0276421383023262,-0.0126138972118497,0.0127480188384652
434,0.0685478076338768,0.5,-0.000290339754428715,-0.0257338732481003,-0.0141965942457318,0.0140787055715919
435,0.0654386579990387,0.496821880340576,-0.00236218306235969,-0.0282130390405655,-0.0173455402255058,0.0120031060650945
436,0.0612623393535614,0.4892757833004,-0.00620635971426964,-0.0324187763035297,-0.020567499101162,0.00907745119184256
437,0.0604262091219425,0.485486596822739,-0.00697155529633164,-0.0334749035537243,-0.0216839276254177,0.00924782082438469
438,0.0622995980083942,0.484623193740845,-0.00458434503525496,-0.0308286380022764,-0.0217670872807503,0.0124260792508721
439,0.0640071779489517,0.483332544565201,-0.00247336062602699,-0.0273577924817801,-0.022528937086463,0.0157341137528419
440,0.0657703280448914,0.480939090251923,-0.00112371693830937,-0.0238349810242653,-0.0224657393991947,0.0178749430924654
441,0.0693900883197784,0.478621751070023,0.00154332898091525,-0.0190994758158922,-0.0196121521294117,0.0193223282694817
442,0.0738243460655212,0.475886315107346,0.00570404343307018,-0.0134489592164755,-0.014788537286222,0.0202647373080254
443,0.0757310912013054,0.471128791570663,0.00885969586670399,-0.00927466712892056,-0.010651221498847,0.0201677363365889
444,0.0748123973608017,0.464969396591187,0.00979750044643879,-0.00778265902772546,-0.0081840381026268,0.0193501692265272
445,0.0717243105173111,0.457246690988541,0.00784560106694698,-0.00964363664388657,-0.00695031508803368,0.0165599305182695
446,0.0647923573851585,0.445505350828171,0.00114354386460036,-0.0166346915066242,-0.00760554382577538,0.00907180923968554
447,0.0560033321380615,0.431743502616882,-0.00729110836982727,-0.026112524792552,-0.00958130229264498,-0.000245014147367328
448,0.0501808486878872,0.420926153659821,-0.0117488577961922,-0.032372422516346,-0.0106815220788121,-0.00608533434569836
449,0.049555379897356,0.41560161113739,-0.0105120083317161,-0.0323198921978474,-0.00949607510119677,-0.00649546645581722
450,0.0526117198169231,0.414541512727737,-0.00566276349127293,-0.0270095355808735,-0.00674192933365703,-0.00289951590821147
451,0.0559521540999413,0.41381511092186,-0.0007079858914949,-0.0205387324094772,-0.00416904268786311,0.00124573090579361
452,0.0585507564246655,0.411728233098984,0.00297009665518999,-0.0150553192943335,-0.00220070756040514,0.00479439599439502
453,0.0612319484353065,0.409868627786636,0.00676383869722486,-0.00946307647973299,-0.0011441616807133,0.00926254689693451
454,0.0632879436016083,0.408426731824875,0.0106360306963325,-0.00412985822185874,-0.00155166408512741,0.014022228308022
455,0.0627178624272347,0.40439561009407,0.011057423427701,-0.00221813935786486,-0.0030879583209753,0.0153475422412157
456,0.0597827434539795,0.396821200847626,0.00683995429426432,-0.00429971516132355,-0.00502815144136548,0.0123974280431867
457,0.0579451397061348,0.389558643102646,0.00279964064247906,-0.00659870449453592,-0.006161754950881,0.00954713765531778
458,0.0589609816670418,0.385160356760025,0.00286169396713376,-0.00640735169872642,-0.00577346375212073,0.00963758397847414
459,0.0606643073260784,0.381646245718002,0.00514323683455586,-0.00505525572225451,-0.00491185672581196,0.0107081355527043
460,0.0609836056828499,0.376647412776947,0.00677543552592397,-0.00486866338178515,-0.00477520795539021,0.0103383949026465
461,0.0599539503455162,0.369242876768112,0.0076580592431128,-0.006689777597785,-0.00521900923922658,0.00772125413641334
462,0.0584805198013783,0.359645396471024,0.00798808224499226,-0.0103912791237235,-0.00573360128328204,0.00329821696504951
463,0.0572518035769463,0.349575936794281,0.00707252556458116,-0.0149184549227357,-0.00641467794775963,-0.000992389628663659
464,0.0570176392793655,0.341880947351456,0.00627878913655877,-0.0171737186610699,-0.00713580194860697,-0.00179236195981503
465,0.0562346950173378,0.335483551025391,0.00584911368787289,-0.0169147551059723,-0.00810447800904512,-4.32149572588969E-05
466,0.0518912002444267,0.326102465391159,0.0031102760694921,-0.0181624311953783,-0.00989888608455658,-0.00088190718088299
467,0.0460973605513573,0.315186440944672,-0.000328071968397126,-0.0206677000969648,-0.0113949319347739,-0.00359622947871685
468,0.0431183539330959,0.307295441627502,-0.000689544074703008,-0.0208753496408463,-0.0116540491580963,-0.00359116541221738
469,0.0422689206898212,0.302382737398148,0.000189283557119779,-0.019165214151144,-0.0125642353668809,-0.000874044024385512
470,0.0396484732627869,0.296368211507797,-0.00282581360079348,-0.0195663031190634,-0.0158562175929546,-1.75294353539357E-05
471,0.0346355177462101,0.287591069936752,-0.00957212503999472,-0.0232244022190571,-0.0199309587478638,-0.00287950062192976
472,0.0301627870649099,0.278404951095581,-0.0146710202097893,-0.0269935950636864,-0.0222314205020666,-0.00665515195578337
473,0.0295733567327261,0.272344410419464,-0.0135363815352321,-0.027239041402936,-0.0211300551891327,-0.00737544242292643
474,0.0344070456922054,0.27193221449852,-0.00549424346536398,-0.0219398252665997,-0.0166216865181923,-0.00227205106057227
475,0.0406953617930412,0.273961842060089,0.00371758616529405,-0.0141105782240629,-0.0120208561420441,0.005618697963655
476,0.0438539795577526,0.27345022559166,0.00850525870919228,-0.00855838041752577,-0.00977021083235741,0.0112480940297246
477,0.0450782664120197,0.271007269620895,0.0105600645765662,-0.00538768293336034,-0.00828225817531347,0.014835718087852
478,0.045546367764473,0.26731014251709,0.011722912080586,-0.00409292010590434,-0.00661377003416419,0.0166480336338282
479,0.0446938201785088,0.261549085378647,0.0115040838718414,-0.00486017437651753,-0.00504084536805749,0.0158070176839828
480,0.0441369600594044,0.256136566400528,0.0114650828763843,-0.00493546715006232,-0.00301152374595404,0.0150562925264239
481,0.043999470770359,0.251738846302032,0.0110471220687032,-0.00348206935450435,-0.00120555376634002,0.0156587772071362
482,0.0421035252511501,0.245623365044594,0.0071131307631731,-0.00294681428931654,-0.00100619171280414,0.0154418628662825
483,0.0388744436204433,0.23784913122654,0.000982763711363077,-0.00343296979553998,-0.00153779261745512,0.0142585644498467
484,0.0367242321372032,0.230950623750687,-0.00223284680396318,-0.00309720914810896,-0.0008148038177751,0.0136675713583827
485,0.0357126332819462,0.225004985928535,-0.00115939392708242,-0.0021840997505933,0.000954443123191595,0.0130088711157441
486,0.0346540883183479,0.218852862715721,0.00138363020960242,-0.0019081134814769,0.00228475918993354,0.0110012143850327
487,0.0341090746223927,0.213298246264458,0.00342800584621727,-0.00218112603761256,0.00288186431862414,0.00868406426161528
488,0.0345845296978951,0.209312304854393,0.0047361315228045,-0.00227015558630228,0.00311355874873698,0.00766172772273421
489,0.0352517291903496,0.206503376364708,0.00568099552765489,-0.00150165671948344,0.00317454850301147,0.00814626924693584
490,0.0349155589938164,0.203391656279564,0.00634658150374889,-0.000277940038358793,0.00319738104008138,0.00878451578319073
491,0.0333574749529362,0.198815912008286,0.00679604848846793,0.000690281623974442,0.0033724585082382,0.00873204786330462
492,0.0321810580790043,0.193867117166519,0.0080265998840332,0.00207838951610029,0.00394680676981807,0.00950866565108299
493,0.0322719998657703,0.189410045742989,0.00982667971402407,0.00378144253045321,0.00478755030781031,0.0115683292970061
494,0.0324676334857941,0.184315592050552,0.0105807520449162,0.00417570397257805,0.00563604105263948,0.0128491260111332
495,0.0313302762806416,0.177015006542206,0.00900612119585276,0.00193555606529117,0.00656518759205937,0.0112119391560555
496,0.0310039278119802,0.169831514358521,0.00735089555382729,-0.000471295934403315,0.00878514628857374,0.00914919096976519
497,0.0339016616344452,0.166434526443481,0.00869514141231775,0.000342701707268134,0.0121578648686409,0.0106672178953886
498,0.0360894799232483,0.163950026035309,0.00969979539513588,0.00132090842816979,0.0130970859900117,0.0127713214606047
499,0.0345362834632397,0.159341275691986,0.00803700741380453,-0.00026158124092035,0.0102387126535177,0.0123488763347268
500,0.0308663211762905,0.153679817914963,0.00648348359391093,-0.00215084152296185,0.00595963140949607,0.0106977289542556
501,0.0261555872857571,0.147026285529137,0.00547837279736996,-0.00341382878832519,0.00184591370634735,0.00821537710726261
502,0.0217954143881798,0.140268132090569,0.00462254788726568,-0.00406118342652917,-0.00217272993177176,0.00597025500610471
503,0.0198091212660074,0.13582456111908,0.00539710512384772,-0.00293723307549953,-0.00582405179738998,0.00610823417082429
504,0.0196328852325678,0.133290469646454,0.0071227578446269,-0.00083792582154274,-0.00791118294000626,0.00782511103898287
505,0.0184114184230566,0.130030632019043,0.00680531281977892,-0.00043949976679869,-0.0088391313329339,0.008426777087152
506,0.0131894685328007,0.1231694445014,0.00161100935656577,-0.00429684249684215,-0.0112255169078708,0.00515965512022376
507,0.00464012287557125,0.112498231232166,-0.00780607899650931,-0.0121050402522087,-0.0156108429655433,-0.00191476021427661
508,-0.00243375264108181,0.101915992796421,-0.0159710571169853,-0.0195298437029123,-0.0190082769840956,-0.00858583580702543
509,-0.00506139732897282,0.094619020819664,-0.0185060929507017,-0.0228870753198862,-0.0191767569631338,-0.0114732012152672
510,-0.00434888945892453,0.0908667892217636,-0.0158868879079819,-0.0218539740890265,-0.0171151217073202,-0.00994242262095213
511,-0.00225582486018538,0.0900209844112396,-0.0107207084074616,-0.0177261512726545,-0.0150510454550385,-0.00446646101772785
512,0.000627457280643284,0.0914327949285507,-0.00401771394535899,-0.0114381099119782,-0.0136718638241291,0.00385193922556937
513,0.00276835565455258,0.0921551287174225,0.00277370680123568,-0.005286302883178,-0.0127896964550018,0.0113096134737134
514,0.00199379143305123,0.0889261960983276,0.00631405040621758,-0.00225978158414364,-0.0127896182239056,0.0139833893626928
515,-0.000158120456035249,0.0828136280179024,0.00659910216927528,-0.00189774471800774,-0.0124509735032916,0.0126285562291741
516,5.48436946701258E-05,0.0773144662380219,0.00742797181010246,-0.00147731741890311,-0.00953003764152527,0.0108783356845379
517,0.00299268285743892,0.0739523470401764,0.010632167570293,0.00016982268425636,-0.00543623324483633,0.0107036586850882
518,0.00506458524614573,0.0709630697965622,0.0137459943071008,0.0014740958577022,-0.00426684692502022,0.0105055822059512
519,0.00414446275681257,0.0668621957302094,0.0141453286632895,0.000844672555103898,-0.00732475332915783,0.0086945341899991
520,0.0014279461465776,0.0627724751830101,0.0120495995506644,-0.00126763002481312,-0.0124314911663532,0.00639079604297876
521,-0.00235335505567491,0.0591526255011559,0.00802307855337858,-0.00417944928631186,-0.0177678838372231,0.00458631059154868
522,-0.008060023188591,0.0538167431950569,0.00138805340975523,-0.00848584156483412,-0.022873654961586,0.00217305612750351
523,-0.0151922525838017,0.0455707646906376,-0.00683614145964384,-0.0140039566904306,-0.026630487293005,-0.00145976792555302
524,-0.0212929956614971,0.0365950167179108,-0.0131030175834894,-0.0184371843934059,-0.0279985871165991,-0.00485012494027615
525,-0.0245309080928564,0.029504407197237,-0.0149294231086969,-0.0197758674621582,-0.0270879883319139,-0.00699412357062101
526,-0.0260281469672918,0.0234735161066055,-0.0136706279590726,-0.0190175026655197,-0.0244739837944508,-0.00935895927250385
527,-0.0273551940917969,0.0174571238458157,-0.0115706538781524,-0.0177593044936657,-0.0210125148296356,-0.0122724482789636
528,-0.0272335149347782,0.0144272577017546,-0.00788784120231867,-0.0143912453204393,-0.0173725374042988,-0.01224400755018
529,-0.0248277839273214,0.015957560390234,-0.00235061021521688,-0.00785391125828028,-0.0135742397978902,-0.00786932185292244
530,-0.0213271286338568,0.0196706298738718,0.00262676342390478,-0.000378414231818169,-0.00966154225170612,-0.00177714496385306
531,-0.0179586820304394,0.022710133343935,0.00511808088049293,0.00576050207018852,-0.00617213267832994,0.00357119855470955
532,-0.0172242000699043,0.0214628074318171,0.00375884445384145,0.00811490975320339,-0.00446802843362093,0.00527586508542299
533,-0.021140780299902,0.0144201098009944,-0.00143822852987796,0.00536266481503844,-0.00572294276207685,0.00177664065267891
534,-0.027679804712534,0.00528259528800845,-0.00729984138160944,0.00050145696150139,-0.00894977431744337,-0.0039658541791141
535,-0.0330454371869564,-0.00152084918227047,-0.0105849085375667,-0.00203795218840241,-0.0120796374976635,-0.00753112649545074
536,-0.0351442843675613,-0.00465886341407895,-0.0102636348456144,-0.000646445143502206,-0.0135370343923569,-0.00690922560170293
537,-0.034186627715826,-0.00528317969292402,-0.00704458309337497,0.00317623745650053,-0.0123522076755762,-0.003396529937163
538,-0.0314997620880604,-0.00485013565048575,-0.00242903688922524,0.00792611297219992,-0.00897273048758507,0.000857193197589368
539,-0.0295626986771822,-0.00528175849467516,0.00103045802097768,0.0120755406096578,-0.00589934503659606,0.00354476901702583
540,-0.0301051512360573,-0.00779130076989532,0.00173771916888654,0.0137282181531191,-0.00538004236295819,0.00342346029356122
541,-0.0320800803601742,-0.0115734208375216,0.000669964938424528,0.0126825384795666,-0.00717989914119244,0.00142714218236506
542,-0.0334450006484985,-0.015291933901608,-0.0010383918415755,0.0104531142860651,-0.00954412575811148,-0.000766505603678524
543,-0.033697385340929,-0.0186630934476852,-0.00336829759180546,0.00812838319689035,-0.0114646386355162,-0.00203013676218688
544,-0.0330277904868126,-0.0213110987097025,-0.00560361100360751,0.0065330839715898,-0.0129511160776019,-0.0013474776642397
545,-0.0312723405659199,-0.0226198863238096,-0.0066349427215755,0.00633043237030506,-0.0138769745826721,0.00108968326821923
546,-0.0297328103333712,-0.0243920776993036,-0.00709670968353748,0.00599973509088159,-0.0136064924299717,0.00190086744260043
547,-0.0292228702455759,-0.0276181139051914,-0.00695993658155203,0.00493255583569407,-0.0115526616573334,-6.66577834635973E-05
548,-0.0291930995881557,-0.0310061238706112,-0.00600169179961085,0.00428289081901312,-0.00853786617517471,-0.00243757013231516
549,-0.0288454294204712,-0.0329842455685139,-0.0049425377510488,0.00488796923309565,-0.00539896776899695,-0.00303187151439488
550,-0.0275638047605753,-0.0331237092614174,-0.00381704093888402,0.00665057124570012,-0.00165997131261975,-0.00167537713423371
551,-0.0258474554866552,-0.0333040282130241,-0.00254396605305374,0.00763515057042241,0.00314913620240986,-0.000812363636214286
552,-0.0238042585551739,-0.0344071984291077,-0.000626482127700001,0.00718947080895305,0.00867912173271179,-0.00125665834639221
553,-0.0209879260510206,-0.0350239500403404,0.0024888520129025,0.00730014685541391,0.0137027269229293,-0.000567048613447696
554,-0.0167492814362049,-0.0327994897961617,0.00766436150297523,0.0107762208208442,0.0176340248435736,0.00443968363106251
555,-0.0124278292059898,-0.0285720340907574,0.0139896022155881,0.0174963492900133,0.0199242755770683,0.0126791661605239
556,-0.0107789514586329,-0.0263542532920837,0.018513698130846,0.0239971093833447,0.019574698060751,0.0195320844650269
557,-0.0106576113030314,-0.0261206571012735,0.0219410285353661,0.0296038947999477,0.0175278559327126,0.0244904197752476
558,-0.0116186598315835,-0.0277474448084831,0.0237814411520958,0.0329060405492783,0.0144630577415228,0.026784360408783
559,-0.0152586754411459,-0.0325206480920315,0.0209476295858622,0.0312142670154572,0.00991442054510117,0.0247850306332111
560,-0.0196863505989313,-0.0378014631569386,0.0155154876410961,0.0274736862629652,0.00508752465248108,0.022138237953186
561,-0.0237906649708748,-0.0429580211639404,0.00964018702507019,0.0237805899232626,0.000574593257624656,0.0200671274214983
562,-0.0274235978722572,-0.0484411381185055,0.00381406536325812,0.0199019648134708,-0.00430625770241022,0.0174686815589666
563,-0.0287672579288483,-0.0516574196517468,0.0008966427994892,0.0180535428225994,-0.00824808143079281,0.0163310300558805
564,-0.0292628854513168,-0.0541063547134399,0.0004518604837358,0.0167780704796314,-0.00988989602774382,0.0150277726352215
565,-0.0304764490574598,-0.0577126443386078,0.000233661790844053,0.0136624127626419,-0.00978037156164646,0.0120456982403994
566,-0.0307337902486324,-0.0599727034568787,0.000767855904996395,0.011229544878006,-0.00888962205499411,0.0109175648540258
567,-0.0303894430398941,-0.0609510466456413,0.00157961377408355,0.0105819767341018,-0.00857626274228096,0.0120618985965848
568,-0.030293108895421,-0.0615438036620617,0.00245336000807583,0.0111302770674229,-0.00963760167360306,0.0138725154101849
569,-0.0297742374241352,-0.0605777688324451,0.00471508735790849,0.0134508106857538,-0.0115000866353512,0.0165782831609249
570,-0.029902009293437,-0.0596551559865475,0.00743399560451508,0.0161524936556816,-0.0135201197117567,0.0184989850968122
571,-0.0312911830842495,-0.0607844516634941,0.00915005523711443,0.0176011063158512,-0.0149440169334412,0.0182116515934467
572,-0.0326441340148449,-0.062856487929821,0.010210357606411,0.0183879677206278,-0.0149904610589147,0.016950560733676
573,-0.0322998315095901,-0.0632369145750999,0.0123711423948407,0.0203967653214931,-0.0132797518745065,0.0174980405718088
574,-0.0285606868565083,-0.0595938786864281,0.0180187206715345,0.0259201359003782,-0.00974495895206928,0.02295814268291
575,-0.0242054741829634,-0.0549425892531872,0.0247578453272581,0.0326159261167049,-0.00611179322004318,0.0304390825331211
576,-0.0249551627784967,-0.0558601804077625,0.0262799467891455,0.0342723280191422,-0.00497818551957607,0.0323206968605518
577,-0.0314020551741123,-0.0638294816017151,0.0208844598382711,0.0289198979735374,-0.00675689056515694,0.0258453618735075
578,-0.0391249693930149,-0.0740658864378929,0.0130062103271484,0.0205593165010214,-0.00967772025614977,0.0154328420758247
579,-0.0448991023004055,-0.0821390822529793,0.00734371365979314,0.0140354707837105,-0.0121188191697001,0.00656308466568589
580,-0.0488106347620487,-0.0875870957970619,0.00456862105056643,0.010500269010663,-0.0133039690554142,0.000891878153197467
581,-0.0506156347692013,-0.090048536658287,0.00366460531949997,0.00946729071438313,-0.0124332038685679,-0.000983194331638515
582,-0.0498229302465916,-0.089460127055645,0.00399917596951127,0.0106515325605869,-0.00977092888206244,0.000624567619524896
583,-0.0474962145090103,-0.0878784954547882,0.00528071634471416,0.0135109731927514,-0.00650875736027956,0.00329493661411107
584,-0.0454397723078728,-0.0873734354972839,0.0070537943392992,0.0173566732555628,-0.0033314717002213,0.00497530726715922
585,-0.0447318740189075,-0.0886166840791702,0.00827357638627291,0.0207661017775536,-0.000693534791935235,0.00478484574705362
586,-0.0440153665840626,-0.0898009911179543,0.00923505332320929,0.0233033932745457,0.00100370356813073,0.00398114556446671
587,-0.0425854288041592,-0.0898063704371452,0.00997305847704411,0.0251272413879633,0.000614078133367002,0.0033957352861762
588,-0.0421581119298935,-0.090741828083992,0.00882919039577246,0.0249200835824013,-0.00265980209223926,0.00114539230708033
589,-0.0423276387155056,-0.0930528864264488,0.00632458692416549,0.022784573957324,-0.00715072965249419,-0.00274173077195883
590,-0.0401656553149223,-0.0936270132660866,0.00573163572698832,0.021693654358387,-0.0105129787698388,-0.00511069549247622
591,-0.0356487222015858,-0.0916753560304642,0.00763709377497435,0.0226180702447891,-0.0122626312077045,-0.00539153208956122
592,-0.0310956332832575,-0.0890065804123878,0.00991275906562805,0.0243814289569855,-0.0129693644121289,-0.0052008586935699
593,-0.0272697359323502,-0.0863815471529961,0.0117486640810966,0.0268866699188948,-0.0129749653860927,-0.00439314171671867
594,-0.0244509670883417,-0.0844283476471901,0.0125963306054473,0.0296232774853706,-0.0135890264064074,-0.00274514546617866
595,-0.0226853415369987,-0.0831585600972176,0.0121608125045896,0.0318536199629307,-0.0160745996981859,-0.000241216956055723
596,-0.0219822768121958,-0.0829046741127968,0.0109790721908212,0.0330151207745075,-0.019634872674942,0.00239655328914523
597,-0.0225005876272917,-0.0845256149768829,0.00998749863356352,0.0328206568956375,-0.0228798985481262,0.00352884503081441
598,-0.0234066117554903,-0.0869471877813339,0.0102963531389833,0.032161220908165,-0.0252502672374249,0.00336911133490503
599,-0.0254236459732056,-0.0905679315328598,0.0102401236072183,0.0300367586314678,-0.027035066857934,0.00135469657834619
600,-0.0296711400151253,-0.0967042595148087,0.00761460093781352,0.0249543599784374,-0.0283670984208584,-0.00347886770032346
601,-0.033015064895153,-0.101609565317631,0.0052755638025701,0.0205278061330318,-0.0282831639051437,-0.00695044407621026
602,-0.0327492393553257,-0.101687282323837,0.00626426516100764,0.0206977520138025,-0.0266117975115776,-0.00548047106713057
603,-0.0317890234291554,-0.100226938724518,0.00792101211845875,0.0227092541754246,-0.0248926468193531,-0.00301301339641213
604,-0.0329486764967442,-0.101262710988522,0.00729643739759922,0.0219555627554655,-0.0230827294290066,-0.00419752951711416
605,-0.0349456779658794,-0.104130603373051,0.00528712524101138,0.0182475093752146,-0.0197496227920055,-0.00843922700732946
606,-0.0363596044480801,-0.106423512101173,0.00342135713435709,0.0144223961979151,-0.0161943919956684,-0.01256740745157
607,-0.037366796284914,-0.1068284958601,0.00167015625629574,0.0124063594266772,-0.0149256465956569,-0.0143483374267817
608,-0.0381013639271259,-0.105730339884758,-0.000606895191594958,0.0114612253382802,-0.0157294347882271,-0.0141512434929609
609,-0.0373091287910938,-0.103506751358509,-0.00200690468773246,0.0109531758353114,-0.016091663390398,-0.0130258686840534
610,-0.0348211601376534,-0.10120864212513,-0.00113402109127492,0.0108395218849182,-0.0150334984064102,-0.0124286590144038
611,-0.0331824645400047,-0.101340867578983,0.000388931861380115,0.0102243134751916,-0.0143212648108602,-0.0142784528434277
612,-0.0329405292868614,-0.103519588708878,0.0018113887635991,0.00988248828798532,-0.0151993511244655,-0.0172960683703423
613,-0.0333461128175259,-0.105982199311256,0.00315833534114063,0.0104913739487529,-0.0178328882902861,-0.0194392446428537
614,-0.035031758248806,-0.108518958091736,0.00299664307385683,0.0108779240399599,-0.0225931387394667,-0.0205233674496412
615,-0.0368986092507839,-0.110088653862476,0.00151568069122732,0.011510749347508,-0.0286848675459623,-0.0194845572113991
616,-0.0366321913897991,-0.109539166092873,0.00100751791615039,0.0138727920129895,-0.0336475744843483,-0.0155406259000301
617,-0.032715916633606,-0.105875767767429,0.00440685031935573,0.0192136168479919,-0.0354315526783466,-0.00837964005768299
618,-0.0258777737617493,-0.0993302762508392,0.0116289695724845,0.0269568488001823,-0.0345764458179474,0.00133722450118512
619,-0.0211805645376444,-0.0952075943350792,0.016158152371645,0.031804047524929,-0.0342139974236488,0.00782917160540819
620,-0.0222244840115309,-0.097820445895195,0.013618141412735,0.0299909487366676,-0.0357335135340691,0.00640598218888044
621,-0.0263437144458294,-0.104568928480148,0.00765561917796731,0.0239656046032906,-0.0368664599955082,-0.000100847617432009
622,-0.0301451068371534,-0.111308053135872,0.00251183984801173,0.0172513630241156,-0.0358774289488792,-0.00722417933866382
623,-0.0319520868360996,-0.114856474101543,-0.000224219038500451,0.0126807382330298,-0.0329596884548664,-0.0115924384444952
624,-0.0310256294906139,-0.113775536417961,-0.000367851986084133,0.0119251133874059,-0.0292819533497095,-0.0111827775835991
625,-0.0285080447793007,-0.109960302710533,0.00125855347141624,0.0137864090502262,-0.0266098156571388,-0.00740854954347014
626,-0.0257929842919111,-0.105528935790062,0.00403755344450474,0.016406212002039,-0.0256908927112818,-0.00302277272567153
627,-0.0233998857438564,-0.101328074932098,0.00723916012793779,0.0187781807035208,-0.0259727146476507,-4.39915402239421E-06
628,-0.0211033560335636,-0.0978052392601967,0.0103496899828315,0.0209315177053213,-0.0265669375658035,0.00140410813037306
629,-0.0182501748204231,-0.0950688719749451,0.0134067656472325,0.0237080194056034,-0.0268245972692966,0.00257445918396115
630,-0.0148768303915858,-0.0929890051484108,0.0163360238075256,0.0271143615245819,-0.0267360005527735,0.00424122577533126
631,-0.0119670256972313,-0.0914786905050278,0.0186777859926224,0.0303802136331797,-0.0266313795000315,0.00613803463056684
632,-0.0118094878271222,-0.0923552885651588,0.0181148499250412,0.0313057042658329,-0.0273812711238861,0.00612826179713011
633,-0.0156874917447567,-0.0976599380373955,0.0126276900991797,0.027742512524128,-0.0292967688292265,0.00208353414200246
634,-0.021572494879365,-0.105994924902916,0.00393954245373607,0.0210080742835999,-0.0310167372226715,-0.00438358029350638
635,-0.0263408664613962,-0.113525442779064,-0.00423757918179035,0.0147470450028777,-0.0314847640693188,-0.00979816075414419
636,-0.0280346404761076,-0.117293186485767,-0.00922139920294285,0.0115345474332571,-0.0308292582631111,-0.0120459208264947
637,-0.0272585302591324,-0.117896996438503,-0.0113410763442516,0.0100255915895104,-0.0299203470349312,-0.012363743968308
638,-0.0261193215847015,-0.117354415357113,-0.0127901257947087,0.00751753943040967,-0.0300062615424395,-0.0129572162404656
639,-0.0254747718572617,-0.11599376052618,-0.014303813688457,0.0043941461481154,-0.0313735567033291,-0.0132491216063499
640,-0.0241037793457508,-0.112107314169407,-0.0133749507367611,0.00411222781985998,-0.0330806225538254,-0.0100645571947098
641,-0.0218229163438082,-0.105673067271709,-0.00894764717668295,0.00784027390182018,-0.0350795760750771,-0.00298944767564535
642,-0.0204439423978329,-0.100278787314892,-0.00438943970948458,0.012094397097826,-0.037407036870718,0.00348911760374904
643,-0.0201371442526579,-0.0974701046943665,-0.00183487765025347,0.0148478345945477,-0.038686603307724,0.00700263399630785
644,-0.0204405896365643,-0.0963042750954628,-0.000930101319681853,0.0170357003808022,-0.038582805544138,0.00884029734879732
645,-0.0218162853270769,-0.0969090685248375,-0.00131194794084877,0.0191640798002481,-0.0381658338010311,0.00981407333165407
646,-0.0239163972437382,-0.0995160415768623,-0.00191500165965408,0.020788598805666,-0.0379219092428684,0.00938776228576899
647,-0.026144465431571,-0.103826470673084,-0.0018162215128541,0.020790321752429,-0.0377099476754665,0.00628595007583499
648,-0.0269191637635231,-0.107388146221638,-0.000248755415668711,0.0203069504350424,-0.0373822301626205,0.00244892644695938
649,-0.0246295593678951,-0.107477940618992,0.00331592722795904,0.0220290012657642,-0.0370904505252838,0.00182048545684665
650,-0.0207341481000185,-0.105625167489052,0.00742906983941793,0.0250593516975641,-0.0369578450918198,0.00427508214488626
651,-0.0166459456086159,-0.103679940104485,0.0116404965519905,0.0280250124633312,-0.0358651988208294,0.00852535385638475
652,-0.013198671862483,-0.102469600737095,0.0154633214697242,0.0305719301104546,-0.0332334972918034,0.0130261480808258
653,-0.0113463457673788,-0.102995008230209,0.0167166758328676,0.031647551804781,-0.0302908904850483,0.0153749901801348
654,-0.0110572492703795,-0.105004452168942,0.0147052137181163,0.0314100123941898,-0.0283917635679245,0.0153235197067261
655,-0.0120990509167314,-0.107606135308743,0.0111352195963264,0.0311873629689217,-0.0278850980103016,0.0143847381696105
656,-0.0134147871285677,-0.109939977526665,0.00948636792600155,0.0319749787449837,-0.0274390578269959,0.0137414950877428
657,-0.0154613396152854,-0.113746248185635,0.0100806029513478,0.0320741720497608,-0.0261991936713457,0.0113172736018896
658,-0.0193157102912664,-0.12053681910038,0.00968377292156219,0.0294486097991467,-0.0247221235185862,0.00507649127393961
659,-0.0212596748024225,-0.125532612204552,0.00971560459583998,0.027326662093401,-0.0219328254461288,-0.000481564056826755
660,-0.0176500603556633,-0.124455608427525,0.0139483436942101,0.0294179562479258,-0.0163309667259455,-0.000493198691401631
661,-0.0112141640856862,-0.120387099683285,0.0205128416419029,0.0334729999303818,-0.00902298465371132,0.00258711352944374
662,-0.00586606422439218,-0.117252230644226,0.0257337111979723,0.0365061350166798,-0.00183276797179133,0.00503714382648468
663,-0.00426029087975621,-0.117337435483933,0.0269849915057421,0.0371199585497379,0.00374622829258442,0.00492124073207378
664,-0.00691987574100494,-0.120672903954983,0.0238383300602436,0.0352855809032917,0.00691638886928558,0.00237149419263005
665,-0.0113386521115899,-0.124632231891155,0.0188121553510427,0.0325752422213554,0.00813210569322109,-0.000366107356967404
666,-0.0155054479837418,-0.12782809138298,0.0140884816646576,0.0299872886389494,0.00838981196284294,-0.0020876107737422
667,-0.0187647324055433,-0.13033227622509,0.0109297884628177,0.0279324315488338,0.00878818612545729,-0.00287576043047011
668,-0.02179054915905,-0.133283317089081,0.00914108753204346,0.0258998163044453,0.00954229291528463,-0.00439855689182878
669,-0.025236502289772,-0.137143507599831,0.00788229424506426,0.023638779297471,0.0101178018376231,-0.00731581449508667
670,-0.0281461477279663,-0.140004560351372,0.00727556319907308,0.0220795702189207,0.0104102604091167,-0.00923681166023016
671,-0.0280772354453802,-0.138313412666321,0.00917153060436249,0.0237518828362226,0.0115954708307981,-0.00621506618335843
672,-0.0254113022238016,-0.133135199546814,0.0127519005909562,0.0281599871814251,0.0145435761660337,0.000182346382644027
673,-0.0242950692772865,-0.130620568990707,0.0131110968068242,0.0300215557217598,0.0184005163609982,0.00270260008983314
674,-0.0252278819680214,-0.131414517760277,0.0103758741170168,0.0286762472242117,0.0224553309381008,0.000517190143000335
675,-0.025737090036273,-0.132379874587059,0.00863658171147108,0.0274618491530418,0.0265548508614302,-0.00292421388439834
676,-0.0251776520162821,-0.132927790284157,0.00862114317715168,0.0272125452756882,0.029816472902894,-0.00676278583705425
677,-0.0232972055673599,-0.132388323545456,0.0101352240890265,0.0283691547811031,0.031458355486393,-0.0094795748591423
678,-0.0217760093510151,-0.131936237215996,0.0116696795448661,0.029790373519063,0.031122712418437,-0.0114470506086946
679,-0.023589950054884,-0.134679913520813,0.00985629577189684,0.0284170340746641,0.0288670789450407,-0.0154085773974657
680,-0.0262415334582329,-0.138544708490372,0.00693095056340098,0.0261268839240074,0.0273719988763332,-0.0192054454237223
681,-0.0259288884699345,-0.140129387378693,0.0069250799715519,0.025985736399889,0.0293203890323639,-0.0199278518557549
682,-0.0247570592910051,-0.141903758049011,0.00698924250900745,0.0249101556837559,0.032830722630024,-0.0207001119852066
683,-0.025288712233305,-0.146193519234657,0.00356425391510129,0.0201211329549551,0.0346897803246975,-0.024159025400877
684,-0.0259865634143353,-0.149968087673187,-0.0016249914187938,0.0146450260654092,0.0341912396252155,-0.0273477640002966
685,-0.0250489003956318,-0.150398522615433,-0.00558378174901009,0.011801166459918,0.0320954844355583,-0.0270137507468462
686,-0.023788508027792,-0.150273039937019,-0.00841925013810396,0.0101607432588935,0.0291128922253847,-0.0253902263939381
687,-0.0232084710150957,-0.152417540550232,-0.0102487849071622,0.00828726124018431,0.026006193831563,-0.0253915302455425
688,-0.0229323841631413,-0.156394481658936,-0.0104347495362163,0.00668699201196432,0.0228379182517529,-0.0272112376987934
689,-0.0230951346457005,-0.161090865731239,-0.010290234349668,0.00544162886217237,0.0185472946614027,-0.0299107227474451
690,-0.0222372449934483,-0.163221836090088,-0.00953596737235785,0.00710453744977713,0.0123538617044687,-0.0292066596448421
691,-0.0202309060841799,-0.162832111120224,-0.00817489251494408,0.0121716735884547,0.00470220856368542,-0.0244708713144064
692,-0.0182998459786177,-0.163427278399467,-0.00738186156377196,0.0174303371459246,-0.00115302996709943,-0.0195187982171774
693,-0.0143893100321293,-0.163670212030411,-0.00447108363732696,0.0235503632575274,-0.000957538955844939,-0.0131356371566653
694,-0.00763216381892562,-0.162272393703461,0.0024878338444978,0.0314226076006889,0.00574921118095517,-0.00413015577942133
695,-0.00134323153179139,-0.161790430545807,0.0105075715109706,0.0380518697202206,0.0153706297278404,0.00434340396896005
696,0.00131109170615673,-0.164134174585342,0.0154701890423894,0.0409152396023273,0.0233728438615799,0.00951336417347193
697,0.00109598296694458,-0.168433293700218,0.0166183318942785,0.0405371226370335,0.0276561882346869,0.0115060191601515
698,0.0009275235934183,-0.172730699181557,0.0165096186101437,0.038922194391489,0.0290725454688072,0.0116639323532581
699,0.00151048495899886,-0.177136898040771,0.0164864845573902,0.0368960537016392,0.0286658778786659,0.00974253937602043
700,0.00162784522399306,-0.182652875781059,0.0156853049993515,0.0346959196031094,0.0263362899422646,0.00555555010214448
701,0.000828637334052473,-0.188530296087265,0.0138557842001319,0.0331430844962597,0.0224726907908916,0.00115643755998462
702,0.000295017322059721,-0.192880049347878,0.0124168861657381,0.0332222878932953,0.0193097442388535,-0.00053087598644197
703,0.000985476304776967,-0.195187345147133,0.0126442229375243,0.0351951718330383,0.0189498886466026,0.00126522860955447
704,0.00104816642124206,-0.198408424854279,0.0129611035808921,0.0365363694727421,0.0207194369286299,0.00308231334201992
705,-0.00150284275878221,-0.204975560307503,0.0108243776485324,0.034138198941946,0.0228698942810297,0.00171574321575463
706,-0.00440744031220675,-0.211913242936134,0.00773236388340592,0.0295556411147118,0.0258006751537323,-0.000276731589110568
707,-0.00520157860592008,-0.216200053691864,0.00634518172591925,0.0257609318941832,0.0299467593431473,0.000326430425047874
708,-0.00556171080097556,-0.219588696956635,0.00561239244416356,0.0220713745802641,0.0338007509708405,0.00190897728316486
709,-0.00785608682781458,-0.224737778306007,0.00344115169718862,0.0168115254491568,0.0362050160765648,0.00148615043144673
710,-0.0112571679055691,-0.231159836053848,0.000812098674941808,0.0114039359614253,0.0372269749641418,-0.000327065848978236
711,-0.0133420946076512,-0.23635770380497,0.000646726577542722,0.00908046495169401,0.0373799353837967,-0.000664109771605581
712,-0.0134491622447968,-0.239130467176437,0.0038837397005409,0.0109507320448756,0.0370841510593891,0.00141176709439605
713,-0.0121539449319243,-0.239797875285149,0.00917490106076002,0.0154842743650079,0.0366825498640537,0.00526480423286557
714,-0.0100562162697315,-0.238896653056145,0.0148744834586978,0.0206275563687086,0.0359025374054909,0.0102131273597479
715,-0.0077254488132894,-0.23689578473568,0.0196949932724237,0.0253101177513599,0.0339190736413002,0.0155114904046059
716,-0.00567079475149512,-0.235146716237068,0.0224240459501743,0.0284387767314911,0.0316873043775558,0.0197031870484352
717,-0.00463947048410773,-0.235555425286293,0.0223486721515656,0.0285331532359123,0.0307283531874418,0.0213700402528048
718,-0.00582683179527521,-0.239344954490662,0.0193791631609201,0.0249104332178831,0.0302228759974241,0.0200187470763922
719,-0.0102211749181151,-0.247126206755638,0.0135119426995516,0.0175088103860617,0.0291132982820272,0.0146860890090466
720,-0.0155040929093957,-0.255805552005768,0.007319291587919,0.00917763449251652,0.0287427734583616,0.00736040342599154
721,-0.0179750639945269,-0.260432809591293,0.00461663631722331,0.00455253385007381,0.0306797903031111,0.00280972546897829
722,-0.0181819163262844,-0.261918723583221,0.00455134175717831,0.00346065429039299,0.0336605533957481,0.00089777132961899
723,-0.0182350128889084,-0.263804733753204,0.00385607755742967,0.00266558839939535,0.0349855795502663,-0.0010419946629554
724,-0.0177295822650194,-0.265218943357468,0.00289440783672035,0.00241315527819097,0.0335517078638077,-0.00178457435686141
725,-0.0168640892952681,-0.265662521123886,0.00276707555167377,0.00360157410614192,0.0298922341316938,-0.00101876468397677
726,-0.0174943581223488,-0.268144428730011,0.00119709642603993,0.0036879584658891,0.0245329868048429,-0.00188986258581281
727,-0.0195964742451906,-0.273085474967957,-0.00362946465611458,0.00118670088704675,0.0180116686969996,-0.00452636228874326
728,-0.0209148954600096,-0.277107745409012,-0.00946407951414585,-0.00117846252396703,0.0118944579735398,-0.00516571616753936
729,-0.02030966617167,-0.278405278921127,-0.0131977703422308,-0.00112628540955484,0.00807193573564291,-0.00259074033237994
730,-0.0194110013544559,-0.27888035774231,-0.0144950579851866,-4.62305615656078E-05,0.00739618670195341,3.68834771506954E-05
731,-0.0192916840314865,-0.279973387718201,-0.0136267803609371,0.00117441033944488,0.00967106129974127,0.00137456494849175
732,-0.0194056481122971,-0.281456291675568,-0.0109877046197653,0.00301324413158,0.0135970804840326,0.00283118360675871
733,-0.019833879545331,-0.283478528261185,-0.00828398298472166,0.0045649716630578,0.0173783861100674,0.00445458292961121
734,-0.0211297608911991,-0.28627273440361,-0.00736293941736221,0.00457848934456706,0.0193715821951628,0.0053285276517272
735,-0.0228504352271557,-0.28937640786171,-0.00912689045071602,0.00335118058137596,0.0184595566242933,0.00576601224020123
736,-0.0238115284591913,-0.292067617177963,-0.0126293767243624,0.00238479441031814,0.0154028730466962,0.00686753029003739
737,-0.023710448294878,-0.294413983821869,-0.0155248371884227,0.00260396162047982,0.0121584180742502,0.00811990816146135
738,-0.0233849585056305,-0.297405809164047,-0.0165563635528088,0.00318777305074036,0.00960432086139917,0.00721273571252823
739,-0.0230813398957253,-0.300862610340118,-0.0157061293721199,0.00330407940782607,0.00802841689437628,0.00377407087944448
740,-0.0211763698607683,-0.301861822605133,-0.011798189021647,0.00513901887461543,0.0082331420853734,0.00172727089375257
741,-0.0182017423212528,-0.29990553855896,-0.00594118284061551,0.0095823397859931,0.00933827273547649,0.00308634876273572
742,-0.0168222971260548,-0.297664523124695,-0.00186341430526227,0.0139658944681287,0.00944592896848917,0.00583454221487045
743,-0.0164107792079449,-0.295688360929489,0.000305975321680307,0.0175511613488197,0.00937749911099672,0.00906170159578323
744,-0.0161584541201591,-0.294920921325684,0.00170161353889853,0.0199179630726576,0.0102723110467196,0.0107806390151381
745,-0.0181197822093964,-0.298071682453156,0.000537090469151735,0.0183555912226439,0.0108893970027566,0.00695848278701305
746,-0.0215607937425375,-0.303890466690063,-0.00296022021211684,0.0136793563142419,0.0114444000646472,-0.00102811073884368
747,-0.0222113393247128,-0.307611554861069,-0.00442251656204462,0.010923414491117,0.0141644608229399,-0.00663268566131592
748,-0.0201606303453445,-0.309409409761429,-0.00298480573110282,0.0106353545561433,0.0188591331243515,-0.00894854124635458
749,-0.0190746746957302,-0.313349157571793,-0.0017323853680864,0.00931616500020027,0.0235406886786222,-0.0115909306332469
750,-0.0196181666105986,-0.320301562547684,-0.00153726886492223,0.00628865510225296,0.0274581145495176,-0.0147367212921381
751,-0.019619869068265,-0.327484011650085,-0.000919481448363513,0.00422074785456061,0.0307165533304214,-0.0151781318709254
752,-0.0174727588891983,-0.332265347242355,0.00127871125005186,0.00549050187692046,0.0333052091300488,-0.0103930188342929
753,-0.0144772790372372,-0.335601001977921,0.00381560157984495,0.00891927536576986,0.0345245115458965,-0.00258866883814335
754,-0.0131166018545628,-0.340024650096893,0.00421525770798326,0.0116295907646418,0.0333945006132126,0.00382333132438362
755,-0.0148080280050635,-0.34681424498558,0.00125485169701278,0.0115181179717183,0.0297813639044762,0.0064177829772234
756,-0.0176492799073458,-0.353775769472122,-0.00203352654352784,0.0101917814463377,0.0253023318946362,0.007274538744241
757,-0.0183012895286083,-0.358005434274673,-0.00176160200498998,0.0110778147354722,0.021907789632678,0.00972510408610106
758,-0.0167068857699633,-0.360029608011246,0.000950591231230646,0.0142402900382876,0.0198593772947788,0.0133011369034648
759,-0.0146882571280003,-0.36098513007164,0.00336627871729434,0.0179414395242929,0.0184910539537668,0.0163309089839458
760,-0.0147675173357129,-0.362647891044617,0.00301595218479633,0.0190364457666874,0.0168193764984608,0.0166045855730772
761,-0.0186043083667755,-0.366752624511719,-0.0014789697015658,0.0149946752935648,0.0148994522169232,0.0123935742303729
762,-0.024683028459549,-0.372319728136063,-0.00830119103193283,0.00725866621360183,0.0142066990956664,0.00506962090730667
763,-0.0294073037803173,-0.376366376876831,-0.0137860039249063,-9.60723991738632E-05,0.0156645011156797,-0.00175582780502737
764,-0.0299602691084147,-0.37573030591011,-0.0150629878044128,-0.00323497294448316,0.0186157710850239,-0.00463122827932239
765,-0.0263273306190968,-0.369356095790863,-0.0120681058615446,-0.00143953633960336,0.0215166099369526,-0.00266127078793943
766,-0.0202160440385342,-0.358530521392822,-0.00685071153566241,0.0034329614136368,0.0237078703939915,0.00292270490899682
767,-0.0152610903605819,-0.347217738628387,-0.0032790363766253,0.00777018861845136,0.0247028339654207,0.00818843208253384
768,-0.0152492839843035,-0.339819818735123,-0.00480929762125015,0.00752928480505943,0.0230868589133024,0.00815712846815586
769,-0.0174778867512941,-0.333913266658783,-0.00851885601878166,0.00441531324759126,0.0196338258683681,0.00446220207959414
770,-0.0169010199606419,-0.324367344379425,-0.00924754608422518,0.00345082953572273,0.0171332322061062,0.0017071443144232
771,-0.0140770971775055,-0.312016725540161,-0.00703281443566084,0.00478383246809244,0.0164253134280443,-0.000627919158432633
772,-0.0102267311885953,-0.297935903072357,-0.00243203225545585,0.00731324777007103,0.0172581672668457,-0.00215839687734842
773,-0.00574601721018553,-0.281180709600449,0.00427171029150486,0.0109202992171049,0.0192889161407948,-0.000898131518624723
774,-0.00308887008577585,-0.263050734996796,0.00967221800237894,0.0131308166310191,0.0215550996363163,0.00148924440145493
775,-0.0032711923122406,-0.244488120079041,0.0113782845437527,0.0120921554043889,0.023334750905633,0.00359110068529844
776,-0.00551986740902066,-0.225327759981155,0.00984606798738241,0.00874542258679867,0.0239054169505835,0.00511153554543853
777,-0.00989888422191143,-0.206568017601967,0.00548075092956424,0.00398115115240216,0.0221564061939716,0.00388251012191176
778,-0.014761290512979,-0.186786934733391,6.68642314849421E-05,-0.000523247756063938,0.0182033237069845,0.000170600585988723
779,-0.0170484445989132,-0.162481874227524,-0.0032045308034867,-0.00220572389662266,0.0135857025161386,-0.00252254633232951
780,-0.0166254490613937,-0.134254291653633,-0.00454149069264531,-0.00184371240902692,0.00944795086979866,-0.00336043001152575
781,-0.0151095660403371,-0.105274364352226,-0.00583597412332892,-0.00155495491344482,0.00635402416810393,-0.0034364415332675
782,-0.0146208917722106,-0.0784154459834099,-0.00790161546319723,-0.00244408729486167,0.00405977247282863,-0.00411231862381101
783,-0.0161579884588718,-0.0547657087445259,-0.0101994229480624,-0.00463623087853193,0.00259026000276208,-0.00603946531191468
784,-0.0172926038503647,-0.0316967181861401,-0.01003891043365,-0.00578045612201095,0.00305440556257963,-0.00664575770497322
785,-0.0161405950784683,-0.00713880965486169,-0.00655927322804928,-0.00414563994854689,0.00468806503340602,-0.0039868070743978
786,-0.0144362365826964,0.016754949465394,-0.00326067069545388,-0.00205909018404782,0.00477267429232597,-0.000550290569663048
787,-0.0139935333281755,0.0376282967627048,-0.00280698109418154,-0.00195852690376341,0.00262049841694534,0.00141764816362411
788,-0.0144537771120667,0.055825550109148,-0.00431774323806167,-0.00306505197659135,-0.00049403082812205,0.00282677356153727
789,-0.0148409297689795,0.0722351372241974,-0.00659945094957948,-0.00449406076222658,-0.00405983766540885,0.00383424595929682
790,-0.0153263481333852,0.0861797258257866,-0.00993292406201363,-0.00753595214337111,-0.00818958133459091,0.0020787853281945
791,-0.0170683022588491,0.0967578068375587,-0.0150892101228237,-0.0133479395881295,-0.0125017939135432,-0.00405485602095723
792,-0.0195827782154083,0.106293469667435,-0.0208753626793623,-0.0195162333548069,-0.0159010160714388,-0.0116170346736908
793,-0.0213970001786947,0.117534875869751,-0.0248246416449547,-0.0230197720229626,-0.0176159422844648,-0.0162341091781855
794,-0.0213613547384739,0.130573391914368,-0.0247794315218925,-0.0233483295887709,-0.0170680806040764,-0.016246359795332
795,-0.018394511193037,0.1448904722929,-0.0195287242531776,-0.0207475330680609,-0.0135309286415577,-0.0119717065244913
796,-0.0129524534568191,0.159840196371078,-0.0107397446408868,-0.0160479918122292,-0.00783171039074659,-0.00480748433619738
797,-0.00779160996899009,0.173594370484352,-0.00285338750109077,-0.011494604870677,-0.00231906119734049,0.00268940650857985
798,-0.00534818321466446,0.184004530310631,0.000699166906997561,-0.00935469008982182,0.00203336658887565,0.00738651445135474
799,-0.00655302312225103,0.189532458782196,-0.000770721642766148,-0.01087386906147,0.00516125047579408,0.00658658565953374
800,-0.0111241526901722,0.190567433834076,-0.00589747633785009,-0.016042947769165,0.00620120763778687,-6.65496700094081E-05
801,-0.0165007021278143,0.190659388899803,-0.0114098330959678,-0.0224197935312986,0.00505167059600353,-0.008837197907269
802,-0.0207232870161533,0.192203372716904,-0.0156291145831347,-0.0279672164469957,0.00242552696727216,-0.0160158053040504
803,-0.0231456011533737,0.195573002099991,-0.0183858014643192,-0.0322556756436825,-0.000526389863807708,-0.0202414039522409
804,-0.0224839337170124,0.202065855264664,-0.018224935978651,-0.0338927581906319,-0.00240619829855859,-0.020068597048521
805,-0.0194897800683975,0.210639134049416,-0.0152531377971172,-0.0331234782934189,-0.00280802068300545,-0.0161355119198561
806,-0.0174700915813446,0.217099249362946,-0.0128733487799764,-0.0332517810165882,-0.00302494294010103,-0.0124129224568605
807,-0.0169438309967518,0.221096321940422,-0.0127192102372646,-0.0347373001277447,-0.00437953788787127,-0.0100263087078929
808,-0.0143631082028151,0.22733348608017,-0.01163643412292,-0.0336692370474339,-0.00612604478374124,-0.00564578082412481
809,-0.00871516764163971,0.236884832382202,-0.00798670668154955,-0.0292465165257454,-0.0076015773229301,0.000535967410542071
810,-0.00381724326871336,0.244897156953812,-0.00512697454541922,-0.025811105966568,-0.0100694019347429,0.00338512286543846
811,-0.00216025905683637,0.248073801398277,-0.00536231324076653,-0.0261130146682262,-0.0138488803058863,0.000632053357549012
812,-0.00235962006263435,0.248044312000275,-0.00684675900265574,-0.0285639148205519,-0.017243230715394,-0.00453719310462475
813,-0.0030178907327354,0.247880458831787,-0.00739511242136359,-0.0304902363568544,-0.0194330494850874,-0.00796399358659983
814,-0.00338839809410274,0.248946011066437,-0.00638227164745331,-0.0306387543678284,-0.02049196138978,-0.00835527572780848
815,-0.00214621401391923,0.251369655132294,-0.00371765927411616,-0.0288982111960649,-0.0203450843691826,-0.00653083901852369
816,0.0014259978197515,0.255794167518616,0.000739871058613062,-0.0252685248851776,-0.0198080185800791,-0.00305406958796084
817,0.00634719990193844,0.261849611997604,0.00520798377692699,-0.0212956834584475,-0.0206231232732534,0.000351735070580617
818,0.00955524016171694,0.265684217214584,0.00452240323647857,-0.0213902052491903,-0.024563392624259,-0.00076572282705456
819,0.00956483371555805,0.264683872461319,-0.00281106820330024,-0.0270766653120518,-0.0310959797352552,-0.00783319678157568
820,0.00739082787185907,0.260142892599106,-0.0131176644936204,-0.0353150069713593,-0.0381928980350494,-0.0175410099327564
821,0.00543677993118763,0.256127685308456,-0.0220026653259993,-0.0416839011013508,-0.0444279685616493,-0.0248153172433376
822,0.00718982750549912,0.257477074861526,-0.0250419154763222,-0.0420424081385136,-0.0482424534857273,-0.0254982374608517
823,0.0113729070872068,0.262407422065735,-0.0231072884052992,-0.03853964433074,-0.0497779585421085,-0.0224070101976395
824,0.0153533704578877,0.267533302307129,-0.0191558469086885,-0.0348401293158531,-0.0496234484016895,-0.0189186315983534
825,0.0190859027206898,0.272395461797714,-0.01402597874403,-0.0313402712345123,-0.0471413135528564,-0.0152618391439319
826,0.0207468681037426,0.274337202310562,-0.0106632197275758,-0.0301704276353121,-0.0431450456380844,-0.0144051844254136
827,0.0199645683169365,0.273148536682129,-0.0105474330484867,-0.0318595468997955,-0.039173349738121,-0.016747422516346
828,0.0194465108215809,0.272542238235474,-0.0118094431236386,-0.0339871905744076,-0.0358493700623512,-0.0185666382312775
829,0.0200737155973911,0.273656934499741,-0.0137354619801044,-0.0356394052505493,-0.0334308706223965,-0.0185761619359255
830,0.0215932205319405,0.275626510381699,-0.0152942780405283,-0.0359394140541554,-0.0310945119708776,-0.0167245212942362
831,0.025095796212554,0.278996527194977,-0.013587798923254,-0.0326390527188778,-0.0270448084920645,-0.0117593854665756
832,0.0293012894690037,0.282042890787125,-0.00979454256594181,-0.0274273566901684,-0.021465728059411,-0.0063121197745204
833,0.0312252771109343,0.281340450048447,-0.00827601086348295,-0.0250319018959999,-0.0159960221499205,-0.0048905611038208
834,0.030537337064743,0.276947677135468,-0.0103767365217209,-0.0264342781156302,-0.011024197563529,-0.00724654970690608
835,0.027323629707098,0.269883424043655,-0.0161816980689764,-0.030556783080101,-0.00701238680630922,-0.0120692420750856
836,0.0242006536573172,0.263773590326309,-0.0217487644404173,-0.0336904935538769,-0.00359950307756662,-0.0156631413847208
837,0.0255443938076496,0.263311982154846,-0.02051424048841,-0.0310347639024258,0.00111210835166276,-0.0130628291517496
838,0.0286990161985159,0.26451450586319,-0.0155389010906219,-0.0264162234961987,0.00628216937184334,-0.00859510060399771
839,0.029937531799078,0.263007640838623,-0.01296600792557,-0.0248731970787048,0.0100323352962732,-0.00711109815165401
840,0.0309910587966442,0.261539816856384,-0.0116580622270703,-0.0237371083348989,0.0131887989118695,-0.00551259005442262
841,0.0316249020397663,0.260130077600479,-0.0110266888514161,-0.0219182018190622,0.0163540672510862,-0.00381609098985791
842,0.0293325241655111,0.255782544612885,-0.01288858987391,-0.0219637099653482,0.0187669061124325,-0.00594504782930017
843,0.0252416022121906,0.249894082546234,-0.0156501308083534,-0.0234325360506773,0.0205808952450752,-0.010830688290298
844,0.0223058350384235,0.246019780635834,-0.0170717071741819,-0.0239645224064589,0.0222402457147837,-0.0141623513773084
845,0.0226618256419897,0.246201127767563,-0.0163268409669399,-0.0218436699360609,0.0241492837667465,-0.0130794020369649
846,0.0272107124328613,0.250893890857697,-0.0127041963860393,-0.0164417438209057,0.0267593562602997,-0.00666666310280561
847,0.0349555611610413,0.258900016546249,-0.00679910276085138,-0.0085694482550025,0.0293826200067997,0.00431128172203898
848,0.0426881089806557,0.266131550073624,-0.00143032940104604,-0.00147759297396988,0.0313945077359676,0.0153520340099931
849,0.0472153089940548,0.268323302268982,0.00120764481835067,0.001344840740785,0.0333545282483101,0.0205141007900238
850,0.0481473281979561,0.265628635883331,0.00188871764112264,-0.000149664367199875,0.0355663411319256,0.0184402652084827
851,0.0477115623652935,0.261849910020828,0.00327673926949501,-0.00284334551542997,0.0382109209895134,0.0132177509367466
852,0.0491934567689896,0.261036694049835,0.00816386193037033,-0.0023513853084296,0.0422321073710918,0.010756678879261
853,0.0514358058571815,0.26104274392128,0.0140557140111923,0.000452457461506128,0.0468317084014416,0.0101755382493138
854,0.0508869811892509,0.257330685853958,0.0157860033214092,0.0010483677033335,0.0494987852871418,0.00711944326758385
855,0.0477639026939869,0.250716179609299,0.0129382256418467,-0.00111066875979304,0.048721220344305,0.00272267940454185
856,0.0439744517207146,0.243956089019775,0.00819389522075653,-0.00453370064496994,0.0447483211755753,5.45327520740102E-06
857,0.0416419133543968,0.238839328289032,0.00438920129090548,-0.00780518585816026,0.0395133085548878,0.000138395218527876
858,0.0417104288935661,0.23525857925415,0.0026894158218056,-0.0100615303963423,0.0348659604787827,0.00162453798111528
859,0.0422427840530872,0.231251552700996,0.00158552068751305,-0.0123195964843035,0.0309672616422176,0.00145055772736669
860,0.0411387272179127,0.226145818829536,-0.000235409985180013,-0.0150937205180526,0.0267846621572971,-0.000740766467060894
861,0.0377671644091606,0.220318749547005,-0.00256111938506365,-0.0179643332958221,0.0211208146065474,-0.00373229687102139
862,0.0335286073386669,0.214922875165939,-0.00388266984373331,-0.0200763884931803,0.0147959301248193,-0.00613241037353873
863,0.0310410261154175,0.212146431207657,-0.00205688667483628,-0.0196752566844225,0.0103059289976954,-0.00582561083137989
864,0.0307041630148888,0.211842432618141,0.00251013436354697,-0.016846215352416,0.00849216058850288,-0.00337555538862944
865,0.0316542871296406,0.212610602378845,0.00769757619127631,-0.0129232797771692,0.00845253933221102,-0.000921443628612906
866,0.0325905382633209,0.212988346815109,0.011488102376461,-0.00927664339542389,0.00872096605598927,0.000407641549827531
867,0.0334102027118206,0.213316470384598,0.0141337001696229,-0.00569226918742061,0.00903212279081345,0.00251748994924128
868,0.0353180430829525,0.215228423476219,0.017015241086483,-0.00116177962627262,0.00995092373341322,0.00783902499824762
869,0.0365431793034077,0.215893045067787,0.0175183601677418,0.00165992847178131,0.0102796135470271,0.0129108466207981
870,0.0356991402804852,0.212831676006317,0.0137867350131273,0.000669164350256324,0.00958044361323118,0.0141885410994291
871,0.0346243195235729,0.208324074745178,0.00893708691000938,-0.00209271628409624,0.0102363582700491,0.0128946071490645
872,0.034587450325489,0.20453205704689,0.00558897294104099,-0.00408371537923813,0.01383759919554,0.0105909109115601
873,0.0344535522162914,0.20061169564724,0.00251952442340553,-0.00524045107886195,0.0186706501990557,0.00653248792514205
874,0.0335584618151188,0.195912405848503,-0.00074420910095796,-0.00599767360836267,0.0225272234529257,0.000779837719164789
875,0.0338319167494774,0.192835062742233,-0.00146008317824453,-0.00468988949432969,0.0252944491803646,-0.0029846930410713
876,0.0362497642636299,0.192452073097229,0.00122295052278787,-0.000787519558798522,0.0279777515679598,-0.00267898407764733
877,0.0397213809192181,0.193108111619949,0.00565379206091166,0.00410490995272994,0.0312551073729992,9.1142050223425E-05
878,0.0420938991010189,0.192442387342453,0.00939039327204227,0.00760453008115292,0.0340795107185841,0.00251813512295485
879,0.0414487048983574,0.188885599374771,0.00992498733103275,0.00776192359626293,0.0346408970654011,0.00260082143358886
880,0.0390475578606129,0.184582978487015,0.00798626430332661,0.00605753110721707,0.0331366509199142,0.00169230601750314
881,0.0356237404048443,0.180618330836296,0.00432488601654768,0.00359557801857591,0.0308007709681988,-6.41017977613956E-05
882,0.0310962218791246,0.176214918494225,-0.000712224398739636,0.000155655914568342,0.0292109623551369,-0.00340800522826612
883,0.0281714145094156,0.173249796032906,-0.00370313692837954,-0.00174313585739583,0.0306818149983883,-0.00552275450900197
884,0.029224768280983,0.173616290092468,-0.00152401719242334,0.000785247422754765,0.035958681255579,-0.00353757222183049
885,0.0345537103712559,0.177792221307755,0.00638479134067893,0.00837444979697466,0.0434709750115871,0.00374159519560635
886,0.0410192385315895,0.182753413915634,0.0157255847007036,0.0168819073587656,0.0502349957823753,0.0129056852310896
887,0.0434449203312397,0.183179438114166,0.0194688569754362,0.0200013630092144,0.0531987734138966,0.0174952205270529
888,0.0401401668787003,0.177114903926849,0.0152663141489029,0.0162410531193018,0.0513109788298607,0.0152580719441175
889,0.0326712392270565,0.16576823592186,0.00569712230935693,0.00829879939556122,0.0460060425102711,0.00763000687584281
890,0.024275878444314,0.15295085310936,-0.00466513121500611,0.000391500478144735,0.0403285250067711,-0.00138914072886109
891,0.019396997988224,0.144140586256981,-0.0109010832384229,-0.00346383242867887,0.0374516323208809,-0.00627422425895929
892,0.0204491745680571,0.142542809247971,-0.00998289883136749,-0.00135155813768506,0.038762804120779,-0.00406822888180614
893,0.02567483112216,0.146772563457489,-0.00292784278281033,0.00595899857580662,0.042671911418438,0.00366211379878223
894,0.0308982692658901,0.151526927947998,0.0058247190900147,0.0146581036970019,0.0465016961097717,0.011760943569243
895,0.0334274508059025,0.152324289083481,0.0129532609134912,0.020765483379364,0.049694798886776,0.0163079928606749
896,0.0321544818580151,0.147501036524773,0.0163494106382132,0.0215065367519856,0.0522590801119804,0.0159154813736677
897,0.0267419200390577,0.137276187539101,0.013838148675859,0.0154968174174428,0.0523317083716393,0.0106215784326196
898,0.0209058597683907,0.126715049147606,0.00811053067445755,0.00705318711698055,0.0493191778659821,0.00529249338433146
899,0.0196641460061073,0.122391648590565,0.00589290913194418,0.00315760099329054,0.045819953083992,0.00562252942472696
900,0.022348677739501,0.123837515711784,0.0093530947342515,0.00470205582678318,0.0435101464390755,0.0101852081716061
901,0.0237293243408203,0.1246073320508,0.0133678242564201,0.00664089620113373,0.0403974391520023,0.0129706980660558
902,0.0209293216466904,0.120578445494175,0.0129506438970566,0.00520125450566411,0.0355012901127338,0.0109338527545333
903,0.0165324341505766,0.113931424915791,0.00976910162717104,0.00179205788299441,0.0321226418018341,0.00657633738592267
904,0.0146048981696367,0.10909727960825,0.0084919361397624,-7.01522731105797E-05,0.0329868905246258,0.00427252100780606
905,0.015371453948319,0.106888823211193,0.00975299347192049,-5.46865485375747E-05,0.0369333140552044,0.00494570657610893
906,0.0170398019254208,0.1064712703228,0.0114317433908582,0.000335591612383723,0.041454941034317,0.00756532652303576
907,0.0190458744764328,0.107836976647377,0.012789461761713,0.000946789921727031,0.0452549941837788,0.0115234842523932
908,0.0197920203208923,0.108446873724461,0.0127799576148391,0.000576894672121853,0.0481761321425438,0.013953885063529
909,0.0175997111946344,0.1058743968606,0.0109155001118779,-0.00213032402098179,0.050584003329277,0.0126524232327938
910,0.0135562708601356,0.101215675473213,0.00884964596480131,-0.00616589328274131,0.0532512292265892,0.00892617274075747
911,0.0105972727760673,0.0973151475191116,0.00872159469872713,-0.00887134112417698,0.0568058975040913,0.00568638416007161
912,0.0104187205433846,0.0963893309235573,0.0119079854339361,-0.00796105246990919,0.0606111101806164,0.0054200878366828
913,0.012166690081358,0.0980442091822624,0.0177536644041538,-0.00374407437629998,0.0633128210902214,0.00787822529673576
914,0.0136289931833744,0.0991313084959984,0.0227082129567862,0.000524780596606433,0.063960388302803,0.00964320171624422
915,0.0126792900264263,0.0962723791599274,0.0230657290667295,0.00131295481696725,0.0619722083210945,0.00755735766142607
916,0.00937703065574169,0.0893591716885567,0.0194345898926258,-0.00123435945715755,0.0580020174384117,0.00237614591605961
917,0.00542441895231605,0.0811559781432152,0.0147718312218785,-0.00420707324519753,0.0537060834467411,-0.0029803232755512
918,0.00232987035997212,0.074831947684288,0.011104179546237,-0.00506734475493431,0.0498728528618813,-0.00579981738701463
919,0.0026445328257978,0.0738026052713394,0.0111792841926217,-0.00147449807263911,0.047266311943531,-0.00275294226594269
920,0.00746819050982594,0.0783071517944336,0.0158885531127453,0.00602741632610559,0.0473673678934574,0.00609902944415808
921,0.0131944688037038,0.0832449868321419,0.0214300248771906,0.012919339351356,0.0497269071638584,0.015151116065681
922,0.0159144438803196,0.0844477191567421,0.024033522233367,0.0163841936737299,0.0511496216058731,0.0203296989202499
923,0.0141774844378233,0.0807844549417496,0.0220004394650459,0.0154875675216317,0.0488009378314018,0.0206466503441334
924,0.00901469774544239,0.0729974806308746,0.0154205849394202,0.010052377358079,0.0429145246744156,0.0170788485556841
925,0.00427595665678382,0.0653709769248962,0.00751984631642699,0.00360351102426648,0.0360555164515972,0.0141019094735384
926,0.00220897048711777,0.0613975003361702,0.00132686737924814,-0.000520107103511691,0.0300507340580225,0.0144349709153175
927,0.000953500275500119,0.0595783852040768,-0.00323389912955463,-0.00319644506089389,0.024725528433919,0.0155100049450994
928,-0.00076426868326962,0.0581173077225685,-0.00624524289742112,-0.00519380951300263,0.0202613826841116,0.01508460752666
929,-0.00253176921978593,0.0566913597285748,-0.00752570107579231,-0.00641214428469539,0.0172227695584297,0.0130922244861722
930,-0.0043249181471765,0.0548491850495338,-0.00782181788235903,-0.00765674887225032,0.0146980099380016,0.00956188794225454
931,-0.00670149317011237,0.0517620481550694,-0.00851165130734444,-0.010039059445262,0.0113139795139432,0.00437993416562676
932,-0.00940541457384825,0.0472161322832108,-0.00987416505813599,-0.0132617633789778,0.00759399263188243,-0.00124333146959543
933,-0.0102550284937024,0.0433616600930691,-0.00937834568321705,-0.0143363578245044,0.00593263655900955,-0.00398519448935986
934,-0.00883010495454073,0.0411732420325279,-0.0062850103713572,-0.0124325370416045,0.00668536266312003,-0.00333451782353222
935,-0.00560327339917421,0.0406784750521183,-0.00196053576655686,-0.00884045474231243,0.00809862371534109,-0.000754329841583967
936,-0.00156158348545432,0.0409654676914215,0.00136601063422859,-0.00557595631107688,0.00879922974854708,0.00177892972715199
937,0.000336827244609594,0.0387871973216534,0.000905027089174837,-0.00627644406631589,0.00806741043925285,0.000697614625096321
938,0.000269637937890366,0.03481799736619,-0.00146150577347726,-0.00983009487390518,0.00670663360506296,-0.0025773651432246
939,3.03387369058328E-05,0.032369140535593,-0.002404062775895,-0.0116745410487056,0.00516671780496836,-0.00356066157110035
940,-0.000747890677303076,0.03197131305933,-0.00226293015293777,-0.0108570791780949,0.00213348143734038,-0.00172581523656845
941,-0.00173574290238321,0.0331042073667049,-0.00139354611746967,-0.00878939032554626,-0.00185088056605309,0.00156508828513324
942,-0.0022723414003849,0.0343867391347885,0.000119735843327362,-0.00744613911956549,-0.00448202807456255,0.00447862781584263
943,-0.00320614501833916,0.0338259488344193,0.000798754103016108,-0.00834750570356846,-0.00593772763386369,0.00534283043816686
944,-0.00358508341014385,0.0331746600568295,0.00201213755644858,-0.00874240603297949,-0.0071953097358346,0.00671682460233569
945,-0.00204742047935724,0.0344543941318989,0.00585237331688404,-0.00560035416856408,-0.00784055143594742,0.010728320106864
946,-0.00108587427530438,0.0343713462352753,0.0091473488137126,-0.0021744433324784,-0.00863048434257507,0.0129880467429757
947,-0.00282190903089941,0.0303958244621754,0.00873381271958351,-0.00212512235157192,-0.0106796668842435,0.0102704567834735
948,-0.00537748541682959,0.0249798111617565,0.00665989518165588,-0.00398790556937456,-0.0126266926527023,0.00555606046691537
949,-0.00738618802279234,0.0195091161876917,0.00462147360667586,-0.00657010823488235,-0.0133158415555954,0.000894575088750571
950,-0.0110987741500139,0.0112885106354952,4.99480738653801E-05,-0.0121402610093355,-0.0142812859266996,-0.00605129776522517
951,-0.016937680542469,0.000368404318578541,-0.007621546741575,-0.0205482915043831,-0.0163421723991632,-0.0150840440765023
952,-0.0206118691712618,-0.00774655491113663,-0.0138121349737048,-0.0271620657294989,-0.0181490890681744,-0.0208935290575027
953,-0.018418725579977,-0.00846374221146107,-0.0147512815892696,-0.0281811002641916,-0.0186486002057791,-0.0190924424678087
954,-0.0118500674143434,-0.00324438442476094,-0.0116898557171226,-0.0245377607643604,-0.018376799300313,-0.011288614012301
955,-0.0054664914496243,0.00242731207981706,-0.00828137993812561,-0.0201282072812319,-0.0185402780771255,-0.00307595869526267
956,-0.00055252033052966,0.00644667958840728,-0.00443724868819118,-0.0159173887223005,-0.0189383141696453,0.00322637590579689
957,0.00354183139279485,0.0092344768345356,0.00136453402228653,-0.011238262988627,-0.0186119247227907,0.00761552760377526
958,0.00534721184521914,0.0090756993740797,0.00662518758326769,-0.00811295490711927,-0.0176062304526567,0.00850715488195419
959,0.00354609661735594,0.00484056770801544,0.00801167730242014,-0.00841297581791878,-0.0166815482079983,0.00525078270584345
960,-0.00162811391055584,-0.00261748675256968,0.00447938684374094,-0.0118268728256226,-0.0168912000954151,-0.00123578798957169
961,-0.00732777174562216,-0.010068392381072,-0.00107114191632718,-0.0157110150903463,-0.0176842678338289,-0.00764194643124938
962,-0.0106256185099483,-0.0143407387658954,-0.00447489088401198,-0.0174881685525179,-0.0173182487487793,-0.0105264214798808
963,-0.0119929444044828,-0.0158080849796534,-0.00490712653845549,-0.0170965846627951,-0.0160944275557995,-0.0101459976285696
964,-0.0118913184851408,-0.0149911772459745,-0.00297625339590013,-0.0142958303913474,-0.0154426377266645,-0.0070678973570466
965,-0.0106765851378441,-0.012582877650857,-0.000336048746248707,-0.00996693037450314,-0.0162429139018059,-0.0025205360725522
966,-0.00991903059184551,-0.0110202357172966,0.000834775273688138,-0.00715366518124938,-0.0187652036547661,0.000516216910909861
967,-0.0103053599596024,-0.0117244590073824,0.000261008564848453,-0.00719238119199872,-0.0219680368900299,0.00122457125689834
968,-0.0103980377316475,-0.0126006603240967,0.000411970366258174,-0.00749058928340673,-0.0236759763211012,0.00267704948782921
969,-0.00917874090373516,-0.0114948814734817,0.0027571867685765,-0.00570529792457819,-0.0235239043831825,0.00655136443674564
970,-0.00981933530420065,-0.0120451282709837,0.00247164955362678,-0.00537524744868279,-0.0241917166858912,0.00759645644575357
971,-0.0130202220752835,-0.0161216631531715,-0.00204410869628191,-0.00817990861833096,-0.02522112429142,0.00364204379729927
972,-0.013778411783278,-0.0186741482466459,-0.00358399818651378,-0.0087504992261529,-0.0227279681712389,0.00129887042567134
973,-0.0108561106026173,-0.0174399558454752,0.000648550048936158,-0.00474210688844323,-0.0174684692174196,0.00415028771385551
974,-0.00730394618585706,-0.0147503186017275,0.00638289889320731,0.0004807066579815,-0.0133609566837549,0.00956304464489222
975,-0.00411849655210972,-0.011770473793149,0.0111467484384775,0.00479550519958138,-0.0115547627210617,0.014842739328742
976,-0.00253702676855028,-0.0105461431667209,0.0132760293781757,0.00725437141954899,-0.0116495825350285,0.0167154315859079
977,-0.00493520405143499,-0.013875400647521,0.010784761980176,0.00660364190116525,-0.0135962618514895,0.0126785039901733
978,-0.00995708629488945,-0.0199698898941278,0.00557166151702404,0.00405114889144897,-0.0169706624001265,0.00567380711436272
979,-0.0138799315318465,-0.0245702676475048,0.000712394015863538,0.00174348743166775,-0.0208368543535471,0.000341165577992797
980,-0.0157107748091221,-0.0271096769720316,-0.00370294018648565,-0.000870452029630542,-0.024100586771965,-0.00336261792108417
981,-0.0174930300563574,-0.0306224599480629,-0.00877979770302773,-0.00583592616021633,-0.0264506544917822,-0.00858688447624445
982,-0.0191650483757257,-0.0348385684192181,-0.0125939399003983,-0.0112721566110849,-0.0276906192302704,-0.0136574972420931
983,-0.017748549580574,-0.0356360524892807,-0.0112138846889138,-0.0116929896175861,-0.0270101968199015,-0.0124911405146122
984,-0.0143351126462221,-0.0337355025112629,-0.0063374019227922,-0.00728395767509937,-0.0253002569079399,-0.00558684207499027
985,-0.0129531780257821,-0.0335198119282722,-0.00369626516476274,-0.00397569825872779,-0.0246207267045975,0.000275682075880468
986,-0.0123348422348499,-0.0335524082183838,-0.00263444986194372,-0.00251447153277695,-0.0241571012884378,0.00407166173681617
