,AF3,AF4,Fp1,Fp2,AF7,AF8
0,0.0233071558177471,0.0112043265253305,-0.0157174430787563,-0.0356095507740974,-0.0590599402785301,-0.0214759204536676
1,0.0216128658503294,0.0101600959897041,-0.0148788457736373,-0.0365073941648006,-0.0601798705756664,-0.0218172371387482
2,0.0190930739045143,0.00798101723194122,-0.0165912415832281,-0.0391429252922535,-0.0600368082523346,-0.0240620393306017
3,0.0190017316490412,0.00855419505387545,-0.0175227932631969,-0.0400458425283432,-0.057124599814415,-0.0242587346583605
4,0.0221015512943268,0.0132960481569171,-0.0162694454193115,-0.0373553298413754,-0.0530093461275101,-0.0208816416561604
5,0.0234027300029993,0.0169966258108616,-0.0172250848263502,-0.0354348234832287,-0.0519129447638988,-0.0193646866828203
6,0.0222318079322577,0.0184290409088135,-0.0204623099416494,-0.0351563356816769,-0.0536359585821629,-0.0205478090792894
7,0.0211816728115082,0.0192409660667181,-0.0228369608521461,-0.0343619622290134,-0.0558588095009327,-0.0219191312789917
8,0.0205264817923307,0.0186727233231068,-0.0241718329489231,-0.0335906706750393,-0.057279996573925,-0.024066673591733
9,0.0210892576724291,0.0182395726442337,-0.023090248927474,-0.0316961109638214,-0.0555955618619919,-0.0257286988198757
10,0.0233760382980108,0.0204096846282482,-0.018286133185029,-0.0268455948680639,-0.0505595505237579,-0.0243493970483541
11,0.0248677916824818,0.0228796657174826,-0.0137766608968377,-0.0218464527279139,-0.0463610291481018,-0.0221962407231331
12,0.0235828403383493,0.0225079692900181,-0.014198093675077,-0.0204043593257666,-0.0467910580337048,-0.022690411657095
13,0.0212359335273504,0.0207805912941694,-0.0185749344527721,-0.0218173339962959,-0.0513237975537777,-0.0250258948653936
14,0.0185363739728928,0.0181081742048264,-0.0249825716018677,-0.0251581780612469,-0.0577483735978603,-0.029502734541893
15,0.0148067967966199,0.0134404776617885,-0.032501146197319,-0.0301647149026394,-0.0641671717166901,-0.0365836806595325
16,0.0115201426669955,0.00871564820408821,-0.0385481156408787,-0.0342824794352055,-0.0692815184593201,-0.0428916625678539
17,0.0102209523320198,0.00636794185265899,-0.0410041660070419,-0.0353935360908508,-0.0732608288526535,-0.0452443845570087
18,0.0122535480186343,0.00790111534297466,-0.0387848094105721,-0.0327103026211262,-0.0756770297884941,-0.0424943044781685
19,0.0171491950750351,0.0121082598343492,-0.0333902724087238,-0.0276727415621281,-0.0769041925668716,-0.0369925685226917
20,0.021301107481122,0.0155991325154901,-0.0285332500934601,-0.0236642826348543,-0.0787153393030167,-0.0329143851995468
21,0.0220547635108233,0.0165874231606722,-0.0261970143765211,-0.0225333496928215,-0.080402784049511,-0.0317345559597015
22,0.019473934546113,0.0151320528239012,-0.0265608243644238,-0.0246090404689312,-0.0808493345975876,-0.0327661409974098
23,0.016912005841732,0.0136975478380919,-0.0267237909138203,-0.0275696497410536,-0.0795183479785919,-0.0335272252559662
24,0.017480107024312,0.0146178957074881,-0.0230974424630404,-0.0277440622448921,-0.0751479715108871,-0.031740166246891
25,0.018784087151289,0.0155903389677405,-0.017989145591855,-0.0260353181511164,-0.0688696205615997,-0.0287908427417278
26,0.0185742434114218,0.0155700901523232,-0.0144769102334976,-0.0245229192078114,-0.0633499622344971,-0.0252143573015928
27,0.0186853166669607,0.0175272934138775,-0.0114515870809555,-0.0226606465876102,-0.0588354654610157,-0.0201566759496927
28,0.0192959774285555,0.0208572018891573,-0.00971618201583624,-0.0218673851341009,-0.0546093620359898,-0.0169748459011316
29,0.0187578443437815,0.0223326031118631,-0.011059083044529,-0.0239258725196123,-0.0503099486231804,-0.0189118068665266
30,0.0165869425982237,0.0209404099732637,-0.0144563149660826,-0.0275721848011017,-0.0457915626466274,-0.0250457916408777
31,0.0130248554050922,0.0171584654599428,-0.0186363682150841,-0.0312211774289608,-0.0420119687914848,-0.0335985533893108
32,0.00915479473769665,0.012848692946136,-0.0222784075886011,-0.0338661000132561,-0.0392294377088547,-0.0421087518334389
33,0.00544880237430334,0.00929569639265537,-0.0249681752175093,-0.0353295505046844,-0.0371560379862785,-0.0482515953481197
34,0.00189955369569361,0.00638876482844353,-0.0270682312548161,-0.0362766534090042,-0.0362634807825089,-0.0512408576905727
35,-0.00088326312834397,0.00407517841085792,-0.0281957201659679,-0.0374136306345463,-0.0363228730857372,-0.0512960441410542
36,-0.00276822037994862,0.00214083143509924,-0.0288366116583347,-0.0392091758549213,-0.0363933071494102,-0.0493617206811905
37,-0.00278388569131494,0.0019486149540171,-0.0281439423561096,-0.0398040078580379,-0.0357990488409996,-0.0443281903862953
38,-0.000858621555380523,0.00418430799618363,-0.0249708909541368,-0.0374531708657742,-0.0349350310862064,-0.0356874912977219
39,0.000168594953720458,0.00628830073401332,-0.0219327732920647,-0.0341583974659443,-0.0350223630666733,-0.0274940710514784
40,-0.00199035834521055,0.00599520653486252,-0.0228984449058771,-0.0331047773361206,-0.0367780886590481,-0.0243558418005705
41,-0.00580740394070745,0.00458831759169698,-0.0276029761880636,-0.0341752842068672,-0.0396298356354237,-0.0258752685040236
42,-0.0079767694696784,0.0048674400895834,-0.032021377235651,-0.0345473065972328,-0.0421816855669022,-0.0280888993293047
43,-0.00819688569754362,0.00689521199092269,-0.0345265716314316,-0.0333096534013748,-0.0438093617558479,-0.0297090355306864
44,-0.00797522068023682,0.00895598996430635,-0.0358720831573009,-0.0317514501512051,-0.0444908775389194,-0.0321156196296215
45,-0.00774721289053559,0.0101904915645719,-0.0357515402138233,-0.0306076183915138,-0.0438043586909771,-0.0352077148854733
46,-0.00817381497472525,0.0101065272465348,-0.0341293998062611,-0.0299235843122005,-0.0419081933796406,-0.0375756360590458
47,-0.0102009708061814,0.00862775836139917,-0.032221395522356,-0.0295233130455017,-0.0401640944182873,-0.0388535596430302
48,-0.0131441308185458,0.00768117047846317,-0.0310597978532314,-0.0284262169152498,-0.0404458455741405,-0.0391866266727448
49,-0.0156999751925468,0.00950292963534594,-0.0316907241940498,-0.0275445263832808,-0.0425392165780067,-0.0393863767385483
50,-0.0169042572379112,0.0134664988145232,-0.0336672626435757,-0.0286915693432093,-0.0431132763624191,-0.0398967489600182
51,-0.0174484513700008,0.0143692921847105,-0.0359645076096058,-0.0319281294941902,-0.0414651781320572,-0.0406035482883453
52,-0.018465643748641,0.00886704493314028,-0.0386952273547649,-0.0361784994602203,-0.0395083799958229,-0.0416670255362988
53,-0.0175636857748032,0.00253689009696245,-0.0393506586551666,-0.037798099219799,-0.036156065762043,-0.0411526300013065
54,-0.0128175793215632,0.00136301957536489,-0.0356848537921906,-0.0343280807137489,-0.0307815335690975,-0.0373970940709114
55,-0.00631459197029471,0.00467652687802911,-0.0300923157483339,-0.0281339511275291,-0.0262510813772678,-0.0313334465026855
56,-0.000733807915821671,0.00930021237581968,-0.0256303548812866,-0.0224994383752346,-0.0243711732327938,-0.0246583204716444
57,0.00230689719319344,0.0124675147235394,-0.0233684871345758,-0.0190564505755901,-0.0249823164194822,-0.0195882432162762
58,0.00272785336710513,0.0134334769099951,-0.0225292704999447,-0.0174426976591349,-0.027325289323926,-0.0169371217489243
59,0.00257384334690869,0.0139678446575999,-0.0208290442824364,-0.0157525520771742,-0.0293698944151402,-0.0145723540335894
60,0.00223383191041648,0.0139192081987858,-0.018738579005003,-0.014285808429122,-0.0304163172841072,-0.0125891538336873
61,0.000281298067420721,0.0115585438907146,-0.0189386941492558,-0.0151563817635179,-0.0311250649392605,-0.0133790643885732
62,-0.00259686470963061,0.0079799760133028,-0.0212641134858131,-0.018540570512414,-0.0310359317809343,-0.0164380818605423
63,-0.00526875723153353,0.00459151761606336,-0.0242882873862982,-0.0238497965037823,-0.0297155361622572,-0.0209245383739471
64,-0.00715811178088188,0.0017572499345988,-0.0265839044004679,-0.0298015531152487,-0.0275035724043846,-0.0262962933629751
65,-0.00830110348761082,-0.000479774200357497,-0.0275893062353134,-0.0347513556480408,-0.0258919820189476,-0.0312334783375263
66,-0.00926818139851093,-0.0024037859402597,-0.0278098378330469,-0.0380102768540382,-0.0261575225740671,-0.0351601205766201
67,-0.00818448420614004,-0.00185248220805079,-0.0246046613901854,-0.037192989140749,-0.02722511254251,-0.0357831716537476
68,-0.00486898329108953,0.00184632954187691,-0.0168762132525444,-0.0313052758574486,-0.0288382973521948,-0.0315659381449223
69,-0.00444079469889402,0.00378114636987448,-0.0111238360404968,-0.0256076157093048,-0.0328702181577683,-0.0250820722430944
70,-0.0073343925178051,0.00280749751254916,-0.0104896165430546,-0.0234594978392124,-0.0376858115196228,-0.0167161356657743
71,-0.00793907791376114,0.00283208116889,-0.0102328127250075,-0.0225596521049738,-0.0388110652565956,-0.00688780844211578
72,-0.00554107036441565,0.00394574226811528,-0.00830603018403053,-0.0221444312483072,-0.0353322625160217,-0.00143359077628702
73,-0.00322285387665033,0.00499000400304794,-0.00604052562266588,-0.0224528312683105,-0.0292847324162722,-0.0031431196257472
74,-0.00262925191782415,0.00540125882253051,-0.00479515362530947,-0.0237417872995138,-0.0229333713650703,-0.00979721546173096
75,-0.00251984735950828,0.00521789444610476,-0.00372916203923523,-0.0253848005086184,-0.0174133311957121,-0.0174849033355713
76,-0.00144140154588968,0.00539367832243443,-0.00121560040861368,-0.0252995751798153,-0.0130749782547355,-0.0227061156183481
77,-0.0021957834251225,0.0040157837793231,-0.000201555754756555,-0.0249255280941725,-0.0109627237543464,-0.0271960645914078
78,-0.00598668400198221,0.000532925885636359,-0.00218015327118337,-0.0263407155871391,-0.0108587788417935,-0.0329055078327656
79,-0.00948572997003794,-0.00224045547656715,-0.00389675493352115,-0.0286176335066557,-0.0112532628700137,-0.0379509553313255
80,-0.0101203946396708,-0.00282357377000153,-0.00290598371066153,-0.0297218561172485,-0.0112486779689789,-0.0401990786194801
81,-0.00713488226756454,-0.000831780838780105,0.00157517055049539,-0.0273331627249718,-0.0102543961256742,-0.0381072424352169
82,8.53212986839935E-05,0.00509921787306666,0.010078614577651,-0.0200768671929836,-0.00751773687079549,-0.0300949662923813
83,0.00990583840757608,0.0140528455376625,0.0206972043961287,-0.0100189689546824,-0.00331567437388003,-0.0175167340785265
84,0.0154973566532135,0.0191020127385855,0.0261887293308973,-0.00426731118932366,-0.000566810776945204,-0.00835554581135511
85,0.0122845945879817,0.0159269124269485,0.0218613687902689,-0.00690137408673763,-0.00149392697494477,-0.0082191089168191
86,0.00428181514143944,0.00895166676491499,0.0123550444841385,-0.0136830769479275,-0.00448035821318626,-0.0132380481809378
87,-0.00324678374454379,0.00303688226267695,0.00353375799022615,-0.0206815879791975,-0.00711426418274641,-0.0188799984753132
88,-0.00798205379396677,0.00163404922932386,-0.00196880451403558,-0.0261409562081099,-0.00789680238813162,-0.0225577894598246
89,-0.00961364153772593,0.00654006050899625,-0.00415024627000093,-0.0289353020489216,-0.0065554934553802,-0.0225310921669006
90,-0.010607710108161,0.0113039342686534,-0.00647727400064468,-0.0315129309892654,-0.00506876083090901,-0.0214403476566076
91,-0.0133048947900534,0.00793673004955053,-0.0115407388657331,-0.0363883972167969,-0.005361991468817,-0.0227121189236641
92,-0.0167729444801807,-0.00187582953367382,-0.0177635885775089,-0.0421438775956631,-0.00721154408529401,-0.025649081915617
93,-0.0185466390103102,-0.0109441448003054,-0.0221212264150381,-0.0460463911294937,-0.00963641982525587,-0.0275972131639719
94,-0.0163555722683668,-0.0139326900243759,-0.0214616563171148,-0.0455640219151974,-0.0111675905063748,-0.0262555871158838
95,-0.00999653898179531,-0.00999130960553885,-0.0144648933783174,-0.0394500829279423,-0.0104996394366026,-0.0210371445864439
96,-0.00326376315206289,-0.00363788637332618,-0.00536763900890946,-0.031223189085722,-0.00851181894540787,-0.0149759957566857
97,-0.000954026414547116,-0.00117047817911953,-0.000715405505616218,-0.0271148532629013,-0.00733056385070086,-0.0131329530850053
98,-0.00366733875125647,-0.00425842730328441,-0.00192110985517502,-0.028873797506094,-0.00746663985773921,-0.0170509908348322
99,-0.00708918645977974,-0.00887756515294313,-0.0044656777754426,-0.0322480723261833,-0.00649855751544237,-0.0231039691716433
100,-0.00780615024268627,-0.0115275159478188,-0.00483900308609009,-0.0337157137691975,-0.00183133955579251,-0.0281243547797203
101,-0.00766035262495279,-0.0129508823156357,-0.00522901630029082,-0.0350467972457409,0.00575645035132766,-0.032862838357687
102,-0.00948388781398535,-0.0148167815059423,-0.00882116612046957,-0.0389122925698757,0.0131411729380488,-0.0385057218372822
103,-0.0119968084618449,-0.0158600676804781,-0.0134619539603591,-0.0433643572032452,0.0182729065418243,-0.0426975004374981
104,-0.01453547924757,-0.0165621750056744,-0.017236951738596,-0.0470857694745064,0.0201323013752699,-0.0449048914015293
105,-0.0179248247295618,-0.019190326333046,-0.0214369762688875,-0.0515147000551224,0.0185312330722809,-0.0471614152193069
106,-0.0201512146741152,-0.0218166261911392,-0.024923549965024,-0.0552105270326138,0.0148074980825186,-0.0475617684423923
107,-0.0197468493133783,-0.021959325298667,-0.025532640516758,-0.0557956844568253,0.0112817296758294,-0.0438082031905651
108,-0.0164597854018211,-0.0184414871037006,-0.0216122847050428,-0.0515630692243576,0.010959911160171,-0.0353573150932789
109,-0.0103354593738914,-0.0107667837291956,-0.0129398163408041,-0.0422167293727398,0.0147026078775525,-0.0224062353372574
110,-0.00361663824878633,-0.00164080574177206,-0.00312200584448874,-0.0314322113990784,0.020063953474164,-0.00850832834839821
111,1.92867519217543E-05,0.0038952799513936,0.00281305611133575,-0.0248212572187185,0.0238028503954411,0.000536196166649461
112,-0.000711318105459213,0.00393333751708269,0.00350772682577372,-0.0242354515939951,0.0241299849003553,0.0025963441003114
113,-0.00270944065414369,0.00201832363381982,0.00285712885670364,-0.0257182717323303,0.0221806764602661,0.000979303265921772
114,-0.0043983981013298,0.000420723721617833,0.00287147238850594,-0.0266416110098362,0.0194928012788296,-0.00150892906822264
115,-0.00719276117160916,-0.00140189589001238,0.00136103725526482,-0.0275410767644644,0.0156923644244671,-0.0032722766045481
116,-0.0101883634924889,-0.00311827007681131,-0.00199412484653294,-0.0283785760402679,0.0107152378186584,-0.00300186290405691
117,-0.0106011629104614,-0.00373358163051307,-0.00431756256148219,-0.0287437420338392,0.00604470120742917,-0.001627022982575
118,-0.00827840901911259,-0.00243059499189258,-0.00321420701220632,-0.0283136516809464,0.00296015315689147,-5.33595593878999E-05
119,-0.00665696663782001,-0.000563460227567703,-0.000547868141438812,-0.0283087883144617,0.00120440451428294,0.00117984705138952
120,-0.00749050686135888,0.000168780781677924,0.000839657615870237,-0.029580632224679,9.28237132029608E-05,0.00180976430419832
121,-0.00968730542808771,-0.000591953925322741,0.000405953964218497,-0.0311701279133558,-0.000112896501377691,0.001329759019427
122,-0.0130068929865956,-0.00377284619025886,-0.00234444811940193,-0.0332960560917854,0.000922165403608233,-0.00222228071652353
123,-0.0166948474943638,-0.00687974691390991,-0.00646254746243358,-0.0357836671173573,0.00255908747203648,-0.00762579264119267
124,-0.0190036464482546,-0.00584356021136045,-0.00969837512820959,-0.0365868806838989,0.00378339760936797,-0.0106593742966652
125,-0.0189073085784912,-0.00307760504074395,-0.0109743429347873,-0.0345811285078526,0.00369725259952247,-0.00994462240487337
126,-0.0157979223877192,-0.00311740580946207,-0.0104736397042871,-0.0308629516512156,0.00151458161417395,-0.00773901352658868
127,-0.0106217171996832,-0.00646415166556835,-0.00977284647524357,-0.0278702229261398,-0.002247862983495,-0.00756558962166309
128,-0.00548928137868643,-0.0103999292477965,-0.00849238503724337,-0.0255830623209476,-0.0043822443112731,-0.00986561644822359
129,-0.00206233933568001,-0.0124167511239648,-0.00480866432189941,-0.0219202507287264,-0.00278103584423661,-0.0120336627587676
130,-0.000908782996702939,-0.0131275644525886,0.000257229286944494,-0.0177056025713682,0.00105721072759479,-0.012910408899188
131,-0.000812884711194783,-0.0140041932463646,0.00504180649295449,-0.0151354558765888,0.00553844636306167,-0.0127929598093033
132,-0.000524345494341105,-0.0151398796588182,0.00885451305657625,-0.0145976217463613,0.00978599116206169,-0.0119715137407184
133,0.000314146134769544,-0.0156154055148363,0.0116717768833041,-0.0143980449065566,0.0129933329299092,-0.0101214665919542
134,0.00147166359238327,-0.0150731140747666,0.0137135861441493,-0.0129753099754453,0.0148492995649576,-0.00682605011388659
135,0.0026739533059299,-0.0140713322907686,0.0152552388608456,-0.010581080801785,0.0158206541091204,-0.001888322760351
136,0.0031885951757431,-0.0139195909723639,0.0160787962377071,-0.00886893924325705,0.0163331013172865,0.00294388690963387
137,0.00332928379066288,-0.0141638796776533,0.0164810605347157,-0.00764871621504426,0.0168904904276133,0.00592203438282013
138,0.00606363732367754,-0.0122928880155087,0.0184000115841627,-0.00489178812131286,0.0187794100493193,0.00825659278780222
139,0.0123599171638489,-0.00804466102272272,0.0218458883464336,-0.00137459288816899,0.0210559293627739,0.0107579808682203
140,0.0197937078773975,-0.00223805312998593,0.0253656376153231,0.00185256556142122,0.0209660306572914,0.0137160364538431
141,0.0240920037031174,0.00204347632825375,0.0266603752970696,0.00325800711289048,0.017633143812418,0.0147695457562804
142,0.0231158621609211,0.0018802946433425,0.0241436287760735,0.00127954152412713,0.0128593370318413,0.0112234307453036
143,0.0199095867574215,0.000178659000084735,0.0200286228209734,-0.00184764515142888,0.00949915777891874,0.00584466615691781
144,0.0162994600832462,-0.000785694050136954,0.0151647832244635,-0.00523480866104364,0.00724014546722174,0.000626871013082564
145,0.0105459149926901,-0.00379394274204969,0.00733251497149467,-0.0112012326717377,0.00350462296046317,-0.00649086385965347
146,0.00363496877253056,-0.00977604370564222,-0.00165186100639403,-0.0190300885587931,-0.000386808271287009,-0.0143924271687865
147,0.00050427159294486,-0.013933545909822,-0.00554456561803818,-0.0235323943197727,-0.000125371167086996,-0.0169063806533813
148,0.00175398634746671,-0.0148027436807752,-0.0042018573731184,-0.0237548034638166,0.00464471708983183,-0.013815937563777
149,0.00384879391640425,-0.0156217077746987,-0.00250635552220047,-0.0232861805707216,0.0106493020430207,-0.0106418523937464
150,0.00516671920195222,-0.0175592359155416,-0.00272667221724987,-0.0237162467092276,0.0160960666835308,-0.00964042823761702
151,0.00605487683787942,-0.0189001653343439,-0.00432805204764009,-0.0244318060576916,0.0211067106574774,-0.00937696639448404
152,0.00908392574638128,-0.0155345117673278,-0.00322828372009099,-0.0217755325138569,0.0260814819484949,-0.00565959792584181
153,0.0136590134352446,-0.00835654977709055,0.00151593668852001,-0.0152291674166918,0.0295849107205868,0.000862423330545425
154,0.0163230691105127,-0.00294537818990648,0.00609855633229017,-0.00956553872674704,0.0305943340063095,0.00495580350980163
155,0.0173046160489321,-0.000743503915145993,0.00896016601473093,-0.00687268888577819,0.0311114359647036,0.00613379059359431
156,0.0184358078986406,0.000207191536901519,0.0110158957540989,-0.00560661731287837,0.0326195731759071,0.00754378642886877
157,0.0178315695375204,-0.00142843520734459,0.0109016932547092,-0.00666801212355495,0.0334894172847271,0.00802077259868383
158,0.0126416878774762,-0.00764183327555656,0.00632156897336245,-0.0119295502081513,0.0321428999304771,0.00437069637700915
159,0.00575931463390589,-0.0134138567373157,0.000514367129653692,-0.0176654420793056,0.0303547754883766,-0.000270111806457862
160,0.00264161010272801,-0.0122985383495688,-0.00111472641583532,-0.018284734338522,0.0301462672650814,-0.000576436927076429
161,0.00453310506418347,-0.00501091638579965,0.00167645909823477,-0.0133668184280396,0.0305199343711138,0.00346818892285228
162,0.00678677903488278,0.000725446618162096,0.00300702778622508,-0.00896655675023794,0.0287968032062054,0.00556733459234238
163,0.00581749016419053,0.000523070630151778,-2.42027235799469E-05,-0.00884445570409298,0.0245301946997643,0.00230472418479621
164,0.00408473005518317,-0.00109453999903053,-0.00253989733755589,-0.00860415119677782,0.0199057497084141,-0.00103786529507488
165,0.00356207904405892,-0.000641589693259448,-0.00185329653322697,-0.00552012864500284,0.0159526467323303,-0.000906080065760762
166,0.00198844471015036,-0.00128177192527801,-0.00212541781365871,-0.00435649836435914,0.0121404156088829,-0.00147797423414886
167,-0.00108343176543713,-0.00433447305113077,-0.00506154168397188,-0.00757064390927553,0.00903684087097645,-0.00468957796692848
168,-0.00262120901606977,-0.00615038722753525,-0.00707080774009228,-0.0115716550499201,0.00795262679457664,-0.00661968486383557
169,-0.00157064199447632,-0.00503389583900571,-0.006754154805094,-0.0140047762542963,0.00839922949671745,-0.00564845558255911
170,0.000616076169535518,-0.0026067909784615,-0.00511022005230188,-0.0146689005196095,0.00896370131522417,-0.00357441836968064
171,0.00226533133536577,-0.00110648386180401,-0.0027200561016798,-0.0141154546290636,0.00885793007910252,-0.00226295762695372
172,0.00172013638075441,-0.00200644182041287,-0.00136024900712073,-0.0145199606195092,0.00692703621461988,-0.00283937831409276
173,1.61084572027903E-05,-0.00181499985046685,-0.00144147174432874,-0.0159009024500847,0.00316687417216599,-0.00312625314109027
174,0.000422408455051482,0.00502611417323351,-0.000495841668453068,-0.0150760384276509,-0.000303806096781045,0.000636786338873208
175,0.00184364279266447,0.0139173977077007,0.000700364180374891,-0.0122544961050153,-0.00283001223579049,0.00654063606634736
176,0.000711859960574657,0.0152704995125532,-0.000974755559582263,-0.0106500508263707,-0.00457737827673554,0.0099234851077199
177,-0.00336217251606286,0.00802331883460283,-0.00607892964035273,-0.0117622325196862,-0.00429760431870818,0.00971620064228773
178,-0.00805211346596479,-0.00257492833770812,-0.0132267400622368,-0.0150325512513518,-0.0014381279470399,0.00761333201080561
179,-0.00984393246471882,-0.0105511248111725,-0.0189324617385864,-0.0168976448476315,0.00313763134181499,0.00774481194093823
180,-0.00766395125538111,-0.013043780811131,-0.0201886519789696,-0.013933839276433,0.00736197223886848,0.0128037901595235
181,-0.00470795249566436,-0.0129084745422006,-0.018250098451972,-0.008425023406744,0.00938164163380861,0.0192623343318701
182,-0.00384183204732835,-0.0136200524866581,-0.0158665459603071,-0.00465957075357437,0.0091582303866744,0.0225654896348715
183,-0.00572200352326036,-0.0160028114914894,-0.0152434231713414,-0.00421286607161164,0.00667106686159968,0.0217380952090025
184,-0.0102204447612166,-0.0199429225176573,-0.0177543517202139,-0.00699700508266687,0.00213823793455958,0.0178699102252722
185,-0.0152224283665419,-0.0238749645650387,-0.0218149498105049,-0.011214267462492,-0.00293605984188616,0.0134285287931561
186,-0.0174478273838758,-0.0252152029424906,-0.023880485445261,-0.0138325244188309,-0.00709761260077357,0.0112583469599485
187,-0.0167679395526648,-0.0242608655244112,-0.0231229942291975,-0.0140306400135159,-0.00981391314417124,0.0110379802063107
188,-0.0149660976603627,-0.0227369554340839,-0.0206324271857738,-0.0120102986693382,-0.0104736965149641,0.0118989003822207
189,-0.0133362160995603,-0.0214599762111902,-0.0176510456949472,-0.00833210814744234,-0.00931011233478785,0.0148361558094621
190,-0.0135611714795232,-0.0219475086778402,-0.0171407461166382,-0.00648833066225052,-0.00907980278134346,0.0182816423475742
191,-0.0155169358476996,-0.0240897238254547,-0.0200713556259871,-0.00855058804154396,-0.011199776083231,0.0193580035120249
192,-0.0168447718024254,-0.025148456916213,-0.0230960324406624,-0.0117856990545988,-0.0132692344486713,0.0179887339472771
193,-0.0155553324148059,-0.022417739033699,-0.0226769298315048,-0.0121816685423255,-0.0131800789386034,0.016793655231595
194,-0.011237284168601,-0.0153364967554808,-0.0184256266802549,-0.00833599828183651,-0.0116665028035641,0.0181520525366068
195,-0.00562088517472148,-0.00676652882248163,-0.0130427330732346,-0.00261544436216354,-0.0106397364288569,0.0210937857627869
196,-0.00144317408557981,-0.000975506147369742,-0.0100489119067788,0.00121713045518845,-0.0112217087298632,0.0225742775946856
197,0.000861015229020268,0.00105269649066031,-0.00971788447350264,0.00228807469829917,-0.0129041709005833,0.0222859177738428
198,0.00190701626706868,0.000267757743131369,-0.010372475720942,0.00134721654467285,-0.0149921299889684,0.0214422065764666
199,0.00165944057516754,-0.00217178068123758,-0.0110527724027634,-0.0014504911378026,-0.0169947985559702,0.0206915363669395
200,0.00119981414172798,-0.0033278688788414,-0.0102148735895753,-0.00504289846867323,-0.0177995413541794,0.0215952266007662
201,0.000890684605110437,-0.0021262695081532,-0.00778604904189706,-0.00905983429402113,-0.01755765452981,0.0238356478512287
202,-0.000954738294240087,-0.00145888782572001,-0.00692779012024403,-0.0152566852048039,-0.0180161036550999,0.0240753497928381
203,-0.00523397652432323,-0.00400352524593472,-0.0107257431373,-0.0249505508691072,-0.0198694616556168,0.020730072632432
204,-0.00950638111680746,-0.00757241388782859,-0.0170906707644463,-0.0352963767945766,-0.0219081398099661,0.0176652669906616
205,-0.0123208444565535,-0.00967926997691393,-0.0228995382785797,-0.0433291271328926,-0.0243934597820044,0.0176073387265205
206,-0.0145670399069786,-0.0106532955542207,-0.0277434047311544,-0.0486348830163479,-0.0281931068748236,0.019289743155241
207,-0.0149898836389184,-0.00974853802472353,-0.0296875517815351,-0.0498137846589088,-0.0306242536753416,0.0229156110435724
208,-0.0131343677639961,-0.00760098919272423,-0.0283728893846273,-0.047891553491354,-0.029874986037612,0.0273860078305006
209,-0.00961085502058268,-0.00488294567912817,-0.0252665393054485,-0.0450930744409561,-0.0273284129798412,0.0312492977827787
210,-0.00493954215198755,-0.00116064143367112,-0.0218382477760315,-0.0420436374843121,-0.0250940416008234,0.0347529612481594
211,-0.00158370693679899,0.00198692386038601,-0.0209656544029713,-0.040810402482748,-0.0258342362940311,0.0367036871612072
212,-0.00166728557087481,0.00255307927727699,-0.0235488601028919,-0.0435701869428158,-0.0306530855596066,0.0353449210524559
213,-0.00397605961188674,0.000687850522808731,-0.0266348253935575,-0.0488446801900864,-0.0368312709033489,0.0313383713364601
214,-0.0057660867460072,-0.00221146899275482,-0.027555126696825,-0.053436454385519,-0.0406398996710777,0.0272451005876064
215,-0.00529735302552581,-0.00493406504392624,-0.0263453461229801,-0.0558784157037735,-0.040931336581707,0.0249396506696939
216,-0.00276686809957027,-0.00736172404140234,-0.0247514173388481,-0.0568058714270592,-0.0389784052968025,0.0237452033907175
217,-0.00152318831533194,-0.0119617721065879,-0.0262307524681091,-0.0592618994414806,-0.037394966930151,0.0200744327157736
218,-0.00217710924334824,-0.0178152676671743,-0.0300841592252254,-0.0629617497324944,-0.036789782345295,0.0146879125386477
219,-0.00207600416615605,-0.0212618298828602,-0.0323608927428722,-0.0648065581917763,-0.0360144972801209,0.0116047421470284
220,-0.0012523444602266,-0.0224683508276939,-0.0329448953270912,-0.0651062056422234,-0.0359893217682838,0.0108466763049364
221,0.000583735411055386,-0.0218836832791567,-0.0315624587237835,-0.0640687942504883,-0.0373850017786026,0.0116513445973396
222,0.00334499659948051,-0.020464763045311,-0.0284028481692076,-0.062094908207655,-0.0397559851408005,0.0127257239073515
223,0.00437131570652127,-0.0210600346326828,-0.0271406173706055,-0.0616844743490219,-0.0434211939573288,0.0115021206438541
224,0.00245213508605957,-0.0242075193673372,-0.0299304071813822,-0.0638899058103561,-0.0480041764676571,0.00716363219544292
225,-0.000450315972557291,-0.0266699958592653,-0.035054687410593,-0.0672785118222237,-0.0522632524371147,0.00159482669550925
226,-0.00181521836202592,-0.0252460371702909,-0.0398574024438858,-0.070375494658947,-0.0556859076023102,-0.00317527540028095
227,-0.00147114018909633,-0.0206974763423204,-0.0435386970639229,-0.0733500123023987,-0.0587288774549961,-0.00738658895716071
228,-0.000157156333443709,-0.0152744604274631,-0.0458125583827496,-0.0759158134460449,-0.0616835914552212,-0.0105575621128082
229,0.00194429559633136,-0.00985347107052803,-0.0460587590932846,-0.0764345899224281,-0.0640235021710396,-0.0107508208602667
230,0.00421959953382611,-0.0049833320081234,-0.0449348315596581,-0.0743004456162453,-0.0651905611157417,-0.00806516595184803
231,0.00600054301321507,-0.00158486003056169,-0.0444320030510426,-0.0716577097773552,-0.0656048655509949,-0.00559734087437391
232,0.00683380244299769,-0.000742876320146024,-0.0472672507166862,-0.0726213306188583,-0.0672659650444984,-0.00776867056265473
233,0.00530298054218292,-0.00374923716299236,-0.0557790212333202,-0.080238863825798,-0.0729235112667084,-0.0172786805778742
234,0.00262301764450967,-0.00813291314989328,-0.0668405890464783,-0.0909076929092407,-0.082002766430378,-0.0295369923114777
235,0.0021015286911279,-0.00944454874843359,-0.0746463984251022,-0.0980672612786293,-0.0912122428417206,-0.0376316420733929
236,0.00327657000161707,-0.00801795907318592,-0.0789908990263939,-0.101167157292366,-0.0995589196681976,-0.0418991632759571
237,0.00534501438960433,-0.00494722370058298,-0.0811130777001381,-0.101591221988201,-0.106859445571899,-0.0441771075129509
238,0.00887022819370031,-0.000130862041260116,-0.0806509479880333,-0.0994930639863014,-0.111952342092991,-0.044255692511797
239,0.0111987302079797,0.00315057928673923,-0.0806298851966858,-0.0985441356897354,-0.115713700652123,-0.0453822687268257
240,0.0101673137396574,0.00301841483451426,-0.0840261280536652,-0.101813942193985,-0.120778106153011,-0.0498970076441765
241,0.00757352029904723,0.00238473014906049,-0.0892608016729355,-0.107129730284214,-0.128095969557762,-0.0550879575312138
242,0.0047445953823626,0.0016750383656472,-0.0952123552560806,-0.113013818860054,-0.136039793491364,-0.0604021511971951
243,0.00282667949795723,-0.000407446583267301,-0.101397462189198,-0.119236685335636,-0.141521766781807,-0.0668105036020279
244,0.00166194385383278,-0.00400616601109505,-0.10754718631506,-0.125247836112976,-0.144033342599869,-0.0736332833766937
245,-0.000748180027585477,-0.00879951287060976,-0.114638932049274,-0.130869328975677,-0.145861998200417,-0.079600065946579
246,-0.00224570906721056,-0.0109593346714973,-0.120201274752617,-0.133488923311234,-0.147108122706413,-0.0809143409132957
247,0.000509092409629375,-0.00740765174850822,-0.120947659015656,-0.131202951073647,-0.146806657314301,-0.0758076533675194
248,0.00612235022708774,-0.00050248036859557,-0.118083477020264,-0.125903606414795,-0.14561915397644,-0.0676400437951088
249,0.0102715035900474,0.00521399360150099,-0.115360669791698,-0.120970912277699,-0.145086094737053,-0.0606412552297115
250,0.011514563113451,0.00903556123375893,-0.113598793745041,-0.117130883038044,-0.146071121096611,-0.0551920533180237
251,0.0120116248726845,0.0136746298521757,-0.110719464719296,-0.112594895064831,-0.147812753915787,-0.0497406721115112
252,0.0111563671380281,0.0173497814685106,-0.108377195894718,-0.109700970351696,-0.149337649345398,-0.0478053763508797
253,0.00713679194450378,0.0165743697434664,-0.109194457530975,-0.11145494133234,-0.149867624044418,-0.0522687025368214
254,0.000810975267086178,0.0120607716962695,-0.112694770097733,-0.116988562047482,-0.149448975920677,-0.0602583438158035
255,-0.00551239820197225,0.00889286864548922,-0.117419496178627,-0.123752616345882,-0.149135202169418,-0.0674295946955681
256,-0.00926200672984123,0.0120851499959826,-0.120722487568855,-0.127936527132988,-0.148820534348488,-0.0703295022249222
257,-0.0103165460750461,0.0175689794123173,-0.121003597974777,-0.12809707224369,-0.14776137471199,-0.0695752575993538
258,-0.0104426490142941,0.0176090728491545,-0.119619213044643,-0.126181408762932,-0.145998567342758,-0.068578228354454
259,-0.00932818930596113,0.0135510545223951,-0.116777971386909,-0.122603930532932,-0.143430173397064,-0.0673308372497559
260,-0.0051222275942564,0.0120375668630004,-0.110184051096439,-0.115686058998108,-0.139178454875946,-0.0628994107246399
261,-0.000230717749218456,0.0126421488821507,-0.101641580462456,-0.107695870101452,-0.133379906415939,-0.0573097355663776
262,0.00108513899613172,0.0104994466528296,-0.096063606441021,-0.103081285953522,-0.126702204346657,-0.0552202463150024
263,0.000954478571657091,0.00736778508871794,-0.0925540924072266,-0.0998799055814743,-0.117437347769737,-0.0537273213267326
264,0.00202840496785939,0.00661924993619323,-0.089137464761734,-0.0948982983827591,-0.105406299233437,-0.0487229004502296
265,0.00125686498358846,0.00538393994793296,-0.0888144448399544,-0.0912391990423203,-0.095069944858551,-0.0440707802772522
266,-0.00193995411973447,0.00220440188422799,-0.0913337990641594,-0.0904929861426353,-0.0892136171460152,-0.0419092290103436
267,-0.00412121973931789,0.000578005739953369,-0.0920489057898521,-0.0893857553601265,-0.0868304222822189,-0.0379590801894665
268,-0.00553130265325308,0.000898566097021103,-0.0905397534370422,-0.0875376537442207,-0.0873295366764069,-0.0316595286130905
269,-0.00844852719455957,-6.11313516856171E-05,-0.0891920551657677,-0.0869944393634796,-0.0897828936576843,-0.0255768075585365
270,-0.0125211607664824,-0.00334542756900191,-0.0882398337125778,-0.0874868258833885,-0.0912341400980949,-0.0198467224836349
271,-0.0172025207430124,-0.00802507996559143,-0.088161513209343,-0.0886088982224464,-0.0902089029550552,-0.0158225502818823
272,-0.0214387699961662,-0.0123995216563344,-0.0889285802841187,-0.0901061296463013,-0.0877541452646255,-0.0154821453616023
273,-0.0231134667992592,-0.0148102063685656,-0.0888454541563988,-0.0911347046494484,-0.0853092968463898,-0.0194325745105743
274,-0.0209353864192963,-0.0138347698375583,-0.085855707526207,-0.0905900970101357,-0.0820696428418159,-0.0262676663696766
275,-0.0147531377151608,-0.00698937056586146,-0.0777760520577431,-0.0861165300011635,-0.0746070966124535,-0.0314113087952137
276,-0.00709809036925435,0.0055601978674531,-0.0660859271883965,-0.0773901119828224,-0.0625864416360855,-0.0325769335031509
277,-0.000709442247170955,0.0209015440195799,-0.0543667189776897,-0.0669978559017181,-0.0493325777351856,-0.0310917403548956
278,0.00243643647991121,0.03359429910779,-0.0456047058105469,-0.0592353045940399,-0.0385771654546261,-0.0297653283923864
279,0.00300902570597827,0.0380529016256332,-0.0399180203676224,-0.0556584149599075,-0.0323917828500271,-0.0285709369927645
280,0.00457348395138979,0.0348877944052219,-0.0342367477715015,-0.053186472505331,-0.0296192318201065,-0.0245842840522528
281,0.00609341589733958,0.0257167425006628,-0.0295393224805593,-0.0524542704224586,-0.0288005843758583,-0.0209379214793444
282,0.0078929839655757,0.0144962249323726,-0.0255887266248465,-0.053088154643774,-0.028270261362195,-0.0185877736657858
283,0.0144757768139243,0.00929553527384996,-0.0173210017383099,-0.0486746057868004,-0.0256292000412941,-0.0106838438659906
284,0.023083359003067,0.0108922217041254,-0.0053258272819221,-0.0379943214356899,-0.0210340898483992,0.0031520901247859
285,0.0263520330190659,0.0126399146392941,0.00391191896051168,-0.0278827399015427,-0.0168938897550106,0.0140827363356948
286,0.0223116930574179,0.00987376179546118,0.00611656531691551,-0.0246601589024067,-0.0145810656249523,0.0151097206398845
287,0.014243058860302,0.00334774004295468,0.00191632658243179,-0.0283214021474123,-0.0135872261598706,0.00795892532914877
288,0.00607651425525546,-0.00328767555765808,-0.00508501520380378,-0.0343419015407562,-0.0124510694295168,-0.000902769912499934
289,-0.000100922705314588,-0.00715463934466243,-0.010761228390038,-0.0381177067756653,-0.00997282657772303,-0.00701028993353248
290,-0.00422878703102469,-0.00762867648154497,-0.0128162829205394,-0.0372699536383152,-0.00684904586523771,-0.00849667470902205
291,-0.00671173073351383,-0.00639855349436402,-0.0117973852902651,-0.0331475809216499,-0.00466237030923367,-0.00532227754592896
292,-0.00697791762650013,-0.00469093210995197,-0.00847397465258837,-0.0280305165797472,-0.00362994172610343,0.00112885644193739
293,-0.00471521401777864,-0.00173042062669992,-0.00264734704978764,-0.0217100009322166,-0.00283822021447122,0.00911946408450603
294,-0.00180034746881574,0.00142397417221218,0.00405697152018547,-0.0147002879530191,-0.00173637666739523,0.0157838799059391
295,-0.000300547806546092,0.00278784520924091,0.0096480417996645,-0.00848432071506977,-2.30582827498438E-05,0.0191839355975389
296,0.000453675107564777,0.00385783286765218,0.0152593553066254,-0.00183363375253975,0.00315679982304573,0.0220086965709925
297,0.000891282339580357,0.00563195254653692,0.0213127881288528,0.00571247143670917,0.00696491356939077,0.0269437581300735
298,-0.000456828332971781,0.00568581838160753,0.0255095735192299,0.0116550978273153,0.00926862936466932,0.0331160686910152
299,-0.00207026861608028,0.00468809343874455,0.0289916768670082,0.0167078357189894,0.0110413581132889,0.0416423976421356
300,-0.00145847210660577,0.00525492988526821,0.0346202850341797,0.0231573171913624,0.0147087238729,0.0526042953133583
301,-0.000418201787397265,0.00582313211634755,0.0404381230473518,0.0284453723579645,0.0199565887451172,0.0601995438337326
302,-0.00125790468882769,0.00451292051002383,0.0433673821389675,0.0297643225640059,0.0245375987142324,0.0607834942638874
303,-0.00342585076577961,0.00186361139640212,0.0434580333530903,0.0284146722406149,0.027273615822196,0.056323379278183
304,-0.00451027927920222,-0.000465570949018002,0.0436699464917183,0.0278083048760891,0.0291366241872311,0.0510235130786896
305,-0.00413958448916674,-0.00232382002286613,0.0456036739051342,0.0287077724933624,0.0302287451922894,0.0465182587504387
306,-0.00617989432066679,-0.00656205182895064,0.0459363460540771,0.0272331237792969,0.0285261794924736,0.0395802035927773
307,-0.0108005506917834,-0.0114889210090041,0.0444916971027851,0.0233875755220652,0.0252499375492334,0.0313251540064812
308,-0.0119326068088412,-0.00902449619024992,0.047328345477581,0.0235051363706589,0.0255953073501587,0.0285902302712202
309,-0.00771124847233295,0.000701528915669769,0.0560908876359463,0.0295751187950373,0.0313399769365788,0.0320598818361759
310,-0.00325655587948859,0.00565679324790835,0.0646772757172585,0.0361331179738045,0.039187278598547,0.035771518945694
311,-0.0033632384147495,-0.00128996674902737,0.0668008401989937,0.0374303981661797,0.0457405894994736,0.0352824330329895
312,-0.00591357052326202,-0.0129200387746096,0.0646135583519936,0.0348596312105656,0.0515118613839149,0.0328722111880779
313,-0.00534349353983998,-0.0191297121345997,0.0655470043420792,0.0347345881164074,0.0584488995373249,0.0337309688329697
314,-0.00285900803282857,-0.0208031628280878,0.0692877247929573,0.03725615888834,0.0646376758813858,0.0360296070575714
315,-0.00242217420600355,-0.0225512534379959,0.0712902396917343,0.03899335116148,0.0680458843708038,0.0368113778531551
316,-0.00256136478856206,-0.0224817916750908,0.0729076564311981,0.0414390079677105,0.0702393352985382,0.0399856418371201
317,-0.00243448093533516,-0.0198982823640108,0.0748334676027298,0.0447944551706314,0.0710274428129196,0.0458440184593201
318,-0.00444186711683869,-0.0185354594141245,0.0739028826355934,0.0452785156667233,0.0680739432573318,0.0483954213559628
319,-0.00755264004692435,-0.018619641661644,0.0708525031805038,0.0429967641830444,0.0629130750894547,0.0471701622009277
320,-0.00808828976005316,-0.0170713905245066,0.0699563324451447,0.04220100492239,0.05963284522295,0.0474487692117691
321,-0.00626691291108727,-0.014497272670269,0.0721320137381554,0.0445092543959618,0.059163648635149,0.0502107255160809
322,-0.00330537464469671,-0.0121488785371184,0.076747253537178,0.0493531934916973,0.0607817061245441,0.0534183718264103
323,0.00167705211788416,-0.0084388330578804,0.084015853703022,0.056701198220253,0.0645632520318031,0.0570320300757885
324,0.00573524134233594,-0.00585788721218705,0.0899189934134483,0.0632486864924431,0.0692214965820313,0.0586186535656452
325,0.00405448442324996,-0.00969944335520267,0.0893458127975464,0.064056821167469,0.0732660889625549,0.0540330186486244
326,-0.00281453691422939,-0.0194911863654852,0.0833135321736336,0.0591799914836884,0.0771865472197533,0.0449076406657696
327,-0.0100049069151282,-0.0289970319718122,0.0770477801561356,0.0533074364066124,0.0818012580275536,0.0381914637982845
328,-0.0145670985803008,-0.0337752401828766,0.0731054991483688,0.0498715490102768,0.0860848501324654,0.0375338792800903
329,-0.0164658483117819,-0.033857699483633,0.0711003988981247,0.0492937192320824,0.0881845653057098,0.0413770191371441
330,-0.0152363460510969,-0.0301123205572367,0.0722886547446251,0.0517528466880322,0.0879367664456367,0.0476590879261494
331,-0.0124294124543667,-0.0259110424667597,0.0757097825407982,0.0551865473389626,0.0861664488911629,0.0522661618888378
332,-0.0131176272407174,-0.0276560503989458,0.0751727744936943,0.0541888736188412,0.0821666643023491,0.0491139367222786
333,-0.0188912823796272,-0.0358644612133503,0.068141832947731,0.0482246279716492,0.0749574080109596,0.0393776595592499
334,-0.0258257240056992,-0.0450637117028236,0.0589216612279415,0.0423204228281975,0.0667519643902779,0.0298920888453722
335,-0.0294495541602373,-0.0510640777647495,0.0527428388595581,0.0396024659276009,0.0623237192630768,0.0244817286729813
336,-0.0268534142524004,-0.0500905327498913,0.0539003387093544,0.042115468531847,0.0638539865612984,0.0262098051607609
337,-0.0190732572227716,-0.0416521467268467,0.0624788738787174,0.0501632578670979,0.0687251463532448,0.035926029086113
338,-0.011830753646791,-0.0324158854782581,0.07151248306036,0.0587743930518627,0.072769396007061,0.0477861911058426
339,-0.00930850766599178,-0.0283631701022387,0.0747558698058128,0.0630623996257782,0.0736690908670425,0.0556949116289616
340,-0.0093398941680789,-0.027722155675292,0.0745592564344406,0.0646851360797882,0.0727749019861221,0.0602618828415871
341,-0.00869372300803661,-0.0264593157917261,0.0761130675673485,0.0676371455192566,0.0726116299629211,0.0648474767804146
342,-0.00734887411817908,-0.0238497834652662,0.0801258161664009,0.072394073009491,0.073696032166481,0.0702982172369957
343,-0.0061021470464766,-0.0208914838731289,0.0842479020357132,0.0770539864897728,0.0753698498010635,0.0749587640166283
344,-0.00692499987781048,-0.0206342320889235,0.084662489593029,0.0780239105224609,0.0765287652611732,0.074350968003273
345,-0.00956859719008207,-0.0232344027608633,0.0817339569330215,0.075225368142128,0.0776647850871086,0.0684821680188179
346,-0.00923588778823614,-0.0223247054964304,0.0822663456201553,0.0749234408140183,0.0810586735606194,0.0658153891563416
347,-0.00617021881043911,-0.0166200213134289,0.0868551060557365,0.0781407281756401,0.0857292413711548,0.0686910971999168
348,-0.00640121474862099,-0.0113717233762145,0.0879925861954689,0.078866571187973,0.0880781039595604,0.070190854370594
349,-0.0116339698433876,-0.00937282387167215,0.0826750546693802,0.0749659389257431,0.0876143649220467,0.0673075392842293
350,-0.016664657741785,-0.00973351672291756,0.0762160420417786,0.0709652304649353,0.0878804922103882,0.0649685561656952
351,-0.0170427933335304,-0.0104795256629586,0.0737461596727371,0.070613332092762,0.0907524153590202,0.0668215304613113
352,-0.0162627268582582,-0.0128865735605359,0.071938768029213,0.0701639205217361,0.0918885469436646,0.0680337697267532
353,-0.0184267610311508,-0.018144354224205,0.0661718472838402,0.0652560070157051,0.0873898789286613,0.0640826374292374
354,-0.0212026536464691,-0.0231800973415375,0.0587886832654476,0.058177787810564,0.0797893851995468,0.0576087236404419
355,-0.0199179369956255,-0.0232829768210649,0.0559232085943222,0.055108804255724,0.0741568431258202,0.0546047426760197
356,-0.013496776111424,-0.0173165425658226,0.0605488829314709,0.059240635484457,0.0731973573565483,0.0570511370897293
357,-0.00516248727217317,-0.00999236945062876,0.0693506523966789,0.0668794214725494,0.0770291164517403,0.0603883825242519
358,0.00197590584866703,-0.00594150880351663,0.0775026828050613,0.0725623369216919,0.0842711478471756,0.0606248266994953
359,0.00656678341329098,-0.00540894689038396,0.0826530233025551,0.0743861496448517,0.0918147712945938,0.0580494366586208
360,0.00842714216560125,-0.0067058545537293,0.0837977975606918,0.0736596435308456,0.09618279337883,0.0545541308820248
361,0.00892903376370668,-0.00821323413401842,0.0816256031394005,0.0732976570725441,0.0964490249752998,0.0522762089967728
362,0.0102303456515074,-0.0082869054749608,0.079243928194046,0.0752620398998261,0.0950204282999039,0.0526697672903538
363,0.0105081181973219,-0.00952768884599209,0.0756327882409096,0.0754798576235771,0.0931254103779793,0.0517726019024849
364,0.00758062116801739,-0.0142061784863472,0.0684678629040718,0.0702450126409531,0.0905662551522255,0.0464695133268833
365,0.00471259700134397,-0.0179788004606962,0.061980165541172,0.0641006678342819,0.0886686518788338,0.041368193924427
366,0.00406240951269865,-0.0185579303652048,0.0595251210033894,0.0617309659719467,0.0878892242908478,0.0393081121146679
367,0.00543178711086512,-0.0163379479199648,0.0609621629118919,0.064209446310997,0.0877155587077141,0.0401219427585602
368,0.00861812569200993,-0.0108120022341609,0.0651396661996841,0.0703896731138229,0.0873925015330315,0.0436257235705853
369,0.0107292886823416,-0.00542394863441586,0.0671730935573578,0.0749136954545975,0.0847445353865623,0.0453726202249527
370,0.0107681239023805,-0.00293611898086965,0.0649225190281868,0.0745698437094688,0.0795911550521851,0.0433495864272118
371,0.0115154413506389,-0.00160214281640947,0.0622583888471127,0.0718250870704651,0.0750696957111359,0.0416266694664955
372,0.0127124022692442,-0.00187556014861912,0.0600646287202835,0.0676263496279716,0.0723575353622437,0.040929589420557
373,0.012585642747581,-0.0043918895535171,0.0571040883660316,0.0622964687645435,0.0701179206371307,0.0398753955960274
374,0.0126283606514335,-0.00533118192106485,0.0562923066318035,0.0599838681519032,0.0684590339660645,0.0408571437001228
375,0.0147189674898982,-0.0017536801751703,0.0597959533333778,0.0629590004682541,0.0682545527815819,0.0459639467298985
376,0.0182358734309673,0.00476720789447427,0.0647818148136139,0.0680986568331718,0.0688720867037773,0.053783755749464
377,0.0212126690894365,0.0111452620476484,0.067639097571373,0.0720045045018196,0.0690848603844643,0.0611954592168331
378,0.0222120191901922,0.0153736993670464,0.0671624094247818,0.0734953209757805,0.0681935772299767,0.0653893351554871
379,0.0212893765419722,0.0169721301645041,0.0643867626786232,0.0724015459418297,0.0659239366650581,0.0656837373971939
380,0.0198880508542061,0.0172826200723648,0.0619867108762264,0.070421427488327,0.0629974454641342,0.064370185136795
381,0.0197262447327375,0.0182472765445709,0.0622926652431488,0.0702070221304893,0.0608426183462143,0.0642224848270416
382,0.0209250003099442,0.019398583099246,0.0644920617341995,0.0710456967353821,0.0596973486244679,0.0643965899944305
383,0.0226950962096453,0.0196949690580368,0.0667062327265739,0.0707929208874702,0.0590488202869892,0.0630568042397499
384,0.0250936727970839,0.0200611911714077,0.0691341534256935,0.0703183934092522,0.0590705089271069,0.061223279684782
385,0.0274981949478388,0.0202139914035797,0.0715313777327538,0.070072166621685,0.0595038235187531,0.0591958276927471
386,0.0298116970807314,0.0202686656266451,0.0737695246934891,0.069936715066433,0.0601895339787006,0.0573538541793823
387,0.0346561148762703,0.0235858894884586,0.0780715346336365,0.072601243853569,0.0625126659870148,0.0591141358017921
388,0.042957179248333,0.0311247929930687,0.0847696587443352,0.0789411142468452,0.0671378076076508,0.0653470680117607
389,0.0531310886144638,0.0409201942384243,0.0924604311585426,0.0871841013431549,0.0736000910401344,0.0740940272808075
390,0.0617032572627068,0.0489353202283382,0.0980995669960976,0.0939348191022873,0.0798801407217979,0.0814771354198456
391,0.0635719373822212,0.0491014495491982,0.0963390842080116,0.0934240221977234,0.0822748914361,0.0809726491570473
392,0.0611598901450634,0.0442642793059349,0.0905759185552597,0.0876616388559341,0.0818483456969261,0.0746758729219437
393,0.0609440207481384,0.0419834665954113,0.0888250470161438,0.0840766280889511,0.0828154161572456,0.0700301378965378
394,0.0636326596140862,0.0429652892053127,0.0915060937404633,0.0841342955827713,0.0857195556163788,0.0685009509325027
395,0.0670867636799812,0.0449444800615311,0.0952324718236923,0.0859571918845177,0.0890228748321533,0.0684688985347748
396,0.0684688463807106,0.0449322983622551,0.0959752947092056,0.086585633456707,0.0911814942955971,0.0667572692036629
397,0.0672065615653992,0.0423280820250511,0.0929189845919609,0.0847868397831917,0.0915921106934547,0.0627308785915375
398,0.0661452189087868,0.0402995236217976,0.0895650759339333,0.082954429090023,0.0906567871570587,0.059578288346529
399,0.0681861788034439,0.0417876392602921,0.0893373191356659,0.0841921269893646,0.0894418284296989,0.0599506199359894
400,0.0732730627059937,0.0467166379094124,0.0924647524952888,0.0889266356825829,0.0884480550885201,0.0636356845498085
401,0.0777950435876846,0.0511353984475136,0.0951000228524208,0.0932185351848602,0.0864110440015793,0.0668714940547943
402,0.0786754786968231,0.0510162562131882,0.0932482928037643,0.0929799005389214,0.0823593810200691,0.0656917169690132
403,0.0754814893007278,0.0475015826523304,0.0861815139651299,0.0882051438093185,0.075858898460865,0.0596911236643791
404,0.071194052696228,0.0470582395792007,0.0781932100653648,0.0835129022598267,0.0682973861694336,0.0540266185998917
405,0.0700598955154419,0.0515149533748627,0.0746688693761826,0.0830110237002373,0.0640078037977219,0.0541800819337368
406,0.0717137455940247,0.0542755946516991,0.074927993118763,0.0848386511206627,0.0646150261163712,0.05849614366889
407,0.0728151202201843,0.0518128648400307,0.0750880911946297,0.0857523307204247,0.0660234838724136,0.0619693100452423
408,0.0729381814599037,0.0481461174786091,0.0748969987034798,0.0863369777798653,0.0647144317626953,0.0634696558117867
409,0.0732318535447121,0.0464608855545521,0.0756044089794159,0.0874786749482155,0.0607840307056904,0.0640279054641724
410,0.0734482407569885,0.0456223636865616,0.0762003660202026,0.0881872028112412,0.0552870444953442,0.0636496692895889
411,0.0744749903678894,0.0458843149244785,0.0771047174930573,0.0894902050495148,0.0501932725310326,0.0641724914312363
412,0.0781634077429771,0.0493075102567673,0.0806122720241547,0.0939264670014381,0.04743941873312,0.0681561008095741
413,0.0827624276280403,0.0541498623788357,0.0853926613926888,0.0999862477183342,0.0468988940119743,0.0730430483818054
414,0.0835882648825645,0.0552116855978966,0.0862501338124275,0.101711206138134,0.0469424203038216,0.0723866671323776
415,0.0791900604963303,0.0502356663346291,0.0808220207691193,0.0960587337613106,0.0471381731331348,0.0641092658042908
416,0.0756520852446556,0.0456649474799633,0.0755099281668663,0.0897689461708069,0.0498390421271324,0.0562444292008877
417,0.0778993144631386,0.0475480444729328,0.0759713426232338,0.0898834466934204,0.0554364398121834,0.0560152754187584
418,0.0816927552223206,0.0512652099132538,0.0778865590691566,0.0929276272654533,0.060138039290905,0.0588490031659603
419,0.0820032432675362,0.0504803583025932,0.0760804191231728,0.0928766280412674,0.0612332038581371,0.0575724244117737
420,0.0785814672708511,0.0444707609713078,0.0701707750558853,0.0885390490293503,0.0589961335062981,0.050504881888628
421,0.074913278222084,0.0377668738365173,0.0634287297725677,0.0834135785698891,0.0555066764354706,0.042158730328083
422,0.0747098550200462,0.035818487405777,0.0601330883800983,0.0819789320230484,0.0531439706683159,0.0392269678413868
423,0.0772968977689743,0.0385647974908352,0.060871385037899,0.0845697894692421,0.0530027113854885,0.042440801858902
424,0.0784385651350021,0.041100051254034,0.0615801364183426,0.0868111550807953,0.05425626039505,0.0451379269361496
425,0.0762529000639915,0.0410992950201035,0.0595526061952114,0.0859425887465477,0.0553600639104843,0.0434332303702831
426,0.0735884755849838,0.041177935898304,0.0574183613061905,0.0844014957547188,0.0566757991909981,0.0411701574921608
427,0.0722212940454483,0.0419576428830624,0.0564919039607048,0.0831388831138611,0.0593984164297581,0.0404328070580959
428,0.0719177722930908,0.042338952422142,0.0559583269059658,0.0816382989287376,0.0633094534277916,0.0404078401625156
429,0.0723749399185181,0.0421787649393082,0.0556241311132908,0.0806648507714272,0.0662471130490303,0.0406306684017181
430,0.0739172324538231,0.0423495136201382,0.055979035794735,0.0809943005442619,0.0664038807153702,0.0413884297013283
431,0.0774837359786034,0.0446743480861187,0.0584602281451225,0.0830998569726944,0.0650954470038414,0.0440798252820969
432,0.0811071321368217,0.0478515215218067,0.0613465346395969,0.0847741663455963,0.0644940063357353,0.0471032969653606
433,0.0827443823218346,0.0502946600317955,0.0621417835354805,0.0845502093434334,0.0652430728077888,0.0487726703286171
434,0.0833926424384117,0.0533983968198299,0.0617764815688133,0.0847617387771606,0.0664416551589966,0.0508749447762966
435,0.082896463572979,0.0561433620750904,0.0602715611457825,0.0854449197649956,0.0659545287489891,0.0534821785986423
436,0.0818498209118843,0.0578634366393089,0.058349497616291,0.0856644511222839,0.0636506751179695,0.0571068450808525
437,0.082920104265213,0.0610434152185917,0.0591541565954685,0.087081253528595,0.0622417069971561,0.0635917037725449
438,0.0845435932278633,0.0640628039836884,0.0611143410205841,0.0879369825124741,0.0622260086238384,0.0685021951794624
439,0.0846247300505638,0.0653053745627403,0.0618608519434929,0.086631752550602,0.0622385144233704,0.0682522654533386
440,0.0838036611676216,0.0661255493760109,0.0621825903654099,0.084929883480072,0.0617069862782955,0.0648546516895294
441,0.0812551826238632,0.0650144964456558,0.0610912479460239,0.0820203572511673,0.0600666366517544,0.0586220398545265
442,0.0767867490649223,0.0602729953825474,0.057624626904726,0.0762802585959435,0.057422298938036,0.0493259988725185
443,0.0725865066051483,0.0536071322858334,0.053161159157753,0.0689269825816154,0.0544879324734211,0.0394092947244644
444,0.071639783680439,0.0495320782065392,0.0511159859597683,0.0640488266944885,0.0524924471974373,0.0337567776441574
445,0.0751626119017601,0.0511558316648006,0.0539873093366623,0.0648518577218056,0.0522533655166626,0.035280380398035
446,0.0792790129780769,0.0553542263805866,0.0583908036351204,0.0684145241975784,0.0516924038529396,0.0400352329015732
447,0.0787241831421852,0.0566668435931206,0.0588243529200554,0.0690536051988602,0.0482628457248211,0.041818980127573
448,0.0742024332284927,0.0548485331237316,0.0560444183647633,0.0664153844118118,0.0433018542826176,0.0401837415993214
449,0.0706437155604362,0.0536636002361774,0.054872140288353,0.0643991306424141,0.0403030551970005,0.0391708128154278
450,0.070288397371769,0.0543689541518688,0.0562401600182056,0.0642921403050423,0.0409965850412846,0.0404524207115173
451,0.0711985379457474,0.055002249777317,0.0573813170194626,0.0638388842344284,0.0442857965826988,0.0422766730189323
452,0.0709610730409622,0.054474726319313,0.0566508546471596,0.0612771175801754,0.0470862723886967,0.0428348369896412
453,0.0681848004460335,0.05241908878088,0.0534071549773216,0.056348692625761,0.0461504869163036,0.0404420718550682
454,0.0624484792351723,0.0479324348270893,0.0471950769424438,0.0496278554201126,0.0406238436698914,0.0336336456239223
455,0.0564810894429684,0.042626578360796,0.0405578278005123,0.0437628328800201,0.0337017960846424,0.0248311012983322
456,0.0543720908463001,0.0403475388884544,0.037780873477459,0.0419339127838612,0.0292135644704103,0.0193592011928558
457,0.0574329905211926,0.0430740676820278,0.0406091921031475,0.0455265454947948,0.0283323582261801,0.0200975835323334
458,0.0622927434742451,0.0480859763920307,0.0458471812307835,0.0522496029734612,0.0299234315752983,0.0244560055434704
459,0.0621188096702099,0.0483075082302094,0.0460345782339573,0.0550000220537186,0.0304446909576654,0.0250667463988066
460,0.0555938445031643,0.0419718027114868,0.0392400063574314,0.0509884282946587,0.028454115614295,0.0198626797646284
461,0.0501045696437359,0.0382506176829338,0.033454205840826,0.0473616644740105,0.0274523161351681,0.0166814643889666
462,0.0495719723403454,0.0434879846870899,0.0334349274635315,0.0490094386041164,0.0299876667559147,0.0199222769588232
463,0.0507427714765072,0.0519704185426235,0.0360209159553051,0.0529215484857559,0.0356644876301289,0.0262885745614767
464,0.0509854815900326,0.0558131821453571,0.0381108745932579,0.0554901696741581,0.0431028231978416,0.0324496738612652
465,0.0487485826015472,0.0528983511030674,0.0375062450766563,0.0542884394526482,0.0495122708380222,0.0352835580706596
466,0.0441085286438465,0.0463410578668118,0.0338032804429531,0.0491005331277847,0.0526331849396229,0.0337927974760532
467,0.0392443835735321,0.0399003699421883,0.0289988629519939,0.0425429977476597,0.0521450936794281,0.0301381200551987
468,0.0344362892210484,0.0333169624209404,0.0233708061277866,0.0356861911714077,0.0488343276083469,0.0244595408439636
469,0.0308162048459053,0.0270215813070536,0.0184172354638577,0.0296714045107365,0.0453032925724983,0.0179047882556915
470,0.0308888964354992,0.0241522304713726,0.0176129639148712,0.0275267940014601,0.0440160743892193,0.0142637426033616
471,0.0334035828709602,0.0246953498572111,0.0202472098171711,0.0296996161341667,0.0441052094101906,0.013658001087606
472,0.0354540050029755,0.026168592274189,0.0229429509490728,0.0335085913538933,0.0430462434887886,0.0133017534390092
473,0.0367872603237629,0.0280110780149698,0.0247269738465548,0.0368218161165714,0.0400076545774937,0.0127505194395781
474,0.0373472757637501,0.0295183826237917,0.0251401476562023,0.0380403846502304,0.0356092378497124,0.0120198186486959
475,0.033859234303236,0.0260492023080587,0.0206857714802027,0.033696573227644,0.0294193848967552,0.00731976749375463
476,0.0255143269896507,0.016373323276639,0.0107315257191658,0.0235546454787254,0.0215841885656118,-0.00199336977675557
477,0.0191686302423477,0.00918034743517637,0.00317135034129024,0.0156592447310686,0.015396811068058,-0.00739662023261189
478,0.0186163689941168,0.00915616098791361,0.00280879880301654,0.015173802152276,0.0124981077387929,-0.00498029310256243
479,0.0189034342765808,0.00980433076620102,0.00432998593896627,0.0168596729636192,0.0106954695656896,-0.00167634745594114
480,0.0176814943552017,0.00788565631955862,0.00419605104252696,0.0162392221391201,0.00921065639704466,-0.00109005288686603
481,0.0179795250296593,0.0077006621286273,0.00491940183565021,0.015526968985796,0.00891811680048704,2.19035136979073E-05
482,0.022050691768527,0.0133137218654156,0.00943289604038,0.0188360475003719,0.0102526796981692,0.00526674557477236
483,0.028541624546051,0.0236821006983519,0.0172974150627851,0.0269566960632801,0.012795994989574,0.0145751517266035
484,0.033902183175087,0.0341490209102631,0.0253249481320381,0.0365970134735107,0.0157598089426756,0.0243797414004803
485,0.0357117131352425,0.040921788662672,0.0311204399913549,0.0439732894301414,0.0190273653715849,0.0312621332705021
486,0.0323917753994465,0.0411510393023491,0.0318619683384895,0.0456241257488728,0.0209510996937752,0.0318445675075054
487,0.0260181706398726,0.0365307219326496,0.0280351880937815,0.0422560796141624,0.0204980634152889,0.0271695107221603
488,0.0216578673571348,0.0322251543402672,0.0242086164653301,0.0385503247380257,0.019199151545763,0.0224896110594273
489,0.0200619604438543,0.0291427690535784,0.0211480930447578,0.0356536582112312,0.0172943808138371,0.0185487866401672
490,0.0187685508280993,0.0265042074024677,0.0180396381765604,0.0327693969011307,0.0138198444619775,0.0138555970042944
491,0.0154748344793916,0.0238518621772528,0.0146099785342813,0.029236787930131,0.00835770089179277,0.0075612859800458
492,0.0094328336417675,0.0199518911540508,0.00983530655503273,0.0240899752825499,0.00183831749018282,-0.000798184133600444
493,0.00252703833393753,0.0149288224056363,0.00424720300361514,0.0184533819556236,-0.00385055714286864,-0.00943478010594845
494,-0.00373453134670854,0.00918032601475716,-0.00149640103336424,0.0133320521563292,-0.00839597824960947,-0.017090879380703
495,-0.00816100649535656,0.00418881233781576,-0.00597851444035769,0.00954285915941,-0.0120247853919864,-0.0219715069979429
496,-0.0101939681917429,0.00139393168501556,-0.00825826451182365,0.00766982464119792,-0.0144736729562283,-0.0227373875677586
497,-0.0102532263845205,0.000622640422079712,-0.00912541709840298,0.00683537777513266,-0.0155027881264687,-0.0211772173643112
498,-0.00788529124110937,0.00216933339834213,-0.00784829072654247,0.00710857473313808,-0.014423344284296,-0.0185360554605722
499,-0.0033808290027082,0.00552401086315513,-0.00430234521627426,0.00844421144574881,-0.0114372903481126,-0.0156080480664968
500,0.0030504921451211,0.0100514022633433,0.000118344265501946,0.0106472596526146,-0.00792750250548124,-0.0128876501694322
501,0.00986476521939039,0.0138125298544765,0.002285250229761,0.0122215431183577,-0.00581719866022468,-0.0118764424696565
502,0.013427029363811,0.0130734229460359,-0.00103471637703478,0.00984231941401958,-0.00633133947849274,-0.0154822003096342
503,0.0129554560407996,0.00763799482956529,-0.00800393894314766,0.00369262229651213,-0.0081876004114747,-0.0232022572308779
504,0.0107957040891051,0.00151138531509787,-0.013391001150012,-0.00177687685936689,-0.00848131533712149,-0.0308746863156557
505,0.00798966642469168,-0.00313355820253491,-0.0158472284674644,-0.00423150509595871,-0.00611677812412381,-0.0360388793051243
506,0.00444704946130514,-0.00690813409164548,-0.0182462241500616,-0.00529606733471155,-0.00259720883332193,-0.0385300293564796
507,0.00233433838002384,-0.00847185589373112,-0.0205721743404865,-0.00505297444760799,0.00059507746482268,-0.0372841134667397
508,0.00382532738149166,-0.00590139208361506,-0.0198356769979,-0.0017995621310547,0.00301438895985484,-0.0323531664907932
509,0.00750502618029714,-0.0008606425835751,-0.0155350584536791,0.00327999680303037,0.005091508384794,-0.0270780306309462
510,0.0107683651149273,0.00328402244485915,-0.00977435428649187,0.00726393051445484,0.00752096390351653,-0.0244010165333748
511,0.0132070602849126,0.00602855160832405,-0.00455423537641764,0.00947148073464632,0.0100300153717399,-0.0237201638519764
512,0.0147460578009486,0.00809307023882866,-0.00196776655502617,0.0102479206398129,0.0113516934216022,-0.0244989637285471
513,0.0137000707909465,0.00764157576486468,-0.00419945595785975,0.00866756960749626,0.0098139327019453,-0.0286344774067402
514,0.0100200464949012,0.00376541004516184,-0.00994386430829763,0.0051533249206841,0.00488394033163786,-0.035773154348135
515,0.00690571824088693,-0.000182544594281353,-0.0141707267612219,0.00292592775076628,-0.001441017142497,-0.0410947948694229
516,0.00570185715332627,-0.00202236976474524,-0.0152208982035518,0.00297018606215715,-0.00770745519548655,-0.041957825422287
517,0.00471966806799173,-0.00251436396501958,-0.0154000818729401,0.00345956347882748,-0.0141232619062066,-0.0398996435105801
518,0.00466842064633965,0.0011368568520993,-0.0138027602806687,0.005675726570189,-0.0191883929073811,-0.03415647149086
519,0.00663163186982274,0.0114637659862638,-0.00918896123766899,0.0111316423863173,-0.0213033407926559,-0.0243693515658379
520,0.00816153921186924,0.022429833188653,-0.00450306385755539,0.0169709306210279,-0.0216587856411934,-0.0153180435299873
521,0.00645935721695423,0.0253179464489222,-0.00321667082607746,0.0196588095277548,-0.0224948450922966,-0.0115252314135432
522,0.00176414882298559,0.0193128492683172,-0.00588945299386978,0.0185835771262646,-0.024296635761857,-0.0118119781836867
523,-0.00468109687790275,0.008472572080791,-0.0115095656365156,0.0138661935925484,-0.0259009040892124,-0.0146085880696774
524,-0.0112621998414397,-0.00308391009457409,-0.0177850071340799,0.00683978060260415,-0.0258078146725893,-0.0201648641377687
525,-0.0135224843397737,-0.00900003686547279,-0.0192659012973309,0.0036441960837692,-0.0224679578095675,-0.0240396298468113
526,-0.0129253175109625,-0.0108599867671728,-0.0176233351230621,0.00418540555983782,-0.0181188974529505,-0.0266855601221323
527,-0.015440559014678,-0.0163320656865835,-0.0200814120471478,0.00153554335702211,-0.0168269332498312,-0.0338448211550713
528,-0.0188998579978943,-0.0232823863625526,-0.0244601611047983,-0.00332345580682158,-0.0180210135877132,-0.0421534143388271
529,-0.0182098262012005,-0.0252808276563883,-0.0249913297593594,-0.00499434117227793,-0.0191218480467796,-0.0451877526938915
530,-0.0134164048358798,-0.0216477513313293,-0.021741010248661,-0.00256271380931139,-0.0186737459152937,-0.0428960621356964
531,-0.0098182950168848,-0.0182102359831333,-0.0198713093996048,-0.00104934663977474,-0.0170048028230667,-0.0417308695614338
532,-0.0116187427192926,-0.0203533321619034,-0.0232018008828163,-0.00528522953391075,-0.0159595478326082,-0.046927198767662
533,-0.0157653279602528,-0.0249653775244951,-0.0283296201378107,-0.0118363834917545,-0.0164948310703039,-0.0535666160285473
534,-0.0183238387107849,-0.0267168581485748,-0.0308661498129368,-0.0149282654747367,-0.0185015052556992,-0.0543167628347874
535,-0.0190540067851543,-0.0248292349278927,-0.0303441807627678,-0.0135555639863014,-0.0215230025351048,-0.0485514774918556
536,-0.0191901605576277,-0.0215722732245922,-0.0283828787505627,-0.0101162027567625,-0.0256078988313675,-0.0409108251333237
537,-0.0210954807698727,-0.0208593793213367,-0.0284915808588266,-0.00915884505957365,-0.0313787423074245,-0.0375559218227863
538,-0.0248865857720375,-0.0232849139720201,-0.0314049310982227,-0.0119079751893878,-0.0379302874207497,-0.0391047075390816
539,-0.0274732820689678,-0.02478988468647,-0.0330154076218605,-0.0141521915793419,-0.0425025150179863,-0.040311511605978
540,-0.0274782292544842,-0.0234701354056597,-0.0314851626753807,-0.013820837251842,-0.0431346818804741,-0.0388099886476994
541,-0.0258087571710348,-0.0208404567092657,-0.0287782922387123,-0.012375745922327,-0.0401775501668453,-0.0359645858407021
542,-0.0234196670353413,-0.0182920191437006,-0.026362732052803,-0.0107259210199118,-0.0352183878421783,-0.0324689485132694
543,-0.0206503719091415,-0.0157951209694147,-0.0242275390774012,-0.00865078996866941,-0.0300370939075947,-0.0277907196432352
544,-0.0172963738441467,-0.0125563107430935,-0.0220101214945316,-0.0055699348449707,-0.0261164978146553,-0.0221024360507727
545,-0.0147925708442926,-0.0101463720202446,-0.0213055424392223,-0.00285116117447615,-0.0243670605123043,-0.0189671292901039
546,-0.0155478697270155,-0.0107479551807046,-0.0242883004248142,-0.00309310317970812,-0.0253914259374142,-0.0217588413506746
547,-0.0190610475838184,-0.0121613638475537,-0.0297698322683573,-0.00536697218194604,-0.0295762047171593,-0.0278615187853575
548,-0.022976491600275,-0.0116338934749365,-0.0352508425712585,-0.0071255941875279,-0.035809300839901,-0.0331839621067047
549,-0.0266929678618908,-0.0108765782788396,-0.0404978580772877,-0.00887620449066162,-0.0417043827474117,-0.0380375906825066
550,-0.030112162232399,-0.0118695041164756,-0.0452317334711552,-0.0108989514410496,-0.0458258204162121,-0.0426592752337456
551,-0.0327047444880009,-0.0146779306232929,-0.0483580194413662,-0.0123804332688451,-0.0479513220489025,-0.045676302164793
552,-0.0344021432101727,-0.0185728631913662,-0.049405250698328,-0.0134789198637009,-0.0479557812213898,-0.0468570962548256
553,-0.0342001281678677,-0.0208460502326488,-0.0472247265279293,-0.0130131971091032,-0.0454874560236931,-0.0453439354896545
554,-0.0322249159216881,-0.0206039883196354,-0.0427448712289333,-0.0110847521573305,-0.0413506962358952,-0.0420063957571983
555,-0.0310966353863478,-0.0207292530685663,-0.0401442982256413,-0.0108214346691966,-0.0383067280054092,-0.0410251021385193
556,-0.0326215997338295,-0.0233903247863054,-0.0422318987548351,-0.0141656426712871,-0.038720641285181,-0.0450550131499767
557,-0.0353626981377602,-0.0269411541521549,-0.0475581958889961,-0.0193403586745262,-0.0417975448071957,-0.0514825023710728
558,-0.0365462675690651,-0.0284914132207632,-0.052676435559988,-0.0229628998786211,-0.0453309789299965,-0.0558356679975986
559,-0.0358940400183201,-0.0279727503657341,-0.0562986806035042,-0.0242356341332197,-0.0483343973755836,-0.0577605962753296
560,-0.0346635319292545,-0.0254327319562435,-0.0580884926021099,-0.0235440339893103,-0.0500087216496468,-0.0584571771323681
561,-0.0336303822696209,-0.0196676198393106,-0.0574985928833485,-0.0209011435508728,-0.0496735312044621,-0.0576367489993572
562,-0.0334332771599293,-0.0133693236857653,-0.0558456964790821,-0.0180547516793013,-0.0482227802276611,-0.0557881034910679
563,-0.0339969471096992,-0.0112931653857231,-0.0543573908507824,-0.0165115632116795,-0.0472146607935429,-0.0532907098531723
564,-0.0339676216244698,-0.0129794906824827,-0.0522399358451366,-0.0149810034781694,-0.0469732619822025,-0.0491413287818432
565,-0.0336974151432514,-0.0169281475245953,-0.0507619082927704,-0.0140236280858517,-0.0476481057703495,-0.0455472841858864
566,-0.034889068454504,-0.0236686877906322,-0.0520751811563969,-0.0161131601780653,-0.0496706068515778,-0.0456516854465008
567,-0.0355788096785545,-0.0293140318244696,-0.0532176569104195,-0.0185311138629913,-0.0514810979366302,-0.0455596968531609
568,-0.0324453040957451,-0.0290633179247379,-0.0499835386872292,-0.0168099496513605,-0.0508941076695919,-0.0402516350150108
569,-0.0265000201761723,-0.024915836751461,-0.0436202138662338,-0.0122456178069115,-0.0482434295117855,-0.0321731567382813
570,-0.0219557881355286,-0.0224701799452305,-0.0389872938394547,-0.00965200178325176,-0.0455516576766968,-0.027469901368022
571,-0.0220380816608667,-0.0242800693958998,-0.0395727753639221,-0.011834685690701,-0.0448447540402412,-0.0287819597870111
572,-0.0268726702779531,-0.0293111428618431,-0.0458139590919018,-0.0182005278766155,-0.0475881509482861,-0.0340466797351837
573,-0.0327053815126419,-0.0341649278998375,-0.0540704503655434,-0.0251640733331442,-0.0530067086219788,-0.0390499420464039
574,-0.036008182913065,-0.0359675884246826,-0.0600172728300095,-0.0294717811048031,-0.0587218850851059,-0.0412809289991856
575,-0.036470890045166,-0.0341233983635902,-0.0621224865317345,-0.030007179826498,-0.06280667334795,-0.0404057279229164
576,-0.0350644253194332,-0.029067886993289,-0.0601128675043583,-0.0267691928893328,-0.0645744577050209,-0.036308616399765
577,-0.0349496640264988,-0.024950148537755,-0.0570970699191093,-0.0233384035527706,-0.0655707344412804,-0.0326736494898796
578,-0.0388790182769299,-0.0266777314245701,-0.0577662736177444,-0.0244817510247231,-0.0666815415024757,-0.0352366417646408
579,-0.0442237854003906,-0.0321535021066666,-0.0614624619483948,-0.0292813070118427,-0.0658859238028526,-0.042840514332056
580,-0.046713087707758,-0.0353531464934349,-0.0639552026987076,-0.0324898064136505,-0.0620532631874084,-0.0489022545516491
581,-0.0463421382009983,-0.0340291187167168,-0.0641554296016693,-0.0319354236125946,-0.0570436678826809,-0.0502807162702084
582,-0.0458489768207073,-0.0301839336752892,-0.0640295073390007,-0.0296778082847595,-0.0537459924817085,-0.0484436452388763
583,-0.0452437363564968,-0.0257252007722855,-0.0631948187947273,-0.0270008631050587,-0.0524733997881413,-0.0449558645486832
584,-0.0423081070184708,-0.0207862835377455,-0.0592286922037601,-0.0230013858526945,-0.0512614883482456,-0.0402607172727585
585,-0.0382949225604534,-0.0171133000403643,-0.0539832413196564,-0.0189931504428387,-0.0507968738675117,-0.0370874330401421
586,-0.0362481251358986,-0.0168881751596928,-0.051302582025528,-0.0180649999529123,-0.0527936220169067,-0.0385186783969402
587,-0.036621168255806,-0.0192953664809465,-0.0507576614618301,-0.0198146365582943,-0.0561510920524597,-0.0427134782075882
588,-0.038649071007967,-0.0223260316997766,-0.0504449941217899,-0.0216261018067598,-0.0591841898858547,-0.0460764095187187
589,-0.0406900569796562,-0.0232968237251043,-0.0497850924730301,-0.0217038094997406,-0.0612555481493473,-0.0470209009945393
590,-0.0413983426988125,-0.0211880784481764,-0.0491906590759754,-0.0201845169067383,-0.0621951930224895,-0.0452444665133953
591,-0.0423759520053864,-0.0196070149540901,-0.0503945164382458,-0.0196060035377741,-0.0623271837830544,-0.0421651788055897
592,-0.0462615713477135,-0.0231941696256399,-0.0554685555398464,-0.0228156913071871,-0.0622362419962883,-0.0420244820415974
593,-0.0522034987807274,-0.0313831232488155,-0.0637668073177338,-0.0297658611088991,-0.0616480857133865,-0.0472744293510914
594,-0.0545478537678719,-0.0364307090640068,-0.0688909664750099,-0.0347772836685181,-0.058591328561306,-0.0519290342926979
595,-0.0491377860307693,-0.0317670181393623,-0.0645041242241859,-0.0313163660466671,-0.0518848896026611,-0.0482422634959221
596,-0.0393246449530125,-0.0209627039730549,-0.0533484593033791,-0.0215632095932961,-0.0438893623650074,-0.0391562320291996
597,-0.0306990891695023,-0.0115962401032448,-0.0427332855761051,-0.0130170192569494,-0.0381147377192974,-0.0331872925162315
598,-0.0254518706351519,-0.00689593888819218,-0.036699190735817,-0.00934056658297777,-0.0367310866713524,-0.0336737558245659
599,-0.0238954331725836,-0.0071994443424046,-0.0361949913203716,-0.0105559267103672,-0.0399378575384617,-0.0393504127860069
600,-0.0253315251320601,-0.0116732362657785,-0.0400634221732616,-0.0151804536581039,-0.0457446537911892,-0.0470550395548344
601,-0.0291119739413261,-0.0193542558699846,-0.0466566793620586,-0.0217784903943539,-0.0517507158219814,-0.0545207150280476
602,-0.0338040627539158,-0.0282706543803215,-0.0532301068305969,-0.0288474950939417,-0.054998517036438,-0.0605957917869091
603,-0.0362269952893257,-0.0347607173025608,-0.0554390400648117,-0.0335240848362446,-0.0526192560791969,-0.0635774806141853
604,-0.0350437201559544,-0.0355414189398289,-0.0520788431167603,-0.0337979942560196,-0.0455120652914047,-0.0625834837555885
605,-0.0313582010567188,-0.0276996772736311,-0.0455380827188492,-0.0292306058108807,-0.0377287082374096,-0.0572070181369781
606,-0.0265954211354256,-0.0131254605948925,-0.0384840741753578,-0.0207940395921469,-0.032665342092514,-0.0473959110677242
607,-0.0232369899749756,-0.00118350598495454,-0.034378070384264,-0.0130189908668399,-0.0319807790219784,-0.0362215153872967
608,-0.0240140128880739,0.000973365327809006,-0.0358671508729458,-0.011060182005167,-0.0354069136083126,-0.0290059614926577
609,-0.0290005635470152,-0.00589625118300319,-0.0416261628270149,-0.0150856357067823,-0.0408603064715862,-0.0285920817404985
610,-0.0344748198986053,-0.0158621743321419,-0.0470612496137619,-0.0199403446167707,-0.0456798784434795,-0.0314815230667591
611,-0.0369227677583694,-0.0231390278786421,-0.0493535958230495,-0.0213185325264931,-0.0489378944039345,-0.0322216115891933
612,-0.0370246879756451,-0.0267085023224354,-0.0502698831260204,-0.0204201322048903,-0.0519069135189056,-0.0303655620664358
613,-0.0363905616104603,-0.027456983923912,-0.0510803386569023,-0.0196073241531849,-0.0542944446206093,-0.0278504509478807
614,-0.0339064225554466,-0.0247250385582447,-0.0492459610104561,-0.0184119362384081,-0.0526420176029205,-0.0247963219881058
615,-0.0286928955465555,-0.0184724945574999,-0.043010987341404,-0.0158072505146265,-0.0456989668309689,-0.020659301429987
616,-0.0246269199997187,-0.0128005472943187,-0.0371071733534336,-0.0143873533234,-0.0388369224965572,-0.0183094330132008
617,-0.025387255474925,-0.0117205725982785,-0.0366226248443127,-0.0170535519719124,-0.0370301678776741,-0.0213443860411644
618,-0.0301984250545502,-0.0150542799383402,-0.0405223704874516,-0.0228621158748865,-0.0393218025565147,-0.0290643349289894
619,-0.0360495634377003,-0.0198365151882172,-0.0446561239659786,-0.0287935137748718,-0.042686365544796,-0.0360562093555927
620,-0.0401433035731316,-0.0230078417807817,-0.0460055321455002,-0.0322548672556877,-0.0454476587474346,-0.0372977927327156
621,-0.0426521189510822,-0.0246491134166718,-0.0452432818710804,-0.0334747582674026,-0.0473661497235298,-0.0346762761473656
622,-0.0442976504564285,-0.0254850313067436,-0.0433472990989685,-0.0335164144635201,-0.0474394708871841,-0.0317239128053188
623,-0.0446758717298508,-0.0254372823983431,-0.0400760099291801,-0.0330347716808319,-0.0443913452327251,-0.0293983072042465
624,-0.0447550192475319,-0.0256515685468912,-0.0369957238435745,-0.033477921038866,-0.0395533330738544,-0.0289814583957195
625,-0.0466055534780025,-0.0282730162143707,-0.0373576506972313,-0.0363454185426235,-0.0363656878471375,-0.0319930762052536
626,-0.0492282919585705,-0.0320977158844471,-0.0406357012689114,-0.0399280712008476,-0.0361741632223129,-0.0362383797764778
627,-0.0480623506009579,-0.0322951450943947,-0.0411086119711399,-0.0390266068279743,-0.0363518446683884,-0.0357766412198544
628,-0.0429048240184784,-0.0290630757808685,-0.0368824414908886,-0.0331816785037518,-0.0350476987659931,-0.029296288266778
629,-0.0399304293096066,-0.0283119771629572,-0.0334804467856884,-0.0289444886147976,-0.0340347811579704,-0.0228923670947552
630,-0.0412668585777283,-0.0323230251669884,-0.0345396883785725,-0.0300795659422874,-0.0338064208626747,-0.0217036325484514
631,-0.0430089049041271,-0.0383504405617714,-0.0379517637193203,-0.0344843938946724,-0.0329497382044792,-0.0257446728646755
632,-0.0437548458576202,-0.0437261536717415,-0.0415874384343624,-0.0396396927535534,-0.0318569429218769,-0.0327617451548576
633,-0.0441886931657791,-0.0464536584913731,-0.0440437123179436,-0.0438808985054493,-0.0308200865983963,-0.0384862013161182
634,-0.0434626638889313,-0.0457213073968887,-0.0435847640037537,-0.0460738502442837,-0.0293036475777626,-0.0391904599964619
635,-0.0409450754523277,-0.0427838899195194,-0.039965208619833,-0.0460781082510948,-0.027847345918417,-0.0362321324646473
636,-0.0372486598789692,-0.039201445877552,-0.0345757864415646,-0.0445360653102398,-0.0271998327225447,-0.0334846004843712
637,-0.0324816852807999,-0.0349691174924374,-0.0279973708093166,-0.0411522276699543,-0.026236267760396,-0.0315448418259621
638,-0.0281612984836102,-0.0312894061207771,-0.0214894358068705,-0.0362034849822521,-0.0235089249908924,-0.0296596065163612
639,-0.027228930965066,-0.0302174389362335,-0.0176023803651333,-0.031880009919405,-0.0201398003846407,-0.0275373104959726
640,-0.0272489432245493,-0.0282190032303333,-0.0139823677018285,-0.0264966525137424,-0.0176402814686298,-0.0215639993548393
641,-0.0237303134053946,-0.0214727148413658,-0.00636355765163898,-0.0171379651874304,-0.0160243585705757,-0.0105083910748363
642,-0.0177496280521154,-0.0128007112070918,0.00346870673820376,-0.00670026708394289,-0.0154247470200062,-0.000244192488025874
643,-0.0132687874138355,-0.00563400890678167,0.00947330519556999,-0.000518690212629735,-0.0167882069945335,0.0034900838509202
644,-0.0116474339738488,0.0014017071807757,0.00906407833099365,0.000229343131650239,-0.0201264005154371,0.00178581848740578
645,-0.0119640063494444,0.00842833984643221,0.00483797304332256,-0.00168960238806903,-0.0244253650307655,-0.000560141517780721
646,-0.0138701749965549,0.010901115834713,-0.000206425102078356,-0.00401601195335388,-0.0289153624325991,-0.00148814171552658
647,-0.0176443494856358,0.00607001315802336,-0.0049382671713829,-0.00666020857170224,-0.0318671725690365,-0.00183255120646209
648,-0.0232575908303261,-0.00445379130542278,-0.00992362108081579,-0.0109765008091927,-0.0316338874399662,-0.00347797386348248
649,-0.0288660135120153,-0.0157355926930904,-0.0150163332000375,-0.0166459679603577,-0.0289306417107582,-0.00694730458781123
650,-0.0307967439293861,-0.0221586171537638,-0.0174376610666513,-0.0196878015995026,-0.0249939300119877,-0.00915878359228373
651,-0.0278373379260302,-0.0230616424232721,-0.015790918841958,-0.017838466912508,-0.0207888763397932,-0.00793805625289679
652,-0.0236404146999121,-0.0238460469990969,-0.0137588428333402,-0.0154721960425377,-0.0186120085418224,-0.00696543417870998
653,-0.02121009118855,-0.0280817057937384,-0.0142924627289176,-0.0164742637425661,-0.0197919961065054,-0.00915348809212446
654,-0.0195204392075539,-0.0328501388430595,-0.0155525617301464,-0.0188146196305752,-0.0224670879542828,-0.0121735548600554
655,-0.0173401795327663,-0.0345057994127274,-0.0157076083123684,-0.0200103763490915,-0.0244445502758026,-0.0145550761371851
656,-0.0160332750529051,-0.0342658199369907,-0.0160325951874256,-0.0215141214430332,-0.0251278504729271,-0.0188546758145094
657,-0.0168894175440073,-0.0350035764276981,-0.0177264995872974,-0.025162436068058,-0.0236105192452669,-0.0267146434634924
658,-0.0176576990634203,-0.0357627496123314,-0.0185124538838863,-0.0286246426403522,-0.0185137316584587,-0.034198846668005
659,-0.0155514888465405,-0.0342223793268204,-0.0162686761468649,-0.0290025938302279,-0.0109728286042809,-0.0363483466207981
660,-0.0106554329395294,-0.0309941060841084,-0.0127731245011091,-0.0267573781311512,-0.00461433827877045,-0.0329957865178585
661,-0.0045580817386508,-0.02783327922225,-0.010282619856298,-0.0232023522257805,-0.00171178497839719,-0.0269327387213707
662,-0.000914256263058633,-0.026691984385252,-0.0103925252333283,-0.0203185249119997,-0.00235711550340056,-0.0226280782371759
663,-0.00337573629803956,-0.0296750403940678,-0.0147607885301113,-0.0212226491421461,-0.00621702475473285,-0.0246330127120018
664,-0.00965120829641819,-0.0343749485909939,-0.0211018174886703,-0.0252765901386738,-0.0116231292486191,-0.0310263372957706
665,-0.0141395078971982,-0.0346887819468975,-0.0243510734289885,-0.0273452531546354,-0.0154327135533094,-0.0340529903769493
666,-0.0167716089636087,-0.0307051427662373,-0.0253536906093359,-0.0264630615711212,-0.0169728603214026,-0.030718145892024
667,-0.0210066325962543,-0.027968468144536,-0.0287350825965405,-0.0264427289366722,-0.0182158406823874,-0.0243499614298344
668,-0.0252174641937017,-0.0269330944865942,-0.0326438806951046,-0.0264972690492868,-0.0198575109243393,-0.0171112455427647
669,-0.0255612079054117,-0.0251966807991266,-0.0326357707381248,-0.0237691570073366,-0.0220086611807346,-0.011539057828486
670,-0.0224826298654079,-0.0235772654414177,-0.0295330099761486,-0.0193375684320927,-0.0255061220377684,-0.0116870440542698
671,-0.0187396481633186,-0.0230284780263901,-0.0255561340600252,-0.0149854300543666,-0.0293071195483208,-0.0172965303063393
672,-0.0167303718626499,-0.0233828388154507,-0.021703964099288,-0.0120672527700663,-0.0321950390934944,-0.0252914354205132
673,-0.0185915119946003,-0.0250037517398596,-0.0201471410691738,-0.0123041439801455,-0.0357426479458809,-0.0343286097049713
674,-0.023086104542017,-0.0246531125158072,-0.0209141597151756,-0.0143114579841495,-0.0402005314826965,-0.0416572540998459
675,-0.0277047604322433,-0.0194679610431194,-0.0229061748832464,-0.0160651300102472,-0.0446303300559521,-0.0452483780682087
676,-0.032035831362009,-0.0147241018712521,-0.0260755252093077,-0.0180714018642902,-0.0489175580441952,-0.0467333793640137
677,-0.0345312245190144,-0.0144140040501952,-0.0273433905094862,-0.0186965055763721,-0.0513244867324829,-0.0451240539550781
678,-0.0347930863499641,-0.0159443579614162,-0.0250416304916143,-0.0163006633520126,-0.0508649684488773,-0.0387303158640862
679,-0.0353583246469498,-0.0180400144308805,-0.0222149938344955,-0.0135697284713387,-0.0488484315574169,-0.0308229550719261
680,-0.0373845137655735,-0.0217081028968096,-0.0213490072637796,-0.0135424910113215,-0.0464166440069675,-0.0261460077017546
681,-0.0380587764084339,-0.0239641815423965,-0.0204468499869108,-0.0138379214331508,-0.0438359975814819,-0.023807255551219
682,-0.0356707386672497,-0.0219135135412216,-0.0175548288971186,-0.0108190281316638,-0.0420099832117558,-0.0208086594939232
683,-0.0335061959922314,-0.0187753830105066,-0.0152194136753678,-0.00621386896818876,-0.0421580001711845,-0.018503624945879
684,-0.0342634357511997,-0.0180653184652328,-0.0153054688125849,-0.00317747471854091,-0.0434553548693657,-0.0182651448994875
685,-0.0386403650045395,-0.0213926322758198,-0.0180841200053692,-0.00405989121645689,-0.0452524460852146,-0.0207241214811802
686,-0.0463135726749897,-0.0287519861012697,-0.0234528444707394,-0.00947897415608168,-0.0484055690467358,-0.0263112876564264
687,-0.0538470894098282,-0.0359523557126522,-0.0285193845629692,-0.0157314576208591,-0.0524144843220711,-0.031779944896698
688,-0.0576752871274948,-0.0382233001291752,-0.0301282200962305,-0.018749175593257,-0.0559879802167416,-0.0332119353115559
689,-0.0586644187569618,-0.0365288108587265,-0.0292727146297693,-0.0191149730235338,-0.0593436136841774,-0.0318884514272213
690,-0.0585814453661442,-0.0341069772839546,-0.0277743600308895,-0.0182448178529739,-0.0625504329800606,-0.0303871221840382
691,-0.0573176480829716,-0.0317592658102512,-0.0256586167961359,-0.0154543789103627,-0.0646820962429047,-0.0285562016069889
692,-0.0560790486633778,-0.0306756123900414,-0.024420315399766,-0.0122573394328356,-0.0656072795391083,-0.0279368199408054
693,-0.0563048087060452,-0.0317760109901428,-0.0255050752311945,-0.0115856761112809,-0.0654426142573357,-0.0302798431366682
694,-0.0563848875463009,-0.0321490317583084,-0.02662861533463,-0.0126349795609713,-0.0631797611713409,-0.0314964763820171
695,-0.0554897524416447,-0.0303865019232035,-0.0266166031360626,-0.0137525014579296,-0.0590018182992935,-0.0290518496185541
696,-0.0575664713978767,-0.0315872617065907,-0.0298856254667044,-0.0180711727589369,-0.0560819283127785,-0.029700418934226
697,-0.0638475194573402,-0.0373933464288712,-0.0374374948441982,-0.026221850886941,-0.0560629591345787,-0.0370542369782925
698,-0.0694912746548653,-0.0428259894251823,-0.0438015982508659,-0.0332398004829884,-0.0574063211679459,-0.0458346158266068
699,-0.0707495212554932,-0.0445467531681061,-0.0450777634978294,-0.0362698063254356,-0.0589810535311699,-0.0506970956921577
700,-0.0675811171531677,-0.0418101213872433,-0.0411858819425106,-0.0349692329764366,-0.0601429753005505,-0.0495523475110531
701,-0.0617195628583431,-0.0355825982987881,-0.0344353951513767,-0.0301693174988031,-0.0594560652971268,-0.0436409376561642
702,-0.0555741935968399,-0.0284529589116573,-0.0278873778879642,-0.0241073537617922,-0.0568447336554527,-0.0360623896121979
703,-0.0508146397769451,-0.02229661680758,-0.0234814416617155,-0.0186148099601269,-0.0535389594733715,-0.028868468478322
704,-0.0489754043519497,-0.0196817889809608,-0.0232759416103363,-0.0166220515966415,-0.0509715117514133,-0.0246011130511761
705,-0.0504667721688747,-0.0216373782604933,-0.0272384826093912,-0.019695445895195,-0.0509420447051525,-0.0239522997289896
706,-0.0522566400468349,-0.0238545890897512,-0.0307263974100351,-0.0236703474074602,-0.0531365163624287,-0.0226139631122351
707,-0.052038099616766,-0.0232048183679581,-0.0310417525470257,-0.024618236348033,-0.0555630400776863,-0.0186665486544371
708,-0.0507687292993069,-0.0214068982750177,-0.030276833102107,-0.0237679723650217,-0.05718894302845,-0.0153958657756448
709,-0.0502512268722057,-0.0214535463601351,-0.0312528945505619,-0.0244966447353363,-0.0582707636058331,-0.015788396820426
710,-0.0499814040958881,-0.022811671718955,-0.0329931005835533,-0.0262784603983164,-0.0584243573248386,-0.017388503998518
711,-0.0477563366293907,-0.0221523549407721,-0.0316637493669987,-0.0253346804529428,-0.0561704821884632,-0.014679154381156
712,-0.0426763892173767,-0.0185935515910387,-0.0255903191864491,-0.0204539969563484,-0.050821591168642,-0.00624737935140729
713,-0.0364691689610481,-0.0150003051385283,-0.0172585994005203,-0.0144414622336626,-0.0435912497341633,0.00328953703865409
714,-0.0322018824517727,-0.0145056387409568,-0.0111993001773953,-0.0110429394990206,-0.036751564592123,0.00837493408471346
715,-0.0298835225403309,-0.0153657682240009,-0.00786102004349232,-0.00928867980837822,-0.030897943302989,0.0097450315952301
716,-0.0278457440435886,-0.0145482737571001,-0.00496760103851557,-0.00652073044329882,-0.0254785101860762,0.0106647498905659
717,-0.0282810553908348,-0.0148445060476661,-0.00457075238227844,-0.00523468898609281,-0.0216840654611588,0.00891098007559776
718,-0.0331738367676735,-0.019019890576601,-0.00864039920270443,-0.00809701066464186,-0.0203441325575113,0.00211177649907768
719,-0.038056842982769,-0.0224868860095739,-0.0121741406619549,-0.0115433847531676,-0.0190349817276001,-0.00471450109034777
720,-0.0385785475373268,-0.0212437529116869,-0.0109255975112319,-0.0118010407313704,-0.0159926544874907,-0.00681025441735983
721,-0.0357466489076614,-0.0177867319434881,-0.00763527536764741,-0.0108003811910748,-0.0126409819349647,-0.00625888258218765
722,-0.0317338183522224,-0.0149612948298454,-0.0055208271369338,-0.011351496912539,-0.0105640077963471,-0.00558158475905657
723,-0.0273926202207804,-0.0120410602539778,-0.00403829151764512,-0.0125557398423553,-0.00963026471436024,-0.00334295746870339
724,-0.0230592656880617,-0.00805540755391121,-0.00164535664953291,-0.0124174021184444,-0.00858052540570498,0.00178736099041998
725,-0.0211344454437494,-0.00642516510561109,-0.000571107666473836,-0.0129178687930107,-0.00711163459345698,0.00551313627511263
726,-0.0243843551725149,-0.0110557600855827,-0.00463307648897171,-0.0176565982401371,-0.00594384735450149,0.00258796219713986
727,-0.0311902593821287,-0.0198010839521885,-0.0126380659639835,-0.0255092773586512,-0.00489254342392087,-0.0053709726780653
728,-0.0364827513694763,-0.0258294139057398,-0.0186529140919447,-0.0307765081524849,-0.00319045362994075,-0.011363155208528
729,-0.0379655621945858,-0.0255979802459478,-0.0197160542011261,-0.0307899285107851,-0.000578753650188446,-0.0122404787689447
730,-0.0374415703117847,-0.0201058927923441,-0.0182025097310543,-0.0283368974924088,0.00371466134674847,-0.0110342362895608
731,-0.0356941819190979,-0.0103140771389008,-0.0153595833107829,-0.0246873144060373,0.010445392690599,-0.0086005600169301
732,-0.0328896902501583,-0.00158662837930024,-0.0118490243330598,-0.0200228933244944,0.017458014190197,-0.00451611587777734
733,-0.0299267675727606,0.000149920291732997,-0.00924957077950239,-0.0158934984356165,0.0217501316219568,-0.000403917540097609
734,-0.0271898526698351,-0.00313237006776035,-0.007428087759763,-0.0131893614307046,0.0227857772260904,0.00234967144206166
735,-0.0249126367270947,-0.00624380633234978,-0.00549223646521568,-0.0115338545292616,0.0214678347110748,0.00387486862018704
736,-0.0228704214096069,-0.00671562692150474,-0.00281513622030616,-0.0096618477255106,0.0191640537232161,0.00550712924450636
737,-0.0201642978936434,-0.00545915123075247,0.00100679264869541,-0.00681670103222132,0.0178313907235861,0.00777746178209782
738,-0.0176694802939892,-0.0053709470666945,0.00430077826604247,-0.0044814026914537,0.0179018769413233,0.00900369603186846
739,-0.0182033553719521,-0.00912250205874443,0.00377220218069851,-0.00557213462889194,0.0171616096049547,0.00632813386619091
740,-0.0212216079235077,-0.0152744511142373,0.000303162523778155,-0.00918944366276264,0.0146732572466135,0.000930590904317796
741,-0.022678604349494,-0.0183167271316051,-0.00108297157566994,-0.0104321138933301,0.0124695599079132,-0.00153892056550831
742,-0.0214916225522757,-0.0161718130111694,0.000773986277636141,-0.00808831211179495,0.0119331758469343,0.000233725353609771
743,-0.0194884706288576,-0.0123316636309028,0.0030351672321558,-0.00536946952342987,0.0126253543421626,0.00182112376205623
744,-0.0172451324760914,-0.00993194989860058,0.00448853429406881,-0.00418746750801802,0.0137384552508593,0.000879651750437915
745,-0.0151870995759964,-0.00925363600254059,0.0046083047054708,-0.00427372707054019,0.013818833976984,-0.00102425459772348
746,-0.0141958855092525,-0.00892972853034735,0.00330044003203511,-0.00440085865557194,0.0119020296260715,-0.00197486276738346
747,-0.0139065980911255,-0.00803152844309807,0.00239126547239721,-0.0035911260638386,0.00904340669512749,-0.00159492541570216
748,-0.012853498570621,-0.00637804949656129,0.00382801261730492,-0.00159369281027466,0.00733827520161867,0.000177888519829139
749,-0.0111126815900207,-0.00514074694365263,0.00682581402361393,0.000408244552090764,0.00793915521353483,0.00177221617195755
750,-0.0102890152484179,-0.00583941303193569,0.00874533038586378,0.000258040468906984,0.0101593686267734,0.000118376068712678
751,-0.00951483566313982,-0.00618221051990986,0.00989473331719637,-0.00100992096122354,0.0129477502778172,-0.00325690908357501
752,-0.00839583389461041,-0.00511815631762147,0.0105240391567349,-0.0020597476977855,0.0148965641856194,-0.00596494786441326
753,-0.00860409624874592,-0.0049567399546504,0.00918092392385006,-0.00392222171649337,0.0151576856151223,-0.00857885088771582
754,-0.0102015910670161,-0.00632759882137179,0.00644540786743164,-0.00666075386106968,0.0147910369560122,-0.0109900794923306
755,-0.0136867519468069,-0.0103890914469957,0.00206142035312951,-0.0108139691874385,0.013659255579114,-0.014612790197134
756,-0.0186669360846281,-0.017399663105607,-0.00399966491386294,-0.0170228574424982,0.0115950219333172,-0.0205367729067802
757,-0.0237071271985769,-0.0262066759169102,-0.0107872057706118,-0.0256990194320679,0.0107653671875596,-0.0285231061279774
758,-0.0286568384617567,-0.0357238203287125,-0.0181231163442135,-0.0363482683897018,0.0123292282223701,-0.037861306220293
759,-0.0303423143923283,-0.0399015359580517,-0.0215424913913012,-0.0428140424191952,0.0160974785685539,-0.0427040308713913
760,-0.0270114205777645,-0.0349071398377419,-0.0174068603664637,-0.0405151695013046,0.0208826623857021,-0.0394259057939053
761,-0.0235973093658686,-0.0268601458519697,-0.0105475289747119,-0.0342785306274891,0.0232648719102144,-0.0330283232033253
762,-0.0226373784244061,-0.0205101743340492,-0.00499212741851807,-0.0287749599665403,0.0218460988253355,-0.0267746038734913
763,-0.0207720827311277,-0.0133638633415103,0.00136718852445483,-0.0223260186612606,0.0192484483122826,-0.018104312941432
764,-0.0173408258706331,-0.00515044759958982,0.00798449199646711,-0.0146870920434594,0.0166117083281279,-0.00772893102839589
765,-0.0157984681427479,-0.000398729316657409,0.0105480700731277,-0.0099036693572998,0.0130104841664433,-0.00132885843049735
766,-0.0166361592710018,-0.000229214943828993,0.00941376388072968,-0.00918346177786589,0.00957952532917261,-0.000643960840534419
767,-0.0172084290534258,-0.00121093273628503,0.00852373242378235,-0.009321428835392,0.00841252878308296,-0.00237494963221252
768,-0.0162532869726419,-0.000779823341872543,0.00951386801898479,-0.00806069001555443,0.00993795692920685,-0.00375205534510314
769,-0.0148562397807837,0.000754619657527655,0.0116389393806458,-0.00592338712885976,0.0132798813283443,-0.0042802426032722
770,-0.0146628674119711,0.00134409149177372,0.0131951943039894,-0.00440514599904418,0.017347726970911,-0.00530651677399874
771,-0.0165867209434509,-0.000773858337197453,0.0125405108556151,-0.00480040488764644,0.0208915527909994,-0.00831942074000835
772,-0.0213641617447138,-0.00673643499612808,0.0081922160461545,-0.00860133767127991,0.0221846252679825,-0.0137455994263291
773,-0.0277565736323595,-0.0147296087816358,0.00142894720192999,-0.0147279063239694,0.0209827963262796,-0.0189509969204664
774,-0.0318440720438957,-0.0196898486465216,-0.00293929362669587,-0.0188972055912018,0.0195688512176275,-0.0198281388729811
775,-0.0310341212898493,-0.0183736924082041,-0.00191656593233347,-0.0185675527900457,0.019675524905324,-0.0157139655202627
776,-0.027067881077528,-0.0122751891613007,0.00296557205729187,-0.0150760347023606,0.0204688925296068,-0.00990704353898764
777,-0.0249035004526377,-0.00727807078510523,0.00657345168292522,-0.0129473311826587,0.0199199505150318,-0.00811006594449282
778,-0.0265973806381226,-0.00686753168702126,0.00619021849706769,-0.0141422040760517,0.017723735421896,-0.0116175636649132
779,-0.0285265818238258,-0.00738486088812351,0.00566948996856809,-0.0147471008822322,0.015704246237874,-0.0144757013767958
780,-0.0276325866580009,-0.00544374715536833,0.00817942339926958,-0.0124308876693249,0.0147291738539934,-0.0127633484080434
781,-0.0264113936573267,-0.00420337356626987,0.00997783243656158,-0.0110081424936652,0.0132920257747173,-0.010216748341918
782,-0.0291108172386885,-0.00789477862417698,0.00596001092344522,-0.0144069446250796,0.0095259128138423,-0.0119315125048161
783,-0.0344854407012463,-0.0141486320644617,-0.0014575719833374,-0.0199831649661064,0.0040429113432765,-0.0159803815186024
784,-0.0375694148242474,-0.0175991747528315,-0.00565061951056123,-0.0225630719214678,-0.00070813944330439,-0.0173828359693289
785,-0.0379180610179901,-0.0180133637040854,-0.00628708116710186,-0.0225154887884855,-0.00440111802890897,-0.0167241469025612
786,-0.0366430059075356,-0.0164010375738144,-0.00541007518768311,-0.0210883859544992,-0.0073333433829248,-0.0147559000179172
787,-0.033215157687664,-0.0125567568466067,-0.00253939698450267,-0.0170905273407698,-0.00827139709144831,-0.010263123549521
788,-0.0295500978827477,-0.00861837808042765,0.000956368981860578,-0.0118084000423551,-0.00794500019401312,-0.00543498527258635
789,-0.0261081140488386,-0.00475893635302782,0.0049264170229435,-0.0062448987737298,-0.00745251448825002,-0.0013352440437302
790,-0.0216053612530231,-0.000466127006802708,0.00999230612069368,-0.000514680228661746,-0.0063455100171268,0.00208845571614802
791,-0.0181512627750635,0.00163927848916501,0.0133488830178976,0.00324180978350341,-0.00582331838086247,0.00269922288134694
792,-0.0184318404644728,1.1045764949813E-05,0.0128716640174389,0.00370758143253624,-0.00759262964129448,-0.000194089850992896
793,-0.021465577185154,-0.00322011089883745,0.0104375574737787,0.0027936645783484,-0.0106604704633355,-0.00395447527989745
794,-0.024429289624095,-0.00545927789062262,0.0084429644048214,0.00202761101536453,-0.0131027065217495,-0.00661297980695963
795,-0.0265968684107065,-0.00724580883979797,0.00596530875191092,-0.00049146416131407,-0.0144550381228328,-0.0100467270240188
796,-0.0285688210278749,-0.00970747228711843,0.00129110366106033,-0.00620114058256149,-0.0150755634531379,-0.0157530270516872
797,-0.0284412279725075,-0.0104452474042773,-0.00289424858056009,-0.0116355000063777,-0.0146809741854668,-0.0203155614435673
798,-0.023791715502739,-0.00665167951956391,-0.00197598314844072,-0.011965592391789,-0.0126249296590686,-0.019538190215826
799,-0.0172951370477676,-0.00117947813123465,0.00288170971907675,-0.00877059623599052,-0.0100107816979289,-0.0160772986710072
800,-0.0131201231852174,0.00192826625425369,0.0073341284878552,-0.00682014366611838,-0.00890594162046909,-0.0146011067554355
801,-0.0122163593769073,0.00224347761832178,0.0090857557952404,-0.00802228227257729,-0.00992124155163765,-0.0154231693595648
802,-0.0150733375921845,-0.000944294850341976,0.0064507070928812,-0.013483309186995,-0.012256545946002,-0.0189136974513531
803,-0.0200112871825695,-0.00571799837052822,0.00122591981198639,-0.0213309675455093,-0.0141428234055638,-0.0239113159477711
804,-0.02296650595963,-0.00595442438498139,-0.00199549319222569,-0.026940293610096,-0.0143903726711869,-0.0267078522592783
805,-0.0223008114844561,-9.11545866983943E-05,-0.00167286617215723,-0.0283750463277102,-0.0141572682186961,-0.025488993152976
806,-0.0191017594188452,0.00596590945497155,0.000861606560647488,-0.0267014466226101,-0.0150759359821677,-0.0209883842617273
807,-0.0148306833580136,0.00819113757461309,0.00416693836450577,-0.0230133011937141,-0.0170062184333801,-0.0144314952194691
808,-0.0103158233687282,0.00898182298988104,0.00770749244838953,-0.017308983951807,-0.019180703908205,-0.00577084580436349
809,-0.00737546011805534,0.00929175037890673,0.0100321359932423,-0.0119841331616044,-0.0214488804340363,0.00306654046289623
810,-0.00656622368842363,0.00837485119700432,0.0109765743836761,-0.00920651108026505,-0.0228283945471048,0.00951750110834837
811,-0.00496821757405996,0.0082972627133131,0.0132969627156854,-0.00630350084975362,-0.021840762346983,0.0140965199097991
812,-0.00108652783092111,0.00992346368730068,0.0175709556788206,-0.00101202819496393,-0.0184086821973324,0.0171792358160019
813,0.00288566900417209,0.0112347854301333,0.0212664492428303,0.00445545930415392,-0.0139957461506128,0.0176032539457083
814,0.00418988242745399,0.0099767567589879,0.0219377689063549,0.00621509319171309,-0.0111521352082491,0.014103121124208
815,0.00259413756430149,0.00641247350722551,0.0196995157748461,0.00339831598103046,-0.0117195500060916,0.0077575296163559
816,-0.000178023081389256,0.00297227944247425,0.0163105670362711,-0.00197145692072809,-0.0150791853666306,0.00142163247801363
817,-0.0022390503436327,0.00122406822629273,0.0131509229540825,-0.00782046839594841,-0.0183080658316612,-0.00322460546158254
818,-0.00176215695682913,0.00190194591414183,0.0116663407534361,-0.0118425041437149,-0.0183941815048456,-0.00482180714607239
819,0.000346959655871615,0.00343967718072236,0.011155697517097,-0.0139100244268775,-0.0155601939186454,-0.00413701450452209
820,0.00116365600842983,0.00287680025212467,0.00910789426416159,-0.0161905623972416,-0.0126936845481396,-0.00385570153594017
821,0.000489489175379276,-0.000163848191732541,0.0054650167003274,-0.0192495938390493,-0.0109251327812672,-0.004816641099751
822,0.00181522965431213,-0.00227738823741674,0.00414620991796255,-0.0204487536102533,-0.00812831707298756,-0.0044471831060946
823,0.0067013269290328,-0.000857602339237928,0.00747474702075124,-0.0180456750094891,-0.0037120683118701,-0.00102027645334601
824,0.0127035938203335,0.0026836940087378,0.0130028612911701,-0.0141965607181191,0.000381380406906828,0.0031426593195647
825,0.0179830938577652,0.00645727338269353,0.0179593414068222,-0.0111942626535892,0.00396140431985259,0.00562645681202412
826,0.0205721352249384,0.00798108149319887,0.0193251855671406,-0.0115044368430972,0.00744223827496171,0.00430174870416522
827,0.0195651911199093,0.00636878982186317,0.0163781214505434,-0.0161961484700441,0.0103695727884769,-0.000248610886046663
828,0.017414566129446,0.00426696846261621,0.0125494059175253,-0.022049318999052,0.0123968813568354,-0.00396863976493478
829,0.0167957246303558,0.00385174760594964,0.0102559849619865,-0.0250679347664118,0.0134886829182506,-0.00446872087195516
830,0.0188424903899431,0.00589444115757942,0.00998106971383095,-0.0237536486238241,0.0143634332343936,-0.00164432392921299
831,0.0231027342379093,0.0106584345921874,0.0122178960591555,-0.0185018982738256,0.0155226588249207,0.00376580865122378
832,0.0269706733524799,0.0158727299422026,0.0151761807501316,-0.0119376331567764,0.015758054330945,0.00880057644098997
833,0.029446205124259,0.0196958482265472,0.0172073002904654,-0.00659117940813303,0.0143862869590521,0.0118403686210513
834,0.0316822379827499,0.0221851598471403,0.0188406705856323,-0.00326156080700457,0.0122874025255442,0.0132064083591104
835,0.0315347574651241,0.0203880351036787,0.0175759717822075,-0.00499418098479509,0.00882185809314251,0.00933518260717392
836,0.0275352112948895,0.0133923813700676,0.0116057982668281,-0.0128517970442772,0.00320976949296892,-0.000696736387908459
837,0.0222623459994793,0.00496733374893665,0.00335242296569049,-0.0226851347833872,-0.00271967588923872,-0.0117360455915332
838,0.0186486206948757,-0.00131736125331372,-0.00337587459944189,-0.0294800940901041,-0.00655435957014561,-0.0191083960235119
839,0.0186063647270203,-0.00266001163981855,-0.00498382933437824,-0.0296448469161987,-0.00794994365423918,-0.0201259758323431
840,0.0225152913480997,0.00181641336530447,-0.000700177508406341,-0.0226524490863085,-0.00705226743593812,-0.0147092612460256
841,0.0287134330719709,0.0093548446893692,0.00664649996906519,-0.0121092414483428,-0.00319461640901864,-0.00669853109866381
842,0.0347265899181366,0.0159519426524639,0.0131083847954869,-0.00352470367215574,0.00249636918306351,-0.000885436893440783
843,0.0397384576499462,0.020785978063941,0.0173329599201679,0.00100016966462135,0.00819071009755135,0.00206611840985715
844,0.044027179479599,0.0253250356763601,0.0205005630850792,0.00366162392310798,0.013623820617795,0.00481153558939695
845,0.0453541800379753,0.0275319088250399,0.0213380679488182,0.00463387696072459,0.0182240344583988,0.00675068562850356
846,0.0422740690410137,0.0250787623226643,0.0182651542127132,0.00218264549039304,0.0218486189842224,0.00585406785830855
847,0.0387950986623764,0.021810619160533,0.0150504354387522,-0.00115792092401534,0.0258420240134001,0.00525668961927295
848,0.0376729406416416,0.021111935377121,0.0148399109020829,-0.0026133032515645,0.0298179555684328,0.00747411837801337
849,0.0383962765336037,0.0228324104100466,0.0174094922840595,-0.00203459244221449,0.0329242721199989,0.0116404592990875
850,0.041864849627018,0.0278380047529936,0.0231901705265045,0.00200189906172454,0.0358826220035553,0.0188244320452213
851,0.046838603913784,0.0341694504022598,0.0297742411494255,0.00814901199191809,0.03841857239604,0.0271208919584751
852,0.0490719750523567,0.0368296653032303,0.0321004800498486,0.0114325070753694,0.039143729954958,0.0304024145007133
853,0.049044992774725,0.0372381210327148,0.0311622619628906,0.0126256011426449,0.0384750813245773,0.0297406073659658
854,0.0507889986038208,0.0402330197393894,0.0316575579345226,0.0160734560340643,0.0380896851420403,0.0310559738427401
855,0.0531195811927319,0.0438062809407711,0.0323513932526112,0.0197304040193558,0.0370894558727741,0.0335801877081394
856,0.0509920977056026,0.0425681434571743,0.0284949894994497,0.0184504073113203,0.0330370925366879,0.0321297198534012
857,0.0422300919890404,0.0341752991080284,0.0179212186485529,0.0102428020909429,0.026163499802351,0.023273091763258
858,0.0308743752539158,0.0217852983623743,0.00382079742848873,-0.00196640542708337,0.0206364057958126,0.00916838273406029
859,0.0243885293602943,0.0133140776306391,-0.00595439737662673,-0.0104459095746279,0.0205844361335039,-0.00178426178172231
860,0.0256586857140064,0.0136939715594053,-0.00699027488008142,-0.0102795483544469,0.0255911126732826,-0.00345281325280666
861,0.031731128692627,0.0211773198097944,-0.00187484384514391,-0.00398667342960835,0.0323397517204285,0.00269475928507745
862,0.0390858203172684,0.0315983481705189,0.00534799881279469,0.00419050781056285,0.0381669066846371,0.0123082743957639
863,0.0445549748837948,0.0400868281722069,0.0110806720331311,0.011029445566237,0.0413505733013153,0.0206373073160648
864,0.044901579618454,0.0419597513973713,0.0115312905982137,0.0129706403240561,0.0405575446784496,0.023096727207303
865,0.0398295819759369,0.0367763713002205,0.00597626669332385,0.00868427660316229,0.0359457805752754,0.0191414728760719
866,0.0329328626394272,0.0292351841926575,-0.00199604127556086,0.00142884999513626,0.0297298971563578,0.0131337540224195
867,0.0285322591662407,0.0252175703644753,-0.0074806516058743,-0.00355187174864113,0.025027260184288,0.0103512052446604
868,0.0286232922226191,0.0274949297308922,-0.00717782229185104,-0.00309205916710198,0.0238071251660585,0.0134057756513357
869,0.0318365506827831,0.0338484980165958,-0.00198820582590997,0.00171708106063306,0.025463130325079,0.0208507291972637
870,0.0348317250609398,0.0391789861023426,0.00326082669198513,0.0064971768297255,0.0280261822044849,0.0280741266906261
871,0.0354266576468945,0.0400731228291988,0.00458938628435135,0.00737060280516744,0.0304343923926353,0.0306999366730452
872,0.0353198982775211,0.0386735275387764,0.00353076751343906,0.00544206099584699,0.0333454795181751,0.0296514090150595
873,0.0375548005104065,0.0394089445471764,0.00452394457533956,0.00485834572464228,0.0370726399123669,0.0296677928417921
874,0.0411812663078308,0.0422529019415379,0.00783540308475494,0.00641259364783764,0.0397752001881599,0.0319058336317539
875,0.0421075522899628,0.043386097997427,0.00972328055649996,0.00741385528817773,0.0397712513804436,0.0332375392317772
876,0.0375596582889557,0.0392427034676075,0.00719627412036061,0.00491806073114276,0.0367242284119129,0.0300026275217533
877,0.0292864739894867,0.0305772963911295,0.000871188880410045,-0.000809146673418581,0.0306709539145231,0.0225642044097185
878,0.0221542995423079,0.0224501434713602,-0.00574435852468014,-0.0056596752256155,0.0226540919393301,0.0159893296658993
879,0.0193712636828423,0.0188485104590654,-0.00955015141516924,-0.00666945707052946,0.0147394267842174,0.014230290427804
880,0.0202617887407541,0.0194893535226583,-0.0101690487936139,-0.0050702253356576,0.00841927714645863,0.0166644360870123
881,0.0232883170247078,0.0222924277186394,-0.00862693507224321,-0.00273821828886867,0.00445464206859469,0.021124355494976
882,0.0286449994891882,0.0264663472771645,-0.0051037622615695,0.000707699568010867,0.00325170601718128,0.0267446916550398
883,0.0358526520431042,0.0321131981909275,0.000388709420803934,0.00599148124456406,0.0046271295286715,0.0329415053129196
884,0.0412163808941841,0.0371990539133549,0.00511975260451436,0.0109609924256802,0.00676060654222965,0.0367614775896072
885,0.0403866916894913,0.0376404710114002,0.00451600970700383,0.0116174165159464,0.00652658054605126,0.0343299359083176
886,0.0341900736093521,0.0332960076630116,-0.00154476857278496,0.0077253794297576,0.00328964297659695,0.0272418055683374
887,0.0272560026496649,0.0277668498456478,-0.00922552496194839,0.00272192899137735,-0.000859942403621972,0.0205723214894533
888,0.0243208482861519,0.0254534427076578,-0.0138016240671277,0.000919308455195278,-0.00282282871194184,0.0183882974088192
889,0.0272463299334049,0.028756907209754,-0.0122182695195079,0.00407097348943353,-0.000402684934670106,0.0215842258185148
890,0.0317403078079224,0.0338412150740623,-0.00816414412111044,0.00791636202484369,0.00390382646583021,0.0251198094338179
891,0.0339073874056339,0.0367827452719212,-0.00646976614370942,0.00881446711719036,0.00608354620635509,0.0252852346748114
892,0.0358745269477367,0.0394451394677162,-0.0054725487716496,0.00948454067111015,0.0061222673393786,0.0254825204610825
893,0.039214588701725,0.0428989343345165,-0.00311800977215171,0.0119058853015304,0.00536534655839205,0.0281801503151655
894,0.0420089364051819,0.0450991541147232,-0.00078860844951123,0.0138591444119811,0.00406669965013862,0.031571414321661
895,0.042441263794899,0.0441012717783451,-0.000224238829105161,0.0131498463451862,0.00233730068430305,0.0327502600848675
896,0.0397057272493839,0.038567416369915,-0.00253718928433955,0.0087699331343174,0.000172764499438927,0.0290609654039145
897,0.0359066985547543,0.0317119546234608,-0.00500734336674213,0.00367362122051418,-0.00137312477454543,0.0233558639883995
898,0.034725621342659,0.0287203751504421,-0.0038135563954711,0.00273429485969245,0.000125998238218017,0.0209275092929602
899,0.0363412946462631,0.0284711550921202,-0.000464125419966877,0.00512360082939267,0.00598966702818871,0.0203629415482283
900,0.0379551351070404,0.0262332689017057,0.00136953755281866,0.00588189903646708,0.0143987461924553,0.016782782971859
901,0.0389142483472824,0.021822664886713,0.00179920752998441,0.00407521985471249,0.0229647923260927,0.0105242254212499
902,0.0415446572005749,0.0196179337799549,0.00365978945046663,0.00397821608930826,0.0308149494230747,0.00666398881003261
903,0.0470241606235504,0.0217930097132921,0.00778430141508579,0.00799521524459124,0.0370202586054802,0.00767466565594077
904,0.0542703904211521,0.0266927797347307,0.0135703524574637,0.0148964114487171,0.0414481312036514,0.0123809659853578
905,0.0608021393418312,0.0314942114055157,0.0197506230324507,0.0221945140510798,0.0443626046180725,0.0182214789092541
906,0.0629868060350418,0.0324370004236698,0.022349463775754,0.0256642531603575,0.0444027855992317,0.0207966081798077
907,0.0594411194324493,0.0280140321701765,0.018945287913084,0.023482421413064,0.0407260805368423,0.0183879733085632
908,0.0535509847104549,0.0217536054551601,0.0125565472990274,0.0188522692769766,0.0348158068954945,0.0145679479464889
909,0.0484394542872906,0.0165654793381691,0.00623583653941751,0.0138893015682697,0.0281614921987057,0.0112544521689415
910,0.0435701422393322,0.0114436568692327,-0.00025189874577336,0.00781278498470783,0.0211656205356121,0.00663771759718657
911,0.0389436893165112,0.0061658644117415,-0.00638744793832302,0.00164488691370934,0.0150404665619135,0.000959100958425552
912,0.0372085087001324,0.00362608674913645,-0.00905840191990137,-0.00111040682531893,0.0116500612348318,-0.00220481096766889
913,0.0389527268707752,0.00491735665127635,-0.00755664007738233,-3.64018997061066E-05,0.011174482293427,-0.00156438013073057
914,0.0412451364099979,0.00767837930470705,-0.00498289242386818,0.00146621488966048,0.0125661185011268,0.000618934282101691
915,0.0425500944256783,0.0106093557551503,-0.00277269072830677,0.00208087149076164,0.0152584426105022,0.0031792214140296
916,0.043844435364008,0.0142663568258286,0.000170124985743314,0.0033640603069216,0.018624247983098,0.00681457249447703
917,0.0450648851692677,0.0176564995199442,0.00305002951063216,0.00518349977210164,0.0213411133736372,0.010866261087358
918,0.0444335229694843,0.0178626459091902,0.00312776630744338,0.00517703732475638,0.022246852517128,0.0127612892538309
919,0.0418400429189205,0.01431137137115,0.000162586511578411,0.00272564706392586,0.0215528104454279,0.0116300620138645
920,0.038831640034914,0.00889186002314091,-0.00409185606986284,-0.00119321071542799,0.0203878451138735,0.00842154119163752
921,0.0364054404199123,0.00324274832382798,-0.00845731142908335,-0.00547549594193697,0.0197618752717972,0.00379036599770188
922,0.0353618934750557,-0.000732936256099492,-0.0113802077248693,-0.00842154957354069,0.0206805635243654,-0.000822639791294932
923,0.0351349748671055,-0.00253755622543395,-0.0124989179894328,-0.00947639346122742,0.0229313839226961,-0.00437587918713689
924,0.0344817824661732,-0.00297430297359824,-0.0129442512989044,-0.00882866978645325,0.0245010741055012,-0.00621540378779173
925,0.0349586121737957,-0.000691442750394344,-0.0111285476014018,-0.00486439606174827,0.0254537109285593,-0.00392502127215266
926,0.0381447672843933,0.00499633187428117,-0.00519430544227362,0.00298482878133655,0.0281555559486151,0.00298482039943337
927,0.0409319028258324,0.0100189857184887,0.00118902046233416,0.0103529514744878,0.0318438149988651,0.00981048867106438
928,0.0385574884712696,0.00909977219998837,0.00168436602689326,0.0112317008897662,0.03292166441679,0.0105807110667229
929,0.0316701158881187,0.00307040498591959,-0.00363070121966302,0.0060078389942646,0.0306483823806047,0.00596450688317418
930,0.0248907040804625,-0.00304040871560574,-0.00915954634547234,0.000305873807519674,0.0274182856082916,0.00170152354985476
931,0.0216947384178638,-0.00560211762785912,-0.0111336894333363,-0.00174909643828869,0.0253260191529989,0.00162399874534458
932,0.0223726648837328,-0.00452313292771578,-0.0097899017855525,0.000205758507945575,0.0248128417879343,0.0051560690626502
933,0.0222123879939318,-0.00552425067871809,-0.010302122682333,0.00133283727336675,0.0243648234754801,0.00597000634297729
934,0.0197779182344675,-0.0099455900490284,-0.0140379071235657,-0.000263694499153644,0.023755906149745,0.00264954776503146
935,0.0211380328983068,-0.00949809048324823,-0.013579573482275,0.00171459559351206,0.0250709019601345,0.0037419272121042
936,0.0281065069139004,-0.00130839517805725,-0.00582576496526599,0.00994567759335041,0.0274319313466549,0.0122326835989952
937,0.0339725092053413,0.0063018174842,0.00202025077305734,0.0176445115357637,0.0262487344443798,0.0198051035404205
938,0.0334228724241257,0.00646957056596875,0.00334407109767199,0.0188146028667688,0.0190156996250153,0.0201383586972952
939,0.0286550875753164,0.0019089988199994,-0.000330840732203797,0.0155192026868463,0.00827805418521166,0.0166324730962515
940,0.0240113586187363,-0.00194528012070805,-0.00431832857429981,0.0125605501234531,-0.00160779152065516,0.0145703721791506
941,0.0212135221809149,-0.00345895322971046,-0.00606828834861517,0.0121627943590283,-0.00849056430160999,0.0152524877339602
942,0.0193685293197632,-0.00431652693077922,-0.00645560165867209,0.0131931528449059,-0.0132213765755296,0.0171374753117561
943,0.017187250778079,-0.00568798650056124,-0.00702387001365423,0.0140942856669426,-0.0171303059905767,0.0189030040055513
944,0.0146409338340163,-0.00639549270272255,-0.00698247132822871,0.015329915098846,-0.0201598815619946,0.0211526472121477
945,0.0119203822687268,-0.00595584930852056,-0.00569196464493871,0.0171093344688416,-0.0219108741730452,0.0239559188485146
946,0.00994001887738705,-0.00469917012378573,-0.00353120965883136,0.0195221733301878,-0.0223019700497389,0.0268236808478832
947,0.0098141748458147,-0.00277403928339481,-0.000906394561752677,0.0227299705147743,-0.0216696467250586,0.0299026146531105
948,0.010753552429378,-0.000750529521610588,0.00131506577599794,0.0252555590122938,-0.0210292506963015,0.0327659137547016
949,0.0105537120252848,0.000444579782197252,0.00199850532226264,0.0253772959113121,-0.0214534103870392,0.0337721481919289
950,0.00793004781007767,-0.00010467873653397,0.000467479112558067,0.0231866184622049,-0.0228609535843134,0.0315269269049168
951,0.00350253679789603,-0.00259797018952668,-0.0029900074005127,0.0193539764732122,-0.0243248715996742,0.0261632595211267
952,-0.000753735774196684,-0.00567605718970299,-0.00670343404635787,0.0146566079929471,-0.0249753892421722,0.0201806109398603
953,-0.00350603926926851,-0.00771998567506671,-0.00913913454860449,0.0104968640953302,-0.0242018718272448,0.0166913457214832
954,-0.00566946296021342,-0.00918941758573055,-0.0110128074884415,0.00725727248936892,-0.0223559215664864,0.0151386512443423
955,-0.00756132695823908,-0.0100535210222006,-0.0125713385641575,0.00528604816645384,-0.0203859824687243,0.0141975106671453
956,-0.00947687122970819,-0.0104001667350531,-0.0139404442161322,0.00395481660962105,-0.0198663212358952,0.012771325185895
957,-0.0134798400104046,-0.0130177130922675,-0.0176737867295742,6.49783323751763E-05,-0.0218745823949575,0.00754333473742008
958,-0.019285786896944,-0.0183710139244795,-0.024148803204298,-0.00711736455559731,-0.0248667504638433,-0.00157926941756159
959,-0.0237558595836163,-0.0230361986905336,-0.0298122800886631,-0.0137448776513338,-0.026418749243021,-0.00959451962262392
960,-0.0249512270092964,-0.0247836895287037,-0.0316396318376064,-0.0160189494490623,-0.025859709829092,-0.0127681186422706
961,-0.0231010690331459,-0.0240644738078117,-0.0291265174746513,-0.0134664615616202,-0.0243696179240942,-0.0117378858849406
962,-0.0191537905484438,-0.0219194032251835,-0.0233478583395481,-0.00786749832332134,-0.0226232502609491,-0.0092364139854908
963,-0.0151854548603296,-0.0202152747660875,-0.0174642540514469,-0.00235297135077417,-0.0205856710672379,-0.00865997187793255
964,-0.0127432001754642,-0.0199540033936501,-0.0143200075253844,0.000830712378956378,-0.0190728232264519,-0.0108567690476775
965,-0.00941899325698614,-0.0180460680276155,-0.0114757474511862,0.00391613598912954,-0.0178580936044455,-0.0111568020656705
966,-0.00248602475039661,-0.0117260068655014,-0.00518110115081072,0.00997872091829777,-0.0153936361894012,-0.00561865512281656
967,0.00567992124706507,-0.00374965579248965,0.00298276683315635,0.0173053834587336,-0.0121081061661243,0.00249111256562173
968,0.0112647376954556,0.00204387493431568,0.00946292094886303,0.0224405806511641,-0.0102162156254053,0.00822457671165466
969,0.0148886358365417,0.00633392389863729,0.014399423263967,0.0256222803145647,-0.0105883413925767,0.0120483338832855
970,0.0173749905079603,0.00930700171738863,0.0175795741379261,0.0269509088248014,-0.0129349902272224,0.0140294572338462
971,0.017286891117692,0.00888628326356411,0.0171511061489582,0.0248132906854153,-0.0163440126925707,0.0119271008297801
972,0.0154940728098154,0.00640484085306525,0.0148114683106542,0.021095572039485,-0.0192567892372608,0.00802149064838886
973,0.0120298117399216,0.00233580218628049,0.0113708470016718,0.0169397573918104,-0.02197583951056,0.00399730075150728
974,0.00440668873488903,-0.00646643526852131,0.00404087081551552,0.0093124657869339,-0.026023481041193,-0.00334760150872171
975,-0.00591911282390356,-0.0188107509166002,-0.00640647811815143,-0.00129144242964685,-0.0309107378125191,-0.0138887632638216
976,-0.0129962498322129,-0.0273271054029465,-0.0139178931713104,-0.0083592776209116,-0.0339114964008331,-0.0212168600410223
977,-0.0131021309643984,-0.0267127100378275,-0.0139485439285636,-0.00742864608764648,-0.0326426662504673,-0.0203026589006186
978,-0.00828472338616848,-0.0192187894135714,-0.00840179342776537,-0.00103666307404637,-0.0273665729910135,-0.0133711928501725
979,-0.00354513735510409,-0.0117266355082393,-0.0032576541416347,0.00456987973302603,-0.0206532366573811,-0.00722995866090059
