,AF3,AF4,Fp1,Fp2,AF7,AF8
0,-0.00691794184967875,-0.00328439543955028,-0.0371052473783493,0.5,-0.0249334964901209,-0.0375285260379314
1,-0.00110157765448093,0.00212891865521669,-0.0330195128917694,0.5,-0.0219022892415524,-0.0332934707403183
2,0.00404734723269939,0.00798240769654512,-0.0297388788312674,0.5,-0.021548043936491,-0.0269528608769178
3,0.00495724380016327,0.00989392958581448,-0.0310441348701715,0.5,-0.0243270248174667,-0.0215008463710546
4,0.000795885920524597,0.00601276010274887,-0.0374198891222477,0.5,-0.028687747195363,-0.0211294200271368
5,-0.0025427530054003,0.00276224431581795,-0.0414401367306709,0.5,-0.030096797272563,-0.0215641316026449
6,0.00202776165679097,0.00882456265389919,-0.0348462611436844,0.5,-0.0244483686983585,-0.0143186775967479
7,0.0144696030765772,0.0246813036501408,-0.0183046590536833,0.5,-0.0128652062267065,0.00148181361146271
8,0.0287726800888777,0.0438416786491871,0.000120523298392072,0.5,-0.000594160461332649,0.0190763603895903
9,0.0371051132678986,0.0587045699357986,0.0111229829490185,0.5,0.00689463969320059,0.029706422239542
10,0.0373454801738262,0.0660608783364296,0.0127381412312388,0.5,0.00893943104892969,0.0304312072694302
11,0.0341163352131844,0.0670627057552338,0.00999487936496735,0.5,0.00842393934726715,0.0253569707274437
12,0.0297612063586712,0.0626570731401443,0.00531542487442493,0.5,0.00527373235672712,0.0178389828652143
13,0.0244530756026506,0.055384237319231,-0.00022619342780672,0.383668541908264,-0.00126099342014641,0.00988862104713917
14,0.0174509473145008,0.0465457364916801,-0.00680514611303806,0.284182637929916,-0.0108207892626524,0.000507015211042017
15,0.00870788563042879,0.0355440638959408,-0.0152599094435573,0.230818122625351,-0.0221204217523336,-0.0120819266885519
16,0.00234073516912758,0.0260779168456793,-0.0217952821403742,0.206622436642647,-0.0313587374985218,-0.0234517175704241
17,-0.00163691048510373,0.0190653186291456,-0.0262158643454313,0.210960268974304,-0.0379326120018959,-0.0324322432279587
18,-0.00612782780081034,0.01247104909271,-0.0315178446471691,0.267999202013016,-0.0437510572373867,-0.0413944907486439
19,-0.00786623731255531,0.0099822785705328,-0.0338009931147099,0.378866732120514,-0.0465988963842392,-0.0461091659963131
20,-0.00665216846391559,0.0115102268755436,-0.0321252085268497,0.5,-0.0459683537483215,-0.0462117269635201
21,-0.0074404664337635,0.0114912679418921,-0.0318916104733944,0.5,-0.0450915731489658,-0.0473095811903477
22,-0.00926049798727036,0.0105704767629504,-0.0327423177659512,0.5,-0.0438541769981384,-0.0485200397670269
23,-0.00868044979870319,0.0117846624925733,-0.0312985591590405,0.5,-0.0409544743597507,-0.0462826900184155
24,-0.00694185541942716,0.0136154619976878,-0.0288073420524597,0.5,-0.0381389819085598,-0.0419286750257015
25,-0.00673145707696676,0.0132416291162372,-0.0280203633010387,0.5,-0.0366156622767448,-0.0391570031642914
26,-0.00854600314050913,0.0101169180124998,-0.0296606663614511,0.5,-0.0352738276124001,-0.0400968678295612
27,-0.00913797505199909,0.00879733171314001,-0.030202204361558,0.5,-0.0324227884411812,-0.0411448962986469
28,-0.005724489223212,0.0131278280168772,-0.0261172987520695,0.5,-0.0283000934869051,-0.0381939671933651
29,-0.00015974989219103,0.020234351977706,-0.0194374434649944,0.5,-0.0251337215304375,-0.0326829813420773
30,0.00504431547597051,0.0265910737216473,-0.0131723107770085,0.5,-0.0235906261950731,-0.0259591434150934
31,0.00737204076722264,0.0293049514293671,-0.010305936448276,0.446032375097275,-0.0242797434329987,-0.0197349153459072
32,0.00782059226185083,0.0293184593319893,-0.0105364937335253,0.234013631939888,-0.0268159620463848,-0.0139473546296358
33,0.0115368077531457,0.0323120802640915,-0.00860554911196232,0.00353946327231824,-0.0280727986246347,-0.00505112484097481
34,0.0169259458780289,0.0365258976817131,-0.00564959133043885,-0.215333670377731,-0.0283961351960897,0.00292650214396417
35,0.0184259004890919,0.0359554700553417,-0.00692461896687746,-0.393536031246185,-0.0303073823451996,0.00278344703838229
36,0.0144377378746867,0.0296960510313511,-0.0134548880159855,-0.5,-0.0343658961355686,-0.00569571787491441
37,0.00720137590542436,0.0211340133100748,-0.0221124421805143,-0.5,-0.0392519384622574,-0.01717315800488
38,0.00199844921007752,0.01598802767694,-0.0272170417010784,-0.5,-0.040940448641777,-0.0242397021502256
39,0.000148795792483725,0.0149535667151213,-0.0283525567501783,-0.5,-0.0375464707612991,-0.0258940104395151
40,-0.000261864566709846,0.0155706675723195,-0.02793431840837,-0.5,-0.0318044535815716,-0.024831797927618
41,-0.00195888336747885,0.0144789591431618,-0.0294626392424107,-0.5,-0.0300519969314337,-0.0242487248033285
42,-0.00578410876914859,0.00993274245411158,-0.0355858691036701,-0.5,-0.0357492491602898,-0.0258170627057552
43,-0.00385567639023066,0.0105407489463687,-0.0371719636023045,-0.5,-0.0418977774679661,-0.0211025252938271
44,0.00672746961936355,0.0199797227978706,-0.0281745735555887,-0.5,-0.0424508117139339,-0.00757136754691601
45,0.0169302374124527,0.028537580743432,-0.0173543095588684,-0.5,-0.0409677624702454,0.00341117708012462
46,0.0216659102588892,0.0316663235425949,-0.0110901324078441,-0.5,-0.0411496460437775,0.00682373950257897
47,0.0222489088773727,0.0319961048662663,-0.0089959530159831,-0.5,-0.0427853316068649,0.00540592195466161
48,0.0206210277974606,0.0315875746309757,-0.00936796050518751,-0.5,-0.0446882583200932,0.00170698447618634
49,0.020924711599946,0.0341064520180225,-0.00723423063755035,-0.5,-0.0445599928498268,0.000735287147108465
50,0.0243085883557796,0.0394923351705074,-0.00154802307952195,-0.5,-0.0416696667671204,0.00314440950751305
51,0.0238966550678015,0.0395538434386253,-0.000791049387771636,-0.5,-0.0396502576768398,0.000562923727557063
52,0.0142919141799212,0.0293192844837904,-0.0111524611711502,-0.5,-0.0420452877879143,-0.0113875875249505
53,0.000226423828280531,0.0152524542063475,-0.0269007906317711,-0.5,-0.0473396368324757,-0.0246678628027439
54,-0.0116807809099555,0.00433799717575312,-0.0404788926243782,-0.5,-0.0528153851628304,-0.032078891992569
55,-0.0190836731344461,-0.00266876164823771,-0.0495591685175896,-0.5,-0.0571474209427834,-0.0354859717190266
56,-0.0214392766356468,-0.00614085327833891,-0.0533520951867104,-0.5,-0.0589594468474388,-0.0370903201401234
57,-0.0202821828424931,-0.00647177174687386,-0.0528241917490959,-0.5,-0.0586448945105076,-0.0356902293860912
58,-0.018831267952919,-0.00556205678731203,-0.0509389005601406,-0.5,-0.0584435611963272,-0.0316992402076721
59,-0.0198723375797272,-0.00663039553910494,-0.0508929789066315,-0.5,-0.0600579343736172,-0.029633816331625
60,-0.0222376640886068,-0.00958332419395447,-0.0526430644094944,-0.5,-0.0619786493480206,-0.0315464809536934
61,-0.0210885554552078,-0.00939340703189373,-0.0519692823290825,-0.5,-0.0603242814540863,-0.0329491645097733
62,-0.0155769977718592,-0.00421148398891091,-0.0474360249936581,-0.5,-0.0551844462752342,-0.0307682696729898
63,-0.00943616032600403,0.00285280146636069,-0.0417478419840336,-0.5,-0.0501619018614292,-0.0264493059366941
64,-0.00530004175379872,0.00902763847261667,-0.0369366444647312,-0.5,-0.0468745827674866,-0.0221823174506426
65,-0.00285738962702453,0.013627665117383,-0.0331874154508114,-0.5,-0.0447624884545803,-0.0190182104706764
66,0.000273404439212754,0.0181015376001596,-0.028772072866559,-0.5,-0.0424910336732864,-0.0155149027705193
67,0.00393858924508095,0.0222605615854263,-0.0239789336919785,-0.5,-0.0399774610996246,-0.0117825241759419
68,0.00590078579261899,0.0241730380803347,-0.021193940192461,-0.5,-0.0370997823774815,-0.00998085550963879
69,0.00513052381575108,0.0230257995426655,-0.0213394891470671,-0.5,-0.032767616212368,-0.0111015196889639
70,0.00290709035471082,0.0203277617692947,-0.0226895250380039,-0.5,-0.027398020029068,-0.0138167627155781
71,-0.000507593736983836,0.0161640029400587,-0.0251655224710703,-0.5,-0.0244851745665073,-0.0185325015336275
72,-0.00802477076649666,0.0072599328123033,-0.0328780524432659,-0.5,-0.0283358097076416,-0.0289398208260536
73,-0.0182360373437405,-0.00489532295614481,-0.0452531576156616,-0.5,-0.0381898954510689,-0.0429031029343605
74,-0.0239555798470974,-0.0128440745174885,-0.0544951148331165,-0.5,-0.0479586087167263,-0.0520613230764866
75,-0.0220537185668945,-0.0133115062490106,-0.0567499883472919,-0.5,-0.0537554062902927,-0.0532641522586346
76,-0.0167678147554398,-0.0105898631736636,-0.0561579130589962,-0.5,-0.0569866932928562,-0.0506899580359459
77,-0.00944853853434324,-0.00551647366955876,-0.0526258274912834,-0.5,-0.0570002160966396,-0.0442602187395096
78,0.000669234432280064,0.00344238127581775,-0.0437052547931671,-0.5,-0.0521591864526272,-0.0327073223888874
79,0.010480715893209,0.0132455620914698,-0.032702948898077,-0.5,-0.0452159382402897,-0.0207951590418816
80,0.0165394321084023,0.0201024897396564,-0.0240370780229568,-0.5,-0.0402625724673271,-0.0134573932737112
81,0.0174551159143448,0.0219884011894464,-0.0202658846974373,-0.5,-0.0390153713524342,-0.0120470812544227
82,0.0149729819968343,0.0199467111378908,-0.0208579413592815,-0.5,-0.0396054349839687,-0.0140410754829645
83,0.0117560084909201,0.016380624845624,-0.0239633712917566,-0.5,-0.0401576869189739,-0.0166386160999537
84,0.00969629641622305,0.013483009301126,-0.0271574035286903,-0.5,-0.0404206924140453,-0.0187244471162558
85,0.00833102688193321,0.01107582077384,-0.0293516609817743,-0.5,-0.0405408032238483,-0.0214076302945614
86,0.00703597022220492,0.00878351461142302,-0.0304596349596977,-0.5,-0.0393621474504471,-0.024310264736414
87,0.00651004398241639,0.00775895733386278,-0.030041266232729,-0.5,-0.0361272655427456,-0.0248463898897171
88,0.00319802854210138,0.00428333738818765,-0.0327472575008869,-0.5,-0.0348522141575813,-0.0268065240234137
89,-0.00552973290905356,-0.00473375292494893,-0.0422302894294262,-0.5,-0.0388070978224278,-0.0345109142363071
90,-0.0150374239310622,-0.0143597582355142,-0.0531740039587021,-0.5,-0.045339222997427,-0.0437077470123768
91,-0.0218639206141233,-0.0209793299436569,-0.0611589960753918,-0.5,-0.0518724881112576,-0.0510952547192574
92,-0.0276014357805252,-0.0265069324523211,-0.0676201581954956,-0.493274539709091,-0.0589347444474697,-0.0585826709866524
93,-0.031395249068737,-0.0298200696706772,-0.0714261010289192,-0.391213089227676,-0.0659923553466797,-0.0641299337148666
94,-0.0303956661373377,-0.0284011345356703,-0.0702627748250961,-0.319385886192322,-0.0709764659404755,-0.064669743180275
95,-0.0264848489314318,-0.0253074318170547,-0.0669717639684677,-0.262597471475601,-0.0734599530696869,-0.0638484358787537
96,-0.0227862354367971,-0.0232766512781382,-0.0639124512672424,-0.203006908297539,-0.0739337503910065,-0.0645903795957565
97,-0.0183790568262339,-0.0201710220426321,-0.0589105114340782,-0.132007330656052,-0.0713810846209526,-0.0639828220009804
98,-0.0138427969068289,-0.0162239298224449,-0.0530550964176655,-0.0422778464853764,-0.0668833926320076,-0.0618316382169724
99,-0.011558155529201,-0.0133808767423034,-0.0498350150883198,0.058963481336832,-0.0636995509266853,-0.0599813759326935
100,-0.00927366223186255,-0.00924128759652376,-0.0470366813242435,0.157722294330597,-0.0619270354509354,-0.0551697462797165
101,-0.0057966560125351,-0.00382487010210752,-0.0430439151823521,0.264535427093506,-0.0611153692007065,-0.0473288036882877
102,-0.0032816322054714,-0.000628891750238836,-0.0396594293415546,0.389187961816788,-0.0616144314408302,-0.0417086072266102
103,-0.00219904957339168,-0.000973741407506168,-0.0377611182630062,0.5,-0.0626049786806107,-0.0410936772823334
104,-0.00416321074590087,-0.00678554316982627,-0.0404477380216122,0.5,-0.0649932026863098,-0.0477022528648376
105,-0.00892083346843719,-0.01613081805408,-0.0478127300739288,0.5,-0.0688430368900299,-0.058993574231863
106,-0.0109715927392244,-0.0213911458849907,-0.0525763817131519,0.5,-0.0700895637273788,-0.066265843808651
107,-0.0101871332153678,-0.0233482960611582,-0.0536631755530834,0.5,-0.0677083283662796,-0.0703161433339119
108,-0.00840091053396463,-0.0250360872596502,-0.0532142631709576,0.5,-0.0625929161906242,-0.0739514827728271
109,-0.00233746320009232,-0.0217929184436798,-0.0474514476954937,0.5,-0.0536274239420891,-0.071173220872879
110,0.00586906913667917,-0.0143676707521081,-0.0383141413331032,0.5,-0.0441776290535927,-0.0626357346773148
111,0.0125376181676984,-0.00649290857836604,-0.030139584094286,0.497736126184464,-0.0382991880178452,-0.0525315143167973
112,0.0175195932388306,0.00055646279361099,-0.0241217147558928,0.37805250287056,-0.0366343408823013,-0.0423701070249081
113,0.0196707490831614,0.00464269705116749,-0.021969847381115,0.242734029889107,-0.0388532727956772,-0.0350635908544064
114,0.0208058934658766,0.00754363834857941,-0.0210502333939075,0.103889420628548,-0.0414886064827442,-0.0292432997375727
115,0.0244614481925964,0.0126560004428029,-0.0172481518238783,-0.0366177260875702,-0.0409158132970333,-0.0214842036366463
116,0.0284589119255543,0.0171224735677242,-0.0132782813161612,-0.159413293004036,-0.0390100739896297,-0.0151201980188489
117,0.0289563611149788,0.0171836912631989,-0.0134056126698852,-0.232377827167511,-0.0387414321303368,-0.0145300859585404
118,0.0265988893806934,0.0146152451634407,-0.016223605722189,-0.24635075032711,-0.0390767380595207,-0.0177070666104555
119,0.0219773538410664,0.010606306605041,-0.0200812537223101,-0.229859098792076,-0.0392620302736759,-0.0222218781709671
120,0.0140757691115141,0.00387761974707246,-0.0262133367359638,-0.21197772026062,-0.0411112606525421,-0.0284190308302641
121,0.00476570660248399,-0.00397401349619031,-0.0339153632521629,-0.17450162768364,-0.0450008884072304,-0.0350382328033447
122,-0.00262338342145085,-0.00971102714538574,-0.0404345504939556,-0.0843048691749573,-0.0491515956819057,-0.0400528125464916
123,-0.00781818851828575,-0.0133912898600101,-0.0451733432710171,0.0420263223350048,-0.0527909658849239,-0.0446788445115089
124,-0.00977030768990517,-0.0144152669236064,-0.0466432347893715,0.149438917636871,-0.0547586567699909,-0.047484777867794
125,-0.00605827383697033,-0.0101715968921781,-0.0421024896204472,0.202950403094292,-0.0533498451113701,-0.0429630875587463
126,-0.000367520260624588,-0.00406986149027944,-0.03515799716115,0.202499553561211,-0.0506882332265377,-0.0326745845377445
127,0.00103229703381658,-0.00217581330798566,-0.0322174020111561,0.164116993546486,-0.0504087880253792,-0.0240275673568249
128,-0.00113185099326074,-0.0028522287029773,-0.0328408740460873,0.102584168314934,-0.0519695617258549,-0.0185688398778439
129,-0.00358042633160949,-0.00247893831692636,-0.0337537750601768,0.0301234722137451,-0.0526452697813511,-0.014684840105474
130,-0.00526925316080451,1.56076384882908E-05,-0.0331806056201458,-0.044698104262352,-0.049952182918787,-0.0121219269931316
131,-0.00392667669802904,0.00692152278497815,-0.0282194372266531,-0.126414328813553,-0.0418171435594559,-0.00880303233861923
132,2.46901691980383E-07,0.0155489975586534,-0.0198166556656361,-0.204811707139015,-0.03146668151021,-0.0055037415586412
133,0.00372413638979197,0.0203489027917385,-0.0122290477156639,-0.244236499071121,-0.0245052427053452,-0.00517329573631287
134,0.00725900661200285,0.021382924169302,-0.00662716710940003,-0.220645770430565,-0.0218188650906086,-0.00704227248206735
135,0.00967636052519083,0.0200890153646469,-0.00374605529941618,-0.156562969088554,-0.0230488125234842,-0.0104222968220711
136,0.00785982608795166,0.0151327839121223,-0.00629718229174614,-0.0970247760415077,-0.0292165987193584,-0.0175997223705053
137,0.00211278651840985,0.00710703292861581,-0.0143653657287359,-0.0547006689012051,-0.0389538258314133,-0.0286390334367752
138,-0.00322034442797303,0.000455981295090169,-0.0233178082853556,-0.0215903334319592,-0.0485114008188248,-0.0388486348092556
139,-0.00450910720974207,-0.000974857539404184,-0.0281750001013279,-0.0101318359375,-0.0554613135755062,-0.0427658818662167
140,-0.000210897691431455,0.00464162090793252,-0.025593975558877,-0.0550417043268681,-0.0582151636481285,-0.0371523462235928
141,0.00753739289939404,0.0146095650270581,-0.0170057341456413,-0.160194128751755,-0.0564480200409889,-0.0250936485826969
142,0.0168464239686728,0.0261138994246721,-0.00513539323583245,-0.273065537214279,-0.0509186424314976,-0.0101239737123251
143,0.0271215364336967,0.0385335721075535,0.00850963685661554,-0.349396139383316,-0.0433382838964462,0.00629677204415202
144,0.0321259945631027,0.0455997660756111,0.0164261125028133,-0.397833168506622,-0.0390956252813339,0.0161471962928772
145,0.0263132285326719,0.0410156361758709,0.0116189932450652,-0.445413172245026,-0.0423400551080704,0.0129157416522503
146,0.0157409440726042,0.0304915923625231,0.000398649630369619,-0.5,-0.0489643178880215,0.00408017402514815
147,0.00991905946284533,0.0244266577064991,-0.00652996497228742,-0.5,-0.052744634449482,0.00071856239810586
148,0.0104027297347784,0.0255172569304705,-0.00718229869380593,-0.5,-0.0526825711131096,0.00456916401162744
149,0.0136439688503742,0.0304397642612457,-0.00444643897935748,-0.5,-0.0505525022745132,0.0110969468951225
150,0.0151722142472863,0.0338237062096596,-0.00271301274187863,-0.5,-0.0490116961300373,0.0139095652848482
151,0.0122865857556462,0.0320932678878307,-0.00578216603025794,-0.5,-0.049884919077158,0.00930777564644814
152,0.00544880609959364,0.0252532735466957,-0.0137353371828794,-0.5,-0.0529392138123512,-0.00136514019686729
153,-0.00251301494427025,0.0163169447332621,-0.0232210326939821,-0.5,-0.0563910864293575,-0.0132113145664334
154,-0.00922962557524443,0.00848857033997774,-0.0313013680279255,-0.5,-0.0590173453092575,-0.0221809800714254
155,-0.0135591374710202,0.00286388793028891,-0.0371411442756653,-0.5,-0.0607348047196865,-0.0275125596672297
156,-0.0161898899823427,-0.00182629213668406,-0.041715282946825,-0.5,-0.06158497184515,-0.0311808828264475
157,-0.0198713541030884,-0.00781295355409384,-0.0472562126815319,-0.445050477981567,-0.0626237839460373,-0.0361226201057434
158,-0.0240400489419699,-0.0134180849418044,-0.0524968020617962,-0.300639152526855,-0.0639708861708641,-0.0407544784247875
159,-0.0251799765974283,-0.0148664740845561,-0.0535807050764561,-0.166141659021378,-0.0639490261673927,-0.0410760603845119
160,-0.0234616547822952,-0.0131010646000504,-0.0506899766623974,-0.0608266666531563,-0.061699565500021,-0.0387761108577251
161,-0.0202126521617174,-0.0104182986542583,-0.0455090738832951,-0.00113490282092243,-0.0556477122008801,-0.0365276075899601
162,-0.0129408398643136,-0.00413744896650314,-0.0357457138597965,-0.00536851957440376,-0.0445473343133926,-0.0294197518378496
163,-0.00319862295873463,0.00506559200584888,-0.023077592253685,-0.0504790507256985,-0.0339546799659729,-0.0158624183386564
164,0.00260909204371274,0.0107006588950753,-0.0148614859208465,-0.0582469180226326,-0.0309141706675291,-0.00379504845477641
165,0.00184758787509054,0.0102034015581012,-0.0144975567236543,0.0249961130321026,-0.0356755033135414,0.000448420498287305
166,-0.00453942967578769,0.00522691011428833,-0.0204823948442936,0.182717472314835,-0.0445166453719139,-0.0042169876396656
167,-0.0121160848066211,8.05392846814357E-06,-0.0275166742503643,0.357067078351974,-0.0521729849278927,-0.0131564382463694
168,-0.0157548859715462,-0.00162386882584542,-0.0306296162307262,0.498961180448532,-0.0540507920086384,-0.0190013106912375
169,-0.0154660334810615,-0.000895021541509777,-0.0302306283265352,0.5,-0.0502038039267063,-0.0204609669744968
170,-0.0126222381368279,0.000512802391313016,-0.027054950594902,0.5,-0.043543990701437,-0.0200907122343779
171,-0.00750484690070152,0.00282482779584825,-0.0209305845201015,0.5,-0.0368388704955578,-0.0192753914743662
172,0.000352337199728936,0.00828470196574926,-0.0121838459745049,0.5,-0.0312023498117924,-0.0162459351122379
173,0.0111998924985528,0.0186133328825235,-0.00175993621814996,0.5,-0.0264984741806984,-0.00898059457540512
174,0.0179731994867325,0.0254561528563499,0.00207137688994408,0.5,-0.0260732416063547,-0.005624417681247
175,0.0150746079161763,0.0217902641743422,-0.00617882376536727,0.5,-0.0319167524576187,-0.01298419944942
176,0.00843162182718515,0.0143797034397721,-0.0180262513458729,0.5,-0.0388427600264549,-0.023583211004734
177,0.00281054666265845,0.00889963284134865,-0.0264067184180021,0.5,-0.04279525578022,-0.0309230405837297
178,-0.00169108365662396,0.00543450191617012,-0.0308865644037724,0.5,-0.043519102036953,-0.0344736911356449
179,-0.00655862828716636,0.00215977267362177,-0.0340211242437363,0.5,-0.0427150800824165,-0.0369203314185143
180,-0.0144388368353248,-0.0035064285621047,-0.039995901286602,0.5,-0.0435248091816902,-0.0421358942985535
181,-0.0234865006059408,-0.00947729777544737,-0.0475079901516438,0.5,-0.0462111234664917,-0.0479343757033348
182,-0.0301728378981352,-0.0128740044310689,-0.0530138537287712,0.5,-0.0487160608172417,-0.0514519475400448
183,-0.0335299372673035,-0.0135847358033061,-0.0555567480623722,0.5,-0.0493512898683548,-0.0531279966235161
184,-0.0347375571727753,-0.0134231438860297,-0.0564069375395775,0.5,-0.0483016856014729,-0.0542429350316525
185,-0.0339115113019943,-0.0121283382177353,-0.0555695854127407,0.5,-0.0463136471807957,-0.0535077527165413
186,-0.0279056336730719,-0.00541860796511173,-0.0491427779197693,0.5,-0.0416506305336952,-0.04625154286623
187,-0.0169675853103399,0.0062673925422132,-0.0371188931167126,0.5,-0.0338963977992535,-0.0333743542432785
188,-0.00528871035203338,0.0178113337606192,-0.024275366216898,0.5,-0.0257613733410835,-0.0208279453217983
189,0.0046075452119112,0.0265898201614618,-0.0133026335388422,0.5,-0.0190803650766611,-0.0115099679678679
190,0.0109819667413831,0.031589187681675,-0.00536057306453586,0.5,-0.0142897162586451,-0.00593705521896482
191,0.0124199325218797,0.0322685949504375,-0.00143190997187048,0.5,-0.0115630673244596,-0.00405079731717706
192,0.00988296791911125,0.0305250734090805,-0.000553874007891864,0.5,-0.0109590850770473,-0.00316046271473169
193,0.00508321262896061,0.0280996561050415,-0.00186490884516388,0.5,-0.0130499359220266,-0.0006268554716371
194,-0.00274789053946733,0.0218783169984818,-0.00804387871176004,0.5,-0.0185652151703835,-0.000375723175238818
195,-0.0102555090561509,0.0138611532747746,-0.0160318929702044,0.5,-0.0237710643559694,-0.00258962414227426
196,-0.00993046816438437,0.0136064346879721,-0.0161131992936134,0.5,-0.0226071868091822,0.000654648349154741
197,-0.00509231304749846,0.0191336683928967,-0.0105604259297252,0.5,-0.0173985380679369,0.00677051581442356
198,-0.0056524951942265,0.019526494666934,-0.0104328263550997,0.5,-0.0155667327344418,0.00558500736951828
199,-0.0127895148470998,0.0128962201997638,-0.0178422629833221,0.5,-0.0185057315975428,-0.00346589297987521
200,-0.0196995828300714,0.00641835015267134,-0.0257210116833448,0.5,-0.0221153683960438,-0.0120120318606496
201,-0.0203535985201597,0.00673411833122373,-0.026866115629673,0.5,-0.0229383576661348,-0.0121192578226328
202,-0.0138722816482186,0.0151339583098888,-0.0192699674516916,0.5,-0.0202496461570263,-0.00222587934695184
203,-0.00379279488697648,0.0279279872775078,-0.00668239453807473,0.5,-0.0157823897898197,0.012548916041851
204,0.00409148447215557,0.038614310324192,0.0037953678984195,0.5,-0.0129842385649681,0.0238547138869762
205,0.00510463770478964,0.0414592549204826,0.00674332957714796,0.5,-0.014312544837594,0.0254506934434175
206,-0.0029529626481235,0.0335483029484749,0.000218341912841424,0.5,-0.020064128562808,0.0157739073038101
207,-0.0180383678525686,0.0176930632442236,-0.013369825668633,0.5,-0.0282335374504328,-0.000840681896079332
208,-0.0323198772966862,0.00301513774320483,-0.0260387994349003,0.5,-0.0335011705756187,-0.0150369070470333
209,-0.0393994674086571,-0.00354626658372581,-0.0314603708684444,0.5,-0.0320543386042118,-0.0207324642688036
210,-0.0393167398869991,-0.00233694561757147,-0.0301271062344313,0.5,-0.0264480132609606,-0.0187788959592581
211,-0.033717717975378,0.00395543267950416,-0.0240008234977722,0.5,-0.0207671821117401,-0.011236010119319
212,-0.0252458639442921,0.0118182683363557,-0.015362249687314,0.409685701131821,-0.0169203151017427,-0.00100086035672575
213,-0.0173174776136875,0.0180892869830132,-0.00717198243364692,0.278406172990799,-0.015116604976356,0.00860263127833605
214,-0.0104147614911199,0.0233004130423069,0.00023999395489227,0.307729661464691,-0.0136687094345689,0.0166842900216579
215,-0.00645232712849975,0.0255700815469027,0.00477908039465547,0.432202041149139,-0.0125979324802756,0.0197344496846199
216,-0.00819655694067478,0.0218615494668484,0.00343182682991028,0.5,-0.0137346340343356,0.0155013184994459
217,-0.0133421020582318,0.0148368598893285,-0.00145807396620512,0.5,-0.0165993254631758,0.00809344556182623
218,-0.0183207653462887,0.00809861812740564,-0.00643516797572374,0.5,-0.0196630265563726,4.87405086460058E-05
219,-0.0214623734354973,0.00380392209626734,-0.00976956263184547,0.5,-0.0219755508005619,-0.00780646316707134
220,-0.0215551964938641,0.00407953327521682,-0.00973700452595949,0.5,-0.0224000345915556,-0.0120599754154682
221,-0.0181495361030102,0.00959047768265009,-0.00551644153892994,0.5,-0.0203555710613728,-0.00951809156686068
222,-0.0138668110594153,0.0168114602565765,0.000215842534089461,0.5,-0.0175656508654356,-0.00273961457423866
223,-0.0117755308747292,0.0210445765405893,0.00377941364422441,0.5,-0.0159974824637175,0.00265110819600523
224,-0.0099920853972435,0.0235425196588039,0.00650339992716908,0.5,-0.0142660858109593,0.00645212596282363
225,-0.00659695314243436,0.026934377849102,0.0101773459464312,0.5,-0.0111900735646486,0.0100882882252336
226,-0.00505669414997101,0.0284852925688028,0.0110801113769412,0.5,-0.009705550968647,0.0109005710110068
227,-0.00791073497384787,0.0256936587393284,0.00660369917750359,0.5,-0.0119316196069121,0.00761324632912874
228,-0.011380392126739,0.021646810695529,0.000936159456614405,0.5,-0.0147939771413803,0.00370376417413354
229,-0.0118951061740518,0.0193231049925089,-0.00193739600945264,0.5,-0.0148967122659087,0.00122930121142417
230,-0.0107105989009142,0.0175678003579378,-0.00312313693575561,0.5,-0.0126842483878136,-0.00172626855783165
231,-0.00804560817778111,0.0172897260636091,-0.00232701655477285,0.5,-0.00886924006044865,-0.00372057664208114
232,-0.00428572064265609,0.0194927882403135,0.000903215084690601,0.5,-0.00466163828969002,-0.0024931994266808
233,-0.00252818455919623,0.0211678892374039,0.00344418850727379,0.455809235572815,-0.00309964409098029,-0.000846910756081343
234,-0.00251378188841045,0.0224428176879883,0.00508647691458464,0.351311028003693,-0.00435993541032076,0.000745602825190872
235,-0.0026575461961329,0.0249399654567242,0.00692857056856155,0.280299991369247,-0.00690608052536845,0.00461547961458564
236,-0.00299678463488817,0.0277258101850748,0.00824608467519283,0.240673556923866,-0.0101822912693024,0.0111950719729066
237,-0.00244755297899246,0.0309918727725744,0.00979471299797297,0.236964493989944,-0.012599085457623,0.0194898787885904
238,-0.00206358684226871,0.0335405580699444,0.0103930495679379,0.272243052721024,-0.0139077408239245,0.0249280892312527
239,-0.00583709636703134,0.031419925391674,0.00572551973164082,0.343746185302734,-0.0167172215878963,0.0217619650065899
240,-0.0174722764641047,0.020500797778368,-0.008470444008708,0.45754075050354,-0.0238098222762346,0.00610555801540613
241,-0.0350975021719933,0.00238655554130673,-0.0303946267813444,0.5,-0.0338805355131626,-0.0193271189928055
242,-0.0473152510821819,-0.0102819288149476,-0.0470853708684444,0.5,-0.0399489216506481,-0.0395730920135975
243,-0.0440995469689369,-0.00593280047178268,-0.046082679182291,0.5,-0.0368638262152672,-0.0407465398311615
244,-0.0296199079602957,0.0109249036759138,-0.0305363554507494,0.5,-0.0274025946855545,-0.0264896173030138
245,-0.0150824785232544,0.0277268104255199,-0.0128523642197251,0.5,-0.0173286721110344,-0.00934457965195179
246,-0.00555641995742917,0.0381216071546078,-0.000269136478891596,0.5,-0.00939712952822447,0.00363146117888391
247,-0.00368577823974192,0.0382683500647545,0.00264152069576085,0.38323587179184,-0.00647568423300982,0.00699028698727489
248,-0.00920538697391748,0.0293803624808788,-0.00380812818184495,0.171971663832664,-0.00958880502730608,0.00131458649411798
249,-0.0144828101620078,0.0216822605580091,-0.00982058513909578,-0.0129362130537629,-0.0133228227496147,-0.00267305597662926
250,-0.0154960853978992,0.0199844669550657,-0.0101553509011865,-0.152125418186188,-0.0138685395941138,-0.00093478849157691
251,-0.0147254206240177,0.0209858752787113,-0.00801470782607794,-0.23166686296463,-0.0125843761488795,0.00193848868366331
252,-0.0147840594872832,0.0211382620036602,-0.00730166537687182,-0.234593689441681,-0.0117665017023683,0.00245756539516151
253,-0.0173094756901264,0.0180637426674366,-0.00994964502751827,-0.144730359315872,-0.0125955333933234,-0.00101137289311737
254,-0.0223119016736746,0.0117584839463234,-0.0148878181353211,0.0213846638798714,-0.014409052208066,-0.00721621746197343
255,-0.0270041655749083,0.0054171234369278,-0.0190670769661665,0.193947747349739,-0.0157992243766785,-0.011431660503149
256,-0.0262585505843163,0.00477042887359858,-0.0179314259439707,0.297263264656067,-0.0144397327676415,-0.00820611324161291
257,-0.018255477771163,0.0124663915485144,-0.00920672994107008,0.315476924180985,-0.00900607742369175,0.00347942253574729
258,-0.00926973856985569,0.0220209788531065,0.000820940127596259,0.283149719238281,-0.00314774597063661,0.0162646695971489
259,-0.00559695577248931,0.0261117406189442,0.00498500699177384,0.225356847047806,-0.000819618231616914,0.0224249716848135
260,-0.00653635896742344,0.0247902330011129,0.0038993121124804,0.144169062376022,-0.00115684978663921,0.0215128641575575
261,-0.00876496732234955,0.0211006738245487,0.00096292159287259,0.0394570454955101,-0.00152663385961205,0.0164432637393475
262,-0.00729223480448127,0.0209233481436968,0.00169018423184752,-0.0977745652198792,0.00118003180250525,0.0140725020319223
263,-0.000305065390421078,0.0270639769732952,0.0088338041678071,-0.264195829629898,0.00729619199410081,0.0185687225311995
264,0.0063832183368504,0.0328456424176693,0.016701964661479,-0.420555919408798,0.012626301497221,0.0236998219043016
265,0.0075352774001658,0.0320968069136143,0.0198934990912676,-0.5,0.0147323114797473,0.0235042907297611
266,0.00359280686825514,0.026058541610837,0.0185667295008898,-0.5,0.0148489642888308,0.0192428305745125
267,-0.00293097901158035,0.0183369945734739,0.0145222749561071,-0.5,0.0137783912941813,0.0133359944447875
268,-0.0101659540086985,0.0104035865515471,0.0087225092574954,-0.5,0.0107155069708824,0.00668290955945849
269,-0.0143704563379288,0.00527162617072463,0.00429074512794614,-0.5,0.00668637966737151,0.00367377954535186
270,-0.0135797932744026,0.00474543077871203,0.00309640495106578,-0.5,0.00344032421708107,0.00648578489199281
271,-0.0109942778944969,0.00559486681595445,0.00267739570699632,-0.5,0.00106855551712215,0.00992131046950817
272,-0.00808599591255188,0.00721450801938772,0.00334752257913351,-0.5,0.000612795993220061,0.0119286039844155
273,-0.00509764580056071,0.0100685516372323,0.0057346923276782,-0.5,0.00222696550190449,0.0131819881498814
274,-0.00330184423364699,0.0119068715721369,0.00735854636877775,-0.5,0.00429507298395038,0.0125696193426847
275,0.000374195806216449,0.0153363319113851,0.0107642812654376,-0.5,0.00808878429234028,0.0143709201365709
276,0.00595356710255146,0.0208573844283819,0.0162143092602491,-0.5,0.0129230944439769,0.0194911137223244
277,0.0057358886115253,0.0198888350278139,0.0149156926199794,-0.5,0.0130461473017931,0.018165223300457
278,-0.0021935326512903,0.00960911717265844,0.00449324445798993,-0.296408116817474,0.00701463408768177,0.00725899823009968
279,-0.0114477789029479,-0.002861637622118,-0.00765942269936204,-0.0466988012194633,-0.000593495497014374,-0.00527307810261846
280,-0.0157439857721329,-0.0100843776017427,-0.0141058135777712,0.0994951277971268,-0.00453721405938268,-0.0117184212431312
281,-0.0130608091130853,-0.00940571818500757,-0.0121678439900279,0.151472583413124,-0.0021484699100256,-0.00943550560623407
282,-0.00758359441533685,-0.00507907988503575,-0.00655871443450451,0.142195597290993,0.00356927304528654,-0.00259430264122784
283,-0.00544886197894812,-0.00358971045352519,-0.0044564944691956,0.0996380299329758,0.00678153056651354,0.00184008432552218
284,-0.00754227489233017,-0.00600471021607518,-0.00705227535218,0.0171667449176311,0.00528796669095755,0.00242258096113801
285,-0.0107758454978466,-0.00959364604204893,-0.0107253044843674,-0.128891751170158,0.000974162190686911,0.00170565047301352
286,-0.0131019959226251,-0.0124418558552861,-0.0128487376496196,-0.312470495700836,-0.00316708977334201,0.000805720337666571
287,-0.0143265752121806,-0.013597596436739,-0.0135669512674212,-0.462003499269485,-0.00565525609999895,-0.000181849944056012
288,-0.0138102807104588,-0.0111612463369966,-0.0127770816907287,-0.5,-0.00680328719317913,0.000386632862500846
289,-0.00853569153696299,-0.00168880610726774,-0.00729930913075805,-0.5,-0.00550957303494215,0.0064851138740778
290,0.00132158887572587,0.0131822694092989,0.00269580562599003,-0.5,-0.00101456174161285,0.0174748878926039
291,0.0089322617277503,0.0247111432254314,0.00990681722760201,-0.5,0.003298549214378,0.0252544917166233
292,0.0102402772754431,0.0286325477063656,0.0101333148777485,-0.5,0.00463020475581288,0.0260312035679817
293,0.00812254659831524,0.0290271360427141,0.00688784942030907,-0.5,0.00419043656438589,0.0241417121142149
294,0.00458471104502678,0.0282621942460537,0.00267914542928338,-0.5,0.00311793060973287,0.0212949775159359
295,0.000711382715962827,0.0271965526044369,-0.00140985182952136,-0.5,0.00218999944627285,0.0180682018399239
296,-0.00134292745497078,0.0283488370478153,-0.00333294365555048,-0.5,0.00261290278285742,0.0175465401262045
297,-0.00257279211655259,0.0301561951637268,-0.00433252053335309,-0.5,0.00338157266378403,0.0182892270386219
298,-0.00423296447843313,0.0301757175475359,-0.00590773299336433,-0.5,0.00284474506042898,0.0177451130002737
299,-0.00337655562907457,0.0316158756613731,-0.00505218375474215,-0.5,0.00245301844552159,0.0188322346657515
300,0.00337270763702691,0.0386889651417732,0.00209050928242505,-0.5,0.0055033047683537,0.0251384284347296
301,0.0130480332300067,0.0478755198419094,0.0125609142705798,-0.5,0.0109691945835948,0.0329214558005333
302,0.0198492165654898,0.052864134311676,0.0197349674999714,-0.5,0.014409295283258,0.0362241975963116
303,0.0211170874536037,0.0518972277641296,0.0203847028315067,-0.5,0.0134924119338393,0.033763661980629
304,0.0163743365556002,0.0451575666666031,0.0142298564314842,-0.5,0.00833022873848677,0.0259034838527441
305,0.0109953628852963,0.038043025881052,0.00754596153274179,-0.5,0.00330433645285666,0.0181537047028542
306,0.00971098337322474,0.0352428741753101,0.00588116981089115,-0.5,0.00176213507074863,0.0155226597562432
307,0.00758566707372665,0.0315471328794956,0.00377629953436553,-0.5,-0.000252535770414397,0.0129770413041115
308,-7.08090447005816E-05,0.0222073514014483,-0.00447831861674786,-0.5,-0.00640876637771726,0.00539320847019553
309,-0.0109089445322752,0.00987950153648853,-0.0165386106818914,-0.5,-0.0149607956409454,-0.00547783588990569
310,-0.0182879399508238,0.00166729325428605,-0.0250723585486412,-0.5,-0.0211266241967678,-0.0133509766310453
311,-0.0180056449025869,0.00222001783549786,-0.0248008780181408,-0.5,-0.0214608199894428,-0.0135204996913671
312,-0.0148700093850493,0.00626678112894297,-0.0197895597666502,-0.5,-0.0180560555309057,-0.0102269528433681
313,-0.0157298427075148,0.00567703600972891,-0.0180188547819853,-0.5,-0.0153896296396852,-0.0100615378469229
314,-0.0197373796254396,0.00133960205130279,-0.0200846437364817,-0.5,-0.0142024280503392,-0.0111705809831619
315,-0.0225402377545834,-0.0011591570219025,-0.0216148402541876,-0.5,-0.0128773311153054,-0.00926443934440613
316,-0.0243920125067234,-0.00195792759768665,-0.0229155216366053,-0.5,-0.0120792090892792,-0.00686148833483458
317,-0.0266501307487488,-0.00279303081333637,-0.0255500469356775,-0.5,-0.0124329058453441,-0.00597546203061938
318,-0.0278708767145872,-0.00221175490878522,-0.0275866203010082,-0.5,-0.0123937884345651,-0.00400407798588276
319,-0.0284343995153904,-0.00127359537873417,-0.0291964504867792,-0.5,-0.0122735612094402,-0.00215776497498155
320,-0.0303616635501385,-0.00299357855692506,-0.0327403731644154,-0.5,-0.0139390872791409,-0.00466160895302892
321,-0.0340629629790783,-0.00779059296473861,-0.038840901106596,-0.416196972131729,-0.0175020024180412,-0.0127013605087996
322,-0.0372254252433777,-0.0124614043161273,-0.0448011085391045,-0.274869948625565,-0.0207879021763802,-0.0224968977272511
323,-0.0355549193918705,-0.0118216779083014,-0.0449087172746658,-0.171021237969399,-0.0208988133817911,-0.0264140609651804
324,-0.0275834444910288,-0.00424049329012632,-0.0360145457088947,-0.127839311957359,-0.0168996788561344,-0.0204082895070314
325,-0.0192120112478733,0.00397367961704731,-0.0239848997443914,-0.132541611790657,-0.0119579574093223,-0.0111706284806132
326,-0.0181193221360445,0.0048881508409977,-0.0183965861797333,-0.167786434292793,-0.0106141930446029,-0.00857198610901833
327,-0.0231905989348888,-0.000153342902194709,-0.020021827891469,-0.219206422567368,-0.0123059367761016,-0.0116939228028059
328,-0.0263386815786362,-0.00270945020020008,-0.0208730287849903,-0.278721064329147,-0.011853558011353,-0.0114527335390449
329,-0.0248147640377283,-7.3607312515378E-05,-0.0172842610627413,-0.348053187131882,-0.00747910467907786,-0.00577195361256599
330,-0.0241143517196178,0.00199320586398244,-0.0149390483275056,-0.427083075046539,-0.00351045257411897,-0.00215852283872664
331,-0.0265403911471367,0.00110924744512886,-0.0166903454810381,-0.5,-0.00256122881546617,-0.00343450088985264
332,-0.027493154630065,0.00163299718406051,-0.0170713290572166,-0.5,-0.00162120547611266,-0.00374550209380686
333,-0.0242309886962175,0.00516004161909223,-0.0126584079116583,-0.5,0.00153658934868872,2.19422927330015E-05
334,-0.0173792261630297,0.0103268064558506,-0.00474254321306944,-0.5,0.00632311729714274,0.00727983098477125
335,-0.00967138167470694,0.0146352704614401,0.0029187654145062,-0.5,0.0110953385010362,0.0154090626165271
336,-0.0077616130001843,0.0112335607409477,0.00268236803822219,-0.5,0.0122478371486068,0.015860840678215
337,-0.0146513832733035,-0.00241678487509489,-0.00837823376059532,-0.5,0.0080918287858367,0.00478697242215276
338,-0.0260214377194643,-0.0203900206834078,-0.0244203843176365,-0.452738106250763,0.0010831729741767,-0.0111526995897293
339,-0.0369847975671291,-0.0367358103394508,-0.0390879586338997,-0.27857494354248,-0.00596878677606583,-0.0252820774912834
340,-0.0446682907640934,-0.0484768263995647,-0.0489726662635803,-0.0683364793658257,-0.0114729143679142,-0.0350924395024776
341,-0.0463382676243782,-0.0529898032546043,-0.0515998154878616,0.14141246676445,-0.0134607814252377,-0.0388317331671715
342,-0.0406971462070942,-0.0492975153028965,-0.0461454689502716,0.344445198774338,-0.0104251755401492,-0.0355979576706886
343,-0.0321890190243721,-0.0428578443825245,-0.0374230183660984,0.5,-0.00449868896976113,-0.0297497417777777
344,-0.0292190182954073,-0.0428912192583084,-0.0343033224344254,0.5,0.000121825047244783,-0.0299412161111832
345,-0.0371047295629978,-0.0545821785926819,-0.0424300469458103,0.5,0.000797289074398577,-0.0416960380971432
346,-0.0540065206587315,-0.0754059106111526,-0.0600472986698151,0.5,-0.00331722153350711,-0.0624836049973965
347,-0.0730483308434486,-0.0980070829391479,-0.0805738046765327,0.5,-0.0119812693446875,-0.0838298127055168
348,-0.0894973203539848,-0.118459641933441,-0.0999989807605743,0.5,-0.0241981819272041,-0.100768029689789
349,-0.100784704089165,-0.1349066644907,-0.115776650607586,0.5,-0.0362684577703476,-0.112600788474083
350,-0.103456541895866,-0.142961338162422,-0.123097881674767,0.5,-0.0429921597242355,-0.117014110088348
351,-0.0991179645061493,-0.143355384469032,-0.122452050447464,0.5,-0.0439519509673119,-0.115721605718136
352,-0.0928211510181427,-0.140911087393761,-0.118296541273594,0.5,-0.0416188910603523,-0.113300852477551
353,-0.0853726789355278,-0.136418908834457,-0.110916264355183,0.5,-0.0366130247712135,-0.109741292893887
354,-0.0748596340417862,-0.128284469246864,-0.0990014374256134,0.5,-0.0293251033872366,-0.103034436702728
355,-0.058342557400465,-0.113565549254417,-0.0806324407458305,0.5,-0.0192297585308552,-0.0894958600401878
356,-0.0340398177504539,-0.0902266502380371,-0.0538969077169895,0.5,-0.00469305133447051,-0.0655897930264473
357,-0.00907232705503702,-0.0659686252474785,-0.0256147421896458,0.5,0.0111140925437212,-0.0385639406740665
358,0.0065340930595994,-0.0516244173049927,-0.00653694663196802,0.5,0.0220656227320433,-0.0202719327062368
359,0.0124572524800897,-0.0473252013325691,0.00200304458849132,0.5,0.0269443839788437,-0.01170455198735
360,0.0143033573403955,-0.0469247549772263,0.00526830973103642,0.5,0.0285626128315926,-0.0074899266473949
361,0.0181515607982874,-0.0433479994535446,0.0102255614474416,0.5,0.0306290239095688,-0.00173122948035598
362,0.0271936655044556,-0.0326399356126785,0.0210677832365036,0.5,0.034945011138916,0.00929154269397259
363,0.0394899062812328,-0.0177848637104034,0.0356743186712265,0.5,0.0404762141406536,0.02357735671103
364,0.0513617396354675,-0.00408877246081829,0.0496952719986439,0.5,0.0459532737731934,0.036794438958168
365,0.0582144483923912,0.00293020787648857,0.0576620399951935,0.5,0.0491848923265934,0.0438658595085144
366,0.0578167960047722,0.00122515065595508,0.0568929389119148,0.5,0.0483308248221874,0.0428481176495552
367,0.0514132268726826,-0.0071003963239491,0.0491824895143509,0.5,0.0437289923429489,0.0354415439069271
368,0.0401104018092155,-0.0202855374664068,0.0363088101148605,0.5,0.0364857129752636,0.0225593987852335
369,0.0276661943644285,-0.0340167656540871,0.0225676763802767,0.5,0.0294968467205763,0.00859950669109821
370,0.0195000488311052,-0.0428142249584198,0.0136826355010271,0.5,0.0257813222706318,0.000108715837995987
371,0.0156400334089994,-0.0475038811564446,0.00910378806293011,0.5,0.0239730700850487,-0.00355601659975946
372,0.0144351199269295,-0.0503215789794922,0.00683259824290872,0.5,0.0222643259912729,-0.00513803726062179
373,0.0147494515404105,-0.0520136915147305,0.00628751935437322,0.5,0.0209111850708723,-0.00573444133624434
374,0.0134191466495395,-0.0551573298871517,0.00429726904258132,0.5,0.0188360996544361,-0.00823744758963585
375,0.0113408342003822,-0.0582570806145668,0.00152786052785814,0.5,0.0165381282567978,-0.011302936822176
376,0.0110411802306771,-0.0586284846067429,0.000916097720619291,0.5,0.0157861784100533,-0.0120836002752185
377,0.0114119630306959,-0.0582036301493645,0.00152833643369377,0.5,0.0160802025347948,-0.0113517660647631
378,0.00997351016849279,-0.0601322241127491,0.00019694899674505,0.5,0.0155118396505713,-0.0111852390691638
379,0.00381404277868569,-0.067207895219326,-0.00714162085205317,0.5,0.0116991624236107,-0.0155993038788438
380,-0.0076463702134788,-0.0799991339445114,-0.0217561349272728,0.5,0.00433311238884926,-0.0274032317101955
381,-0.0219057835638523,-0.0962074026465416,-0.040628157556057,0.5,-0.00367971626110375,-0.0449111089110374
382,-0.0332417637109756,-0.109579853713512,-0.0562779158353806,0.5,-0.00746557535603642,-0.0606033802032471
383,-0.0356521792709827,-0.112934067845345,-0.0609161667525768,0.5,-0.00430429866537452,-0.0655690357089043
384,-0.0287181101739407,-0.105537101626396,-0.0539088733494282,0.5,0.00322319194674492,-0.058153074234724
385,-0.0135140735656023,-0.0887841433286667,-0.0368785262107849,0.5,0.0129070496186614,-0.0396524406969547
386,0.00827931053936481,-0.0643972456455231,-0.0114916488528252,0.5,0.0244080740958452,-0.0126832313835621
387,0.030064269900322,-0.039774015545845,0.0151436096057296,0.5,0.0353044122457504,0.0135001605376601
388,0.0456028021872044,-0.0220287423580885,0.0353830270469189,0.5,0.0432002283632755,0.0309311095625162
389,0.0520750656723976,-0.014153178781271,0.0449476689100266,0.5,0.0464860126376152,0.037579633295536
390,0.0522852540016174,-0.0132642583921552,0.0462892167270184,0.5,0.0461830869317055,0.0380170792341232
391,0.0538689978420734,-0.0109576787799597,0.048465870320797,0.5,0.0466134883463383,0.0416887477040291
392,0.0566357858479023,-0.00696537969633937,0.0522027760744095,0.5,0.0474811531603336,0.0478329434990883
393,0.0569975860416889,-0.00550481909886003,0.0532972924411297,0.5,0.0471619255840778,0.0500398948788643
394,0.0567991249263287,-0.0051815751940012,0.0533890165388584,0.5,0.0479079149663448,0.0486912317574024
395,0.0574860274791718,-0.00363807380199432,0.0546816252171993,0.5,0.0501564405858517,0.0471593514084816
396,0.060819499194622,0.00215833098627627,0.0597491152584553,0.5,0.053385891020298,0.0503371320664883
397,0.0669872090220451,0.011988409794867,0.0686939880251884,0.5,0.0572434589266777,0.058498427271843
398,0.0703373625874519,0.0183744765818119,0.0747601762413979,0.5,0.0591944083571434,0.0634460523724556
399,0.0679993331432343,0.0174500644207001,0.0740341693162918,0.5,0.0578900165855885,0.0612115636467934
400,0.0623476728796959,0.0123843038454652,0.0685451030731201,0.5,0.0539877712726593,0.0548304952681065
401,0.0543832965195179,0.00572704756632447,0.0598018281161785,0.5,0.0480286404490471,0.0461652427911758
402,0.0461588688194752,1.47828568515251E-05,0.0507998056709766,0.5,0.042262464761734,0.0379507392644882
403,0.0373060554265976,-0.00665734242647886,0.0412031225860119,0.5,0.0369576625525951,0.029155308380723
404,0.0245409347116947,-0.0185539815574884,0.0274230781942606,0.5,0.0299903564155102,0.0158509556204081
405,0.0119349118322134,-0.0303300973027945,0.013787473551929,0.5,0.0232440605759621,0.00332176615484059
406,0.00679946644231677,-0.0339184701442719,0.00772754661738873,0.5,0.020207405090332,-0.000326568231685087
407,0.00884219631552696,-0.0306475982069969,0.00888459477573633,0.5,0.0205489471554756,0.00323663838207722
408,0.013321328908205,-0.0255248975008726,0.0129022235050797,0.5,0.0222016330808401,0.00831927452236414
409,0.0196224376559258,-0.0178920552134514,0.0200530122965574,0.5,0.0253364574164152,0.0153074925765395
410,0.0279218219220638,-0.00714799948036671,0.0306454114615917,0.5,0.0300655495375395,0.0249336641281843
411,0.0373233892023563,0.00484629953280091,0.0428332760930061,0.5,0.0359493531286716,0.0356963612139225
412,0.0496684238314629,0.0194431338459253,0.0580473393201828,0.353762626647949,0.0441835485398769,0.0492095537483692
413,0.0658600553870201,0.0379551202058792,0.0778379514813423,-0.104018144309521,0.0554086863994598,0.0670614242553711
414,0.079371266067028,0.0535385385155678,0.0954723954200745,-0.5,0.0652150362730026,0.0828620046377182
415,0.0805254131555557,0.0555015094578266,0.0996168106794357,-0.5,0.0665893778204918,0.0858817398548126
416,0.0675875395536423,0.0419682860374451,0.0874272733926773,-0.5,0.0584532432258129,0.0735107883810997
417,0.0489694513380528,0.0219850577414036,0.0677542090415955,-0.5,0.0477595664560795,0.0540516786277294
418,0.0356775708496571,0.00726735778152943,0.0528132729232311,-0.5,0.0428188852965832,0.0391661338508129
419,0.0301208570599556,0.000695628055837005,0.0456777550280094,-0.5,0.0430670529603958,0.0320461243391037
420,0.0274091921746731,-0.00262281834147871,0.0412857979536057,-0.5,0.0412937290966511,0.0284872129559517
421,0.0260317232459784,-0.00416031247004867,0.0382753759622574,-0.5,0.0356332287192345,0.0282647181302309
422,0.0264401379972696,-0.00320023531094193,0.0377181209623814,-0.5,0.028996529057622,0.032033659517765
423,0.0267486572265625,-0.00150803686119616,0.037870679050684,-0.5,0.0227650608867407,0.035981297492981
424,0.0260031279176474,6.05412642471492E-05,0.0373852588236332,-0.5,0.0173138808459044,0.0373871214687824
425,0.0229485481977463,-0.000204077397938818,0.0341149866580963,-0.5,0.0116103049367666,0.0337709784507751
426,0.0163095146417618,-0.00437304750084877,0.0265625137835741,-0.5,0.00456101354211569,0.0234028417617083
427,0.00852262228727341,-0.0102164829149842,0.0186989530920982,-0.5,-0.00198038876987994,0.0100169647485018
428,0.00286170467734337,-0.0140413278713822,0.0150071978569031,-0.5,-0.00592449819669127,-0.000792688748333603
429,0.000572033401113003,-0.0136532811447978,0.0159292034804821,-0.5,-0.00729726953431964,-0.00556991435587406
430,0.00136980321258307,-0.00849306397140026,0.0192995332181454,-0.5,-0.00683360919356346,-0.00379256065934896
431,0.00397989107295871,1.11239014586317E-05,0.0224482845515013,-0.5,-0.0048481822013855,0.0025224001146853
432,0.00620050681754947,0.00813182257115841,0.0234744474291801,-0.5,-0.0020316350273788,0.00942869950085878
433,0.00931346416473389,0.0157101973891258,0.0256597567349672,-0.5,0.00251555675640702,0.0172000285238028
434,0.0162413064390421,0.025584576651454,0.0334526002407074,-0.5,0.0100417966023088,0.0284903831779957
435,0.0246019680052996,0.0356009900569916,0.0435365177690983,-0.5,0.0179698467254639,0.0390880852937698
436,0.0307863485068083,0.0424306802451611,0.0506140738725662,-0.5,0.0232219770550728,0.0442281104624271
437,0.0334500633180141,0.0455516017973423,0.0534191355109215,-0.5,0.0250458754599094,0.0447641052305698
438,0.0309725143015385,0.0438414551317692,0.0507401563227177,-0.5,0.0230079926550388,0.0412037186324596
439,0.0247554928064346,0.038248423486948,0.0431842282414436,-0.5,0.0183779541403055,0.0341578386723995
440,0.0198487676680088,0.032978717237711,0.0353113301098347,-0.5,0.0144883394241333,0.0271055418998003
441,0.0175050552934408,0.0290780626237392,0.0291754640638828,-0.5,0.0122914584353566,0.0218682512640953
442,0.0130319129675627,0.0222175102680922,0.0207697115838528,-0.5,0.00899735931307077,0.0153018776327372
443,0.00250923610292375,0.00903725810348988,0.00605988688766956,-0.5,0.00225084484554827,0.00345045304857194
444,-0.00985140260308981,-0.00513422721996903,-0.0101825809106231,-0.5,-0.00518623646348715,-0.0098729282617569
445,-0.0162506513297558,-0.0116611234843731,-0.0188857801258564,-0.5,-0.00828961655497551,-0.0165728386491537
446,-0.0139472158625722,-0.00806036591529846,-0.0166296400129795,-0.5,-0.00511642964556813,-0.0136465802788734
447,-0.00620020227506757,0.00136980938259512,-0.00714358827099204,-0.5,0.0026818010956049,-0.00484232418239117
448,0.00119072757661343,0.0102933403104544,0.0027265353128314,-0.5,0.0110066905617714,0.00325101590715349
449,0.00708966189995408,0.0180618725717068,0.0113297579810023,-0.5,0.0174897946417332,0.0095378402620554
450,0.0137298367917538,0.0267239417880774,0.0206221714615822,-0.5,0.022482443600893,0.0160855110734701
451,0.0198633205145597,0.0343842692673206,0.0287423953413963,-0.5,0.0255462825298309,0.0212343633174896
452,0.0229253470897675,0.0385038629174232,0.0323675349354744,-0.5,0.0257863253355026,0.0228576138615608
453,0.0237862449139357,0.0400988981127739,0.0323543101549149,-0.5,0.024340558797121,0.0228078570216894
454,0.0253005735576153,0.0422526560723782,0.0330160520970821,-0.5,0.023937901481986,0.0247219502925873
455,0.0274760760366917,0.0450080521404743,0.035524770617485,-0.5,0.0256217494606972,0.0280070304870605
456,0.0294636189937592,0.047360010445118,0.0390319898724556,-0.5,0.0288671646267176,0.0306989103555679
457,0.0300145968794823,0.047831118106842,0.0414808802306652,-0.5,0.0315519943833351,0.0309477765113115
458,0.026999119669199,0.044136930257082,0.0397044271230698,-0.5,0.0311092846095562,0.0266938116401434
459,0.021326057612896,0.0373723916709423,0.0347940996289253,-0.5,0.0285588912665844,0.0199512373656034
460,0.0145338587462902,0.0288315005600452,0.0287019461393356,-0.5,0.0264261309057474,0.0131599642336369
461,0.006042106077075,0.0178444776684046,0.0205011107027531,-0.5,0.024781659245491,0.0053900177590549
462,-0.00331433839164674,0.00597616983577609,0.0107438815757632,-0.5,0.0222194008529186,-0.00358733395114541
463,-0.0104440739378333,-0.00289402273483574,0.00251056789420545,-0.5,0.0183763317763805,-0.0110838301479816
464,-0.0137384235858917,-0.00668578874319792,-0.00218667089939117,-0.5,0.0140416612848639,-0.0147640118375421
465,-0.0134379072114825,-0.00561748305335641,-0.00247347634285688,-0.5,0.0105559984222054,-0.0137849953025579
466,-0.011384317651391,-0.00214793509803712,0.000307380774756894,-0.5,0.00834179297089577,-0.00986510887742043
467,-0.00905574858188629,0.0016987631097436,0.00411465624347329,-0.5,0.00742553779855371,-0.0051592169329524
468,-0.005255660507828,0.00667983386665583,0.00926233734935522,-0.5,0.00907072331756353,0.000599051301833242
469,-0.000184992342838086,0.0121123297140002,0.0143468407914042,-0.5,0.012688547372818,0.00684373173862696
470,0.00429927278310061,0.016329251229763,0.0173115786164999,-0.5,0.0155451763421297,0.0130656305700541
471,0.00634862016886473,0.0173151325434446,0.0169901642948389,-0.5,0.0157945584505796,0.0174868684262037
472,0.00494573311880231,0.0139683205634356,0.0126920584589243,-0.5,0.0132725592702627,0.017578199505806
473,0.00287771644070745,0.0102217420935631,0.00770877161994576,-0.5,0.00969834439456463,0.0166127402335405
474,0.00425586430355906,0.0108500178903341,0.00702609354630113,-0.5,0.00828917976468802,0.0198920667171478
475,0.0120626110583544,0.0188692212104797,0.014840860851109,-0.5,0.0126980049535632,0.0306547936052084
476,0.0259809903800488,0.0339197479188442,0.0314479544758797,-0.5,0.022815702483058,0.0479475073516369
477,0.0405890420079231,0.0499618202447891,0.0502889193594456,-0.5,0.033654697239399,0.0645243674516678
478,0.050378929823637,0.0613956153392792,0.0642056167125702,-0.5,0.0404507592320442,0.0741259083151817
479,0.0535254143178463,0.0669432431459427,0.0705577656626701,-0.5,0.0416476279497147,0.0762279704213142
480,0.0509539023041725,0.0672647804021835,0.0704832971096039,-0.5,0.0386752188205719,0.0731340348720551
481,0.0431665703654289,0.061659500002861,0.0645904317498207,-0.5,0.0325913354754448,0.0649261251091957
482,0.0306491870433092,0.0498303882777691,0.0525678880512714,-0.5,0.0235738214105368,0.0508299209177494
483,0.0176044795662165,0.0364077687263489,0.0385354906320572,-0.5,0.0145214283838868,0.0356748774647713
484,0.00846299156546593,0.0264326874166727,0.027859004214406,-0.5,0.00850143656134605,0.025402968749404
485,0.00276678474619985,0.0195477046072483,0.0207108072936535,-0.5,0.00452586635947227,0.0197744835168123
486,0.000317059952067211,0.0159587357193232,0.0174957346171141,-0.5,0.00217233737930655,0.018293984234333
487,0.00198430963791907,0.0169213768094778,0.0192087795585394,-0.5,0.00288416771218181,0.0211093313992023
488,0.00354335270822048,0.0179117824882269,0.0205613374710083,-0.5,0.00442085601389408,0.022894162684679
489,0.0020368411205709,0.0162949897348881,0.0181380603462458,-0.5,0.00455797044560313,0.0209404490888119
490,-0.00224940688349307,0.0121918125078082,0.0123088844120502,-0.5,0.00295796780847013,0.0152499126270413
491,-0.0109111182391644,0.0024371484760195,0.000860447762534022,-0.5,-0.00193384359590709,0.00237634521909058
492,-0.0218588877469301,-0.0110855083912611,-0.0141732767224312,-0.5,-0.00861846003681421,-0.0156329274177551
493,-0.0291601233184338,-0.0209029372781515,-0.0256553869694471,-0.5,-0.0128333456814289,-0.0301649793982506
494,-0.0296792145818472,-0.0221075490117073,-0.0284997019916773,-0.5,-0.0132401445880532,-0.0343655459582806
495,-0.0237095877528191,-0.0141208507120609,-0.0218659918755293,-0.5,-0.0115285702049732,-0.026560815051198
496,-0.0140123032033443,-0.00185300386510789,-0.00989820342510939,-0.5,-0.00893980357795954,-0.0121362619102001
497,-0.00554824434220791,0.00666148960590363,0.000325908127706498,-0.5,-0.00582799594849348,-0.00058101472677663
498,-0.000317733531119302,0.0100856181234121,0.00650186371058226,-0.5,-0.00245779356919229,0.0050772181712091
499,0.00109858880750835,0.00955289881676435,0.00817077979445457,-0.5,-0.000597812002524734,0.00498767057433724
500,-0.00477380817756057,0.00165967002976686,0.00126256642397493,-0.5,-0.00380584271624684,-0.00402248417958617
501,-0.0142600852996111,-0.0088337417691946,-0.00949722249060869,-0.5,-0.0102525092661381,-0.01639692671597
502,-0.0190144516527653,-0.0123201282694936,-0.0137402676045895,-0.5,-0.0143736153841019,-0.0224593207240105
503,-0.017442824319005,-0.0081420736387372,-0.00995515752583742,-0.5,-0.0143973436206579,-0.0209921728819609
504,-0.0136807216331363,-0.00271124253049493,-0.00425641005858779,-0.5,-0.0123135391622782,-0.0169442631304264
505,-0.012320932932198,-0.00185756396967918,-0.00266675464808941,-0.5,-0.0110314711928368,-0.015838785097003
506,-0.0139807285740972,-0.00541046494618058,-0.00531651824712753,-0.5,-0.0110684698447585,-0.0183595009148121
507,-0.0183489639312029,-0.0117119932547212,-0.0108410371467471,-0.5,-0.0121566327288747,-0.0240062661468983
508,-0.0239180028438568,-0.0181092843413353,-0.017216008156538,-0.5,-0.0137585885822773,-0.0307766273617744
509,-0.0263480339199305,-0.0194647647440434,-0.0197634156793356,-0.5,-0.0137988263741136,-0.0331828445196152
510,-0.0259339660406113,-0.0163050405681133,-0.0185906197875738,-0.5,-0.0123805534094572,-0.0312298536300659
511,-0.0286042783409357,-0.0159123539924622,-0.0205197762697935,-0.5,-0.0127440644428134,-0.0320373252034187
512,-0.0355672501027584,-0.0208632703870535,-0.0284386873245239,-0.5,-0.0156678985804319,-0.037849023938179
513,-0.0425568744540215,-0.0271905791014433,-0.0384613648056984,-0.5,-0.0191027354449034,-0.0444561913609505
514,-0.0465292632579803,-0.0314724780619144,-0.0461376346647739,-0.5,-0.0215656403452158,-0.0484429039061069
515,-0.0450348258018494,-0.0307831317186356,-0.047264214605093,-0.5,-0.0213300306349993,-0.0467923134565353
516,-0.0388967432081699,-0.0258689858019352,-0.0422446615993977,-0.5,-0.0184378866106272,-0.0404096879065037
517,-0.032186821103096,-0.0208489131182432,-0.0358685366809368,-0.5,-0.0147842979058623,-0.0326634384691715
518,-0.0291009265929461,-0.0195327252149582,-0.0330058038234711,-0.5,-0.0127258384600282,-0.0264900233596563
519,-0.029500238597393,-0.0210950206965208,-0.0336412452161312,-0.5,-0.0124326488003135,-0.0225024074316025
520,-0.029511159285903,-0.0221376232802868,-0.0341389551758766,-0.5,-0.0112440139055252,-0.0201068986207247
521,-0.0280839055776596,-0.0226944554597139,-0.0338344015181065,-0.5,-0.00844351295381784,-0.0203758217394352
522,-0.0236130654811859,-0.0201457552611828,-0.0302421059459448,-0.5,-0.00430638715624809,-0.0187316238880157
523,-0.0168881602585316,-0.0142081417143345,-0.0235170181840658,-0.5,-0.000348170608049259,-0.0133172366768122
524,-0.012992013245821,-0.0105341263115406,-0.0191871784627438,-0.5,0.00130441947840154,-0.010245168581605
525,-0.0127121992409229,-0.0104100685566664,-0.0180637985467911,-0.5,0.00229345983825624,-0.0112416464835405
526,-0.0128562664613128,-0.0106754684820771,-0.0169359501451254,-0.5,0.00524709420278668,-0.0127127235755324
527,-0.0135048283264041,-0.0115933511406183,-0.0167132820934057,-0.5,0.00818978622555733,-0.0144705893471837
528,-0.0159776192158461,-0.0146281849592924,-0.0193889271467924,-0.5,0.00744596309959888,-0.0185025408864021
529,-0.0162675809115171,-0.0153951412066817,-0.020166601985693,-0.5,0.00454236380755901,-0.0205732397735119
530,-0.0115563431754708,-0.0107202995568514,-0.0152372438460588,-0.5,0.00282011018134654,-0.0168861020356417
531,-0.00720650609582663,-0.00630867062136531,-0.0103344041854143,-0.5,0.00090963247930631,-0.0132596082985401
532,-0.00946106016635895,-0.00908254738897085,-0.0129123153164983,-0.5,-0.00445470632985234,-0.0169135890901089
533,-0.0184381008148193,-0.0191524047404528,-0.0236842092126608,-0.5,-0.0137698594480753,-0.0279222559183836
534,-0.0270645283162594,-0.0285783801227808,-0.0345440953969955,-0.5,-0.0226504933089018,-0.0378401353955269
535,-0.0295586735010147,-0.0310652852058411,-0.0383998975157738,-0.5,-0.0268302243202925,-0.0400790423154831
536,-0.0292319748550653,-0.0303295534104109,-0.0387571305036545,-0.5,-0.0283071957528591,-0.0397632718086243
537,-0.0284849479794502,-0.0292032826691866,-0.0385272167623043,-0.5,-0.0291388537734747,-0.0406138449907303
538,-0.0242663454264402,-0.0243665408343077,-0.033692754805088,-0.5,-0.0272482335567474,-0.0372067093849182
539,-0.019922437146306,-0.019145330414176,-0.0268509648740292,-0.5,-0.024120032787323,-0.0304853096604347
540,-0.023487776517868,-0.0222711395472288,-0.0276311635971069,-0.5,-0.0252425819635391,-0.029529171064496
541,-0.0314521044492722,-0.029816634953022,-0.0341448672115803,-0.5,-0.0294917821884155,-0.0324600785970688
542,-0.0361160486936569,-0.0333949401974678,-0.0387553796172142,-0.5,-0.0324847586452961,-0.0329788886010647
543,-0.0403807871043682,-0.0368523001670837,-0.0444591976702213,-0.5,-0.0358641035854816,-0.0362365357577801
544,-0.0468565039336681,-0.0437413416802883,-0.0538659393787384,-0.5,-0.0409740805625916,-0.0453348197042942
545,-0.050772562623024,-0.0492637790739536,-0.0613471232354641,-0.5,-0.0446686372160912,-0.054116066545248
546,-0.0464928895235062,-0.0470466092228889,-0.0598694905638695,-0.5,-0.0430228747427464,-0.0555451922118664
547,-0.0316262319684029,-0.0337220169603825,-0.0454938448965549,-0.5,-0.0340576767921448,-0.0454852655529976
548,-0.0131050162017345,-0.0162890292704105,-0.0248325634747744,-0.5,-0.0222036112099886,-0.0296566113829613
549,-0.00144817167893052,-0.00585839664563537,-0.00981864426285028,-0.5,-0.0140882171690464,-0.0187057070434093
550,0.00326920673251152,-0.00253986567258835,-0.00203833472914994,-0.5,-0.00955393072217703,-0.0129026109352708
551,0.00716751394793391,7.89070836617611E-05,0.00388871878385544,-0.5,-0.00495652761310339,-0.00639166170731187
552,0.0118389958515763,0.00410500029101968,0.00962737109512091,-0.5,0.00028418016154319,0.00178524781949818
553,0.0135681023821235,0.00591882271692157,0.0117821050807834,-0.5,0.00342001998797059,0.00697995768859982
554,0.00811617355793715,0.000626016932073981,0.00571206258609891,-0.5,0.00181326875463128,0.00310278194956481
555,-0.00212967023253441,-0.00953067746013403,-0.00611411407589912,-0.5,-0.00201592175289989,-0.00825666636228561
556,-0.00977310631424189,-0.016841396689415,-0.0152456630021334,-0.5,-0.00205914257094264,-0.0183600354939699
557,-0.0137373972684145,-0.0204375740140677,-0.0204747766256332,-0.5,0.00196537701413035,-0.0250154286623001
558,-0.0202143266797066,-0.0268543399870396,-0.0286196488887072,-0.5,0.00327474623918533,-0.0340640731155872
559,-0.0324140340089798,-0.0392629019916058,-0.0428552962839603,-0.5,-0.00263624987564981,-0.0482827387750149
560,-0.044542670249939,-0.0514850877225399,-0.0568438544869423,-0.335403770208359,-0.0120675936341286,-0.0611908175051212
561,-0.0492839850485325,-0.0556874498724937,-0.0628170967102051,0.0931701809167862,-0.0189414825290442,-0.0650845319032669
562,-0.048879973590374,-0.054398063570261,-0.0631956681609154,0.437677592039108,-0.0229160506278276,-0.0634419918060303
563,-0.0487781763076782,-0.0541631765663624,-0.064071923494339,0.5,-0.0261152014136314,-0.0632423460483551
564,-0.0491614006459713,-0.0556118600070477,-0.0660530552268028,0.5,-0.028318652883172,-0.064523734152317
565,-0.0488439947366714,-0.0570563040673733,-0.0678485408425331,0.5,-0.0294963363558054,-0.0652921050786972
566,-0.0449793562293053,-0.0548057034611702,-0.0651941820979118,0.5,-0.0288011766970158,-0.0619685985147953
567,-0.0352164097130299,-0.0457900986075401,-0.0541208423674107,0.5,-0.0247130356729031,-0.0517407134175301
568,-0.0237514283508062,-0.0340810939669609,-0.0394735112786293,0.5,-0.0192196108400822,-0.0390436165034771
569,-0.0162519235163927,-0.0261380076408386,-0.0288031082600355,0.5,-0.015240266919136,-0.029938405379653
570,-0.0135870417580009,-0.0237365234643221,-0.0237968284636736,0.5,-0.0130769396200776,-0.0253766719251871
571,-0.0130175445228815,-0.0236050803214312,-0.0215342324227095,0.427391678094864,-0.0114812748506665,-0.0224362630397081
572,-0.0117819756269455,-0.0215948205441237,-0.0193455256521702,0.186969622969627,-0.00965755712240934,-0.0183500088751316
573,-0.00893170107156038,-0.0163461957126856,-0.0167598407715559,0.0497047938406467,-0.00780829042196274,-0.0129389790818095
574,-0.00577119085937738,-0.0106411799788475,-0.0150957265868783,0.00927019119262695,-0.00613103434443474,-0.00919624697417021
575,-0.00264205550774932,-0.00652084266766906,-0.0139801017940044,-0.0439700521528721,-0.00351869268342853,-0.00822955276817083
576,0.00266723637469113,-0.00114210683386773,-0.0101468870416284,-0.204155325889587,0.000797327666077763,-0.00545088853687048
577,0.00916025787591934,0.00541371339932084,-0.00437442027032375,-0.443252742290497,0.00489031337201595,0.000261370179941878
578,0.0132028525695205,0.00902168918401003,-0.000911520968656987,-0.5,0.00714010652154684,0.00469963951036334
579,0.0161519553512335,0.0113497180864215,0.00185319420415908,-0.5,0.00935309287160635,0.00964043848216534
580,0.0215695165097713,0.016691280528903,0.00821719784289598,-0.5,0.0138508006930351,0.0192075967788696
581,0.0267097111791372,0.0219828747212887,0.0151073876768351,-0.5,0.0189824867993593,0.0281055942177773
582,0.0272567048668861,0.0226836409419775,0.0174887627363205,-0.5,0.0213786624372005,0.0292673241347075
583,0.0238978117704391,0.0194725412875414,0.0154284788295627,-0.5,0.0201305747032166,0.0234548505395651
584,0.0193010177463293,0.0149503415450454,0.0109802978113294,-0.5,0.0160705856978893,0.0155024314299226
585,0.01471315510571,0.0106507670134306,0.00537430262193084,-0.5,0.0101623916998506,0.00878843478858471
586,0.00923621654510498,0.00548095908015966,-0.00198619952425361,-0.5,0.00302175548858941,0.00246761948801577
587,0.00185795535799116,-0.00244281371124089,-0.0117941442877054,-0.5,-0.00375273055396974,-0.0062654702924192
588,-0.00541298883035779,-0.0112518034875393,-0.0211277324706316,-0.5,-0.00672593573108315,-0.0165354609489441
589,-0.00946585927158594,-0.0170907117426395,-0.0258984137326479,-0.5,-0.00506929960101843,-0.0249999221414328
590,-0.0107962097972631,-0.0201537497341633,-0.0267606060951948,-0.5,-0.00310388533398509,-0.031359575688839
591,-0.00939037371426821,-0.0202530045062304,-0.0241886172443628,-0.5,-0.00310178147628903,-0.0331111699342728
592,-0.00327047077007592,-0.015473828651011,-0.016897302120924,-0.5,-0.00310405250638723,-0.0262731201946735
593,0.00474766129627824,-0.0089850053191185,-0.00881407968699932,-0.5,-0.00352375931106508,-0.0152873229235411
594,0.00737646641209722,-0.00748859439045191,-0.00726105691865087,-0.5,-0.00846322253346443,-0.0105015123263001
595,-0.00128385610878468,-0.0165488887578249,-0.0176296140998602,-0.355962246656418,-0.0208395887166262,-0.0198466181755066
596,-0.0180433504283428,-0.0345318838953972,-0.0367764569818974,0.109713152050972,-0.0358541421592236,-0.0409350581467152
597,-0.031982060521841,-0.0515532754361629,-0.0531445667147636,0.5,-0.0448108538985252,-0.0614290870726109
598,-0.0377939604222775,-0.0604244992136955,-0.0600220113992691,0.5,-0.046047393232584,-0.0725182890892029
599,-0.0385161340236664,-0.062447763979435,-0.0606081038713455,0.5,-0.0437768325209618,-0.0754433944821358
600,-0.0382202938199043,-0.0621462501585484,-0.0605993457138538,0.5,-0.0415913462638855,-0.0752500742673874
601,-0.039159469306469,-0.0625060126185417,-0.0627655833959579,0.5,-0.0411186292767525,-0.0755770429968834
602,-0.0396187342703342,-0.0616595707833767,-0.0640255138278008,0.5,-0.0408678241074085,-0.0749487802386284
603,-0.0352167524397373,-0.0545229874551296,-0.0582845136523247,0.5,-0.0371267832815647,-0.0682496428489685
604,-0.0275159496814013,-0.0428610034286976,-0.0476090721786022,0.5,-0.0303792301565409,-0.0568708442151546
605,-0.023678295314312,-0.0352758690714836,-0.0415335223078728,0.5,-0.0255050957202911,-0.0481479577720165
606,-0.0251258034259081,-0.0339551568031311,-0.0424043200910091,0.5,-0.0238835513591766,-0.0432319045066834
607,-0.0243837758898735,-0.0308167412877083,-0.0415188409388065,0.5,-0.0213291980326176,-0.0350962765514851
608,-0.0152703179046512,-0.0188715141266584,-0.031450554728508,0.5,-0.0141055164858699,-0.0192587170749903
609,-0.000239544053329155,-0.000365882442565635,-0.0148270381614566,0.5,-0.00370765523985028,0.000231668818742037
610,0.0146165359765291,0.0176088195294142,0.00129305594600737,0.5,0.00589401833713055,0.0163853541016579
611,0.0242186523973942,0.0283846259117126,0.0109646320343018,0.5,0.0116953067481518,0.0235953610390425
612,0.0256557408720255,0.0289501044899225,0.0109873525798321,0.5,0.0128798708319664,0.01949617639184
613,0.0192415416240692,0.0210776403546333,0.00253336410969496,0.5,0.0108843706548214,0.00620122393593192
614,0.00879761949181557,0.0098511828109622,-0.00879435520619154,0.5,0.00732352491468191,-0.0103547293692827
615,-0.000774031272158027,0.000250479351961985,-0.0171419680118561,0.5,0.00287756184116006,-0.0238804947584867
616,-0.00660025328397751,-0.00551662500947714,-0.0205429121851921,0.5,-0.0015062871389091,-0.0311760250478983
617,-0.00818475056439638,-0.00722521496936679,-0.0199454948306084,0.5,-0.00408646278083324,-0.0316185243427753
618,-0.00722789019346237,-0.00619738968089223,-0.0175853706896305,0.5,-0.00422116974368691,-0.0268031004816294
619,-0.00688063446432352,-0.00565112521871924,-0.0162178780883551,0.5,-0.00374250742606819,-0.0210741683840752
620,-0.0108247799798846,-0.0101601034402847,-0.0195957887917757,0.5,-0.00607252214103937,-0.0206965804100037
621,-0.0190975107252598,-0.0198964271694422,-0.0284034311771393,0.5,-0.0123071046546102,-0.0268557257950306
622,-0.0277307983487844,-0.0298583377152681,-0.0384960733354092,0.5,-0.0201478730887175,-0.034442100673914
623,-0.0334839262068272,-0.0357540249824524,-0.0455686338245869,0.5,-0.0270134955644608,-0.0393614657223225
624,-0.0353596620261669,-0.0364445671439171,-0.0477579906582832,0.5,-0.0315054729580879,-0.0412664040923119
625,-0.0332890339195728,-0.0327425710856915,-0.0448522679507732,0.5,-0.0326775014400482,-0.0403972417116165
626,-0.0273387096822262,-0.0253509655594826,-0.0374549962580204,0.5,-0.0304819736629725,-0.0350911617279053
627,-0.0223227459937334,-0.0195183288305998,-0.0316389128565788,0.5,-0.0284237470477819,-0.0294871274381876
628,-0.0228740163147449,-0.020639706403017,-0.0329901613295078,0.5,-0.0289606004953384,-0.0304731745272875
629,-0.0247060600668192,-0.0241649951785803,-0.0365800149738789,0.5,-0.029274744912982,-0.03518370911479
630,-0.0230557583272457,-0.0240632947534323,-0.0364074297249317,0.5,-0.0273338370025158,-0.0381496176123619
631,-0.0174834206700325,-0.0191692095249891,-0.0318678207695484,0.5,-0.0230640582740307,-0.0375740937888622
632,-0.00724753271788359,-0.0085490383207798,-0.0226350855082273,0.5,-0.015289138071239,-0.0310288593173027
633,0.00682437466457486,0.00680229719728231,-0.00927961152046919,0.5,-0.00440391013398767,-0.0182210877537727
634,0.0183935277163982,0.0194177031517029,0.00205594603903592,0.5,0.00479936227202415,-0.00619853334501386
635,0.0236050952225924,0.0249347668141127,0.00718858791515231,0.5,0.00872324593365192,0.000508837460074574
636,0.025693267583847,0.0274956542998552,0.00908333621919155,0.5,0.00837862584739923,0.00572571763768792
637,0.0264833904802799,0.0293042398989201,0.00922875385731459,0.5,0.00527793914079666,0.010444900020957
638,0.0268119852989912,0.0309170540422201,0.00889756344258785,0.5,0.00231661414727569,0.0134511478245258
639,0.0281506255269051,0.0335239507257938,0.0105951856821775,0.5,0.00280761928297579,0.0152834858745337
640,0.0290073771029711,0.0353036634624004,0.0126157868653536,0.5,0.00504514947533607,0.014984143897891
641,0.0261711459606886,0.0327005349099636,0.0101853217929602,0.5,0.00351216644048691,0.0104545187205076
642,0.019751250743866,0.0259765218943357,0.00244595692493021,0.5,-0.00302280555479229,0.00366175989620388
643,0.0147121725603938,0.0207890141755342,-0.00464481255039573,0.5,-0.00919836480170488,0.00117942132055759
644,0.0136526692658663,0.0200023390352726,-0.00672893226146698,0.5,-0.0117951361462474,0.00439919158816338
645,0.0158509016036987,0.0228938944637775,-0.00376402819529176,0.5,-0.0118672996759415,0.0111409742385149
646,0.0208541955798864,0.0288059543818235,0.00367657491005957,0.5,-0.0101569844409823,0.0209114905446768
647,0.0250198394060135,0.0334134213626385,0.0115001490339637,0.5,-0.00837664864957333,0.0286742374300957
648,0.0249640550464392,0.0326503291726112,0.0151466587558389,0.5,-0.00793688092380762,0.0290339086204767
649,0.0228951200842857,0.0290440395474434,0.0156784858554602,0.5,-0.00719453860074282,0.0243817064911127
650,0.021268742159009,0.0267183966934681,0.015843229368329,0.5,-0.00544272875413299,0.019477803260088
651,0.0185806304216385,0.0258257929235697,0.0151214320212603,0.5,-0.00540039595216513,0.0154275288805366
652,0.0103584490716457,0.0212713852524757,0.00853404309600592,0.5,-0.0103609543293715,0.00762830208986998
653,-0.00410854676738381,0.00949995871633291,-0.00645225122570992,0.5,-0.0195117108523846,-0.00797125790268183
654,-0.017138758674264,-0.00324109173379838,-0.0221282038837671,0.5,-0.0277025550603867,-0.0253034327179194
655,-0.0228218715637922,-0.00966852437704802,-0.0305859670042992,0.5,-0.0322826541960239,-0.0361035205423832
656,-0.0210376959294081,-0.00777044286951423,-0.030643368139863,0.5,-0.0333193019032478,-0.0368923023343086
657,-0.0121621824800968,0.00249069952405989,-0.0226475521922112,0.5,-0.0297011807560921,-0.027106024324894
658,0.000464922602986917,0.0166594851762056,-0.0103525891900063,0.5,-0.0220922157168388,-0.0125974444672465
659,0.0101605802774429,0.0268669873476028,-0.00114929955452681,0.5,-0.0137875210493803,-0.00281274481676519
660,0.0132885156199336,0.0293947011232376,0.00162799283862114,0.5,-0.00648897886276245,-0.000607109221164137
661,0.00953346863389015,0.024530341848731,-0.00202798820100725,0.5,-0.00169429078232497,-0.00397985614836216
662,0.00154521048534662,0.0154956057667732,-0.0101669048890471,0.5,-0.00136593077331781,-0.0100847100839019
663,-5.9082802181365E-05,0.0140796769410372,-0.011716702952981,0.5,-0.00119844742584974,-0.00871885940432549
664,0.0105815632268786,0.0273141954094172,7.55789005779661E-05,0.5,0.00272252503782511,0.00600973982363939
665,0.0242183972150087,0.0452421680092812,0.0151651035994291,0.5,0.00594239216297865,0.0237402990460396
666,0.0321276411414146,0.0569029748439789,0.0242524389177561,0.5,0.00534230982884765,0.0341433435678482
667,0.0333648435771465,0.0596630945801735,0.0266610067337751,0.5,0.00248474767431617,0.0355321355164051
668,0.0316167175769806,0.0574643984436989,0.0260843578726053,0.5,-0.000190294536878355,0.0324833653867245
669,0.031108133494854,0.0557468459010124,0.0264608077704906,0.349304705858231,-0.00114637985825539,0.0316644422709942
670,0.0316635183990002,0.0552374310791492,0.0272311009466648,0.196651220321655,-0.0012612035498023,0.0346747227013111
671,0.0325945243239403,0.0560772567987442,0.0285719148814678,0.0557409711182117,-0.00078696187119931,0.0402559116482735
672,0.0347363874316216,0.0594438053667545,0.0329404659569263,-0.0975601524114609,0.0015789985191077,0.047063585370779
673,0.0370767638087273,0.0634388104081154,0.0390989258885384,-0.230482071638107,0.00521747581660748,0.0518682301044464
674,0.0354111194610596,0.0625808015465736,0.0405910275876522,-0.313617140054703,0.00637367600575089,0.0496338047087193
675,0.0260732769966125,0.052458580583334,0.0317015163600445,-0.36738333106041,0.00188864639494568,0.0375951863825321
676,0.0139375682920218,0.0386471338570118,0.0176086947321892,-0.412232577800751,-0.00496360007673502,0.0226615127176046
677,0.00870475079864264,0.0327639803290367,0.0104985656216741,-0.433976203203201,-0.00732402922585607,0.0160884857177734
678,0.00953318830579519,0.0344272032380104,0.0110566979274154,-0.405171722173691,-0.00551768206059933,0.0164706278592348
679,0.00671062152832747,0.0333071611821651,0.00868392828851938,-0.315442055463791,-0.00621597561985254,0.0136051876470447
680,-0.00143887440208346,0.0276719108223915,0.000886072928551584,-0.193252757191658,-0.0108194556087255,0.0070790983736515
681,-0.00977207161486149,0.0216542221605778,-0.0071683581918478,-0.084892101585865,-0.0157552193850279,0.00178454385604709
682,-0.0151341492310166,0.0176147595047951,-0.012467922642827,-0.0279697105288506,-0.0179086271673441,-0.000677453528624028
683,-0.0119033409282565,0.0223316941410303,-0.00933229364454746,-0.0550461485981941,-0.0124933207407594,0.00562304072082043
684,0.00308779999613762,0.0393876805901527,0.00543971313163638,-0.175421416759491,0.00152591720689088,0.0240471810102463
685,0.0216395370662212,0.0590794272720814,0.0233902893960476,-0.349814057350159,0.0159300658851862,0.0442749336361885
686,0.0317314229905605,0.067821130156517,0.0320426039397717,-0.49711149930954,0.0216849930584431,0.052075631916523
687,0.0296227149665356,0.0621426440775394,0.0272020883858204,-0.5,0.0174262542277575,0.0446996986865997
688,0.0203050300478935,0.0490177161991596,0.0141085321083665,-0.5,0.00780597608536482,0.0303027927875519
689,0.00913672149181366,0.0350401774048805,-0.00114435446448624,-0.461455255746841,-0.00305890804156661,0.0151225235313177
690,-0.00109651871025562,0.0226905066519976,-0.015344575047493,-0.427612245082855,-0.0139601416885853,0.000315946905175224
691,-0.00919674336910248,0.0125044034793973,-0.026939382776618,-0.383787631988525,-0.0242180582135916,-0.0137490648776293
692,-0.0136121520772576,0.00570155773311853,-0.0334571003913879,-0.311863154172897,-0.0309927742928267,-0.0243792403489351
693,-0.0121808182448149,0.00475521059706807,-0.0320290997624397,-0.25892636179924,-0.0315473005175591,-0.0273212883621454
694,-0.0063827526755631,0.00920396856963634,-0.0243595447391272,-0.23394387960434,-0.0274356491863728,-0.0223311111330986
695,-0.000679324206430465,0.0153726087883115,-0.0156228179112077,-0.180576354265213,-0.0224557425826788,-0.0139673333615065
696,0.0025081099011004,0.0202093403786421,-0.00912959594279528,-0.0832828208804131,-0.0189968813210726,-0.00709210336208344
697,0.00477958982810378,0.0239167455583811,-0.00388837396167219,0.0192670319229364,-0.0167417097836733,-0.0024015698581934
698,0.00910004414618015,0.0288644302636385,0.00318856327794492,0.0916226729750633,-0.0137183917686343,0.00321767223067582
699,0.0153734749183059,0.0354900062084198,0.0123544912785292,0.0870113745331764,-0.0095835393294692,0.0111175812780857
700,0.023037564009428,0.0438426397740841,0.0229734424501657,-0.0513053014874458,-0.0044116023927927,0.0213866103440523
701,0.0321515277028084,0.0533293485641479,0.0345954969525337,-0.302471905946732,0.00190523115452379,0.0328815467655659
702,0.0394959673285484,0.0594904497265816,0.043177779763937,-0.5,0.00692007783800364,0.0407560989260674
703,0.041867658495903,0.0592305026948452,0.0450312048196793,-0.5,0.00833045784384012,0.0420438535511494
704,0.0380641259253025,0.0525280646979809,0.0394804067909718,-0.5,0.00583465676754713,0.0367671027779579
705,0.0276781432330608,0.0399578027427197,0.027130912989378,-0.5,-0.000668413180392236,0.0253187939524651
706,0.0130929984152317,0.0239404831081629,0.0108278086408973,-0.5,-0.00954025983810425,0.00992653425782919
707,-0.000535159604623914,0.00908179581165314,-0.00413740752264857,-0.404583930969238,-0.0157535690814257,-0.00492584658786654
708,-0.0122952470555902,-0.00408955384045839,-0.0170042086392641,-0.124237462878227,-0.0177678018808365,-0.0189255382865667
709,-0.022671515122056,-0.0156254414469004,-0.0282132085412741,0.135020986199379,-0.0183866284787655,-0.0316931456327438
710,-0.0283968392759562,-0.0213259663432837,-0.0335659682750702,0.357935160398483,-0.0188974179327488,-0.0376340746879578
711,-0.0304334349930286,-0.0224335957318544,-0.0341868884861469,0.5,-0.0209679510444403,-0.0375309586524963
712,-0.0306940022855997,-0.02148194052279,-0.0331178419291973,0.5,-0.0246768351644278,-0.0350091531872749
713,-0.0309027452021837,-0.0209419187158346,-0.0328867137432098,0.5,-0.0290697328746319,-0.0338866971433163
714,-0.0334015898406506,-0.0241700690239668,-0.0362763442099094,0.5,-0.0337538607418537,-0.03707604855299
715,-0.0349793173372746,-0.0274557936936617,-0.0391905531287193,0.5,-0.0360121242702007,-0.0390744209289551
716,-0.0327102392911911,-0.0264830570667982,-0.0371132753789425,0.5,-0.0342637449502945,-0.0354244560003281
717,-0.0280299000442028,-0.0220966171473265,-0.0310417152941227,0.5,-0.0299096535891294,-0.0287516936659813
718,-0.0235052779316902,-0.0172876827418804,-0.0241696164011955,0.5,-0.0250602066516876,-0.0232781171798706
719,-0.0203955285251141,-0.0137269133701921,-0.0185339022427797,0.5,-0.0210453905165195,-0.0200839787721634
720,-0.0197251755744219,-0.0125599689781666,-0.016554269939661,0.5,-0.0193011108785868,-0.018953962251544
721,-0.0192630346864462,-0.0115420008078218,-0.0167843382805586,0.5,-0.0186498370021582,-0.0164760258048773
722,-0.0139127597212791,-0.00548380194231868,-0.0129783460870385,0.5,-0.0150577267631888,-0.00738977547734976
723,-0.00512984907254577,0.00400037690997124,-0.00535846035927534,0.5,-0.00894605647772551,0.00527265341952443
724,0.00348945101723075,0.0134792272001505,0.00320780393667519,0.5,-0.00327549991197884,0.0172129813581705
725,0.0130133591592312,0.0241720117628574,0.0140463868156075,0.5,0.00208181934431195,0.0303309354931116
726,0.023033082485199,0.0348767675459385,0.0259610712528229,0.5,0.00745838414877653,0.0432785525918007
727,0.0278860405087471,0.0387089736759663,0.0317205414175987,0.5,0.00977008417248726,0.0471741445362568
728,0.0251647736877203,0.0334587432444096,0.028077146038413,0.5,0.00739854294806719,0.0388562083244324
729,0.0189930703490973,0.0251499358564615,0.0204001069068909,0.5,0.00275263842195272,0.0260086040943861
730,0.0120853260159492,0.017271813005209,0.0125308688730001,0.5,-0.00274654990062118,0.0138711463660002
731,0.00708834873512387,0.0114819640293717,0.00682011805474758,0.5,-0.00703156786039472,0.00459912698715925
732,0.00742033962160349,0.0107895275577903,0.00650753313675523,0.5,-0.00714457128196955,0.00139301724266261
733,0.0101163145154715,0.0128275416791439,0.00868077017366886,0.5,-0.00436074566096067,0.00161382521037012
734,0.0104132229462266,0.0133707458153367,0.0086961081251502,0.5,-0.00095666729612276,0.00049306231085211
735,0.011377782560885,0.0159435514360666,0.0106361415237188,0.5,0.00416243495419621,0.00253905914723873
736,0.0180393662303686,0.0258340258151293,0.0207422766834497,0.486819952726364,0.0121229337528348,0.0143741555511951
737,0.0292916595935822,0.0414840988814831,0.0371616072952747,0.144385412335396,0.0212607458233833,0.0332920141518116
738,0.0412294194102287,0.058037918061018,0.0539131984114647,-0.308234453201294,0.0289944708347321,0.052236046642065
739,0.0491148941218853,0.0698845237493515,0.0651107281446457,-0.5,0.0329368337988853,0.0647895857691765
740,0.0477758981287479,0.0711493566632271,0.064852349460125,-0.5,0.0306322649121284,0.0658793300390244
741,0.0351424068212509,0.059295766055584,0.0506121888756752,-0.5,0.0211558062583208,0.0540701486170292
742,0.0157257188111544,0.0394192412495613,0.0282707791775465,-0.5,0.00830123852938414,0.0343120843172073
743,-0.00128471676725894,0.021832637488842,0.00931678712368011,-0.5,-0.000671223329845816,0.0157669205218554
744,-0.0123282112181187,0.010219375602901,-0.0022897282615304,-0.5,-0.00355690345168114,0.00138774060178548
745,-0.0207142308354378,0.000908356974832714,-0.0112749086692929,-0.5,-0.00460316613316536,-0.0119161261245608
746,-0.026156498119235,-0.00543775502592325,-0.0178738962858915,-0.5,-0.00608373899012804,-0.0222958400845528
747,-0.0247551668435335,-0.00469956221058965,-0.01758280582726,-0.424181044101715,-0.00630895793437958,-0.0246881600469351
748,-0.01722102612257,0.00179472391027957,-0.0112789161503315,-0.36573201417923,-0.0050370991230011,-0.0200598798692226
749,-0.00643224362283945,0.0114068742841482,-0.00220135436393321,-0.394277840852737,-0.00314958556555212,-0.0115159898996353
750,0.00614007702097297,0.0235184114426374,0.00901960115879774,-0.485240012407303,6.65579937049188E-05,-0.000197725050384179
751,0.0159619711339474,0.0334387198090553,0.0184261370450258,-0.5,0.0032918774522841,0.00905475299805403
752,0.0183034874498844,0.0357208773493767,0.0206330362707376,-0.5,0.00382043374702334,0.0105998581275344
753,0.0129532208666205,0.0291514340788126,0.0145051311701536,-0.5,0.00185294775292277,0.00283802044577897
754,0.00372745399363339,0.0174626894295216,0.00401587598025799,-0.5,-0.000331924122292548,-0.0100409258157015
755,-0.00257018208503723,0.00920275133103132,-0.00267448369413614,-0.5,-0.000288283248664811,-0.0178180728107691
756,-0.00236656423658133,0.0092160627245903,-0.00126843142788857,-0.5,0.00261936127208173,-0.0146042872220278
757,-0.000840553955640644,0.0113251088187099,0.00237687840126455,-0.5,0.00505899591371417,-0.00714918458834291
758,-0.00531377177685499,0.00636099325492978,-0.000371916132280603,-0.5,0.00330845196731389,-0.00608146516606212
759,-0.014565329067409,-0.00487962691113353,-0.00876403693109751,-0.5,-0.00046459847362712,-0.0116210235282779
760,-0.0205595269799232,-0.013269878923893,-0.0137494439259171,-0.450102031230927,-0.000307071255519986,-0.0150718484073877
761,-0.0205657761543989,-0.014893283136189,-0.0118001308292151,-0.242508009076118,0.0046176421456039,-0.0138612147420645
762,-0.0189519170671701,-0.0132368206977844,-0.00823747273534536,-0.119401715695858,0.0094494940713048,-0.0125824706628919
763,-0.0153741277754307,-0.00659741694107652,-0.00443568732589483,-0.126258999109268,0.0124926790595055,-0.00815656129270792
764,-0.00816996302455664,0.00643862830474973,0.000455154484370723,-0.26217994093895,0.0141070699319243,0.00222769076935947
765,-0.00184370507486165,0.0183436069637537,0.00272894860245287,-0.471573173999786,0.0128027554601431,0.0105628278106451
766,0.00200289487838745,0.0255698263645172,0.00264991796575487,-0.5,0.00919175986200571,0.0133161908015609
767,0.00554007198661566,0.0305670592933893,0.00362600642256439,-0.5,0.00509548606351018,0.0142474137246609
768,0.00928014982491732,0.0346058122813702,0.00641336617991328,-0.5,0.00178570614662021,0.0156892612576485
769,0.0135636916384101,0.0388777293264866,0.011209886521101,-0.5,0.000799052475485951,0.0188933983445168
770,0.0180311612784863,0.0433814860880375,0.0169162694364786,-0.5,0.00202476303093135,0.0232200622558594
771,0.0196093264967203,0.0447755865752697,0.0194588825106621,-0.5,0.00271507352590561,0.0244534742087126
772,0.0163592509925365,0.0413316451013088,0.0166838597506285,-0.5,0.00104060326702893,0.0200739447027445
773,0.00905300676822662,0.0342450030148029,0.00950928404927254,-0.5,-0.0027564624324441,0.0109908394515514
774,0.00175578147172928,0.027919702231884,0.00223664822988212,-0.5,-0.00651717325672507,0.00221839617006481
775,0.00243057636544108,0.0309402346611023,0.00373600726015866,-0.5,-0.00553930783644319,0.00298043270595372
776,0.0115916170179844,0.0439461208879948,0.0147550562396646,-0.5,0.000310489092953503,0.0136114712804556
777,0.0214896742254496,0.0588698238134384,0.0261116344481707,-0.5,0.00562618812546134,0.0253399685025215
778,0.0294004324823618,0.0721715167164803,0.0340370312333107,-0.5,0.00871600117534399,0.0343578346073627
779,0.0351435095071793,0.0819380357861519,0.0389200523495674,-0.5,0.0108099607750773,0.0395744033157825
780,0.0365487784147263,0.0846214890480042,0.0394632518291473,-0.5,0.0117774838581681,0.0392999947071075
781,0.0318259038031101,0.0783259049057961,0.0339638330042362,-0.5,0.01068982668221,0.0326279364526272
782,0.0205614883452654,0.0638119429349899,0.0217385906726122,-0.5,0.00671506766229868,0.0194853935390711
783,0.00853732321411371,0.0488357953727245,0.00914991367608309,-0.5,0.00211635208688676,0.00641737831756473
784,0.00262944796122611,0.041005089879036,0.00369379599578679,-0.5,0.00010893089347519,0.000574845704250038
785,0.00292922835797071,0.0394366942346096,0.0048138233833015,-0.5,0.000806114403530955,0.00132472172845155
786,0.00564197637140751,0.0396358110010624,0.00797503627836704,-0.5,0.00254369527101517,0.00455102138221264
787,0.00902934744954109,0.0402359813451767,0.0121463257819414,-0.5,0.00536112440750003,0.00931830611079931
788,0.0114246299490333,0.0397696867585182,0.0163388289511204,-0.5,0.00881332904100418,0.0137137779965997
789,0.0113738123327494,0.037122268229723,0.018603153526783,-0.5,0.0113275498151779,0.0150204161182046
790,0.0131960827857256,0.0377250872552395,0.022993503138423,-0.5,0.0145884836092591,0.0178232975304127
791,0.0172696597874165,0.0417484007775784,0.0292621478438377,-0.5,0.018106771633029,0.022469699382782
792,0.0167420953512192,0.0411757081747055,0.0290765408426523,-0.5,0.0177933648228645,0.0209402404725552
793,0.0084240585565567,0.0321525745093822,0.0186846684664488,-0.5,0.0125541379675269,0.00930977892130613
794,-0.00414795009419322,0.0181311406195164,0.00256001856178045,-0.5,0.00444885483011603,-0.00762576330453157
795,-0.017387505620718,0.00313851260580122,-0.0147652672603726,-0.5,-0.00519194593653083,-0.0236904062330723
796,-0.025926711037755,-0.00667487038299441,-0.0269244220107794,-0.5,-0.0129111129790545,-0.0316366292536259
797,-0.0247474294155836,-0.0054236757569015,-0.027447547763586,-0.5,-0.0144819328561425,-0.0264140293002129
798,-0.0217038989067078,-0.00172746181488037,-0.0246087461709976,-0.5,-0.0136248013004661,-0.0192169416695833
799,-0.0243657398968935,-0.00455066375434399,-0.0275841560214758,-0.362683713436127,-0.0148796364665031,-0.0209497138857841
800,-0.0281297080218792,-0.00898164417594671,-0.0320993736386299,-0.113051131367683,-0.0170049574226141,-0.0264781583100557
801,-0.0289997085928917,-0.0104928286746144,-0.0341407433152199,0.144443169236183,-0.0192379970103502,-0.0297375544905663
802,-0.0280612409114838,-0.0105754779651761,-0.0347579829394817,0.35400915145874,-0.0210834182798862,-0.0311248321086168
803,-0.0254611186683178,-0.00958783458918333,-0.0333255454897881,0.447971612215042,-0.0199290532618761,-0.0305119901895523
804,-0.0214238297194242,-0.00747851515188813,-0.0295270625501871,0.416976988315582,-0.0155629115179181,-0.0267892330884933
805,-0.0161001179367304,-0.00390842650085688,-0.0237715672701597,0.325213849544525,-0.00960249546915293,-0.0188706126064062
806,-0.00731774838641286,0.00409495458006859,-0.0142108295112848,0.219692945480347,-0.00158903060946614,-0.0051336451433599
807,0.00466239079833031,0.0166406761854887,-0.00105649570468813,0.0899078398942947,0.00797731149941683,0.0120226079598069
808,0.0164678636938334,0.0292277634143829,0.0124796247109771,-0.0792430564761162,0.0162706319242716,0.0269186850637197
809,0.0239479281008244,0.0359654016792774,0.0217095222324133,-0.25942200422287,0.0202145203948021,0.033935409039259
810,0.0249420031905174,0.0342510528862476,0.0238214340060949,-0.397933393716812,0.0188262015581131,0.0314378589391708
811,0.0210442245006561,0.0260988119989634,0.0206381566822529,-0.473555833101273,0.0137922912836075,0.0231076348572969
812,0.0148440571501851,0.0144369453191757,0.0150723056867719,-0.489324510097504,0.00724312523379922,0.0131368059664965
813,0.00828608311712742,0.00199795607477427,0.00905509758740664,-0.442229896783829,0.000667966436594725,0.0037341748829931
814,0.00327812251634896,-0.00817853584885597,0.00479488121345639,-0.346490919589996,-0.00433957064524293,-0.00346849043853581
815,0.000607724417932332,-0.0148923313245177,0.00326353264972568,-0.223668530583382,-0.00704853469505906,-0.00767535017803311
816,-0.00167110073380172,-0.0199746508151293,0.0018098772270605,-0.0735695883631706,-0.00975097808986902,-0.0101442718878388
817,-0.0051525947637856,-0.0252901427447796,-0.00205434928648174,0.096017137169838,-0.0134356869384646,-0.0128007279708982
818,-0.00867709424346685,-0.0309066493064165,-0.00702765258029103,0.24114865064621,-0.0145289059728384,-0.0161515939980745
819,-0.00874734576791525,-0.0335342921316624,-0.00842047482728958,0.309771716594696,-0.0103058852255344,-0.0163869764655828
820,-0.00275970622897148,-0.0297808907926083,-0.00307762809097767,0.28260999917984,-0.00256647355854511,-0.0101157482713461
821,0.00820656400173903,-0.0203338414430618,0.00780120678246021,0.168263420462608,0.00566144147887826,0.0012847218895331
822,0.0191004481166601,-0.0101688103750348,0.0191931091248989,-0.0332537069916725,0.0117504084482789,0.0128746423870325
823,0.0247594304382801,-0.00491722254082561,0.0257463287562132,-0.338455766439438,0.0138918161392212,0.0200007036328316
824,0.0258010551333427,-0.00470335595309734,0.0280881877988577,-0.5,0.0131937824189663,0.0241665169596672
825,0.0253777820616961,-0.00646118260920048,0.0295855645090342,-0.5,0.0113181918859482,0.0282986909151077
826,0.024939464405179,-0.00798918399959803,0.0315056443214417,-0.5,0.00862530339509249,0.0324304550886154
827,0.0228033680468798,-0.0109415156766772,0.0314061716198921,-0.5,0.00467984424903989,0.0331542305648327
828,0.0157934054732323,-0.0199032798409462,0.0253308191895485,-0.5,-0.000517832522746176,0.0255789142102003
829,0.00239776540547609,-0.0373380444943905,0.0120173618197441,-0.5,-0.00632363930344582,0.00815126299858093
830,-0.0158294998109341,-0.0607396103441715,-0.00580318318679929,-0.415175557136536,-0.012280248105526,-0.0155192259699106
831,-0.0346101187169552,-0.0834485813975334,-0.0234501976519823,0.0689590498805046,-0.0188989713788033,-0.0379668772220612
832,-0.0513619780540466,-0.101010300219059,-0.0398526415228844,0.5,-0.0281359888613224,-0.0548985749483109
833,-0.0632705613970757,-0.1109324619174,-0.0535025633871555,0.5,-0.0387996099889278,-0.0647616907954216
834,-0.0689569562673569,-0.113724008202553,-0.061990350484848,0.5,-0.0479804165661335,-0.067847415804863
835,-0.0710602700710297,-0.113315418362617,-0.0662014782428741,0.5,-0.054995883256197,-0.067046232521534
836,-0.0692514255642891,-0.109583266079426,-0.0650773867964745,0.5,-0.0574937425553799,-0.062281645834446
837,-0.0628749132156372,-0.101768501102924,-0.0580734945833683,0.5,-0.0541055276989937,-0.0536200925707817
838,-0.0552307851612568,-0.092767633497715,-0.0493529178202152,0.5,-0.0486294403672218,-0.0445653684437275
839,-0.0483436174690723,-0.0844752416014671,-0.0417703092098236,0.5,-0.0444627739489079,-0.0365158244967461
840,-0.0411351136863232,-0.0762041062116623,-0.033781886100769,0.5,-0.0408254116773605,-0.0268466398119926
841,-0.03426793217659,-0.0689826533198357,-0.0253157261759043,0.5,-0.037185326218605,-0.0151613848283887
842,-0.0303309913724661,-0.0648094415664673,-0.0190234500914812,0.5,-0.0354857631027699,-0.00439595896750689
843,-0.0285097807645798,-0.06203792989254,-0.0144096147269011,0.5,-0.0351912193000317,0.00424673175439239
844,-0.0277890264987946,-0.060541920363903,-0.011680101044476,0.5,-0.0346164368093014,0.00844990741461515
845,-0.0282251518219709,-0.0612870194017887,-0.0122218253090978,0.5,-0.0342531725764275,0.00723509537056088
846,-0.0251815170049667,-0.0586749762296677,-0.0103658055886626,0.5,-0.0321804359555244,0.00787279102951288
847,-0.0157269071787596,-0.0486389510333538,-0.000909372873138636,0.5,-0.0260635614395142,0.015844801440835
848,-0.00584904290735722,-0.0377206653356552,0.0107880551367998,0.5,-0.0182021744549274,0.0254901070147753
849,-0.00281187263317406,-0.0345991440117359,0.0160762537270784,0.5,-0.0119968596845865,0.0281738024204969
850,-0.00816830061376095,-0.0414428263902664,0.0117716183885932,0.5,-0.00956918019801378,0.0205555520951748
851,-0.0170662440359592,-0.0528327785432339,0.00251567550003529,0.5,-0.0111196050420403,0.00748582137748599
852,-0.0228418633341789,-0.0610707364976406,-0.00415392918512225,0.5,-0.0144569138064981,-0.00255096610635519
853,-0.0229987297207117,-0.0626151263713837,-0.00506887957453728,0.5,-0.0171517580747604,-0.00510630244389176
854,-0.0198365747928619,-0.0594400800764561,-0.00276295817457139,0.5,-0.0186708010733128,-0.00187202950473875
855,-0.0150990700349212,-0.0538777448236942,0.000603464141022414,0.5,-0.018933642655611,0.00445915479212999
856,-0.00595735898241401,-0.0430893450975418,0.00854864623397589,0.5,-0.0159103013575077,0.0162584744393826
857,0.00577332405373454,-0.0292834918946028,0.019976731389761,0.5,-0.0104071404784918,0.030854107812047
858,0.0120788961648941,-0.0218521934002638,0.0264034699648619,0.5,-0.00713457819074392,0.0386853478848934
859,0.0105061139911413,-0.0230953861027956,0.0253812335431576,0.5,-0.00805955566465855,0.0379549786448479
860,0.00359005806967616,-0.0294307172298431,0.0202447585761547,0.5,-0.0122310034930706,0.0323478765785694
861,-0.00731567991897464,-0.0395547933876514,0.0118030169978738,0.5,-0.0189488474279642,0.0225204322487116
862,-0.0177716426551342,-0.0493145175278187,0.00288479938171804,0.5,-0.0253516435623169,0.0124290846288204
863,-0.0228936243802309,-0.0543400011956692,-0.00258982367813587,0.5,-0.0283281914889812,0.00693251471966505
864,-0.0251803621649742,-0.0575105622410774,-0.00688101723790169,0.5,-0.0298177041113377,0.00391665427014232
865,-0.0282535627484322,-0.062429491430521,-0.0128601556643844,0.5,-0.0325623117387295,-0.00017228172509931
866,-0.0336447395384312,-0.0716677829623222,-0.022037660703063,0.5,-0.036788634955883,-0.00911250896751881
867,-0.0398309603333473,-0.0835758000612259,-0.0328860841691494,0.5,-0.0410421416163445,-0.0216362215578556
868,-0.0397226214408875,-0.0881763398647308,-0.0370274856686592,0.5,-0.0416203029453754,-0.0267136935144663
869,-0.0310970097780228,-0.0815580636262894,-0.0312366783618927,0.5,-0.0370681956410408,-0.0203938409686089
870,-0.0207268558442593,-0.0714815407991409,-0.0224172286689281,0.5,-0.0303611196577549,-0.0116996234282851
871,-0.0129189239814878,-0.0629879981279373,-0.0143757974728942,0.5,-0.0231827851384878,-0.00597045058384538
872,-0.00486674904823303,-0.0533216707408428,-0.00368265388533473,0.5,-0.0142256785184145,0.000620228878688067
873,0.00274399621412158,-0.0440631397068501,0.0076877330429852,0.5,-0.0054796664044261,0.00706628570333123
874,0.00486052362248302,-0.040802139788866,0.0126517908647656,0.5,-0.00130036473274231,0.00799305643886328
875,0.00312991696409881,-0.041030079126358,0.0123886819928885,0.5,-0.000950952933635563,0.00705818645656109
876,0.00351423979736865,-0.0379475317895412,0.0136879105120897,0.5,-0.000548977695871145,0.0117602003738284
877,0.00758936675265431,-0.0298994202166796,0.0189003366976976,0.5,0.000940160301979631,0.0227196961641312
878,0.0111908689141274,-0.0218864269554615,0.0238971766084433,0.5,0.000914138334337622,0.033326081931591
879,0.010761110112071,-0.018567742779851,0.0252516716718674,0.5,-0.00203680782578886,0.0380130857229233
880,0.00756204733625054,-0.0189275071024895,0.0246615260839462,0.5,-0.00576578779146075,0.0376715660095215
881,0.00291118118911982,-0.0217935014516115,0.0226086247712374,0.5,-0.00899978633970022,0.0338317230343819
882,-0.00398609135299921,-0.0285441614687443,0.0165499877184629,0.5,-0.0124732777476311,0.0255499351769686
883,-0.0146564254537225,-0.0409535504877567,0.00396251119673252,0.5,-0.0176956746727228,0.011251712217927
884,-0.0276840552687645,-0.0566649958491325,-0.0128585705533624,0.5,-0.0244922507554293,-0.00624383753165603
885,-0.0351485759019852,-0.0657792687416077,-0.0233430676162243,0.5,-0.027344323694706,-0.0160466060042381
886,-0.0330087430775166,-0.0630864053964615,-0.0215933136641979,0.5,-0.0227823723107576,-0.0126892952248454
887,-0.0260935295373201,-0.0539303794503212,-0.0127655565738678,0.5,-0.0150014813989401,-0.00234402669593692
888,-0.018809212371707,-0.043760672211647,-0.00239196442998946,0.5,-0.00921409670263529,0.00870546512305737
889,-0.0139657100662589,-0.0365961007773876,0.00534014729782939,0.5,-0.00739480834454298,0.0161840822547674
890,-0.0123456045985222,-0.0341197736561298,0.00830673519521952,0.5,-0.00770306074991822,0.0188146606087685
891,-0.0113050062209368,-0.0328549519181252,0.00912835262715817,0.5,-0.00725127756595612,0.0202749911695719
892,-0.00853417254984379,-0.0287400633096695,0.0110228797420859,0.5,-0.00536327669396997,0.023948822170496
893,-0.00448779808357358,-0.0217367373406887,0.013739706017077,0.5,-0.00327373924665153,0.0289373435080051
894,-0.000969496846664697,-0.0146647393703461,0.0153166679665446,0.5,-0.00236213020980358,0.032547015696764
895,0.0037460729945451,-0.00657075364142656,0.0186536982655525,0.5,-0.000931103655602783,0.0370333231985569
896,0.0112317046150565,0.00421269936487079,0.0270459204912186,0.5,0.00277575408108532,0.0449273213744164
897,0.0189796295017004,0.0153206000104547,0.0380626991391182,0.5,0.00761493854224682,0.0540051907300949
898,0.0262246169149876,0.0260524526238441,0.0494587533175945,0.5,0.0126626202836633,0.0637321248650551
899,0.031066320836544,0.0338015370070934,0.0572684593498707,0.5,0.0153943113982677,0.0708758160471916
900,0.0305959954857826,0.0342355072498322,0.0575959198176861,0.5,0.0140576846897602,0.0697764232754707
901,0.0260937046259642,0.0284668579697609,0.0523451752960682,0.5,0.0103303696960211,0.0610381253063679
902,0.0176942478865385,0.0177808627486229,0.0421165004372597,0.5,0.00401301542297006,0.0464012250304222
903,0.00512195704504848,0.00284981890581548,0.0268291607499123,0.5,-0.00487717939540744,0.027477752417326
904,-0.00772694777697325,-0.0116752851754427,0.0108983404934406,0.5,-0.0130875892937183,0.00963916629552841
905,-0.0154354330152273,-0.019698042422533,0.00045371864689514,0.5,-0.0172957144677639,-0.000885342771653086
906,-0.0160170700401068,-0.0194040331989527,-0.00207410077564418,0.5,-0.0166653767228127,-0.0023648941423744
907,-0.00971003156155348,-0.0115315373986959,0.00323433498851955,0.5,-0.0115306535735726,0.0043298676609993
908,0.00223968690261245,0.00275036739185452,0.0152639802545309,0.5,-0.00333698047325015,0.0175264924764633
909,0.0147233316674829,0.0183493811637163,0.0285407770425081,0.5,0.0041209040209651,0.0314029641449451
910,0.0226574465632439,0.0295882020145655,0.0371498614549637,0.5,0.00833010952919722,0.0405961647629738
911,0.0261780228465796,0.0359310321509838,0.0408488102257252,0.5,0.0102955438196659,0.0462157092988491
912,0.0279729105532169,0.0397044718265533,0.0424434654414654,0.5,0.0115824453532696,0.0514472052454948
913,0.027522249147296,0.0402589999139309,0.0413161814212799,0.419822692871094,0.0112972855567932,0.0540926046669483
914,0.0237472802400589,0.0368644893169403,0.0366116017103195,0.353966504335403,0.00892476458102465,0.0512313656508923
915,0.017531506717205,0.030739976093173,0.0297427196055651,0.376558631658554,0.00641118502244353,0.0434696152806282
916,0.00796247180551291,0.0208200607448816,0.0194603279232979,0.480875879526138,0.00418639555573463,0.0303876344114542
917,-0.00316726486198604,0.00956582278013229,0.00731876119971275,0.5,0.00183450279291719,0.0154768228530884
918,-0.010274849832058,0.00330177112482488,-0.000650080910418183,0.5,9.8111922852695E-06,0.00617307843640447
919,-0.0098726274445653,0.00502964993938804,-0.00089526828378439,0.5,-0.000477816996863112,0.00638337526470423
920,-0.00258889910764992,0.0135986171662807,0.00589306652545929,0.5,0.000558881787583232,0.0149911716580391
921,0.00489530619233847,0.0221779961138964,0.0127839595079422,0.5,4.34216308349278E-05,0.024178322404623
922,0.00670301867648959,0.0245383288711309,0.013521202839911,0.5,-0.0044554048217833,0.0268635731190443
923,0.00723491935059428,0.0247442089021206,0.012917272746563,0.5,-0.00852729100733995,0.0273081287741661
924,0.0133384661749005,0.030510226264596,0.0188203081488609,0.5,-0.00747892074286938,0.0339495129883289
925,0.0206868406385183,0.0379781611263752,0.0270547773689032,0.5,-0.00478713028132916,0.0425562672317028
926,0.021667892113328,0.0385548435151577,0.0291107594966888,0.389808803796768,-0.00511193228885531,0.0435432009398937
927,0.0182218160480261,0.0341758653521538,0.0262366756796837,0.221995934844017,-0.00695521337911487,0.0390610992908478
928,0.0170905739068985,0.0325961150228977,0.0252098310738802,0.0205780752003193,-0.00666458252817392,0.037990428507328
929,0.0198692679405212,0.0358309373259544,0.0280904099345207,-0.242718175053597,-0.00388854439370334,0.0428025461733341
930,0.0216968227177858,0.0382555983960629,0.0298067647963762,-0.5,-0.00177752389572561,0.0467446744441986
931,0.0181640703231096,0.0344369933009148,0.0250624418258667,-0.5,-0.00330623984336853,0.0428650565445423
932,0.0109215071424842,0.0262080989778042,0.0161151196807623,-0.5,-0.00782436784356833,0.033114954829216
933,0.00595201272517443,0.0204934030771255,0.0108072822913527,-0.5,-0.0113061694428325,0.0263316351920366
934,0.00730334827676415,0.0219176467508078,0.0135433990508318,-0.5,-0.0108539490029216,0.0289116892963648
935,0.0134951313957572,0.0288567859679461,0.021817235276103,-0.466767519712448,-0.00733391335234046,0.0390895344316959
936,0.016862578690052,0.0328644290566444,0.0271922070533037,-0.407553821802139,-0.00479315454140306,0.0459651648998261
937,0.0120829502120614,0.0278908163309097,0.0239923615008593,-0.379648625850677,-0.00573479477316141,0.0406563207507133
938,0.00206728023476899,0.0165246520191431,0.0144954584538937,-0.396797299385071,-0.00913438014686108,0.0255894362926483
939,-0.00717939669266343,0.00541190896183252,0.0042319493368268,-0.453985661268234,-0.0122143886983395,0.00975422840565443
940,-0.0121215060353279,-0.000944891537074,-0.00294307735748589,-0.5,-0.0125717325136065,-0.000403258367441595
941,-0.0127357272431254,-0.00231605465523899,-0.00621162867173553,-0.5,-0.00965498108416796,-0.00440519116818905
942,-0.00922951567918062,0.00127924128901213,-0.00468382053077221,-0.5,-0.00286130467429757,-0.00247398274950683
943,-0.00254658819176257,0.00887983664870262,0.00134768441785127,-0.5,0.00701710721477866,0.0045870621688664
944,0.00649498077109456,0.0195704270154238,0.0111480420455337,-0.5,0.0174639169126749,0.0156483445316553
945,0.0151775842532516,0.029991602525115,0.0212579425424337,-0.5,0.0249633900821209,0.0263628959655762
946,0.0176425650715828,0.0325400419533253,0.0244045611470938,-0.5,0.0260996595025063,0.0285875275731087
947,0.0136686312034726,0.0266884565353394,0.0202947109937668,-0.5,0.0221405755728483,0.022676195949316
948,0.0066879135556519,0.017086835578084,0.0130355730652809,-0.5,0.0163409672677517,0.0139085836708546
949,-0.00268778461031616,0.00507886009290814,0.00320662627927959,-0.5,0.0101109575480223,0.00239734421484172
950,-0.0125036900863051,-0.00677406368777156,-0.00722333276644349,-0.5,0.00472699711099267,-0.0107282465323806
951,-0.0208371132612228,-0.0163886249065399,-0.0165258385241032,-0.441934913396835,-0.000174758446519263,-0.0232022106647491
952,-0.0275132674723864,-0.0239433627575636,-0.0245745554566383,-0.17070247232914,-0.0051836334168911,-0.0337362363934517
953,-0.0301231816411018,-0.0270603112876415,-0.0283633582293987,0.0768332630395889,-0.00770369451493025,-0.0383859686553478
954,-0.0255424957722425,-0.0230320654809475,-0.0245600752532482,0.181728780269623,-0.00426627602428198,-0.0341341607272625
955,-0.0159737430512905,-0.0149263674393296,-0.0158119518309832,0.111577123403549,0.00412325048819184,-0.0252127461135387
956,-0.00714761298149824,-0.00836688373237848,-0.00801826640963554,-0.0413104481995106,0.0127610247582197,-0.0185711160302162
957,0.000261339417193085,-0.00265805749222636,-0.000866851187311113,-0.198236420750618,0.0200888346880674,-0.0135296173393726
958,0.00827438663691282,0.00487250508740544,0.0086800055578351,-0.350362002849579,0.026432977989316,-0.00648120138794184
959,0.0163608025759459,0.0129407504573464,0.0195518583059311,-0.5,0.0309427753090858,0.00134455366060138
960,0.0222510471940041,0.0188330169767141,0.0277939550578594,-0.5,0.0329144820570946,0.00647479295730591
961,0.0234161745756865,0.0199859701097012,0.0295253694057465,-0.5,0.031595516949892,0.00607980089262128
962,0.0219053458422422,0.018688915297389,0.0272273365408182,-0.5,0.0287330057471991,0.00296258530579507
963,0.0235861092805862,0.0216823220252991,0.028613593429327,-0.5,0.0285689551383257,0.00448779761791229
964,0.0285918787121773,0.0289622023701668,0.0341511219739914,-0.5,0.0309143252670765,0.0105066522955894
965,0.0305124912410975,0.0329209305346012,0.0360119938850403,-0.5,0.0307945683598518,0.0129577871412039
966,0.025367833673954,0.0291963424533606,0.0297540798783302,-0.5,0.0255398321896791,0.0076028760522604
967,0.0198030117899179,0.0255168490111828,0.0233365055173635,-0.5,0.019790094345808,0.00308015593327582
968,0.0232813227921724,0.0323386043310165,0.0277504250407219,-0.5,0.0196226686239243,0.0104612959548831
969,0.0331471413373947,0.0458903796970844,0.0401681959629059,-0.5,0.0236524026840925,0.0250271484255791
970,0.0388329513370991,0.0534608848392963,0.0483033433556557,-0.5,0.0259474087506533,0.032855287194252
971,0.0341323167085648,0.0478041656315327,0.0439716540277004,-0.5,0.022736381739378,0.0263369791209698
972,0.0230262409895658,0.0338278077542782,0.0306832529604435,-0.5,0.0161165557801723,0.0108153745532036
973,0.0142704313620925,0.0226735956966877,0.0188698768615723,-0.5,0.0113592045381665,-0.0010647929739207
974,0.0127719081938267,0.0206590667366982,0.0150002678856254,-0.5,0.0118161821737885,-0.00147116323933005
975,0.0174827985465527,0.0258339699357748,0.0182480290532112,-0.5,0.0173837225884199,0.00714684790000319
976,0.0238434355705976,0.0324114970862865,0.024000383913517,-0.5,0.0244480036199093,0.0167523697018623
977,0.0286859814077616,0.0367853119969368,0.0287031661719084,-0.5,0.0292339771986008,0.0222286749631166
978,0.0314109101891518,0.038265909999609,0.0308657418936491,-0.5,0.0304529909044504,0.0227813553065062
979,0.0321840979158878,0.0373240225017071,0.0304928328841925,-0.5,0.0281392689794302,0.0196676235646009
980,0.0312572829425335,0.0346921235322952,0.0287076849490404,-0.5,0.0233392212539911,0.0150424195453525
981,0.0292271580547094,0.0317185968160629,0.0268895737826824,-0.5,0.0177200436592102,0.0109995789825916
982,0.0254725106060505,0.0283005423843861,0.0238352343440056,-0.5,0.0111781675368547,0.00685255322605371
983,0.0195031855255365,0.0233326405286789,0.0178416632115841,-0.5,0.00351892248727381,0.00134078948758543
984,0.013954714871943,0.0184774789959192,0.0116453310474753,-0.5,-0.00285218516364694,-0.00302491569891572
985,0.00971357896924019,0.0140646556392312,0.00662379944697022,-0.5,-0.00692665576934814,-0.00581773882731795
986,0.00594249926507473,0.00960732251405716,0.00228232168592513,-0.5,-0.00886248797178268,-0.00811935868114233
987,0.00572016090154648,0.00908982008695602,0.00242450297810137,-0.5,-0.00623386632651091,-0.00632108980789781
988,0.0093209408223629,0.0122070480138063,0.00664561707526445,-0.5,0.000256624072790146,-0.00106366572435945
989,0.0137230372056365,0.0152863161638379,0.0108859743922949,-0.5,0.00695122452452779,0.00398748740553856
990,0.0183308310806751,0.0189803466200829,0.0151090677827597,-0.5,0.0124240247532725,0.00951615627855062
991,0.0180734936147928,0.0191307887434959,0.0146750761196017,-0.5,0.0133396862074733,0.0106280706822872
992,0.00918921735137701,0.0118249608203769,0.00566687667742372,-0.5,0.00774735072627664,0.00278408965095878
993,-0.00013643350393977,0.00488621788099408,-0.00363233569078147,-0.5,0.00140052149072289,-0.0056436313316226
994,-0.00122854730580002,0.00626524165272713,-0.00463079381734133,-0.5,0.000401432218495756,-0.00528263719752431
995,0.0028134670574218,0.0119975451380014,-0.00073458394035697,-0.5,0.00308326096273959,0.000576144782826304
996,0.00381638575345278,0.0135509828105569,-0.000263413647189736,-0.5,0.00428836746141315,0.00279258540831506
997,0.00141920614987612,0.0111893331632018,-0.00328173069283366,-0.5,0.00388966943137348,0.0010879987385124
998,-0.00192190450616181,0.00784675776958466,-0.00712739350274205,-0.5,0.00316761527210474,-0.00221094908192754
999,-0.00542663596570492,0.00416837958618999,-0.0112314522266388,-0.5,0.00163320323918015,-0.00704407272860408
1000,-0.00603001145645976,0.00339567149057984,-0.0124673917889595,-0.5,0.000377661926904693,-0.00973618682473898
1001,-0.00374315748922527,0.0057118833065033,-0.0105685703456402,-0.5,-0.000347455992596224,-0.00909102521836758
1002,-0.00123497750610113,0.00832663476467133,-0.0078548351302743,-0.5,-0.000868717965204269,-0.00683012930676341
1003,0.00099607917945832,0.010728856548667,-0.00458343373611569,-0.5,8.02773720351979E-05,-0.00305828917771578
1004,0.0023478171788156,0.0120135173201561,-0.00186019879765809,-0.5,0.00296585774049163,0.000497806235216558
1005,0.0010161055251956,0.00970250181853771,-0.00214584683999419,-0.5,0.00607957784086466,0.000417692208429798
1006,-0.00231731683015823,0.00445346627384424,-0.0045251501724124,-0.5,0.00758045585826039,-0.00264519057236612
1007,-0.00599510874599218,-0.00158431543968618,-0.00688576325774193,-0.5,0.00659712217748165,-0.00644430750980973
1008,-0.0115987658500671,-0.00942144636064768,-0.010896441526711,-0.5,0.00255153607577085,-0.0128660788759589
1009,-0.0182850360870361,-0.0172479171305895,-0.0159973129630089,-0.5,-0.00334545969963074,-0.0207448210567236
1010,-0.0204443596303463,-0.0190357137471437,-0.017120948061347,-0.5,-0.00757633475586772,-0.0236522275954485
1011,-0.0191411469131708,-0.0173343252390623,-0.0163123086094856,-0.5,-0.0101927444338799,-0.0241419523954391
1012,-0.0189766511321068,-0.0178194548934698,-0.0181994643062353,-0.5,-0.0135962776839733,-0.0277790036052465
1013,-0.0167821254581213,-0.0161106623709202,-0.0179155711084604,-0.5,-0.0154584227129817,-0.029133927077055
1014,-0.0099849458783865,-0.0087110847234726,-0.0116004226729274,-0.5,-0.01358303707093,-0.0240186769515276
1015,-0.00128564552869648,0.00108816125430167,-0.002626096829772,-0.5,-0.00977287534624338,-0.0155653255060315
1016,0.00691280420869589,0.010321905836463,0.00545610208064318,-0.5,-0.00598135543987155,-0.00664519937708974
1017,0.0110124638304114,0.0151033103466034,0.00882506836205721,-0.5,-0.00407727295532823,-0.0014222317840904
1018,0.00564447091892362,0.00952831748872995,0.00213458528742194,-0.5,-0.00647423882037401,-0.00671907421201468
1019,-0.00790231954306364,-0.00480213342234492,-0.0133639294654131,-0.5,-0.0123348170891404,-0.0217547342181206
1020,-0.0212637521326542,-0.0184089597314596,-0.0288132298737764,-0.5,-0.0173764210194349,-0.0370849780738354
1021,-0.0275211241096258,-0.0239483565092087,-0.0364873670041561,-0.5,-0.0180415660142899,-0.0446256808936596
1022,-0.02469702064991,-0.0196692086756229,-0.0341484919190407,-0.5,-0.0138621469959617,-0.0415766090154648
1023,-0.0146660059690475,-0.00767379114404321,-0.0234319400042295,-0.5,-0.0067195245064795,-0.0297419968992472
1024,-0.00024842019774951,0.00858351774513721,-0.00702653219923377,-0.5,0.00186205445788801,-0.0131586520001292
1025,0.011789595708251,0.0205646157264709,0.00661736726760864,-0.5,0.00852205418050289,-0.00135349947959185
1026,0.0134389046579599,0.0192284844815731,0.00775265228003263,-0.5,0.0090879974886775,-0.00404155300930142
1027,0.00621137768030167,0.00745072588324547,-0.00154222233686596,-0.5,0.00500199710950255,-0.0178720057010651
1028,-0.00304394261911511,-0.00605297042056918,-0.0129224359989166,-0.5,0.000804032024461776,-0.0330385826528072
1029,-0.010105786845088,-0.0162332318723202,-0.0214078817516565,-0.5,-0.000159719769726507,-0.0438400879502296
1030,-0.0125403003767133,-0.0205454751849175,-0.0248174462467432,-0.361180454492569,0.00365803577005863,-0.0477122589945793
1031,-0.0115678450092673,-0.0202120989561081,-0.0250019375234842,-0.0224774777889252,0.00912602711468935,-0.046537097543478
1032,-0.0109925009310246,-0.0195614453405142,-0.0259552430361509,0.296609580516815,0.0117519656196237,-0.0458041951060295
1033,-0.0135174365714192,-0.0227053500711918,-0.0307374373078346,0.5,0.010416854172945,-0.050281535834074
1034,-0.017922094091773,-0.0291197597980499,-0.0385559909045696,0.5,0.00716232322156429,-0.058555856347084
1035,-0.0175619050860405,-0.0310174040496349,-0.0416900739073753,0.5,0.00701713981106877,-0.0610959827899933
1036,-0.0113097028806806,-0.0258906129747629,-0.0375992022454739,0.5,0.0110702095553279,-0.0549053512513638
1037,-0.00558902462944388,-0.0198424998670816,-0.0325791984796524,0.5,0.0150577761232853,-0.0465992204844952
1038,-0.00199346267618239,-0.0147154117003083,-0.0283354669809341,0.5,0.0176951605826616,-0.0383919775485992
1039,0.00206427462399006,-0.00818395800888538,-0.0223198607563972,0.5,0.0198350474238396,-0.028781870380044
1040,0.00793551094830036,0.000679270247928798,-0.013730026781559,0.5,0.0218331422656775,-0.0177565552294254
1041,0.01383660081774,0.00876553915441036,-0.00559719605371356,0.5,0.0238644555211067,-0.00911304354667664
1042,0.0160342678427696,0.0116523262113333,-0.00277901533991098,0.5,0.0249188430607319,-0.00765435770153999
1043,0.0158985480666161,0.0120533155277371,-0.00359098543412983,0.5,0.0255041252821684,-0.00981928780674934
1044,0.0178024787455797,0.0147783886641264,-0.00291319005191326,0.5,0.0273869764059782,-0.00963905360549688
1045,0.021883612498641,0.0192451234906912,0.000250206561759114,0.5,0.0298621710389853,-0.00703867990523577
1046,0.024298807606101,0.0222431123256683,0.0033476809039712,0.5,0.0301808230578899,-0.0043371981009841
1047,0.0211565457284451,0.0197600126266479,0.00188594881910831,0.5,0.0269208233803511,-0.0053636971861124
1048,0.0144602479413152,0.0124336425215006,-0.00402832357212901,0.5,0.0228402949869633,-0.0108937779441476
1049,0.00977988168597221,0.00592595664784312,-0.00919224508106709,0.5,0.0211916361004114,-0.0164622943848372
1050,0.00827256869524717,0.00217961706221104,-0.0116014080122113,0.5,0.0214781053364277,-0.0197258908301592
1051,0.00831951666623354,0.000469160673674196,-0.0118744280189276,0.5,0.0220410916954279,-0.0204857140779495
1052,0.00898347981274128,0.000858456245623529,-0.0106334583833814,0.5,0.0223265457898378,-0.0185409970581532
1053,0.00978403259068727,0.00230561615899205,-0.00907203368842602,0.5,0.0230198483914137,-0.0156947672367096
1054,0.0103000812232494,0.00307548488490283,-0.0082950284704566,0.5,0.0251553263515234,-0.015010298229754
1055,0.0126913972198963,0.00486177345737815,-0.00647430680692196,0.5,0.0296884011477232,-0.0152228148654103
1056,0.0198172498494387,0.0107087371870875,-0.000626271881628782,0.5,0.0362376905977726,-0.0119668543338776
1057,0.0297857765108347,0.0196864865720272,0.00866021681576967,0.5,0.0424839444458485,-0.00492441514506936
1058,0.0383525416254997,0.028388500213623,0.0182117503136396,0.5,0.0466167107224464,0.00259273150004447
1059,0.0433975271880627,0.0342956185340881,0.0255690887570381,0.381582230329514,0.0485146306455135,0.00774049432948232
1060,0.0455736257135868,0.0374938659369946,0.0305637884885073,0.22023805975914,0.049016397446394,0.0103299655020237
1061,0.045783594250679,0.0387680679559708,0.0333910994231701,0.0647906884551048,0.0484524816274643,0.0112224314361811
1062,0.0449140407145023,0.0387651473283768,0.0343996062874794,-0.0430043339729309,0.0471621192991734,0.0115484045818448
1063,0.0403612554073334,0.0344302877783775,0.0297252684831619,-0.010113587602973,0.0429613701999187,0.00803298782557249
1064,0.0291171614080668,0.0231240075081587,0.015700651332736,0.202056676149368,0.0330378413200378,-0.00255836360156536
1065,0.0167667232453823,0.0115106701850891,-0.000155952875502408,0.5,0.0212396439164877,-0.0133686428889632
1066,0.00808635819703341,0.00393497850745916,-0.0112153738737106,0.5,0.0119378957897425,-0.0198167897760868
1067,0.000927586923353374,-0.00330621050670743,-0.019854350015521,0.5,0.004335374571383,-0.0260122269392014
1068,-0.00606150692328811,-0.0119503615424037,-0.028272470459342,0.5,-0.00223995349369943,-0.034463819116354
1069,-0.010380576364696,-0.0182321555912495,-0.0338262356817722,0.5,-0.00570702273398638,-0.041018545627594
1070,-0.0102393245324492,-0.0189895834773779,-0.03380436450243,0.5,-0.00497173378244042,-0.0407330058515072
1071,-0.00691522844135761,-0.0152824269607663,-0.0291685778647661,0.5,-0.00176407652907074,-0.0339632593095303
1072,-0.00111096515320241,-0.00776318367570639,-0.0210208725184202,0.5,0.00236252741888165,-0.0227275304496288
1073,0.00641913479194045,0.00235899421386421,-0.0109104802832007,0.5,0.00686787674203515,-0.0100403921678662
1074,0.0136593095958233,0.0121105425059795,-0.0012383385328576,0.5,0.0115441689267755,0.0007927191327326
1075,0.0189361590892076,0.0195306241512299,0.00663073873147368,0.5,0.0158779509365559,0.00841558258980513
1076,0.0230531226843596,0.0250554420053959,0.0130810383707285,0.5,0.0196454655379057,0.013470770791173
1077,0.027434790506959,0.0296213403344154,0.0183296632021666,0.5,0.0233147088438272,0.0167425684630871
1078,0.0317124873399735,0.0331455953419209,0.0219191294163466,0.5,0.0273744463920593,0.0182461850345135
1079,0.035056546330452,0.0353321544826031,0.0239695981144905,0.5,0.0310999434441328,0.0184409860521555
1080,0.0377623699605465,0.0370398461818695,0.0257888045161963,0.5,0.034284695982933,0.019259525462985
1081,0.0417328774929047,0.041101798415184,0.0306827872991562,0.5,0.0394104793667793,0.0241147018969059
1082,0.045805599540472,0.0465291924774647,0.0376803539693356,0.5,0.0458001047372818,0.0310325641185045
1083,0.0470572002232075,0.0501617975533009,0.0424014218151569,0.5,0.0494755133986473,0.0354652851819992
1084,0.0477657429873943,0.0546750910580158,0.0463650263845921,0.246943891048431,0.0504385605454445,0.0401362329721451
