,AF3,AF4,Fp1,Fp2,AF7,AF8
0,0.0227866228669882,0.0505147762596607,0.0441979728639126,-0.5,0.0160562861710787,0.0423453971743584
1,0.0167846567928791,0.0453100353479385,0.0350413732230663,-0.5,0.00971324928104877,0.0346700325608253
2,0.0193692483007908,0.0508849434554577,0.0356444753706455,-0.5,0.00835638307034969,0.0394204370677471
3,0.0291428621858358,0.0648465529084206,0.0452818162739277,-0.5,0.0127376047894359,0.0533507615327835
4,0.0424354150891304,0.0821891352534294,0.0601865909993649,-0.5,0.0209087617695332,0.07103231549263
5,0.0527140162885189,0.0948702767491341,0.0726813599467278,-0.5,0.0285295490175486,0.0839813351631165
6,0.0582241415977478,0.10075269639492,0.0802091658115387,-0.5,0.0338688381016254,0.0896859169006348
7,0.0567484647035599,0.0977700129151344,0.0794265046715736,-0.5,0.0345230959355831,0.0855497270822525
8,0.045185711234808,0.0827628523111343,0.066049836575985,-0.5,0.0279266964644194,0.0680022090673447
9,0.0275166407227516,0.0605050921440125,0.0444180481135845,-0.5,0.0163525454699993,0.0421535819768906
10,0.00571071170270443,0.0344613455235958,0.0172104872763157,-0.5,0.000507483200635761,0.0121039329096675
11,-0.0231237448751926,0.00293566822074354,-0.0181535016745329,-0.5,-0.0211206898093224,-0.0234722904860973
12,-0.0570853352546692,-0.0320831909775734,-0.0592725798487663,-0.5,-0.0456297546625137,-0.0625667348504066
13,-0.0852157101035118,-0.0605465546250343,-0.0941344127058983,-0.5,-0.0647150203585625,-0.0949191600084305
14,-0.0943271741271019,-0.0700960010290146,-0.10776499658823,-0.496843129396439,-0.0698148459196091,-0.107467316091061
15,-0.0815337300300598,-0.0580354742705822,-0.0962373688817024,0.0229796580970287,-0.0599095113575459,-0.0968627110123634
16,-0.055354256182909,-0.0326610319316387,-0.0689260885119438,0.142755970358849,-0.0413880124688149,-0.0713749676942825
17,-0.0263926703482866,-0.00428846525028348,-0.0379722826182842,-0.0593754425644875,-0.0212740544229746,-0.0419893004000187
18,-0.00376565591432154,0.0185396838933229,-0.0137165831401944,-0.379236578941345,-0.0058031021617353,-0.0183722730726004
19,0.00660682655870914,0.0305571332573891,-0.00252901157364249,-0.5,0.000890778610482812,-0.00640300055965781
20,0.00620054872706532,0.0325658172369003,-0.00233057118020952,-0.5,0.000596506404690444,-0.00471916841343045
21,0.00411750609055161,0.0321473330259323,-0.00298229441978037,-0.5,-9.28404842852615E-05,-0.00437954254448414
22,0.00719822151586413,0.0355705767869949,0.00284606427885592,-0.5,0.00299287750385702,0.00175008201040328
23,0.0121353138238192,0.0399316139519215,0.0110188908874989,-0.5,0.00747368624433875,0.0103004025295377
24,0.0157106053084135,0.0422542952001095,0.0162221938371658,-0.5,0.0103134708479047,0.0168507359921932
25,0.0210919436067343,0.0441558174788952,0.0187224261462688,-0.5,0.0116047933697701,0.0210543628782034
26,0.0320811569690704,0.0500919930636883,0.0235498696565628,-0.5,0.0147215351462364,0.0264663230627775
27,0.0499737076461315,0.0664077922701836,0.0389527417719364,-0.5,0.024123840034008,0.0403569340705872
28,0.0674008056521416,0.0873666033148766,0.0605787821114063,-0.5,0.0362418703734875,0.057858407497406
29,0.0693545266985893,0.0946243330836296,0.0692127868533134,-0.5,0.0402712933719158,0.0608602166175842
30,0.0515903048217297,0.081345908343792,0.0560684837400913,-0.5,0.0322629325091839,0.0431624092161655
31,0.0241857040673494,0.0571543462574482,0.0296442937105894,-0.5,0.0175383538007736,0.0146792214363813
32,-0.00441529043018818,0.0303485076874495,-0.00143541069701314,-0.5,0.00102426682133228,-0.0163731127977371
33,-0.0293788965791464,0.00524000870063901,-0.0306139830499887,-0.5,-0.0134318713098764,-0.0446749180555344
34,-0.0446426458656788,-0.011789508163929,-0.0489680282771587,-0.5,-0.0207153838127851,-0.0625266656279564
35,-0.0470942370593548,-0.016118360683322,-0.0516369268298149,-0.316570639610291,-0.0188957545906305,-0.0650804564356804
36,-0.0410795249044895,-0.0108103677630425,-0.0435773357748985,-0.047057393938303,-0.0120857302099466,-0.0564113780856133
37,-0.035141509026289,-0.00456770742312074,-0.0353280864655972,0.100507624447346,-0.00653505371883512,-0.0470185019075871
38,-0.0338298007845879,-0.00281980214640498,-0.0328794047236443,0.21967414021492,-0.0054188403300941,-0.0434106215834618
39,-0.0333023108541965,-0.00161066278815269,-0.032310675829649,0.333674162626266,-0.00659794360399246,-0.0410086661577225
40,-0.0285037290304899,0.00447542546316981,-0.0278917159885168,0.462027102708817,-0.00666673621162772,-0.0334730558097363
41,-0.0245226603001356,0.00940350722521544,-0.0251819286495447,0.5,-0.0082414923235774,-0.0273653231561184
42,-0.027706403285265,0.00543001480400562,-0.0315704047679901,0.5,-0.0144911333918571,-0.031366903334856
43,-0.0339930579066277,-0.00361451809294522,-0.0424339957535267,0.5,-0.0214255601167679,-0.0413906872272491
44,-0.0320559032261372,-0.0045034671202302,-0.0436127185821533,0.5,-0.0204321593046188,-0.0425661168992519
45,-0.0171221420168877,0.00928598362952471,-0.0282367374747992,0.5,-0.00900690536946058,-0.0268873665481806
46,0.00260117184370756,0.0294285323470831,-0.00572517607361078,0.5,0.00524708861485124,-0.00259694224223495
47,0.023255093023181,0.0523234345018864,0.0181439016014338,0.5,0.0181129202246666,0.0261249728500843
48,0.0430913604795933,0.0761289075016975,0.0403220169246197,0.356117308139801,0.0282587315887213,0.0557030141353607
49,0.0518358200788498,0.0882290080189705,0.0491338260471821,0.148528024554253,0.0302413608878851,0.0715987533330917
50,0.0450504347681999,0.0821298211812973,0.0402188338339329,0.257674068212509,0.0232142526656389,0.0674997791647911
51,0.0336013846099377,0.0694268643856049,0.0269238576292992,0.487106412649155,0.0154364435002208,0.0565976090729237
52,0.0312561392784119,0.065655954182148,0.0251710712909698,0.5,0.0151001969352365,0.0546576231718063
53,0.0396763458848,0.0729046240448952,0.0359928421676159,0.370555520057678,0.0217881929129362,0.0620532259345055
54,0.0525713749229908,0.0843931064009666,0.0516420193016529,0.0380453132092953,0.0311012603342533,0.0713225975632668
55,0.0601348243653774,0.0894761383533478,0.061392717063427,-0.316597729921341,0.0372358709573746,0.0729828029870987
56,0.0560595020651817,0.0819788947701454,0.0584718473255634,-0.5,0.0357770174741745,0.0621698461472988
57,0.0469442941248417,0.0704694539308548,0.0499724186956882,-0.5,0.0295231137424707,0.0484776124358177
58,0.0433715581893921,0.0668070837855339,0.047332726418972,-0.5,0.0244352519512177,0.0446446128189564
59,0.0458004958927631,0.0705378651618958,0.0505311489105225,-0.5,0.021596722304821,0.0497517138719559
60,0.0440731458365917,0.0695740357041359,0.0474489629268646,-0.5,0.0156298335641623,0.049831822514534
61,0.0323414504528046,0.0567030236124992,0.031414944678545,-0.5,0.00346022471785545,0.0366858616471291
62,0.0145611576735973,0.0358379296958447,0.00740242144092917,-0.5,-0.0114356679841876,0.0145539231598377
63,-0.0020691177342087,0.0150161739438772,-0.0153775680810213,-0.472476065158844,-0.0230719707906246,-0.00787656661123037
64,-0.0144797163084149,-0.00194386602379382,-0.0322265401482582,0.23964224755764,-0.0288518741726875,-0.0264780577272177
65,-0.0241239108145237,-0.0150741385295987,-0.0443962179124355,0.5,-0.0307005979120731,-0.041711688041687
66,-0.0313212275505066,-0.0227987971156836,-0.052498821169138,0.5,-0.0305615980178118,-0.0526805967092514
67,-0.0336111783981323,-0.0220746081322432,-0.0542604327201843,0.5,-0.0283535122871399,-0.0561782978475094
68,-0.0274380501359701,-0.00973780918866396,-0.0462833270430565,0.5,-0.0227760225534439,-0.0480955056846142
69,-0.0138739347457886,0.0118886213749647,-0.0300691183656454,0.5,-0.0143561866134405,-0.0303830821067095
70,0.00371999805793166,0.0379285700619221,-0.00927591882646084,0.5,-0.00430333614349365,-0.00787112861871719
71,0.0234577096998692,0.0655790194869041,0.0139886168763042,0.5,0.00668517593294382,0.016670836135745
72,0.0410404726862907,0.0900229811668396,0.0349168479442596,0.5,0.0163993909955025,0.0381197221577168
73,0.0536616742610931,0.109147466719151,0.0509827136993408,0.330239474773407,0.0239141285419464,0.0544082596898079
74,0.0610014423727989,0.123143143951893,0.0619919709861279,-0.193944051861763,0.0288269650191069,0.0658416301012039
75,0.0620048753917217,0.13024914264679,0.0654132217168808,-0.5,0.029090503230691,0.0702575594186783
76,0.0586499497294426,0.132416471838951,0.062245175242424,-0.5,0.0254771113395691,0.0692179426550865
77,0.0554124861955643,0.134436368942261,0.0577587634325027,-0.5,0.0216695722192526,0.0675792023539543
78,0.0566223561763763,0.140635669231415,0.057925820350647,-0.5,0.021083127707243,0.0701484307646751
79,0.061639454215765,0.149834245443344,0.0631109625101089,-0.5,0.0236688237637281,0.0756189599633217
80,0.061792429536581,0.152022004127502,0.0638027563691139,-0.5,0.0241156276315451,0.0732031315565109
81,0.050882875919342,0.140160754323006,0.0524605773389339,-0.5,0.0181985292583704,0.0563848055899143
82,0.0321052595973015,0.118087321519852,0.0320926904678345,-0.5,0.00759663293138146,0.0303108058869839
83,0.014247358776629,0.0968557298183441,0.0125367380678654,-0.5,-0.00229594716802239,0.00638401322066784
84,0.00454938178882003,0.0853975117206573,0.00174086738843471,-0.5,-0.00741040427237749,-0.00660847313702106
85,0.000642388709820807,0.0804611518979073,-0.00369525677524507,-0.5,-0.0100520672276616,-0.0122515382245183
86,-0.0057281656190753,0.0727142542600632,-0.013039275072515,-0.5,-0.0155977038666606,-0.0204543564468622
87,-0.0137510150671005,0.0638046413660049,-0.0244552865624428,-0.354677677154541,-0.0226342938840389,-0.029532428830862
88,-0.0160955879837275,0.0619856305420399,-0.0289539899677038,-0.14087139070034,-0.0254379101097584,-0.0307246614247561
89,-0.0099968770518899,0.0694067031145096,-0.0232651270925999,-0.19442529976368,-0.021757073700428,-0.0215547699481249
90,0.00193521659821272,0.0820781961083412,-0.0101975221186876,-0.5,-0.0132550336420536,-0.00612510973587632
91,0.013645039871335,0.0934170186519623,0.00408576894551516,-0.5,-0.00382567942142487,0.00827461387962103
92,0.0258270800113678,0.105441324412823,0.0209012385457754,-0.5,0.00722346873953938,0.0233470126986504
93,0.0375353544950485,0.118020989000797,0.0386908873915672,-0.5,0.0187873058021069,0.038431704044342
94,0.0344399362802505,0.115674428641796,0.0397539585828781,-0.5,0.0198399014770985,0.0364987552165985
95,0.011081668548286,0.0925316959619522,0.0164616294205189,-0.5,0.00558244064450264,0.0113843129947782
96,-0.017560301348567,0.0645693689584732,-0.0153302270919085,-0.00665388815104961,-0.0145727535709739,-0.0193168502300978
97,-0.0317792408168316,0.050595860928297,-0.0355659872293472,0.479155898094177,-0.0290112663060427,-0.0356125012040138
98,-0.0214798506349325,0.0596146620810032,-0.0327211916446686,0.5,-0.0307771731168032,-0.027987277135253
99,0.00740440422669053,0.0886742770671844,-0.00694151083007455,0.18344883620739,-0.0190405286848545,0.00143529754132032
100,0.0373468473553658,0.122477173805237,0.0276125837117434,-0.5,-0.00137514807283878,0.0371491014957428
101,0.0556236617267132,0.146041706204414,0.0548137351870537,-0.5,0.0127806905657053,0.0630356222391129
102,0.0620430633425713,0.156276389956474,0.0697638541460037,-0.5,0.0199307277798653,0.0757138803601265
103,0.0586060211062431,0.153863593935966,0.0713803097605705,-0.5,0.0194081906229258,0.0757467970252037
104,0.0468898825347424,0.140345424413681,0.0600554496049881,-0.5,0.0122287347912788,0.0642643868923187
105,0.0333472602069378,0.123202659189701,0.0437477752566338,-0.5,0.00314263999462128,0.048892505466938
106,0.0229564402252436,0.108542077243328,0.0290159378200769,-0.5,-0.00456618377938867,0.0355992801487446
107,0.0163049399852753,0.0970421731472015,0.0171591620892286,-0.5,-0.0104751735925674,0.024463826790452
108,0.014710845425725,0.0900148674845696,0.0114980535581708,-0.5,-0.0125890746712685,0.0177898909896612
109,0.0172839760780334,0.0876749604940414,0.0132793411612511,-0.5,-0.0101478630676866,0.0176294445991516
110,0.017315074801445,0.0838058292865753,0.0149704059585929,-0.5,-0.00768906716257334,0.0172230191528797
111,0.00966474320739508,0.0723018497228622,0.00816869549453259,-0.5,-0.0102765504270792,0.00791480112820864
112,-0.000550124444998801,0.0586522594094276,-0.00322968512773514,-0.5,-0.0160633940249681,-0.00588867999613285
113,-0.00154955196194351,0.0567292720079422,-0.00508259050548077,-0.5,-0.0173277277499437,-0.00899745244532824
114,0.00910796411335468,0.0692358464002609,0.00694994162768126,-0.5,-0.0117539428174496,0.0026086512953043
115,0.0236129444092512,0.0864811763167381,0.0246750134974718,-0.5,-0.00363291497342288,0.0198486372828484
116,0.0371460467576981,0.101980186998844,0.0424750857055187,-0.5,0.00505973771214485,0.0365879870951176
117,0.0460533052682877,0.111126355826855,0.0554452277719975,-0.5,0.0123479217290878,0.0474821925163269
118,0.0448877848684788,0.108464278280735,0.056400902569294,-0.5,0.0134133081883192,0.0459940172731876
119,0.0342791751027107,0.0956690758466721,0.0455517992377281,-0.5,0.00732460478320718,0.0337243638932705
120,0.0209463816136122,0.0808627605438232,0.0307830329984427,-0.5,-0.00151067296974361,0.0192643459886312
121,0.00766557129099965,0.0674203485250473,0.0155262285843492,-0.5,-0.0105627961456776,0.00630205497145653
122,-0.00562799628823996,0.0548145025968552,-0.000301309570204467,-0.5,-0.019583947956562,-0.00567786954343319
123,-0.0186525862663984,0.0422407053411007,-0.0162341687828302,-0.5,-0.0286371801048517,-0.0178766921162605
124,-0.0336247012019157,0.0262600891292095,-0.0348308868706226,-0.5,-0.0392149277031422,-0.0340262800455093
125,-0.0488493405282497,0.00862191803753376,-0.0540994144976139,-0.5,-0.0496462918817997,-0.0515219829976559
126,-0.0533601120114326,0.00166581769008189,-0.0606508702039719,-0.5,-0.0522861704230309,-0.0561881624162197
127,-0.04392484202981,0.00876535382121801,-0.0500575490295887,-0.5,-0.0449275150895119,-0.0447015948593616
128,-0.0302287712693214,0.0192406922578812,-0.0338040180504322,-0.5,-0.0341250263154507,-0.0297413393855095
129,-0.014064772054553,0.0319545716047287,-0.0147468224167824,-0.5,-0.0216077715158463,-0.0131729859858751
130,0.00141126732341945,0.0444299317896366,0.00324364472180605,-0.5,-0.00965617969632149,0.00209993799217045
131,0.00338596105575562,0.0426930338144302,0.00544515484943986,-0.5,-0.00657429965212941,0.00138241169042885
132,-0.00662497943267226,0.0281152576208115,-0.00639930460602045,-0.271108239889145,-0.0113511523231864,-0.0128322644159198
133,-0.0142877865582705,0.0169930029660463,-0.0153404306620359,0.104487076401711,-0.014497010037303,-0.0227323994040489
134,-0.0159523244947195,0.0140113895758986,-0.0168830007314682,0.404685348272324,-0.0136995324864984,-0.0242893677204847
135,-0.0194912496954203,0.00999932363629341,-0.0207064263522625,0.5,-0.0147665841504931,-0.0280222687870264
136,-0.027057958766818,0.00160557765047997,-0.0297670792788267,0.5,-0.0198092777282,-0.036635585129261
137,-0.0320445746183395,-0.00440773693844676,-0.0357354544103146,0.5,-0.0241464264690876,-0.0415188558399677
138,-0.0328952930867672,-0.00656110607087612,-0.0359239280223846,0.5,-0.0255761910229921,-0.0407528132200241
139,-0.0341683141887188,-0.00999369006603956,-0.0358448028564453,0.5,-0.0262668263167143,-0.0406104400753975
140,-0.0347242131829262,-0.013209437020123,-0.0352172926068306,0.5,-0.025673458352685,-0.0405120067298412
141,-0.0306466352194548,-0.0115029318258166,-0.0305020455271006,0.5,-0.0223302468657494,-0.036117497831583
142,-0.0250789318233728,-0.00819243304431438,-0.0254959166049957,0.5,-0.0191773567348719,-0.0308833513408899
143,-0.0229768399149179,-0.00907469727098942,-0.0250234957784414,0.5,-0.0195270106196404,-0.0296061988919973
144,-0.0228626653552055,-0.0135291768237948,-0.0262602381408215,0.5,-0.021712314337492,-0.0297674927860498
145,-0.0211446154862642,-0.0178968030959368,-0.0242797806859016,0.5,-0.0220342054963112,-0.0272231977432966
146,-0.0178056135773659,-0.0210171435028315,-0.0193053409457207,0.5,-0.0198246091604233,-0.0219896379858255
147,-0.0150332665070891,-0.0243013203144073,-0.0151232443749905,0.5,-0.0173470415174961,-0.016284441575408
148,-0.0154113918542862,-0.0302361287176609,-0.0152416219934821,0.5,-0.0173621047288179,-0.0132620744407177
149,-0.0167106501758099,-0.0365122258663177,-0.0166104510426521,0.5,-0.0182212330400944,-0.0117329703643918
150,-0.0126067027449608,-0.03716841340065,-0.0118258912116289,0.5,-0.0151070691645145,-0.00647123996168375
151,-0.00209268275648355,-0.0319458730518818,0.000180679213372059,0.5,-0.00759828882291913,0.00248894072137773
152,0.00893194973468781,-0.0267091449350119,0.0128735639154911,0.5,1.66329518833663E-05,0.00932776276022196
153,0.0161902960389853,-0.0245028007775545,0.0214033033698797,0.399553447961807,0.00486190291121602,0.0121409418061376
154,0.0240844041109085,-0.0192098114639521,0.0307246576994658,-0.113977901637554,0.00939437095075846,0.0189538728445768
155,0.0361611507833004,-0.00649618916213512,0.0450159907341003,-0.5,0.0152200469747186,0.034327358007431
156,0.0465872995555401,0.00665294006466866,0.0573154948651791,-0.5,0.0182530395686626,0.0493100993335247
157,0.0460927225649357,0.00809067580848932,0.0559573248028755,-0.5,0.0132585894316435,0.0498210899531841
158,0.031199537217617,-0.00777338026091456,0.0365173742175102,-0.5,-0.000514552462846041,0.0301250480115414
159,0.00667707761749625,-0.0360129699110985,0.00541011663153768,-0.5,-0.019076393917203,-0.00335029675625265
160,-0.0193663164973259,-0.0673991516232491,-0.0271456092596054,-0.190548703074455,-0.037018209695816,-0.0393586419522762
161,-0.0380748137831688,-0.091512456536293,-0.0510293431580067,0.5,-0.0485835000872612,-0.0655585527420044
162,-0.048608060926199,-0.10619992017746,-0.0651067867875099,0.5,-0.0534734837710857,-0.0794703736901283
163,-0.0572722069919109,-0.11714868247509,-0.0761990994215012,0.5,-0.0567850843071938,-0.0882856473326683
164,-0.0615251138806343,-0.121478460729122,-0.0820175409317017,0.5,-0.0581547990441322,-0.090226799249649
165,-0.0534822940826416,-0.111324951052666,-0.0739012211561203,0.5,-0.0529330223798752,-0.0774792060256004
166,-0.0339996442198753,-0.0881209149956703,-0.0520700886845589,0.5,-0.041288435459137,-0.0511640943586826
167,-0.00996680930256844,-0.0599741116166115,-0.0238488297909498,0.5,-0.0269156023859978,-0.0190622936934233
168,0.0131844859570265,-0.0333992801606655,0.00431782146915793,0.5,-0.012946605682373,0.0119551159441471
169,0.0307463463395834,-0.0138039626181126,0.0264839697629213,0.5,-0.00250306166708469,0.0351809225976467
170,0.0362601056694984,-0.00853166170418262,0.0347104407846928,0.5,0.000418869167333469,0.0420435667037964
171,0.0269321706146002,-0.0208377260714769,0.0250853225588799,0.5,-0.00567121477797627,0.0293630249798298
172,0.0121183134615421,-0.0406893007457256,0.00800102297216654,0.5,-0.0143090477213264,0.00884534046053886
173,0.00354743492789567,-0.0550403855741024,-0.0024710944853723,0.5,-0.0178185608237982,-0.00485162204131484
174,0.00516256876289845,-0.058698482811451,-0.00147667562123388,0.5,-0.0147425699979067,-0.00574222765862942
175,0.0196837801486254,-0.0478462465107441,0.0136954858899117,0.5,-0.00502593256533146,0.0107998084276915
176,0.0446133501827717,-0.0245690308511257,0.0402913615107536,-0.215664744377136,0.00870025251060724,0.0420912206172943
177,0.0649803355336189,-0.00551605969667435,0.0615844428539276,-0.5,0.0171325486153364,0.0690076649188995
178,0.0680109038949013,-0.00587716838344932,0.0631404221057892,-0.5,0.0135666150599718,0.0748460218310356
179,0.0555636659264565,-0.0243039764463902,0.0475750751793385,-0.5,0.000985878752544522,0.0617353953421116
180,0.0368585102260113,-0.0504580549895763,0.0262323096394539,-0.5,-0.0134082902222872,0.0413283929228783
181,0.017687626183033,-0.0770904496312141,0.00609268387779593,-0.5,-0.025675980374217,0.0208493731915951
182,-0.0021271975710988,-0.103472612798214,-0.0139533178880811,-0.5,-0.036674290895462,-0.000105061502836179
183,-0.0223839543759823,-0.12908735871315,-0.0354867279529572,-0.5,-0.0471549704670906,-0.0221854262053967
184,-0.0381059087812901,-0.148928791284561,-0.0536136850714684,-0.0137982778251171,-0.0545325763523579,-0.0406177192926407
185,-0.0408452413976192,-0.1545619815588,-0.0576228052377701,0.401401847600937,-0.0537400171160698,-0.0458333939313889
186,-0.0303629916161299,-0.146385490894318,-0.0459139980375767,0.484430193901062,-0.0446019433438778,-0.037550263106823
187,-0.0165086966007948,-0.135456338524818,-0.0294970627874136,0.329759925603867,-0.0332036465406418,-0.0270710475742817
188,-0.00322488066740334,-0.125437512993813,-0.0129140764474869,0.0634578987956047,-0.022082507610321,-0.0178705994039774
189,0.0110590485855937,-0.113147862255573,0.00600124150514603,-0.298195391893387,-0.01044060010463,-0.00617548963055015
190,0.0230763591825962,-0.101438529789448,0.0229332596063614,-0.5,-0.00100934726651758,0.00528766959905624
191,0.0260713677853346,-0.0987333059310913,0.0278425272554159,-0.5,0.000865027133841068,0.00704029854387045
192,0.0201723240315914,-0.10760348290205,0.0171770080924034,-0.5,-0.00585759663954377,-0.00431546662002802
193,0.0133237605914474,-0.120783798396587,-0.00113952555693686,-0.5,-0.0159718878567219,-0.0207598097622395
194,0.0105968751013279,-0.129351332783699,-0.0159087739884853,-0.5,-0.0235393531620502,-0.0317832231521606
195,0.0104924496263266,-0.131090357899666,-0.0223437324166298,-0.338416188955307,-0.0266179069876671,-0.033603984862566
196,0.0116061856970191,-0.128165736794472,-0.0207908656448126,-0.105376020073891,-0.0254610050469637,-0.0272161737084389
197,0.0158071406185627,-0.121239259839058,-0.0120700746774673,-0.105581842362881,-0.0203801859170198,-0.0136583708226681
198,0.0227726716548204,-0.111939892172813,0.000152416861965321,-0.307804375886917,-0.0135447327047586,0.00260790600441396
199,0.0301352962851524,-0.102218255400658,0.0122195230796933,-0.5,-0.00734505383297801,0.0170433484017849
200,0.0347353294491768,-0.094978354871273,0.0214460100978613,-0.5,-0.00327679351903498,0.0268327593803406
201,0.0337775871157646,-0.0937879905104637,0.0251705646514893,-0.5,-0.0024962502066046,0.0297408830374479
202,0.0309821981936693,-0.0946632623672485,0.0267586670815945,-0.5,-0.0035223129671067,0.0305537637323141
203,0.0285975579172373,-0.0948796719312668,0.0272639840841293,-0.5,-0.00603542057797313,0.0314134955406189
204,0.0231293756514788,-0.0986975803971291,0.0216709207743406,-0.5,-0.0119550125673413,0.0272283796221018
205,0.0133988568559289,-0.108130522072315,0.00853328127413988,-0.5,-0.0212718769907951,0.0160136800259352
206,0.00253801629878581,-0.119977489113808,-0.00797094684094191,-0.5,-0.0317443907260895,0.00157640723045915
207,-0.00299777113832533,-0.126759842038155,-0.0192406214773655,-0.5,-0.0388303622603416,-0.0076602385379374
208,-0.0024232876021415,-0.127422824501991,-0.0225044377148151,-0.5,-0.0411068573594093,-0.00975520256906748
209,0.00245903991162777,-0.123176977038383,-0.0175297558307648,-0.5,-0.0389966554939747,-0.00473072193562984
210,0.0115725444629788,-0.113097064197063,-0.0038315795827657,-0.5,-0.0326958820223808,0.00782917812466621
211,0.016839262098074,-0.106677167117596,0.00658110762014985,-0.5,-0.0284367371350527,0.0153625346720219
212,0.0117919780313969,-0.111939698457718,0.00290304864756763,-0.5,-0.0314130634069443,0.0081371208652854
213,0.00140853365883231,-0.12332521378994,-0.0103256599977613,-0.5,-0.038656909018755,-0.00743274390697479
214,-0.00874518230557442,-0.134132921695709,-0.0253878347575665,-0.475594133138657,-0.0460191741585732,-0.0235510896891356
215,-0.017984664067626,-0.143142208456993,-0.0389247424900532,-0.323258519172668,-0.0522696301341057,-0.0376470685005188
216,-0.0256874803453684,-0.149882152676582,-0.0486855320632458,-0.0933913737535477,-0.056697566062212,-0.0474770329892635
217,-0.0293218176811934,-0.152026802301407,-0.0522922463715076,0.127656415104866,-0.0580704584717751,-0.0503455176949501
218,-0.0283568035811186,-0.149164006114006,-0.0510096289217472,0.2709701359272,-0.0571055710315704,-0.0467063523828983
219,-0.0291944779455662,-0.148865133523941,-0.0538100600242615,0.391757905483246,-0.0586334951221943,-0.0451713502407074
220,-0.0325880236923695,-0.15216763317585,-0.0613546743988991,0.5,-0.0624860413372517,-0.0468372479081154
221,-0.0287904292345047,-0.14776998758316,-0.0612427890300751,0.5,-0.0618002340197563,-0.0396155826747417
222,-0.0160459503531456,-0.133529633283615,-0.0505382493138313,0.5,-0.0556921809911728,-0.0221018735319376
223,0.00157442945055664,-0.113789200782776,-0.0331784822046757,0.492545872926712,-0.0467122197151184,-2.0369892808958E-05
224,0.0242135617882013,-0.0880251824855804,-0.00806266721338034,0.0274147111922503,-0.0343478731811047,0.0273179747164249
225,0.0508237704634666,-0.0571758188307285,0.0242493990808725,-0.5,-0.0185980424284935,0.059589572250843
226,0.0744876191020012,-0.0290186386555433,0.0550369247794151,-0.5,-0.00320015824399889,0.0884641408920288
227,0.0846972987055779,-0.0156856868416071,0.0706528946757317,-0.5,0.00477466499432921,0.100440226495266
228,0.079485796391964,-0.0195004157721996,0.0675342008471489,-0.5,0.00290408963337541,0.0932182520627975
229,0.0691366642713547,-0.0288315005600452,0.0571714341640472,-0.5,-0.00309722824022174,0.0802211686968803
230,0.0595272742211819,-0.0372957326471806,0.0472025536000729,-0.5,-0.00972201768308878,0.0689886510372162
231,0.0430783852934837,-0.0537633188068867,0.0291815642267466,-0.5,-0.0215910468250513,0.0502960532903671
232,0.00866721011698246,-0.0915793627500534,-0.0114755919203162,-0.5,-0.0452832542359829,0.00938933063298464
233,-0.0433124899864197,-0.151818230748177,-0.076363630592823,-0.5,-0.0798349231481552,-0.0560708455741405
234,-0.0964958965778351,-0.216113090515137,-0.145855292677879,-0.459104031324387,-0.113753370940685,-0.127009853720665
235,-0.13260492682457,-0.261862993240356,-0.195773079991341,0.5,-0.134844601154327,-0.17875038087368
236,-0.143476709723473,-0.277972966432571,-0.214296564459801,0.5,-0.138746008276939,-0.198948174715042
237,-0.130008891224861,-0.26475727558136,-0.201515048742294,0.5,-0.126636922359467,-0.18802335858345
238,-0.0996325016021729,-0.23095615208149,-0.166104137897491,0.5,-0.102714009582996,-0.155239075422287
239,-0.0642357692122459,-0.190677016973495,-0.122764460742474,0.5,-0.0745878964662552,-0.11523799598217
240,-0.0366844311356544,-0.158672332763672,-0.0875132903456688,0.5,-0.0516090653836727,-0.0833534672856331
241,-0.0238735247403383,-0.142197042703629,-0.069184809923172,0.5,-0.0393689572811127,-0.0671418234705925
242,-0.0247598942369223,-0.139893501996994,-0.0672979056835175,0.5,-0.0377930402755737,-0.0652478113770485
243,-0.0349383167922497,-0.148056268692017,-0.0774645730853081,0.5,-0.0439409911632538,-0.0742666870355606
244,-0.0461763069033623,-0.158667460083961,-0.0906162336468697,0.5,-0.0522185117006302,-0.0866181403398514
245,-0.0483429990708828,-0.160295337438583,-0.0945030003786087,0.5,-0.0557498522102833,-0.0899622067809105
246,-0.0377658158540726,-0.148289278149605,-0.0832812413573265,0.5,-0.0515241101384163,-0.0774612724781036
247,-0.0184956956654787,-0.126857921481133,-0.0602475628256798,0.5,-0.0416710674762726,-0.0522668026387692
248,0.00489652855321765,-0.100693762302399,-0.0301171038299799,0.5,-0.0284280069172382,-0.0204843543469906
249,0.0271555073559284,-0.0754327848553658,0.000432706146966666,0.5,-0.0141032291576266,0.0096126664429903
250,0.0400097519159317,-0.0604489594697952,0.0199564583599567,0.5,-0.00412266422063112,0.0267360862344503
251,0.0387922450900078,-0.0608330108225346,0.0216412544250488,0.48263955116272,-0.00313629233278334,0.0254848692566156
252,0.0256582517176867,-0.0736058801412582,0.0081663466989994,0.234798729419708,-0.011204126290977,0.00976925250142813
253,0.0104478653520346,-0.0873370766639709,-0.00860784668475389,0.132968932390213,-0.0221647843718529,-0.00720591098070145
254,0.00362366926856339,-0.0907025784254074,-0.0169542916119099,0.124254614114761,-0.0289608333259821,-0.0130444522947073
255,0.001561772194691,-0.0888064503669739,-0.0214887745678425,0.18602080643177,-0.0336916223168373,-0.0139189464971423
256,-0.00771734025329351,-0.0959831029176712,-0.0353555604815483,0.364923715591431,-0.0432289391756058,-0.0251485295593739
257,-0.0260742604732513,-0.11466820538044,-0.0592432394623756,0.5,-0.0572591461241245,-0.0478864200413227
258,-0.0451709516346455,-0.135563939809799,-0.082333892583847,0.5,-0.069378599524498,-0.0709925070405006
259,-0.0584950745105743,-0.150662377476692,-0.0962979942560196,0.5,-0.0751502811908722,-0.0861643403768539
260,-0.0625713244080544,-0.1546610891819,-0.0974106639623642,0.5,-0.0730976834893227,-0.0892434790730476
261,-0.0575293377041817,-0.147471010684967,-0.0874545648694038,0.5,-0.0650553181767464,-0.081759974360466
262,-0.0466927699744701,-0.134693682193756,-0.0726276710629463,0.5,-0.054951798170805,-0.0697086080908775
263,-0.0295003056526184,-0.117840997874737,-0.0553897991776466,0.5,-0.043906781822443,-0.0544671937823296
264,-0.00854620430618525,-0.0979878231883049,-0.0384753160178661,0.5,-0.0331365950405598,-0.0376394875347614
265,0.00841360818594694,-0.0788453817367554,-0.0253543853759766,0.5,-0.0247099753469229,-0.022224260494113
266,0.0189889539033175,-0.0618584454059601,-0.0147005887702107,0.5,-0.017879992723465,-0.00783347804099321
267,0.0246254913508892,-0.0489977225661278,-0.00546222040429711,0.5,-0.0114593198522925,0.00487100193277001
268,0.02755206823349,-0.0414840988814831,0.00232742517255247,0.5,-0.0049274479970336,0.0145638575777411
269,0.0307224281132221,-0.0367847383022308,0.0103545188903809,0.5,0.00237861974164844,0.0222082622349262
270,0.0359750837087631,-0.0311252158135176,0.0207361113280058,0.141911521553993,0.010763511992991,0.0300498064607382
271,0.0394325591623783,-0.0271324533969164,0.0292573142796755,-0.281892567873001,0.0171927139163017,0.0344279371201992
272,0.0345810055732727,-0.0315119512379169,0.0274895709007978,-0.5,0.0167558193206787,0.02809745259583
273,0.0233466364443302,-0.0423203259706497,0.0159556195139885,-0.5,0.00988685712218285,0.0135428542271256
274,0.0156561825424433,-0.0489889830350876,0.00535964732989669,-0.5,0.00320088211447001,0.00262004882097244
275,0.02006477676332,-0.0421961396932602,0.00674847466871142,-0.5,0.00370600633323193,0.00598767632618546
276,0.0351722054183483,-0.0234383624047041,0.0211429931223392,-0.5,0.011957598850131,0.0231298264116049
277,0.0491687320172787,-0.00581717770546675,0.0371963307261467,-0.5,0.0208870563656092,0.0407876521348953
278,0.0506574772298336,-0.00285262335091829,0.0412445068359375,-0.5,0.0227757506072521,0.0437209159135818
279,0.0398638620972633,-0.0155989713966846,0.0306610316038132,-0.5,0.0168772116303444,0.0287675373256207
280,0.0244804788380861,-0.0349603034555912,0.0121162654832006,-0.5,0.00781731400638819,0.00397120648995042
281,0.00875939521938562,-0.0549198426306248,-0.00927884038537741,-0.5,-0.00116536894347519,-0.023712920024991
282,-0.00476009584963322,-0.0722415000200272,-0.0286582689732313,-0.5,-0.00790704507380724,-0.0484925024211407
283,-0.0121127897873521,-0.0820080414414406,-0.039729755371809,-0.5,-0.00985743291676044,-0.0634151548147202
284,-0.0160706397145987,-0.0866467729210854,-0.0452294163405895,-0.5,-0.00973611604422331,-0.0711131766438484
285,-0.0266217049211264,-0.0964467898011208,-0.0573603548109531,-0.5,-0.0151595389470458,-0.0836476981639862
286,-0.0471625365316868,-0.114574760198593,-0.081418551504612,0.312035799026489,-0.0283010415732861,-0.10507345944643
287,-0.0704313740134239,-0.134108498692513,-0.109581016004086,0.5,-0.0436736233532429,-0.127669379115105
288,-0.0869367867708206,-0.146280094981194,-0.130011305212975,0.5,-0.0547818392515183,-0.141132161021233
289,-0.0915132164955139,-0.145909905433655,-0.135971903800964,0.5,-0.0584721751511097,-0.139595225453377
290,-0.0855214893817902,-0.134930580854416,-0.129136472940445,0.5,-0.0556006990373135,-0.126343578100204
291,-0.069706492125988,-0.114770568907261,-0.110806472599506,0.5,-0.0463815405964851,-0.104094207286835
292,-0.0397410579025745,-0.0807630196213722,-0.0760453268885612,0.5,-0.0281514339148998,-0.0680857598781586
293,-0.000492053630296141,-0.0380236059427261,-0.0299589894711971,0.5,-0.0036868208553642,-0.0235903467983007
294,0.0320436805486679,-0.00354728987440467,0.00915283430367708,0.5,0.0177679490298033,0.012241973541677
295,0.0512049533426762,0.0158966556191444,0.0333290994167328,0.5,0.032179269939661,0.0338750891387463
296,0.0634134486317635,0.0280189365148544,0.0501788593828678,0.0217118468135595,0.0424336083233356,0.0506957210600376
297,0.0716234892606735,0.0370720885694027,0.0632749050855637,-0.5,0.0488477349281311,0.0659391731023788
298,0.0697180479764938,0.0368092246353626,0.0644715055823326,-0.5,0.0469500534236431,0.0692008286714554
299,0.0545025654137135,0.0229043997824192,0.0484604053199291,-0.5,0.03520417958498,0.0534559264779091
300,0.0310256779193878,-0.000874691351782531,0.0207488238811493,-0.5,0.0184275843203068,0.023690152913332
301,0.00901933759450912,-0.0245112013071775,-0.00630363216623664,-0.110800012946129,0.00420162687078118,-0.00724204489961267
302,-0.0013762399321422,-0.0358263067901134,-0.0197837334126234,0.388156175613403,-0.00184273452032357,-0.0247455630451441
303,-0.00143797462806106,-0.0350951701402664,-0.0205519404262304,0.5,-0.00209783855825663,-0.0281327478587627
304,-0.00231033400632441,-0.0336327776312828,-0.0209461972117424,0.5,-0.00366939650848508,-0.0291283186525106
305,-0.00645576324313879,-0.0340804494917393,-0.023387810215354,0.5,-0.00704820919781923,-0.0306679271161556
306,-0.0106008145958185,-0.0343240909278393,-0.0245314445346594,0.5,-0.00939345266669989,-0.0309112593531609
307,-0.0159897729754448,-0.0369050204753876,-0.0271332655102015,0.5,-0.0117577062919736,-0.0331237688660622
308,-0.0237692017108202,-0.0431638658046722,-0.033869631588459,0.5,-0.0158871449530125,-0.039091058075428
309,-0.0315864607691765,-0.0504938848316669,-0.0425585433840752,0.5,-0.0208732560276985,-0.0462644509971142
310,-0.031595267355442,-0.0497985258698463,-0.0437060408294201,0.5,-0.0215850751847029,-0.0452456399798393
311,-0.0180761553347111,-0.0335819832980633,-0.0297595057636499,0.5,-0.0141784604638815,-0.0286961682140827
312,-0.00252628768794239,-0.0141430320218205,-0.0131994485855103,0.5,-0.00559819350019097,-0.0102871377021074
313,-0.00410051783546805,-0.0132216494530439,-0.0159192811697721,0.414775162935257,-0.00736516714096069,-0.0128897242248058
314,-0.0245685540139675,-0.0330578312277794,-0.0400947965681553,0.5,-0.0205421969294548,-0.0379950664937496
315,-0.048163004219532,-0.0566341765224934,-0.0675959959626198,0.5,-0.0358785912394524,-0.0661668032407761
316,-0.0605517365038395,-0.0683714523911476,-0.0816491469740868,0.5,-0.0445932038128376,-0.0802095457911491
317,-0.0618303865194321,-0.0685189515352249,-0.0828046798706055,0.5,-0.0462886840105057,-0.0813347920775414
318,-0.0597464665770531,-0.0678019821643829,-0.0829311534762383,0.5,-0.0463354550302029,-0.0818322822451591
319,-0.0552862174808979,-0.0674557015299797,-0.0842875838279724,0.5,-0.0458471514284611,-0.0831951200962067
320,-0.0470233261585236,-0.060278195887804,-0.0802838578820229,0.5,-0.0420775637030602,-0.0782301649451256
321,-0.0355296023190022,-0.0432206690311432,-0.0671014189720154,0.5,-0.0337297096848488,-0.0636452361941338
322,-0.0197734571993351,-0.0175736267119646,-0.0444652773439884,0.5,-0.0208628829568625,-0.0397739037871361
323,-0.00180875603109598,0.0107227237895131,-0.0176742225885391,0.5,-0.00593314971774817,-0.0123252542689443
324,0.0107552232220769,0.0309925898909569,0.00258216401562095,0.5,0.00581963825970888,0.00739821279421449
325,0.012591409496963,0.0367166958749294,0.00879279244691134,0.5,0.0105453431606293,0.0120120085775852
326,0.0106449527665973,0.0373782813549042,0.0082942321896553,0.5,0.0116161368787289,0.0104414327070117
327,0.0148844262585044,0.0467963144183159,0.0135376425459981,0.5,0.0144766503944993,0.016531964763999
328,0.0223926156759262,0.0621437914669514,0.0221912451088429,0.5,0.0174000430852175,0.0276414938271046
329,0.0254145972430706,0.0727374106645584,0.0254408661276102,0.5,0.0165889374911785,0.0332050621509552
330,0.0247234087437391,0.0779257416725159,0.024128956720233,0.5,0.0136514529585838,0.032733827829361
331,0.0270214322954416,0.0855828300118446,0.026226194575429,0.5,0.0132460966706276,0.0348797403275967
332,0.0359267666935921,0.100561581552029,0.0364910662174225,0.5,0.017728278413415,0.0457625724375248
333,0.0486544072628021,0.119550436735153,0.0523802861571312,0.153324604034424,0.0251583121716976,0.0631606876850128
334,0.0586153976619244,0.134207457304001,0.0664825737476349,-0.265843898057938,0.0309464521706104,0.0789784342050552
335,0.0594654828310013,0.136700600385666,0.0705989226698875,-0.5,0.0312756970524788,0.0843602493405342
336,0.0518933981657028,0.127990141510963,0.0646255910396576,-0.5,0.0276671927422285,0.0787823796272278
337,0.0442647188901901,0.118220239877701,0.0582528002560139,-0.5,0.0259003322571516,0.0715937465429306
338,0.0397409312427044,0.111150480806828,0.0548642165958881,-0.5,0.0268766526132822,0.0663007572293282
339,0.0353140942752361,0.103571847081184,0.050439327955246,-0.5,0.0269553437829018,0.059787854552269
340,0.0336233600974083,0.0996305644512177,0.0479848124086857,-0.5,0.0263066552579403,0.0570904016494751
341,0.0390448346734047,0.105152070522308,0.053001657128334,-0.5,0.0274802539497614,0.0644857585430145
342,0.0459665954113007,0.113589815795422,0.0603333041071892,-0.5,0.0287765618413687,0.0743290558457375
343,0.042130284011364,0.110855132341385,0.0571946240961552,-0.5,0.0247480906546116,0.0715049207210541
344,0.0252107698470354,0.0939240455627441,0.040748942643404,-0.5,0.0148451570421457,0.0538032799959183
345,0.0075030610896647,0.0753190442919731,0.0237488895654678,-0.5,0.00645480072125793,0.0357365757226944
346,-0.00174377299845219,0.0641636922955513,0.0155701609328389,-0.473876655101776,0.00423873122781515,0.0271568186581135
347,-0.00788143556565046,0.0539663247764111,0.00958570092916489,-0.394256085157394,0.00335757597349584,0.0202732719480991
348,-0.0200723148882389,0.0348307900130749,-0.00446440326049924,-0.137598410248756,-0.00279183336533606,0.0032855027820915
349,-0.037058848887682,0.00944657064974308,-0.024729261174798,0.251305997371674,-0.0133734978735447,-0.0215162057429552
350,-0.0515460334718227,-0.0125149143859744,-0.0427634380757809,0.5,-0.0232034791260958,-0.0433030463755131
351,-0.0616200491786003,-0.0279672686010599,-0.0564606823027134,0.5,-0.0305278431624174,-0.0582710653543472
352,-0.0667007192969322,-0.036499448120594,-0.0651230961084366,0.5,-0.0343935154378414,-0.0654985755681992
353,-0.0668325275182724,-0.0388720519840717,-0.0677763894200325,0.5,-0.0336495526134968,-0.0655588060617447
354,-0.0664653852581978,-0.0403037592768669,-0.068378709256649,0.5,-0.0306624509394169,-0.0646183416247368
355,-0.0666241571307182,-0.0423234365880489,-0.0682003051042557,0.5,-0.0271821580827236,-0.0644493475556374
356,-0.0635049641132355,-0.0409577302634716,-0.0631664469838142,0.5,-0.0219608806073666,-0.0597540773451328
357,-0.053435705602169,-0.0315908491611481,-0.0496112331748009,0.5,-0.0134682087227702,-0.0452090837061405
358,-0.0344456173479557,-0.011481617577374,-0.0265420861542225,0.5,-0.00117649184539914,-0.0190312452614307
359,-0.00968604441732168,0.0161769893020391,0.00190749217290431,0.5,0.0129464287310839,0.013990986160934
360,0.0127693805843592,0.0426302142441273,0.0270792953670025,0.5,0.0244455300271511,0.0435621663928032
361,0.0239967480301857,0.0573419257998466,0.0392218492925167,0.5,0.0282200109213591,0.0582358352839947
362,0.0211501214653254,0.0558752678334713,0.0352557897567749,0.5,0.0230751466006041,0.0542967729270458
363,0.0121788559481502,0.0469773411750793,0.0247092414647341,0.5,0.0147315198555589,0.042337954044342
364,0.00608952110633254,0.0417859107255936,0.0187028832733631,0.5,0.00923145562410355,0.0344852693378925
365,0.00695938197895885,0.0449007861316204,0.022277282550931,0.5,0.00940561573952436,0.0356713831424713
366,0.0161625444889069,0.0567283071577549,0.0362808182835579,0.5,0.0163922645151615,0.0465712398290634
367,0.0304480437189341,0.073492594063282,0.0566880144178867,0.5,0.0283448472619057,0.0635146722197533
368,0.0432752259075642,0.0889844223856926,0.0765474736690521,0.1881003677845,0.0410052798688412,0.0804737210273743
369,0.0486693307757378,0.0971480682492256,0.0884739607572556,-0.356676995754242,0.0493997670710087,0.0906364470720291
370,0.0442534945905209,0.0950309857726097,0.0880556702613831,-0.5,0.0502962991595268,0.0892740339040756
371,0.0312882885336876,0.0832175835967064,0.0755655914545059,-0.5,0.0434887409210205,0.0762764662504196
372,0.0143423676490784,0.0658241286873817,0.0561466701328754,-0.386707454919815,0.0320603661239147,0.0569384023547173
373,-3.09506940538995E-05,0.0500704161822796,0.0378794819116592,-0.16265469789505,0.0211033225059509,0.0394965633749962
374,-0.00864923093467951,0.0405482426285744,0.0255343001335859,0.0256182532757521,0.013715535402298,0.0286890435963869
375,-0.0146061582490802,0.0345153510570526,0.0169468242675066,0.254806280136108,0.00900476984679699,0.0220339074730873
376,-0.0205248706042767,0.0287483409047127,0.00966548733413219,0.5,0.00560931814834476,0.0165171008557081
377,-0.0216904543340206,0.0280276332050562,0.00867687352001667,0.5,0.00587779097259045,0.0165640525519848
378,-0.0128523297607899,0.0381325967609882,0.0197014659643173,0.5,0.0131258526816964,0.0275492370128632
379,0.00470022391527891,0.057683814316988,0.0410602800548077,0.5,0.0267611183226109,0.0482739843428135
380,0.0282934810966253,0.0834618881344795,0.0690734088420868,0.11853701621294,0.0439289249479771,0.0760843679308891
381,0.0561772845685482,0.113781549036503,0.101506307721138,-0.5,0.0621610917150974,0.109432741999626
382,0.0811219811439514,0.141505196690559,0.130425348877907,-0.5,0.0766937807202339,0.13990443944931
383,0.0962067320942879,0.159147351980209,0.148267909884453,-0.5,0.0841509252786636,0.158535718917847
384,0.0990512296557426,0.163522452116013,0.152403593063354,-0.5,0.0842597931623459,0.161785468459129
385,0.0858607143163681,0.150163024663925,0.137923836708069,-0.5,0.074913002550602,0.145110309123993
386,0.0614360943436623,0.123912423849106,0.108929798007011,-0.5,0.0583649799227715,0.114139392971992
387,0.0439250916242599,0.102205686271191,0.0838736444711685,-0.5,0.0444354563951492,0.088476300239563
388,0.0423450246453285,0.0942705720663071,0.073870562016964,-0.5,0.0388421900570393,0.0791165828704834
389,0.0456330366432667,0.092922143638134,0.0720616802573204,-0.5,0.0375264622271061,0.0790692493319511
390,0.0403714068233967,0.0876097977161407,0.0664708837866783,-0.5,0.0342544429004192,0.0760438814759254
391,0.0238225366920233,0.0745269954204559,0.052091121673584,-0.5,0.0269993096590042,0.0636367648839951
392,-0.000650103902444243,0.054041113704443,0.0299095064401627,-0.5,0.0166152473539114,0.0414200462400913
393,-0.0278460960835218,0.02878213301301,0.00406724587082863,-0.5,0.00546387862414122,0.0133828222751617
394,-0.0509922727942467,0.00498851342126727,-0.0183291472494602,-0.5,-0.00264249346219003,-0.0127739487215877
395,-0.0657466426491737,-0.0120191210880876,-0.0323468223214149,-0.359726071357727,-0.00564437033608556,-0.0314395055174828
396,-0.0732875019311905,-0.0223810952156782,-0.0396135859191418,0.137280330061913,-0.00554494792595506,-0.0433589965105057
397,-0.0774996355175972,-0.0297876130789518,-0.0452438108623028,0.5,-0.00579950213432312,-0.0528938099741936
398,-0.0799329653382301,-0.03556003049016,-0.0512123852968216,0.5,-0.00735203269869089,-0.0610067062079906
399,-0.0780616775155067,-0.0359817147254944,-0.0534151121973991,0.5,-0.00755102373659611,-0.0625831559300423
400,-0.0716925337910652,-0.0302293412387371,-0.0500305853784084,0.5,-0.00483258906751871,-0.0564764216542244
401,-0.0646459981799126,-0.0227117761969566,-0.0448801405727863,0.5,-0.00082216237206012,-0.0482816472649574
402,-0.0548363588750362,-0.0114892199635506,-0.035171989351511,0.5,0.00586848566308618,-0.036539364606142
403,-0.0415093041956425,0.00397332292050123,-0.0193850044161081,0.5,0.015316316857934,-0.0206911880522966
404,-0.0316159389913082,0.0156022105365992,-0.00595601974055171,0.5,0.0225312393158674,-0.00897991750389338
405,-0.0288289170712233,0.0187474936246872,-0.000280754960840568,0.5,0.0250791814178228,-0.00564848352223635
406,-0.0313652791082859,0.0153485853224993,-0.000648398185148835,0.5,0.0244048703461885,-0.00824120547622442
407,-0.0335336737334728,0.0124962273985147,-0.000705206650309265,0.5,0.0239484533667564,-0.0095951808616519
408,-0.0315519981086254,0.0146661680191755,0.00272087962366641,0.5,0.0251214392483234,-0.00593958096578717
409,-0.0260325632989407,0.0207625404000282,0.00798358581960201,0.5,0.0268828719854355,0.000923447601962835
410,-0.0174100119620562,0.030300322920084,0.0152732981368899,0.5,0.0292733423411846,0.0105243846774101
411,-0.00774423917755485,0.0418316163122654,0.0238018240779638,0.5,0.0315066538751125,0.0216383337974548
412,0.00152557773981243,0.0541719570755959,0.0332019068300724,0.5,0.0335420146584511,0.0338705219328403
413,0.011442101560533,0.0670103430747986,0.0449596010148525,0.35080024600029,0.0375880859792233,0.0476951822638512
414,0.0218164101243019,0.0781572610139847,0.0577669069170952,-0.299394458532333,0.044175773859024,0.0602017007768154
415,0.0308931414037943,0.0852400660514832,0.0680573210120201,-0.5,0.0509131774306297,0.0674486756324768
416,0.0340927578508854,0.0840593501925468,0.0699061006307602,-0.5,0.0529734678566456,0.0640840232372284
417,0.0229689944535494,0.0665039643645287,0.0540553890168667,-0.5,0.0442629531025887,0.0416090451180935
418,-0.00239493441767991,0.0342221260070801,0.0215566232800484,-0.5,0.0258460473269224,0.00306075648404658
419,-0.0241704024374485,0.00838713813573122,-0.0061394632793963,-0.5,0.0104241315275431,-0.0274659432470798
420,-0.0308330953121185,0.00175697775557637,-0.0156118143349886,-0.390542030334473,0.00520190922543406,-0.0359888039529324
421,-0.0311625488102436,0.00323094381019473,-0.0175496581941843,-0.243619963526726,0.00354333431459963,-0.0348311513662338
422,-0.0315382555127144,0.00470179505646229,-0.0189837962388992,-0.0339030623435974,0.00164644804317504,-0.0332686267793179
423,-0.0311475265771151,0.00688664894551039,-0.017802694812417,0.22687928378582,0.0013602894032374,-0.0311801191419363
424,-0.0294359978288412,0.0104056093841791,-0.0130460672080517,0.491682678461075,0.00354023370891809,-0.0277145579457283
425,-0.023630864918232,0.0186213850975037,-0.00245310622267425,0.5,0.00893380865454674,-0.0185891631990671
426,-0.014770514331758,0.0306718926876783,0.0110946064814925,0.5,0.0150017719715834,-0.00486350385472178
427,-0.00931173469871283,0.0390153378248215,0.0187311805784702,0.5,0.0166199579834938,0.00452899420633912
428,-0.0120441988110542,0.0380727872252464,0.014961869455874,0.5,0.0115082133561373,0.00307718827389181
429,-0.0205743070691824,0.030698774382472,0.00331913866102695,0.5,0.00245410553179681,-0.00554139306768775
430,-0.0291365031152964,0.0227999333292246,-0.00919295568019152,0.5,-0.00610071513801813,-0.0140773104503751
431,-0.0365700609982014,0.0147288329899311,-0.0208492781966925,0.5,-0.0128540564328432,-0.0221564993262291
432,-0.0377264730632305,0.0120535865426064,-0.0252771731466055,0.5,-0.0145308580249548,-0.024320749565959
433,-0.0277162753045559,0.0208333637565374,-0.0166216939687729,0.5,-0.0084760757163167,-0.0146886315196753
434,-0.01925915107131,0.0275273881852627,-0.00911108590662479,0.5,-0.00309123750776052,-0.00825741235166788
435,-0.0240308083593845,0.0193475168198347,-0.0158472377806902,0.5,-0.00598956318572164,-0.0185016598552465
436,-0.0350992418825626,0.00441789394244552,-0.0290184561163187,0.5,-0.012857424095273,-0.0361142121255398
437,-0.0425113998353481,-0.00536685716360807,-0.0375521183013916,0.5,-0.0175558291375637,-0.0476960241794586
438,-0.0438772402703762,-0.00690367864444852,-0.0392222851514816,0.5,-0.0188754387199879,-0.0494178012013435
439,-0.0403840467333794,-0.00246760877780616,-0.0363576449453831,0.5,-0.017807275056839,-0.0439233705401421
440,-0.0313883386552334,0.00549700437113643,-0.0300483200699091,0.5,-0.0146811241284013,-0.0342935062944889
441,-0.0156946238130331,0.017384035512805,-0.0185453314334154,0.5,-0.00881251227110624,-0.0202368684113026
442,0.00170237361453474,0.0327385738492012,-0.00301313726231456,0.5,-0.00123177387285978,-0.00245598703622818
443,0.0141871999949217,0.0477886945009232,0.0113789150491357,0.5,0.00541098229587078,0.0144344959408045
444,0.0176902636885643,0.0557165928184986,0.0180854294449091,0.5,0.00807045213878155,0.0226508714258671
445,0.0087050711736083,0.0496491082012653,0.010966919362545,0.5,0.00412496970966458,0.0149711519479752
446,-0.00715576391667128,0.0346572771668434,-0.00476178480312228,0.5,-0.00301066553220153,-0.00242414977401495
447,-0.0197221990674734,0.0222848672419786,-0.0177417863160372,0.5,-0.00788857508450747,-0.016465075314045
448,-0.0230038575828075,0.0200958177447319,-0.0204475969076157,0.5,-0.00818829424679279,-0.0187163390219212
449,-0.0145124429836869,0.0311776325106621,-0.00909728091210127,0.5,-0.00294414348900318,-0.006166554056108
450,-0.000902809668332338,0.0473630987107754,0.00860919896513224,0.5,0.00414344295859337,0.0116710076108575
451,0.00911430735141039,0.0578736737370491,0.021937258541584,0.5,0.00842060428112745,0.0233925133943558
452,0.0124769164249301,0.0595085434615612,0.0270126666873693,0.5,0.00858404021710157,0.0260637551546097
453,0.00607087835669518,0.0500140152871609,0.0201492086052895,0.5,0.00291357864625752,0.0169045627117157
454,-0.00568446377292275,0.0353998765349388,0.00703426403924823,0.5,-0.00571531523019075,0.00214821775443852
455,-0.0113510126248002,0.0291741099208593,0.00193143647629768,0.5,-0.00967511348426342,-0.00356917199678719
456,-0.00721419136971235,0.0353480242192745,0.00909109693020582,0.5,-0.0064279823563993,0.00426328368484974
457,0.00728751346468925,0.0538913793861866,0.0279495995491743,0.482744157314301,0.00333605636842549,0.0259198267012835
458,0.0298742838203907,0.0812832787632942,0.0551108680665493,-0.0833104252815247,0.0171222314238548,0.0571526437997818
459,0.0510565340518951,0.106130063533783,0.0802985653281212,-0.5,0.0295064132660627,0.0850756093859673
460,0.0660368874669075,0.123449459671974,0.0991817116737366,-0.5,0.0384662859141827,0.104943983256817
461,0.0769268721342087,0.135874301195145,0.114095285534859,-0.5,0.0454016551375389,0.120216138660908
462,0.0826895236968994,0.141759097576141,0.122782871127129,-0.5,0.0492151081562042,0.128388211131096
463,0.080608107149601,0.138039827346802,0.121661245822906,-0.5,0.0479516945779324,0.125268086791039
464,0.0710976794362068,0.126162007451057,0.111056178808212,-0.5,0.0415549017488956,0.111964538693428
465,0.0528264679014683,0.105534188449383,0.0893750488758087,-0.5,0.0286404490470886,0.0876494199037552
466,0.0242809727787972,0.0737170428037643,0.0552171841263771,-0.5,0.0087419655174017,0.0508941151201725
467,-0.00694986153393984,0.0375261530280113,0.0172617994248867,-0.5,-0.0122561082243919,0.0110092610120773
468,-0.0292930211871862,0.00969339348375797,-0.0116373868659139,-0.5,-0.027147002518177,-0.0178320705890656
469,-0.0383008606731892,-0.00326635967940092,-0.0259700883179903,-0.5,-0.0340313389897347,-0.0294529777020216
470,-0.0374398157000542,-0.00409485911950469,-0.0284661632031202,-0.5,-0.0353977344930172,-0.0278634261339903
471,-0.0341869443655014,-0.00147666782140732,-0.0269480627030134,-0.5,-0.0353490449488163,-0.0227743778377771
472,-0.0309863425791264,0.000876512727700174,-0.0241773780435324,-0.5,-0.0344821326434612,-0.0174887795001268
473,-0.0269757620990276,0.00335765280760825,-0.0193688757717609,-0.5,-0.0315978825092316,-0.0118143921718001
474,-0.0264294408261776,0.00131718965712935,-0.0183538403362036,-0.5,-0.0295711066573858,-0.0120877809822559
475,-0.0324376113712788,-0.0083309430629015,-0.025691406801343,-0.5,-0.031138701364398,-0.0223692376166582
476,-0.0418477766215801,-0.021645424887538,-0.0374194942414761,-0.5,-0.0350558087229729,-0.0378713086247444
477,-0.0467782579362392,-0.0291807558387518,-0.0431336164474487,-0.5,-0.0363091640174389,-0.0468773394823074
478,-0.0403688214719296,-0.0222071800380945,-0.0338996201753616,-0.293348252773285,-0.0295390989631414,-0.0393533147871494
479,-0.0299741793423891,-0.00859162677079439,-0.0189517475664616,-0.0773700252175331,-0.0186666175723076,-0.0245917662978172
480,-0.0278558097779751,-0.00416714791208506,-0.0152243161574006,0.183478251099586,-0.0123110711574554,-0.0202828925102949
481,-0.0288474597036839,-0.00698606623336673,-0.0199297182261944,0.44733390212059,-0.0101224835962057,-0.0242188796401024
482,-0.0219735465943813,-0.00457818945869803,-0.0193196088075638,0.5,-0.00692576263099909,-0.0225305575877428
483,-0.00906855426728725,0.0063453484326601,-0.0094679007306695,0.5,-0.0013913894072175,-0.0110587272793055
484,0.00202224543318152,0.018366040661931,0.0030627844389528,0.5,0.0041005895473063,0.00247812154702842
485,0.00766043784096837,0.0234232041984797,0.0105096930637956,0.382242053747177,0.007039625197649,0.00843599066138268
486,0.00954448338598013,0.022016853094101,0.0116047021001577,0.176419869065285,0.00834116339683533,0.00604886282235384
487,0.0115632629022002,0.0211164448410273,0.0112808300182223,-0.103946045041084,0.0110122105106711,0.00280604767613113
488,0.0145340319722891,0.0246808044612408,0.0131878703832626,-0.441702097654343,0.0157114993780851,0.00332455011084676
489,0.0160778500139713,0.0302500743418932,0.0160157550126314,-0.5,0.0207568444311619,0.00522996205836535
490,0.0134980138391256,0.0314060375094414,0.0153176970779896,-0.5,0.0235158577561378,0.00333350943401456
491,0.00591278355568647,0.0246955342590809,0.00900079403072596,-0.5,0.0219560246914625,-0.00412991642951965
492,-0.00251518562436104,0.0163304507732391,0.00247121811844409,-0.5,0.0179990977048874,-0.0115770101547241
493,-0.00515141524374485,0.0158935263752937,0.00342747615650296,-0.5,0.0163015108555555,-0.0111411409452558
494,-0.00323279132135212,0.0213537644594908,0.00926638301461935,-0.5,0.0164684094488621,-0.0048541403375566
495,-0.00462342379614711,0.0215366650372744,0.00948793161660433,-0.5,0.0134837683290243,-0.00353573495522141
496,-0.00952926650643349,0.0148256327956915,0.00322234374471009,-0.470912784337997,0.00808391161262989,-0.0087389899417758
497,-0.0128742149099708,0.00737987086176872,-0.00345719745382667,-0.281384080648422,0.00454552704468369,-0.0141684766858816
498,-0.0151572236791253,-6.27416375209577E-05,-0.0105152186006308,-0.0285720229148865,0.0028234429191798,-0.0197489615529776
499,-0.0180231295526028,-0.00803507957607508,-0.0187051314860582,0.281893521547318,0.00214080139994621,-0.0266320835798979
500,-0.0209925305098295,-0.0148365190252662,-0.026246627792716,0.5,0.00288936658762395,-0.03319451212883
501,-0.0258553642779589,-0.0216971784830093,-0.0344589427113533,0.5,0.00299072125926614,-0.0407128147780895
502,-0.0343021489679813,-0.0306395310908556,-0.0456179827451706,0.5,-0.000314673990942538,-0.0511188022792339
503,-0.0438835211098194,-0.0402644872665405,-0.0581675805151463,0.5,-0.00627949275076389,-0.062894694507122
504,-0.0475398227572441,-0.0442254915833473,-0.0645082518458366,0.5,-0.00971235241740942,-0.0690795183181763
505,-0.0387707352638245,-0.0355271324515343,-0.0565199889242649,0.5,-0.00567006226629019,-0.0618052259087563
506,-0.0189932677894831,-0.01489925570786,-0.0353130027651787,0.5,0.005202058237046,-0.0418173894286156
507,0.0024527502246201,0.00844005588442087,-0.0117227220907807,0.5,0.017243005335331,-0.0190830044448376
508,0.0162338148802519,0.0249716490507126,0.00389104103669524,0.5,0.0252078175544739,-0.00296098575927317
509,0.0213120970875025,0.0326256677508354,0.010971337556839,0.5,0.0287185702472925,0.00603516818955541
510,0.0219076033681631,0.0339524634182453,0.0136961443349719,0.5,0.0296970959752798,0.0110856201499701
511,0.0205677356570959,0.0310153793543577,0.0136916376650333,0.5,0.0290121398866177,0.012141770683229
512,0.0195537675172091,0.0274050068110228,0.0131232952699065,0.5,0.0283260513097048,0.0095129394903779
513,0.0200655125081539,0.0256597362458706,0.0137481307610869,0.5,0.0290843322873116,0.00478111859411001
514,0.0207821615040302,0.024634812027216,0.014168213121593,0.5,0.0303297899663448,-0.000899300677701831
515,0.0239878017455339,0.026960289105773,0.0170312263071537,0.138775810599327,0.0330876670777798,-0.00167759554460645
516,0.0296720713376999,0.0328223370015621,0.0231777839362621,-0.309968501329422,0.0376735590398312,0.00387701019644737
517,0.02945177257061,0.0324444957077503,0.0239323582500219,-0.5,0.0392832048237324,0.00476508866995573
518,0.0197323523461819,0.020530816167593,0.0144554292783141,-0.417413800954819,0.0351734682917595,-0.00539006618782878
519,0.0124503215774894,0.00810209475457668,0.00479481695219874,-0.0976920872926712,0.0308030154556036,-0.0149230537936091
520,0.0210675206035376,0.00980319920927286,0.00853417161852121,0.0670161992311478,0.0336794406175613,-0.00831808988004923
521,0.0409441627562046,0.0252951811999083,0.0249940436333418,-0.125562205910683,0.0430722907185555,0.0132963210344315
522,0.0608515106141567,0.046971570700407,0.0466536618769169,-0.5,0.0538154542446136,0.0405439436435699
523,0.0744094178080559,0.0677745640277863,0.0663861557841301,-0.5,0.0614761933684349,0.0647366642951965
524,0.0721494033932686,0.0742923617362976,0.0702177807688713,-0.5,0.0595194473862648,0.0712609514594078
525,0.0507978014647961,0.0592586770653725,0.0514680072665215,-0.5,0.0459557883441448,0.0533702038228512
526,0.0210856832563877,0.0316839255392551,0.0209476035088301,-0.5,0.0273944493383169,0.0216906815767288
527,-0.00788656994700432,0.000986759085208178,-0.0110187884420156,-0.5,0.00977157428860664,-0.0135794654488564
528,-0.0332487784326077,-0.0285811778157949,-0.0404240116477013,0.026202317327261,-0.0046612829901278,-0.0473323799669743
529,-0.0491145364940166,-0.0490777343511581,-0.0598546788096428,0.5,-0.013157487846911,-0.0701454728841782
530,-0.0511198900640011,-0.0540681779384613,-0.0641597956418991,0.5,-0.0144904218614101,-0.0753459706902504
531,-0.0439701192080975,-0.0478840060532093,-0.0583375245332718,0.5,-0.0118332421407104,-0.0681476444005966
532,-0.0344783812761307,-0.0386604480445385,-0.0493195839226246,0.5,-0.00867586769163609,-0.0571889728307724
533,-0.0248108021914959,-0.0293920878320932,-0.0394437536597252,0.5,-0.0050282939337194,-0.0458275377750397
534,-0.0148331690579653,-0.0196056943386793,-0.0288736578077078,0.5,0.000847497605718672,-0.0341558121144772
535,-0.00428267614915967,-0.00825733691453934,-0.0170586332678795,0.281110644340515,0.0104639595374465,-0.0214238259941339
536,0.00526460167020559,0.00274479924701154,-0.00543872267007828,0.103134863078594,0.0222395993769169,-0.00898478087037802
537,0.00753435213118792,0.00547937629744411,-0.00115277734585106,0.110214725136757,0.0287530291825533,-0.00377044058404863
538,0.000460813520476222,-0.00275738793425262,-0.00743233878165483,0.347729384899139,0.0258753001689911,-0.00873292237520218
539,-0.00878744479268789,-0.0140640679746866,-0.0176752619445324,0.5,0.0183347184211016,-0.0173866916447878
540,-0.0143364509567618,-0.0216481182724237,-0.0252848938107491,0.5,0.0117190452292562,-0.0235854238271713
541,-0.0166443176567554,-0.0250069238245487,-0.0297267939895391,0.5,0.00758895371109247,-0.0269789677113295
542,-0.0170355495065451,-0.0247114691883326,-0.0321301147341728,0.5,0.00572801800444722,-0.0281128603965044
543,-0.0155907971784472,-0.0211845114827156,-0.0322036817669868,0.5,0.00590409152209759,-0.0265768989920616
544,-0.0167142599821091,-0.0199899431318045,-0.0339788421988487,0.5,0.00487218797206879,-0.0276507195085287
545,-0.0241447351872921,-0.0256246123462915,-0.0415357649326324,0.5,-7.42711927159689E-05,-0.0362913087010384
546,-0.0342061258852482,-0.0348890945315361,-0.0515974946320057,0.5,-0.00624101003631949,-0.0485853925347328
547,-0.040808841586113,-0.0416255220770836,-0.0576186515390873,0.5,-0.00944224558770657,-0.0558526366949081
548,-0.0412921495735645,-0.0426901504397392,-0.0565490983426571,0.5,-0.00863806251436472,-0.0532148964703083
549,-0.035723440349102,-0.0378013476729393,-0.0491205714643002,0.5,-0.00472570909187198,-0.0422355718910694
550,-0.0227319747209549,-0.025380577892065,-0.034909263253212,0.5,0.00288695027120411,-0.0248948652297258
551,-0.00257985759526491,-0.00729666603729129,-0.0158866848796606,0.5,0.0135926278308034,-0.00473267026245594
552,0.0226860661059618,0.0141366310417652,0.0064322710968554,0.5,0.0267949029803276,0.0170347355306149
553,0.0484992228448391,0.0388166792690754,0.032856360077858,0.5,0.0425329580903053,0.0418231748044491
554,0.0662616416811943,0.0606915540993214,0.0576884597539902,0.5,0.056527815759182,0.063682496547699
555,0.0747761279344559,0.0760870426893234,0.0766587927937508,0.404173761606216,0.0656218156218529,0.0792274922132492
556,0.0801866054534912,0.0880772545933723,0.092057928442955,-0.5,0.0714922100305557,0.0925726220011711
557,0.0834936127066612,0.0955983847379684,0.103139065206051,-0.5,0.0745638385415077,0.102894559502602
558,0.0829557850956917,0.0966953486204147,0.108447961509228,-0.5,0.0741305947303772,0.107587993144989
559,0.0805929973721504,0.0952233895659447,0.110851883888245,-0.5,0.0723110064864159,0.109237633645535
560,0.0786210969090462,0.0948166027665138,0.112863473594189,-0.5,0.0718346014618874,0.110081769526005
561,0.0752624124288559,0.0933771505951881,0.112479105591774,-0.5,0.0717127323150635,0.107938028872013
562,0.0659818649291992,0.085136316716671,0.104357868432999,-0.5,0.0677687600255013,0.0978994071483612
563,0.0499035157263279,0.0686986893415451,0.0876058414578438,-0.5,0.0583623498678207,0.07951570302248
564,0.0290570482611656,0.0457028485834599,0.0647533684968948,-0.5,0.0449478551745415,0.0545809157192707
565,0.00547324633225799,0.0173070859164,0.0374714471399784,-0.5,0.0298719219863415,0.0232216287404299
566,-0.0147223584353924,-0.00954438839107752,0.012098079547286,-0.5,0.0176359452307224,-0.00748390844091773
567,-0.0250169299542904,-0.0259523298591375,-0.00336012337356806,-0.5,0.0118806045502424,-0.0269083417952061
568,-0.0239474214613438,-0.0286797005683184,-0.00563410809263587,-0.5,0.0128133529797196,-0.0304554402828217
569,-0.0154323298484087,-0.0210818275809288,0.00210458924993873,-0.5,0.0181283503770828,-0.0213492102921009
570,-0.00844922009855509,-0.0130216982215643,0.00961217191070318,-0.5,0.0232988819479942,-0.0107392817735672
571,-0.00952399987727404,-0.0123415002599359,0.00889721233397722,-0.475573986768723,0.0250044316053391,-0.0081771481782198
572,-0.0148480115458369,-0.0154405403882265,0.00398799730464816,-0.255569934844971,0.0244388245046139,-0.0103534674271941
573,-0.0190522950142622,-0.0180578175932169,0.00029813646688126,-0.0363201387226582,0.0228408724069595,-0.011888587847352
574,-0.0228017251938581,-0.0223724395036697,-0.00360706634819508,0.109890982508659,0.0196109637618065,-0.0146994721144438
575,-0.0237274952232838,-0.0247023217380047,-0.00491335522383451,0.118593238294125,0.0175458546727896,-0.0155747905373573
576,-0.0173334032297134,-0.018197949975729,0.00189098203554749,0.0056729894131422,0.019745010882616,-0.00707848882302642
577,-0.00816820003092289,-0.0074015180580318,0.0118662342429161,-0.112351380288601,0.0226213485002518,0.0065090567804873
578,-0.00432969117537141,-0.00218599103391171,0.0153681254014373,-0.102414391934872,0.021284956485033,0.0140778729692101
579,-0.000916875433176756,0.00224612443707883,0.0173890925943851,0.0269488003104925,0.0200658868998289,0.0192165952175856
580,0.00947985239326954,0.014047279022634,0.0268348474055529,0.147003516554832,0.0242718961089849,0.0293738227337599
581,0.0180705562233925,0.0233913064002991,0.0350055620074272,0.239707306027412,0.0284854341298342,0.0344989933073521
582,0.016124764457345,0.0216931849718094,0.0331794731318951,0.341744661331177,0.0276005212217569,0.0270819012075663
583,0.0100848032161593,0.0162816997617483,0.0271925963461399,0.370315223932266,0.024614492431283,0.0164075344800949
584,0.0119753014296293,0.0186247825622559,0.027681402862072,0.17434561252594,0.0246073454618454,0.015483234077692
585,0.0224744733422995,0.0309337545186281,0.0374405160546303,-0.271325349807739,0.0280391238629818,0.026258097961545
586,0.0281928069889545,0.0413586646318436,0.0456178225576878,-0.5,0.0285792741924524,0.0352198742330074
587,0.0231007803231478,0.0415210239589214,0.0445440039038658,-0.5,0.0230010077357292,0.0335729494690895
588,0.0152366803959012,0.0368751809000969,0.0395537056028843,-0.5,0.0159800462424755,0.0277247354388237
589,0.00977722276002169,0.032336350530386,0.0350409932434559,-0.5,0.0113170770928264,0.0229846555739641
590,0.00528113218024373,0.0273562092334032,0.0306815169751644,-0.5,0.00903021171689034,0.0188241768628359
591,0.00264477008022368,0.0241982750594616,0.0292270462960005,-0.5,0.00949411652982235,0.0171154122799635
592,0.00533636007457972,0.027334151789546,0.0347756817936897,-0.5,0.0137558458372951,0.020927295088768
593,0.0115947304293513,0.0346719399094582,0.0441926717758179,-0.5,0.0194488912820816,0.0273717921227217
594,0.0143816592171788,0.0382550805807114,0.0485902987420559,-0.5,0.0212082471698523,0.0292904451489449
595,0.00954805966466665,0.0333084128797054,0.0427677184343338,-0.5,0.0170568078756332,0.0232497062534094
596,-0.00125108531210572,0.0215631797909737,0.0286003965884447,-0.5,0.00989762786775827,0.0116144539788365
597,-0.011496476829052,0.0108712119981647,0.014729774557054,-0.5,0.00491077685728669,0.00179426581598818
598,-0.0139855621382594,0.0097474716603756,0.0108290649950504,-0.5,0.00601846445351839,0.00116041954606771
599,-0.0103051513433456,0.0159955359995365,0.0149564612656832,-0.5,0.0106236590072513,0.00590040860697627
600,-0.00362169533036649,0.0257004518061876,0.0229155514389277,-0.5,0.0162185933440924,0.0116961626335979
601,0.00756694795563817,0.0408903248608112,0.0369223207235336,-0.5,0.0242968909442425,0.0223223753273487
602,0.0194625481963158,0.0570776276290417,0.0525645576417446,-0.5,0.0324434787034988,0.0353262685239315
603,0.0253225341439247,0.0651017650961876,0.0609541386365891,-0.5,0.0362656563520432,0.0421437881886959
604,0.0195303466171026,0.0575477704405785,0.0546514764428139,-0.5,0.0322981216013432,0.0341964773833752
605,0.0037423123139888,0.0364320687949657,0.0348942466080189,-0.5,0.0211809575557709,0.0126836802810431
606,-0.0107243321835995,0.0155068133026361,0.0147169083356857,-0.5,0.00965216662734747,-0.00834043137729168
607,-0.0183504931628704,0.00369808520190418,0.00172695238143206,-0.367216050624847,0.00186261523049325,-0.0208709947764874
608,-0.0211124438792467,0.00114117376506329,-0.00554118352010846,-0.123384892940521,-0.00160370534285903,-0.026532456278801
609,-0.0191899500787258,0.00688384845852852,-0.0079775620251894,-0.0187356006354094,0.00048248894745484,-0.0264979675412178
610,-0.0109709296375513,0.0201671849936247,-0.00431054085493088,-0.0635746121406555,0.00757441157475114,-0.0196670945733786
611,0.00377147016115487,0.0396939888596535,0.00633516954258084,-0.211952641606331,0.0165551751852036,-0.00558109115809202
612,0.0195551738142967,0.0603208877146244,0.0197337754070759,-0.39474630355835,0.0232163239270449,0.00969712249934673
613,0.0286339558660984,0.0752029269933701,0.0287575274705887,-0.5,0.0252552889287472,0.0174225438386202
614,0.0295572374016047,0.0823023915290833,0.0310547985136509,-0.5,0.0245183054357767,0.0161838866770267
615,0.0268183127045631,0.0844621434807777,0.0301072001457214,-0.5,0.0240515377372503,0.0115013932809234
616,0.0262310598045588,0.0859635695815086,0.0303393620997667,-0.5,0.0251022931188345,0.00910382531583309
617,0.0305116828531027,0.0888818129897118,0.0330369062721729,-0.5,0.0270775314420462,0.0109079536050558
618,0.0358971022069454,0.0923652723431587,0.0368106700479984,-0.5,0.0285243261605501,0.0153220137581229
619,0.0351265482604504,0.0930692404508591,0.0378621220588684,-0.5,0.0276448205113411,0.0174007564783096
620,0.025477135553956,0.0875435546040535,0.0324475727975369,-0.5,0.023496650159359,0.0125852674245834
621,0.00907631497830153,0.0743691623210907,0.0187844447791576,-0.5,0.0155550790950656,-0.000854145037010312
622,-0.012385074980557,0.0538956038653851,-0.00376738421618938,-0.5,0.00311821606010199,-0.0230491459369659
623,-0.0355476774275303,0.0317585580050945,-0.0304738767445087,-0.5,-0.0113098733127117,-0.0478479713201523
624,-0.0517649576067925,0.0193832106888294,-0.0496621690690517,-0.273258447647095,-0.0213850904256105,-0.061899472028017
625,-0.0555028989911079,0.0218292903155088,-0.0542833805084229,-0.00846222881227732,-0.0237380247563124,-0.0591518729925156
626,-0.0500069707632065,0.0332399904727936,-0.0477183274924755,0.128929644823074,-0.0204763412475586,-0.0466015450656414
627,-0.0357382670044899,0.0520185008645058,-0.0304393898695707,0.131513938307762,-0.0114103145897388,-0.0269233211874962
628,-0.0113919777795672,0.0795548781752586,-0.00142357626464218,-0.0741155371069908,0.00455099018290639,0.00129223789554089
629,0.0172834675759077,0.109878353774548,0.0323771573603153,-0.5,0.0235543772578239,0.0323807410895824
630,0.0428682379424572,0.13586787879467,0.0626948550343513,-0.5,0.0406564883887768,0.0593728385865688
631,0.0588602907955647,0.151787146925926,0.0823831930756569,-0.5,0.0514442510902882,0.076126828789711
632,0.0586961209774017,0.151180163025856,0.0839089378714561,-0.5,0.051724698394537,0.0756984725594521
633,0.0446329042315483,0.136461362242699,0.0693682357668877,-0.5,0.0432068780064583,0.0610387697815895
634,0.0287438649684191,0.120820961892605,0.0521631799638271,-0.5,0.0333427935838699,0.0460800901055336
635,0.0160036701709032,0.109396234154701,0.0382483974099159,-0.5,0.0248567201197147,0.0352379456162453
636,0.00428846292197704,0.0986157730221748,0.0251250509172678,-0.5,0.016342481598258,0.0242115389555693
637,-0.00829324405640364,0.0853797197341919,0.0102056805044413,-0.5,0.00686745531857014,0.0100200697779655
638,-0.0216881353408098,0.0698607861995697,-0.00597388995811343,-0.42802494764328,-0.0031552012078464,-0.00669859396293759
639,-0.0287303533405066,0.0607087090611458,-0.0143467485904694,-0.0195400640368462,-0.00879624113440514,-0.0162167623639107
640,-0.0274594202637672,0.0611571371555328,-0.0126299588009715,0.230320855975151,-0.00854319147765636,-0.015355602838099
641,-0.0263762753456831,0.0626573264598846,-0.0106837917119265,0.388944000005722,-0.00760727468878031,-0.0137866139411926
642,-0.0291052963584661,0.0607400983572006,-0.0126649057492614,0.496081411838531,-0.0083232969045639,-0.0161403883248568
643,-0.0314902141690254,0.0590318143367767,-0.0144771747291088,0.5,-0.0086636058986187,-0.0180176477879286
644,-0.0324658714234829,0.0582984164357185,-0.0157720018178225,0.425291836261749,-0.00871527101844549,-0.0183890536427498
645,-0.0339205712080002,0.0563374347984791,-0.0190675854682922,0.354658991098404,-0.00948295556008816,-0.0201872605830431
646,-0.0316186286509037,0.0583367012441158,-0.0188309904187918,0.295552134513855,-0.00731421448290348,-0.0182071011513472
647,-0.0219145249575377,0.0687212646007538,-0.00955099426209927,0.171635746955872,0.000107166539237369,-0.00705215614289045
648,-0.00641720276325941,0.08516626060009,0.00753686809912324,-0.105437077581882,0.0104435067623854,0.0115838637575507
649,0.01263995654881,0.105236224830151,0.0299285650253296,-0.5,0.0216446090489626,0.0346970148384571
650,0.0274800918996334,0.121190093457699,0.04863490909338,-0.5,0.0296293310821056,0.0526511147618294
651,0.030350599437952,0.12450947612524,0.0535069368779659,-0.5,0.0301044043153524,0.0557678937911987
652,0.0270558036863804,0.120470821857452,0.0495028048753738,-0.5,0.0261591654270887,0.0502743571996689
653,0.0262660477310419,0.117495879530907,0.0468874499201775,-0.5,0.0226664859801531,0.0460206978023052
654,0.0272530950605869,0.114962823688984,0.0464548580348492,-0.5,0.0199801214039326,0.0430655218660831
655,0.0287026967853308,0.112751364707947,0.0470731742680073,-0.5,0.0188441555947065,0.0415873900055885
656,0.030863132327795,0.112329669296741,0.0483482182025909,-0.5,0.020484559237957,0.0425138361752033
657,0.0305100213736296,0.110585331916809,0.0466135591268539,-0.5,0.0227005314081907,0.0416196435689926
658,0.0241499971598387,0.103516660630703,0.0383731462061405,-0.5,0.020946454256773,0.0343732200562954
659,0.0143056511878967,0.0936484560370445,0.026141906157136,-0.5,0.0141926147043705,0.023287070915103
660,0.00556557578966022,0.085726760327816,0.0145971588790417,-0.5,0.00509598292410374,0.0132512012496591
661,-0.00241580372676253,0.0783164352178574,0.00341232726350427,-0.5,-0.00525390263646841,0.00336624193005264
662,-0.0091291181743145,0.0706354305148125,-0.00670563243329525,-0.5,-0.0152163757011294,-0.00582825671881437
663,-0.013548968359828,0.0635411813855171,-0.0145248537883163,-0.5,-0.0236303824931383,-0.0125227896496654
664,-0.0172387100756168,0.0563462227582932,-0.0214887671172619,-0.5,-0.0312206465750933,-0.017715347930789
665,-0.0180514603853226,0.0528703220188618,-0.0245111789554358,-0.5,-0.0355217307806015,-0.0181320179253817
666,-0.0155438706278801,0.0539692603051662,-0.0225486792623997,-0.5,-0.035216823220253,-0.0138700800016522
667,-0.0180688239634037,0.0494816526770592,-0.0248238835483789,-0.5,-0.0355639159679413,-0.0165056809782982
668,-0.0283469408750534,0.0358612313866615,-0.0346561335027218,-0.5,-0.039106473326683,-0.0293673444539309
669,-0.0376602374017239,0.0225359462201595,-0.0435359962284565,-0.5,-0.0417170971632004,-0.0415113940834999
670,-0.0409239865839481,0.0147308269515634,-0.0472708269953728,-0.203461021184921,-0.0415636412799358,-0.0470516979694366
671,-0.0359108708798885,0.0157153122127056,-0.0431628525257111,0.169865727424622,-0.0377550423145294,-0.0425237342715263
672,-0.0198555700480938,0.0304600037634373,-0.0262025408446789,0.351082861423492,-0.0283331144601107,-0.0233300738036633
673,-0.00220026262104511,0.0498432889580727,-0.00595120247453451,0.348310917615891,-0.0193062219768763,-0.000439376657595858
674,0.00149426399730146,0.055151030421257,-0.00189913273788989,0.439909905195236,-0.0210195314139128,0.00606329692527652
675,-0.0102391084656119,0.0399234406650066,-0.0198975522071123,0.5,-0.0350796617567539,-0.00979608204215765
676,-0.0245452784001827,0.0169922672212124,-0.0458767786622047,0.5,-0.0521901920437813,-0.0338651053607464
677,-0.0301055517047644,0.00470379181206226,-0.0610442757606506,0.5,-0.0618278644979,-0.0463186427950859
678,-0.0258176922798157,0.00830052420496941,-0.0597145222127438,0.5,-0.0617068707942963,-0.0410390980541706
679,-0.0138474376872182,0.0227618329226971,-0.0449655279517174,0.5,-0.0539455488324165,-0.0225444007664919
680,0.00366876111365855,0.0421148277819157,-0.0209633372724056,0.5,-0.0407147705554962,0.00327393529005349
681,0.0195201132446527,0.0574962869286537,0.00221462617628276,0.33143737912178,-0.0277655236423016,0.026347953826189
682,0.0271846707910299,0.0628440380096436,0.015516453422606,0.0564060360193253,-0.0208713226020336,0.0393520034849644
683,0.0280169639736414,0.0607371367514133,0.0193352960050106,-0.0731151401996613,-0.0202785655856133,0.0442489087581635
684,0.0245866104960442,0.0537289120256901,0.0154619356617332,-0.151071101427078,-0.0243439525365829,0.043141208589077
685,0.016704011708498,0.0413489304482937,0.00388673972338438,-0.215783730149269,-0.0319784320890903,0.035267785191536
686,0.00716882897540927,0.0270517058670521,-0.010446835309267,-0.263387739658356,-0.0399857498705387,0.0247546844184399
687,0.00148636102676392,0.0164684746414423,-0.0195636823773384,-0.278345465660095,-0.0441566407680511,0.0189828015863895
688,0.00222229911014438,0.0118631757795811,-0.0193850956857204,-0.262939214706421,-0.0427502021193504,0.0215181317180395
689,0.00548111973330379,0.0091889388859272,-0.0142810540273786,-0.229400739073753,-0.0389375388622284,0.0277084931731224
690,0.00554626993834972,0.00252427300438285,-0.0120381619781256,-0.161165282130241,-0.037233479321003,0.0294709708541632
691,0.00321376067586243,-0.00692289881408215,-0.0126758571714163,-0.0721435844898224,-0.0370130017399788,0.0268302392214537
692,0.000377656309865415,-0.0168056841939688,-0.013798669911921,-0.0135868107900023,-0.036758229136467,0.0226873755455017
693,-0.00551098817959428,-0.0299243442714214,-0.0183555353432894,0.022306377068162,-0.038581844419241,0.0151185970753431
694,-0.0151527095586061,-0.0469597540795803,-0.0281150471419096,0.0827563256025314,-0.0438595600426197,0.00399393774569035
695,-0.0221650917083025,-0.0598839484155178,-0.0363125614821911,0.176747307181358,-0.0488081388175488,-0.00265096360817552
696,-0.0199508164077997,-0.0604088492691517,-0.0348281152546406,0.271531701087952,-0.0483718998730183,0.00199480168521404
697,-0.0141735188663006,-0.0551356263458729,-0.0290272068232298,0.352081626653671,-0.045145221054554,0.00918191112577915
698,-0.0131544377654791,-0.0542010627686977,-0.0275947116315365,0.434297174215317,-0.0439740568399429,0.00907131191343069
699,-0.0141859259456396,-0.0554709918797016,-0.0278072115033865,0.5,-0.0432934798300266,0.00634360080584884
700,-0.0127865942195058,-0.0542717687785625,-0.025655310600996,0.5,-0.040987242013216,0.00711507443338633
701,-0.00795324333012104,-0.0488016866147518,-0.0207684356719255,0.36934420466423,-0.0375525057315826,0.0126071078702807
702,-0.000116721435915679,-0.0390799269080162,-0.0138180470094085,0.104005426168442,-0.0337461605668068,0.0222115684300661
703,0.0083204535767436,-0.0283321887254715,-0.00713650276884437,-0.176475018262863,-0.030103912577033,0.0332000553607941
704,0.0156747419387102,-0.0195798762142658,-0.0017071821494028,-0.344290345907211,-0.0264459755271673,0.0431847907602787
705,0.0216222982853651,-0.0140563640743494,0.00347941718064249,-0.369169175624847,-0.0223998613655567,0.0507384762167931
706,0.0247137229889631,-0.0129212979227304,0.00801085587590933,-0.34435185790062,-0.0190673656761646,0.0539523884654045
707,0.0244124084711075,-0.0157999508082867,0.0110863819718361,-0.41307133436203,-0.0176109429448843,0.0530653484165668
708,0.0222882870584726,-0.0212182067334652,0.013030338101089,-0.5,-0.0175506379455328,0.0504417903721333
709,0.0193223375827074,-0.0289817899465561,0.0136960437521338,-0.5,-0.0184023398905993,0.0471628420054913
710,0.0157360006123781,-0.0383809991180897,0.0126125542446971,-0.5,-0.020238047465682,0.0435304082930088
711,0.0148218991234899,-0.0443808771669865,0.0127945384010673,-0.5,-0.0210975874215364,0.0431555397808552
712,0.023612417280674,-0.0386375226080418,0.0217606164515018,-0.5,-0.0165657754987478,0.0531666353344917
713,0.0385530181229115,-0.0257083959877491,0.0360852479934692,-0.5,-0.00864631496369839,0.0681423246860504
714,0.0427494086325169,-0.0253088586032391,0.0374046675860882,-0.5,-0.00732024386525154,0.0681274086236954
715,0.028207553550601,-0.0459599271416664,0.0174282193183899,-0.5,-0.0166587196290493,0.0454272888600826
716,0.00419558119028807,-0.0758797824382782,-0.0121562760323286,-0.5,-0.0301418639719486,0.012864138931036
717,-0.0184208676218987,-0.102255202829838,-0.0391635484993458,-0.5,-0.0418093204498291,-0.0162869859486818
718,-0.034469909965992,-0.119453057646751,-0.0587769486010075,-0.5,-0.0501734167337418,-0.035995114594698
719,-0.040098175406456,-0.124365322291851,-0.0668666735291481,-0.5,-0.0530805811285973,-0.0427248068153858
720,-0.0349869653582573,-0.118219882249832,-0.0628206059336662,-0.389638483524323,-0.0494138076901436,-0.0375254489481449
721,-0.0251371115446091,-0.107642658054829,-0.0527057573199272,-0.455627232789993,-0.0423849336802959,-0.0267888065427542
722,-0.0201419871300459,-0.10243883728981,-0.0464057847857475,-0.5,-0.0376451350748539,-0.0204398185014725
723,-0.0238999463617802,-0.106762312352657,-0.048104215413332,-0.438726395368576,-0.0372918806970119,-0.0231803953647614
724,-0.031442653387785,-0.115324787795544,-0.0528249889612198,-0.218843966722488,-0.0382794626057148,-0.0300976559519768
725,-0.0384056903421879,-0.123439103364944,-0.0568560771644115,0.038459774106741,-0.0385686941444874,-0.036528367549181
726,-0.0451507791876793,-0.131855189800262,-0.062241367995739,0.377325534820557,-0.0395585857331753,-0.0432821176946163
727,-0.0530506297945976,-0.142778933048248,-0.0713666826486588,0.5,-0.0427108481526375,-0.0530206337571144
728,-0.0597038567066193,-0.153786987066269,-0.0808487311005592,0.5,-0.0462258532643318,-0.0634685307741165
729,-0.0599714927375317,-0.158657312393188,-0.0839519053697586,0.5,-0.0466523207724094,-0.0680325776338577
730,-0.054755374789238,-0.158245787024498,-0.081659696996212,0.5,-0.0447238348424435,-0.0673201158642769
731,-0.0509763062000275,-0.161814510822296,-0.083381675183773,0.5,-0.0456916876137257,-0.0705642104148865
732,-0.051447432488203,-0.17175281047821,-0.0921077430248261,0.5,-0.0510296411812305,-0.0805098861455917
733,-0.0549923852086067,-0.181314617395401,-0.102158635854721,0.5,-0.0568507350981236,-0.0905877873301506
734,-0.0583454966545105,-0.184352323412895,-0.107268318533897,0.5,-0.0589799210429192,-0.0936370939016342
735,-0.0561590790748596,-0.178277537226677,-0.102586194872856,0.5,-0.0540058948099613,-0.086025707423687
736,-0.050295140594244,-0.168809741735458,-0.0917446091771126,0.5,-0.0431709438562393,-0.0744482427835464
737,-0.050244253128767,-0.16732420027256,-0.0871086493134499,0.5,-0.0346149578690529,-0.0728495717048645
738,-0.0594068616628647,-0.176904752850533,-0.0946522578597069,0.5,-0.034623634070158,-0.0854873731732368
739,-0.0676879435777664,-0.185514748096466,-0.104268208146095,0.5,-0.0390616431832314,-0.0987792387604713
740,-0.062813900411129,-0.178432464599609,-0.101137347519398,0.5,-0.039281290024519,-0.0957101136445999
741,-0.0418470092117786,-0.151870056986809,-0.079582504928112,0.5,-0.0312709584832191,-0.0710552930831909
742,-0.00756757566705346,-0.109251663088799,-0.0406696423888206,0.5,-0.0149754751473665,-0.0276527423411608
743,0.0303524676710367,-0.0621519424021244,0.00574628869071603,0.5,0.00433982629328966,0.0219174344092608
744,0.054000623524189,-0.0318460948765278,0.0383864566683769,0.5,0.0152851780876517,0.0541581548750401
745,0.0551235005259514,-0.0281301978975534,0.0454540811479092,0.5,0.0127528943121433,0.058392271399498
746,0.0406319350004196,-0.0430551394820213,0.0329078733921051,0.5,0.0015674241585657,0.0428198426961899
747,0.0178288072347641,-0.0681124180555344,0.00806137640029192,0.5,-0.0136689189821482,0.015413380227983
748,-0.00381505885161459,-0.0919705256819725,-0.0182962976396084,0.5,-0.0270565953105688,-0.0124288238584995
749,-0.0114863123744726,-0.100142017006874,-0.030823390930891,0.5,-0.0308380108326674,-0.0240326058119535
750,-0.00340565899387002,-0.0911311879754066,-0.0261857230216265,0.5,-0.0247268751263618,-0.0160124581307173
751,0.0142911411821842,-0.0719095915555954,-0.00901533011347055,0.5,-0.0124057475477457,0.00476195244118571
752,0.034408263862133,-0.0507176965475082,0.0139589514583349,0.5,0.00252426974475384,0.0295076444745064
753,0.0465192906558514,-0.0399657152593136,0.0295922309160233,0.5,0.0133078759536147,0.0450726263225079
754,0.0465320274233818,-0.0444732047617435,0.0312486495822668,0.5,0.0162469372153282,0.0459908917546272
755,0.038664735853672,-0.0584308430552483,0.023210559040308,0.5,0.0133702484890819,0.0376273319125175
756,0.0268030185252428,-0.0759667232632637,0.0105609185993671,0.5,0.00745865749195218,0.0255769621580839
757,0.0125332558527589,-0.0946048274636269,-0.00414698012173176,0.5,2.29507295443909E-05,0.0123475892469287
758,-0.00338444113731384,-0.113905340433121,-0.0201668906956911,0.5,-0.00848598591983318,-0.00184314243961126
759,-0.0162154361605644,-0.129032537341118,-0.0330726131796837,0.5,-0.0159249603748322,-0.0126914270222187
760,-0.0196813456714153,-0.132988393306732,-0.036291066557169,0.5,-0.0188684202730656,-0.0140084698796272
761,-0.0160295106470585,-0.128769189119339,-0.0322669595479965,0.5,-0.0177412442862988,-0.00985495001077652
762,-0.0134055968374014,-0.12590828537941,-0.029859958216548,0.5,-0.0164980664849281,-0.00996459741145372
763,-0.0167309995740652,-0.129260823130608,-0.0341309793293476,0.5,-0.0184366274625063,-0.0177548062056303
764,-0.0254040602594614,-0.137154877185822,-0.0440119057893753,0.5,-0.0238052997738123,-0.0294092278927565
765,-0.0359539240598679,-0.145535945892334,-0.0554004907608032,0.5,-0.0298216640949249,-0.0399120412766933
766,-0.0460457243025303,-0.153403148055077,-0.0657063275575638,0.5,-0.0337525568902493,-0.048106350004673
767,-0.0539288632571697,-0.161232084035873,-0.0729503184556961,0.5,-0.0343862026929855,-0.0538667030632496
768,-0.0591206289827824,-0.169133007526398,-0.0770037472248077,0.5,-0.0329914055764675,-0.057708103209734
769,-0.0596683248877525,-0.173236295580864,-0.0763840526342392,0.5,-0.0299569927155972,-0.0575973056256771
770,-0.0532324016094208,-0.169168993830681,-0.0686965435743332,0.5,-0.0242816712707281,-0.0506597682833672
771,-0.0458984971046448,-0.163614928722382,-0.061065711081028,0.5,-0.0194882806390524,-0.0440090484917164
772,-0.0418548248708248,-0.161469221115112,-0.0582899414002895,0.5,-0.0174797754734755,-0.0421571433544159
773,-0.0386352799832821,-0.15930438041687,-0.0568247474730015,0.5,-0.0161547157913446,-0.0413337647914886
774,-0.0384432077407837,-0.159072801470757,-0.05793247371912,0.5,-0.0165641121566296,-0.0434420444071293
775,-0.043056596070528,-0.163330107927322,-0.0629222318530083,0.5,-0.0195253603160381,-0.0507062673568726
776,-0.0466671995818615,-0.16640068590641,-0.0656569376587868,0.5,-0.0214851200580597,-0.0568287223577499
777,-0.0423225611448288,-0.160396128892899,-0.0588909536600113,0.5,-0.0184650309383869,-0.053377028554678
778,-0.0298158898949623,-0.144479379057884,-0.042441051453352,0.5,-0.0104637313634157,-0.0397152416408062
779,-0.0181481707841158,-0.128658398985863,-0.0270429104566574,0.5,-0.00310585997067392,-0.02666593529284
780,-0.0131210396066308,-0.119824573397636,-0.0202317293733358,0.5,-7.35950670787133E-05,-0.0213931612670422
781,-0.010259055532515,-0.113227277994156,-0.0170622207224369,0.5,0.00130118452943861,-0.0189876575022936
782,-0.00615368690341711,-0.105179153382778,-0.0130618130788207,0.5,0.00299012730829418,-0.0153571171686053
783,0.000362562510417774,-0.0947810858488083,-0.00629710126668215,0.5,0.00623806193470955,-0.00852171611040831
784,0.0103633468970656,-0.081006333231926,0.00463600689545274,0.5,0.0121642369776964,0.0031060203909874
785,0.0195337403565645,-0.0681485235691071,0.0151199409738183,0.5,0.017965629696846,0.0145272128283978
786,0.0213284213095903,-0.0630991756916046,0.018218494951725,0.5,0.019751800224185,0.0181733146309853
787,0.0142556987702847,-0.0680832639336586,0.0118494667112827,0.5,0.0169454980641603,0.0116828503087163
788,0.00304488372057676,-0.0788168907165527,0.000326855835737661,0.5,0.0125763015821576,-0.000646676402539015
789,-0.00456893676891923,-0.0865867957472801,-0.00786604173481464,0.5,0.0109346583485603,-0.0100347101688385
790,-0.00514902034774423,-0.0864327102899551,-0.00844793766736984,0.5,0.0134162800386548,-0.0120020629838109
791,-0.00359195657074451,-0.0832956656813622,-0.00675849337130785,0.5,0.0165545102208853,-0.0119807338342071
792,-0.00796819292008877,-0.086642324924469,-0.0121639240533113,0.5,0.0147885484620929,-0.0189108941704035
793,-0.0209499914199114,-0.0995950549840927,-0.0282006878405809,0.5,0.00575416255742311,-0.0352288596332073
794,-0.0359500907361507,-0.11434143781662,-0.04738724604249,0.5,-0.00609719334170222,-0.053200326859951
795,-0.0410190857946873,-0.117499455809593,-0.0553594268858433,0.5,-0.0114572942256927,-0.0596230365335941
796,-0.0323772765696049,-0.105236791074276,-0.0469675846397877,0.5,-0.00707658007740974,-0.0504661798477173
797,-0.0184975583106279,-0.0867797210812569,-0.0310702119022608,0.5,0.000742739415727556,-0.0346136949956417
798,-0.0044868616387248,-0.0689251497387886,-0.0144596295431256,0.5,0.00802683737128973,-0.0179972313344479
799,0.0111680859699845,-0.0530111230909824,0.00155942281708121,0.5,0.0157437399029732,-0.00148917164187878
800,0.025754738599062,-0.0407243743538857,0.0145691120997071,0.5,0.023177532479167,0.0119448890909553
801,0.0339229293167591,-0.0329681113362312,0.0227182637900114,0.5,0.0282398648560047,0.0199847035109997
802,0.0383716411888599,-0.0255680456757545,0.0301798898726702,0.5,0.0322639867663383,0.0274331402033567
803,0.0454915203154087,-0.0133903520181775,0.0422937981784344,0.5,0.0382570959627628,0.0409804657101631
804,0.052660770714283,-0.000806824245955795,0.0543279610574245,0.5,0.044180516153574,0.0563178509473801
805,0.0520077385008335,0.00274314754642546,0.0562320090830326,0.5,0.0446444191038609,0.0622459761798382
806,0.0421631522476673,-0.00413034670054913,0.0462487488985062,0.5,0.0385120622813702,0.0558486022055149
807,0.0284851975739002,-0.015168790705502,0.0309652909636498,0.5,0.0294035747647285,0.0434639044106007
808,0.0140150375664234,-0.0275305844843388,0.0137639986351132,0.5,0.0194883458316326,0.0279380977153778
809,-0.00164357537869364,-0.0423636808991432,-0.00621461262926459,0.5,0.00864892639219761,0.00779516668990254
810,-0.0143482619896531,-0.0550164878368378,-0.0239752717316151,0.5,-0.0007949736318551,-0.0110282683745027
811,-0.0167218632996082,-0.0568458363413811,-0.0304625052958727,0.5,-0.00501978676766157,-0.0179809499531984
812,-0.00856717303395271,-0.0470502078533173,-0.0245099477469921,0.5,-0.0035905665718019,-0.0118510313332081
813,0.00434614345431328,-0.0309590417891741,-0.0111498851329088,0.5,0.00179553322959691,0.00186953297816217
814,0.0173472911119461,-0.0132529716938734,0.00517712067812681,0.469929039478302,0.00946728885173798,0.0185859631747007
815,0.0280205104500055,0.00220734602771699,0.0204758662730455,0.191363766789436,0.0176892895251513,0.0338065251708031
816,0.0367995016276836,0.0147414226084948,0.0334746763110161,-0.0851384997367859,0.0258602723479271,0.045869916677475
817,0.0439305081963539,0.0247625298798084,0.0439470298588276,-0.289926052093506,0.0325491912662983,0.0547542944550514
818,0.0467252731323242,0.0298062972724438,0.048848457634449,-0.413085460662842,0.0348395891487598,0.0577130988240242
819,0.0426262281835079,0.027169419452548,0.044912476092577,-0.47090020775795,0.0310383383184671,0.0514440201222897
820,0.033354640007019,0.0192458610981703,0.0337871946394444,-0.455925464630127,0.0228001531213522,0.0376756154000759
821,0.0232291575521231,0.0117847081273794,0.0210808832198381,-0.375053972005844,0.0144153954461217,0.0221738889813423
822,0.0144354635849595,0.00681723095476627,0.0102598275989294,-0.266951590776443,0.0081736147403717,0.00888965465128422
823,0.00822845660150051,0.0042189909145236,0.00306728878058493,-0.157565355300903,0.0040202047675848,0.000676985247991979
824,0.00543742766603827,0.00436386140063405,0.000753318658098578,-0.0408328510820866,0.00239532045088708,-0.00123923318460584
825,0.00410741847008467,0.00527747068554163,0.00137644715141505,0.115508794784546,0.00318932696245611,-0.000384020910132676
826,0.000339079328114167,0.00217112805694342,-0.000502985261846334,0.374741107225418,0.00371939362958074,-0.00336645077914
827,-0.00991223007440567,-0.0103380121290684,-0.0114333555102348,0.5,-0.000384623854188249,-0.0169246587902308
828,-0.0239629186689854,-0.028992896899581,-0.02909648232162,0.5,-0.00835786201059818,-0.0379074402153492
829,-0.0308124981820583,-0.0399478562176228,-0.0400877892971039,0.5,-0.0127400932833552,-0.0512259267270565
830,-0.0259558204561472,-0.0368134751915932,-0.0377709455788136,0.5,-0.0102593153715134,-0.0496814735233784
831,-0.0167341437190771,-0.027258200570941,-0.0292267538607121,0.5,-0.00533240055665374,-0.0414890460669994
832,-0.0102765886113048,-0.0192653983831406,-0.0223232768476009,0.5,-0.00199375604279339,-0.0356237404048443
833,-0.0064789648167789,-0.0133566567674279,-0.0176545269787312,0.5,0.000149063620483503,-0.0324847474694252
834,-0.00580660719424486,-0.0110687259584665,-0.0166644603013992,0.5,0.000863677763845772,-0.032679982483387
835,-0.00969972461462021,-0.0144729195162654,-0.0210762917995453,0.5,-0.000934508396312594,-0.0376440286636353
836,-0.0109238475561142,-0.0150012504309416,-0.0218943450599909,0.5,-0.00110639771446586,-0.0384067483246326
837,-0.00541548803448677,-0.00741422642022371,-0.0146003263071179,0.5,0.0022334645036608,-0.0305753629654646
838,0.00146453198976815,0.00248170993290842,-0.00628242362290621,0.5,0.00484954938292503,-0.0216433070600033
839,0.0075605409219861,0.0123050659894943,0.000804821960628033,0.5,0.00517107779160142,-0.0143248373642564
840,0.0137096485123038,0.0230754669755697,0.00848650839179754,0.5,0.00485763419419527,-0.00673269992694259
841,0.0187255404889584,0.032632052898407,0.015332299284637,0.5,0.00463071232661605,-0.000145524463732727
842,0.0213323626667261,0.0384198315441608,0.0195876397192478,0.5,0.0042094849050045,0.00366656272672117
843,0.0231765303760767,0.0423938482999802,0.0234036352485418,0.5,0.00461870199069381,0.00750192953273654
844,0.0246129110455513,0.0454771108925343,0.0269218795001507,0.5,0.0060940939001739,0.0118495151400566
845,0.0243839491158724,0.046602301299572,0.0275986157357693,0.25855341553688,0.00742927752435207,0.0143644688650966
846,0.0231641978025436,0.0467551946640015,0.0255856122821569,0.099133774638176,0.00818870961666107,0.0158884916454554
847,0.0222681518644094,0.0469962954521179,0.0222576335072517,-0.0529014803469181,0.00850613694638014,0.0173861924558878
848,0.0240538008511066,0.0493348203599453,0.0206523053348064,-0.244260519742966,0.0100132571533322,0.0200394131243229
849,0.0295612998306751,0.0551814511418343,0.0234222002327442,-0.477296710014343,0.0144237764179707,0.0250488016754389
850,0.0350659713149071,0.0607835501432419,0.027683898806572,-0.5,0.0198957547545433,0.0292728636413813
851,0.0337585657835007,0.0581997446715832,0.0255619306117296,-0.5,0.0212893150746822,0.0249965079128742
852,0.02610800601542,0.0484064444899559,0.0169678013771772,-0.5,0.017867861315608,0.0136405155062675
853,0.0210520047694445,0.0424640029668808,0.0117969876155257,-0.5,0.015093732625246,0.00740906270220876
854,0.0237573888152838,0.0461532175540924,0.0157092791050673,-0.5,0.016865273937583,0.0123031847178936
855,0.0331255123019218,0.0578339733183384,0.0275329258292913,-0.5,0.0228647254407406,0.0255228951573372
856,0.0457782298326492,0.0734033808112144,0.043412484228611,-0.5,0.0307952705770731,0.0416793935000896
857,0.0583475604653358,0.0885082110762596,0.0590263418853283,-0.5,0.0386842899024487,0.0561329610645771
858,0.0653115957975388,0.0969269275665283,0.0678308978676796,-0.5,0.0430248901247978,0.0628182962536812
859,0.0622771866619587,0.0943762809038162,0.0646987035870552,-0.5,0.0404490232467651,0.0578108578920364
860,0.0531388521194458,0.0852439999580383,0.0538000874221325,-0.5,0.0332186743617058,0.0464889109134674
861,0.0409024395048618,0.0723063722252846,0.0389835797250271,-0.5,0.0238353852182627,0.0322710908949375
862,0.0258265174925327,0.0550831370055676,0.0210066251456738,-0.5,0.013116242364049,0.014501285739243
863,0.0141956610605121,0.0387205816805363,0.00512782949954271,-0.5,0.00427960697561502,-0.00229626218788326
864,0.0105269625782967,0.0283519327640533,-0.00478324200958014,-0.5,-0.000912602059543133,-0.0133524192497134
865,0.0110551444813609,0.0245365742594004,-0.00951819494366646,-0.5,-0.00387872871942818,-0.0179431661963463
866,0.00980966258794069,0.0235420577228069,-0.0128542240709066,-0.5,-0.00711486814543605,-0.0201639756560326
867,0.00422069150954485,0.0200547333806753,-0.0185009762644768,-0.5,-0.0119659164920449,-0.0254095736891031
868,-0.00446726987138391,0.0123480521142483,-0.0262454971671104,-0.5,-0.0174058116972446,-0.0342973805963993
869,-0.0114311994984746,0.00544465985149145,-0.0313543938100338,-0.5,-0.0206646826118231,-0.0413493774831295
870,-0.010360867716372,0.0081276735290885,-0.0271715614944696,-0.5,-0.0184882953763008,-0.0387732051312923
871,9.88681204034947E-05,0.0227717887610197,-0.0119682401418686,-0.5,-0.0100149940699339,-0.0244869478046894
872,0.0161794051527977,0.0444345772266388,0.0104230782017112,-0.5,0.0028030991088599,-0.0022779917344451
873,0.0304919686168432,0.0640159770846367,0.0314891636371613,-0.5,0.0146435489878058,0.0189195200800896
874,0.0369531884789467,0.07365333288908,0.0430978089570999,-0.5,0.0204253885895014,0.0305921658873558
875,0.0387599878013134,0.0758669972419739,0.0470518320798874,-0.5,0.0216454621404409,0.0352211110293865
876,0.0400184951722622,0.0754169374704361,0.0474251061677933,-0.5,0.0212499815970659,0.0370318181812763
877,0.0375034175813198,0.0695124268531799,0.041759729385376,-0.5,0.0183462221175432,0.0323637053370476
878,0.0305020418018103,0.0578817315399647,0.0310154873877764,-0.5,0.0137419765815139,0.0213001556694508
879,0.0244575422257185,0.0471349321305752,0.0227862000465393,-0.5,0.0113879321143031,0.0113874720409513
880,0.0211787987500429,0.0398076623678207,0.0196781940758228,-0.5,0.0119624342769384,0.00501521257683635
881,0.0172700583934784,0.0324483290314674,0.0172191169112921,-0.5,0.0120817879214883,-0.00194094865582883
882,0.0109212007373571,0.0235960707068443,0.0120076378807426,-0.5,0.00968477316200733,-0.0111504411324859
883,0.00649835495278239,0.0185182485729456,0.00813451875001192,-0.5,0.00770816160365939,-0.0167381670325994
884,0.0103011950850487,0.0235788859426975,0.0128937736153603,-0.5,0.0104201044887304,-0.0108806528151035
885,0.0200503580272198,0.0357100106775761,0.0242884866893291,-0.5,0.0160302855074406,0.00366229703649879
886,0.0266748368740082,0.0457385629415512,0.0323656909167767,-0.5,0.0184478629380465,0.0155454650521278
887,0.0252593215554953,0.047905620187521,0.031203830614686,-0.5,0.0147832753136754,0.0174076873809099
888,0.0163768269121647,0.0402444191277027,0.0205961465835571,-0.5,0.0061496957205236,0.00824610143899918
889,0.00662819715216756,0.0289919376373291,0.00766311166808009,-0.5,-0.00238396180793643,-0.00433921441435814
890,0.00639892462641001,0.0267414581030607,0.00481101078912616,-0.5,-0.00398239912465215,-0.00737236393615603
891,0.0166795924305916,0.0352997034788132,0.0138982217758894,-0.5,0.00185980414971709,0.000595597317442298
892,0.0299903266131878,0.0466568805277348,0.026785159483552,-0.5,0.0110723357647657,0.0112796705216169
893,0.0391194634139538,0.0531316474080086,0.0354349352419376,-0.5,0.0191912148147821,0.0172730274498463
894,0.0384036190807819,0.0489074401557446,0.0336198806762695,-0.5,0.0206138845533133,0.0134708024561405
895,0.0298718269914389,0.0370923429727554,0.0240997932851315,-0.5,0.0150630520656705,0.00361562590114772
896,0.0204512253403664,0.0258813109248877,0.0146347125992179,-0.5,0.007646718993783,-0.00444137817248702
897,0.0131635619327426,0.0187135767191648,0.00763192027807236,-0.5,0.00129382172599435,-0.00831560324877501
898,0.00960832089185715,0.0169915929436684,0.00413288315758109,-0.5,-0.00299947150051594,-0.00743885384872556
899,0.0109440507367253,0.0210762526839972,0.00584017811343074,-0.5,-0.00450830720365047,-0.00162518187426031
900,0.0150825725868344,0.0277070142328739,0.0112972427159548,-0.5,-0.00384660880081356,0.0061297551728785
901,0.0198223609477282,0.0334625765681267,0.0180296488106251,-0.5,-0.0019249334000051,0.0130232470110059
902,0.0245280396193266,0.037545271217823,0.0249909814447165,-0.5,0.00104598712641746,0.0185028873383999
903,0.0262517277151346,0.0377524867653847,0.0293333381414413,-0.5,0.00384843349456787,0.0196775887161493
904,0.0225294008851051,0.0320730432868004,0.0283754654228687,-0.5,0.0049714669585228,0.0142050748690963
905,0.0157193243503571,0.0231342632323503,0.0237674694508314,-0.5,0.00434170430526137,0.00519119156524539
906,0.00966317672282457,0.0152485948055983,0.0187073908746243,-0.5,0.00242360588163137,-0.00274928729049861
907,0.00572369433939457,0.0105849783867598,0.0145081002265215,-0.5,-0.000291275209747255,-0.00778037309646606
908,0.00376524007879198,0.00931708142161369,0.0118740294128656,-0.5,-0.00264831027016044,-0.00979253835976124
909,0.00717335473746061,0.0143341384828091,0.0157563053071499,-0.5,-0.00132629042491317,-0.00513418857008219
910,0.0181540977209806,0.0274252332746983,0.0295792203396559,-0.5,0.00553644308820367,0.00828355457633734
911,0.0316528491675854,0.0432846322655678,0.0477650947868824,-0.5,0.0147436875849962,0.0244036819785833
912,0.0401002243161201,0.0535093434154987,0.0607651732861996,-0.5,0.0214221533387899,0.0338461026549339
913,0.0351202897727489,0.0479096807539463,0.0577111728489399,-0.5,0.0202553011476994,0.0261043403297663
914,0.0135078597813845,0.0227062460035086,0.0339581854641438,-0.5,0.00870107300579548,-0.00180078402627259
915,-0.0178004000335932,-0.0136925708502531,-0.00270641641691327,-0.5,-0.00990217085927725,-0.0405755825340748
916,-0.0434320271015167,-0.0435950644314289,-0.0342851169407368,-0.5,-0.0263074729591608,-0.0722806751728058
917,-0.0481246300041676,-0.0495433323085308,-0.042679026722908,-0.5,-0.0304513275623322,-0.0794427320361137
918,-0.0350912511348724,-0.0353687591850758,-0.0306582823395729,-0.5,-0.0238652322441339,-0.0660614147782326
919,-0.0177970565855503,-0.0168702341616154,-0.0131591288372874,-0.5,-0.014559299685061,-0.0478159710764885
920,-0.00163759908173233,-0.000106907704321202,0.00356244225986302,-0.5,-0.00527750933542848,-0.0306854117661715
921,0.0101776923984289,0.0121517172083259,0.0159948151558638,-0.5,0.00238910783082247,-0.0180427487939596
922,0.0149171017110348,0.0173322912305593,0.0210734494030476,-0.5,0.00661945948377252,-0.0127854263409972
923,0.0138666639104486,0.0150424223393202,0.0183803495019674,-0.5,0.00700373109430075,-0.0154735594987869
924,0.00921697448939085,0.00591569766402245,0.00876852683722973,-0.5,0.00364537979476154,-0.0258591081947088
925,0.00378565583378077,-0.00417961226776242,-0.00190687261056155,-0.5,-0.000738023954909295,-0.0376293584704399
926,-0.000154627792653628,-0.00910199619829655,-0.00762447062879801,-0.5,-0.00319445063360035,-0.0436370521783829
927,-0.00400274060666561,-0.0103941829875112,-0.0103080561384559,-0.5,-0.00494595244526863,-0.0450994446873665
928,-0.0111103383824229,-0.0133718568831682,-0.0160765815526247,-0.427927076816559,-0.00884928740561008,-0.04806062951684
929,-0.0197050683200359,-0.0174868311733007,-0.0239514838904142,-0.120523191988468,-0.0132428761571646,-0.0520382225513458
930,-0.0209965612739325,-0.0142277302220464,-0.0236797388643026,0.0285674296319485,-0.012105411849916,-0.0468827411532402
931,-0.0114011829718947,-0.000454124616226181,-0.0109931761398911,-0.133667796850204,-0.0040194601751864,-0.0287891831248999
932,0.00378959160298109,0.0178766679018736,0.00855765212327242,-0.5,0.00697909109294415,-0.00486261630430818
933,0.0167546179145575,0.0326636508107185,0.0262800678610802,-0.5,0.0161732397973537,0.0153170805424452
934,0.022580886259675,0.0391631387174129,0.0348034910857677,-0.5,0.0202588364481926,0.0257697012275457
935,0.0233709178864956,0.0400233492255211,0.0346682369709015,-0.5,0.019615625962615,0.028802003711462
936,0.0229088086634874,0.039395410567522,0.0313527062535286,-0.5,0.016636710613966,0.0291370898485184
937,0.0256428122520447,0.0425452999770641,0.0326753295958042,-0.5,0.0157856475561857,0.032848060131073
938,0.0305462945252657,0.0482648052275181,0.0386282838881016,-0.5,0.0176479127258062,0.0392008312046528
939,0.0294162556529045,0.0462117195129395,0.039329469203949,-0.5,0.0169381070882082,0.0378324203193188
940,0.0211525745689869,0.0349352359771729,0.0327911712229252,-0.5,0.0127261159941554,0.0265029799193144
941,0.0100105293095112,0.0202794671058655,0.0226653963327408,-0.5,0.00749721191823483,0.0102527821436524
942,-0.000280880980426446,0.00671004503965378,0.0116034522652626,-0.5,0.00337722012773156,-0.00586582021787763
943,-0.00519403582438827,-0.00137458159588277,0.0040957648307085,-0.5,0.00273373536765575,-0.0162103250622749
944,-0.00240579317323864,-0.00157515390310436,0.00352726015262306,-0.5,0.00590992206707597,-0.0176626667380333
945,0.00657853204756975,0.00540522579103708,0.00996309239417315,-0.378983944654465,0.0113247754052281,-0.0107791088521481
946,0.0176850520074368,0.0164792444556952,0.0205190405249596,-0.396362513303757,0.0171791631728411,0.00102569942828268
947,0.0258233770728111,0.0263931788504124,0.0301690213382244,-0.5,0.0212786048650742,0.011982100084424
948,0.0280833709985018,0.0311065278947353,0.035392913967371,-0.5,0.0222607608884573,0.0181985050439835
949,0.026472257450223,0.0320378392934799,0.0377346016466618,-0.5,0.0219067540019751,0.0217368379235268
950,0.0232632216066122,0.0308319441974163,0.0386821627616882,-0.5,0.0218724086880684,0.0235576760023832
951,0.0170671362429857,0.0249408408999443,0.0349828377366066,-0.5,0.0205038413405418,0.0196110960096121
952,0.00573628069832921,0.011806015856564,0.0228185690939426,-0.5,0.0150639209896326,0.00691680144518614
953,-0.0105394050478935,-0.00773512059822679,0.00275310687720776,-0.5,0.00527742924168706,-0.013384154997766
954,-0.0281732883304358,-0.0288219582289457,-0.0196518953889608,-0.5,-0.00590995652601123,-0.0359087064862251
955,-0.0395101793110371,-0.041893295943737,-0.0344750732183456,-0.435925513505936,-0.0136027755215764,-0.0503657087683678
956,-0.0371304862201214,-0.0380095802247524,-0.0329584702849388,-0.262568593025208,-0.0137450862675905,-0.0473500154912472
957,-0.0216240379959345,-0.0183105431497097,-0.0161363277584314,-0.230569750070572,-0.00667091784998775,-0.027597464621067
958,-0.000552130630239844,0.00738689722493291,0.00733294757083058,-0.234506458044052,0.00397464819252491,-0.000566641567274928
959,0.0153696965426207,0.0259205177426338,0.0254089888185263,-0.189002826809883,0.0122125567868352,0.0195381548255682
960,0.0161306466907263,0.025573268532753,0.0261372458189726,-0.0114618772640824,0.0114430943503976,0.0189014617353678
961,0.00162582565099001,0.00651271361857653,0.00879681389778852,0.321747839450836,0.00156725861597806,-0.00293899420648813
962,-0.0173922032117844,-0.0181436389684677,-0.0143068730831146,0.5,-0.0102844564244151,-0.0311618540436029
963,-0.0299593210220337,-0.0348809510469437,-0.0302134640514851,0.5,-0.0178183317184448,-0.0501499138772488
964,-0.0321923643350601,-0.0383492037653923,-0.0334605537354946,0.5,-0.0196319743990898,-0.0539810135960579
965,-0.0275615192949772,-0.0322187505662441,-0.0273138992488384,0.5,-0.0180140640586615,-0.0468173027038574
966,-0.0191726926714182,-0.0208964850753546,-0.0158886294811964,0.5,-0.0140427090227604,-0.0335207730531693
967,-0.00889001414179802,-0.00752690993249416,-0.00202397513203323,0.326379925012589,-0.00806718040257692,-0.0180132668465376
968,-0.00424975110217929,-0.000814393628388643,0.00549756735563278,0.15655580163002,-0.00508471904322505,-0.0102270413190126
969,-0.00829743407666683,-0.00468931160867214,0.00275402911938727,0.16200977563858,-0.00753707345575094,-0.0143216839060187
970,-0.0132021652534604,-0.011042071506381,-0.0019920498598367,0.287065148353577,-0.0102436868473887,-0.0210933778434992
971,-0.0136583326384425,-0.0128911379724741,-0.00258883880451322,0.473285347223282,-0.00962829776108265,-0.0231289602816105
972,-0.012209820561111,-0.0115346508100629,-0.000996514223515987,0.5,-0.00775698106735945,-0.0220611430704594
973,-0.012644930742681,-0.0114669986069202,-0.00100477144587785,0.5,-0.00746996281668544,-0.0219468772411346
974,-0.0177608765661716,-0.0174422338604927,-0.00652316538617015,0.5,-0.010527117177844,-0.0270613115280867
975,-0.0271247960627079,-0.029512532055378,-0.01771330088377,0.5,-0.0163685996085405,-0.0376021079719067
976,-0.0335085429251194,-0.0384184159338474,-0.0262123718857765,0.5,-0.0205078180879354,-0.0443025976419449
977,-0.0287653617560863,-0.0342786051332951,-0.0225053410977125,0.5,-0.0184032414108515,-0.0370745621621609
978,-0.0109729440882802,-0.0150464111939073,-0.00375751685351133,0.5,-0.00875896960496902,-0.0142069235444069
979,0.0116725731641054,0.00991217419505119,0.0214547030627728,0.5,0.00392137002199888,0.0137343294918537
980,0.0244242697954178,0.0237892083823681,0.0362126491963863,0.492916256189346,0.0102712465450168,0.0291535258293152
981,0.022106658667326,0.0207101162523031,0.033795066177845,0.471281588077545,0.00637124944478273,0.0270493067800999
982,0.0117312856018543,0.00867552775889635,0.0218190141022205,0.5,-0.00346343638375402,0.0167355388402939
983,-0.00210844445973635,-0.00727511942386627,0.00578496884554625,0.5,-0.0159009769558907,0.00305540580302477
984,-0.0176690183579922,-0.0253485906869173,-0.0121011668816209,0.5,-0.0294365882873535,-0.013147110119462
985,-0.0283526945859194,-0.0380004420876503,-0.0241232234984636,0.5,-0.0391340404748917,-0.0243203733116388
986,-0.0300230216234922,-0.040559072047472,-0.0257965698838234,0.5,-0.0414433777332306,-0.0257598757743835
987,-0.0266596414148808,-0.0377239808440208,-0.0225084256380796,0.5,-0.0388281084597111,-0.0226375684142113
988,-0.0235303957015276,-0.0353090167045593,-0.020733093842864,0.5,-0.0355668216943741,-0.0205140002071857
989,-0.0227277651429176,-0.0354125276207924,-0.0223650299012661,0.5,-0.0336568020284176,-0.021017512306571
990,-0.0240447875112295,-0.0379684679210186,-0.0260937660932541,0.5,-0.0326714999973774,-0.0243303384631872
991,-0.0244402792304754,-0.0400314144790173,-0.0278868991881609,0.5,-0.0306129157543182,-0.0273201204836369
992,-0.0203393343836069,-0.0379011519253254,-0.0240291506052017,0.5,-0.0260803364217281,-0.0252515804022551
993,-0.0136543139815331,-0.0332838483154774,-0.0169744938611984,0.5,-0.0209048595279455,-0.0194063056260347
994,-0.00954148452728987,-0.0310559403151274,-0.0125817414373159,0.5,-0.0182373784482479,-0.0151973841711879
995,-0.00864074006676674,-0.0313948690891266,-0.0118352072313428,0.5,-0.01832539960742,-0.013199501670897
996,-0.00675375480204821,-0.0293588917702436,-0.0100491167977452,0.5,-0.0180490482598543,-0.00849192123860121
997,-0.00230701523832977,-0.023118257522583,-0.00515916710719466,0.5,-0.0159774124622345,0.000192279432667419
998,0.00361667363904417,-0.0143841821700335,0.00152602279558778,0.5,-0.0130507601425052,0.0104761850088835
999,0.00951837003231049,-0.00582197215408087,0.00815089326351881,0.5,-0.0101837497204542,0.0194314736872911
1000,0.0113913826644421,-0.00275029451586306,0.0104553792625666,0.5,-0.00918750744313002,0.0211845971643925
1001,0.00686958851292729,-0.00815173983573914,0.00551677262410522,0.5,-0.0110936658456922,0.0126435337588191
1002,-0.00279499613679945,-0.020140690729022,-0.0059070005081594,0.5,-0.0155124636366963,-0.00310780294239521
1003,-0.0152605073526502,-0.0349846854805946,-0.0209292322397232,0.5,-0.0220631901174784,-0.0205438751727343
1004,-0.0264245048165321,-0.0476775728166103,-0.0343715287744999,0.5,-0.0286500528454781,-0.0333973057568073
1005,-0.0283537153154612,-0.0502218194305897,-0.0375867001712322,0.5,-0.029896030202508,-0.0339006893336773
1006,-0.0187461320310831,-0.0404812581837177,-0.0282841101288795,0.5,-0.02457070723176,-0.0218708571046591
1007,-0.00728700589388609,-0.0282945279031992,-0.016726465895772,0.5,-0.0189371183514595,-0.00923060160130262
1008,0.000193453030078672,-0.0192872174084187,-0.00874448101967573,0.5,-0.0161226633936167,-0.00167539867106825
1009,0.0074554830789566,-0.00950742326676846,3.47733184753452E-05,0.5,-0.0134479878470302,0.0063017662614584
1010,0.0144296605139971,-0.000272624980425462,0.00911122653633356,0.5,-0.0105155827477574,0.0142218768596649
1011,0.0168795920908451,0.00297074322588742,0.0130207287147641,0.43430283665657,-0.0095436992123723,0.0165489539504051
1012,0.0149046592414379,0.00144843081943691,0.0116939153522253,0.00281145004555583,-0.0109583716839552,0.0148264449089766
1013,0.0104400236159563,-0.00171829469036311,0.00749313645064831,-0.314879566431046,-0.0141343055292964,0.0121510000899434
1014,0.00302273943088949,-0.00791353732347488,-0.000224061295739375,-0.436502277851105,-0.019225450232625,0.0058349808678031
1015,-0.00789471995085478,-0.0185741987079382,-0.0122539047151804,-0.344377517700195,-0.0265749134123325,-0.00652153324335814
1016,-0.0210353769361973,-0.0319153852760792,-0.0269560161978006,-0.137927621603012,-0.0358402766287327,-0.0223824474960566
1017,-0.0323841460049152,-0.0434468761086464,-0.0397798381745815,0.046277429908514,-0.0446925275027752,-0.0354812555015087
1018,-0.0358646214008331,-0.0472294166684151,-0.0445788614451885,0.122057721018791,-0.0491626672446728,-0.0387767516076565
1019,-0.0284326206892729,-0.0399524495005608,-0.0382885672152042,0.03144745901227,-0.047000490128994,-0.0293044839054346
1020,-0.0145832356065512,-0.0255588535219431,-0.0253527350723743,-0.23468129336834,-0.0403182841837406,-0.0121863996610045
1021,-0.00422470038756728,-0.0142218703404069,-0.0162202995270491,-0.5,-0.0347288399934769,0.000887396337930113
1022,0.00218113348819315,-0.00633899727836251,-0.0106322942301631,-0.5,-0.0305383112281561,0.00957122445106506
1023,0.0112328846007586,0.00496319541707635,-0.000158698938321322,-0.5,-0.0238468255847692,0.0220902040600777
1024,0.0176620166748762,0.0130169102922082,0.00926110707223415,-0.5,-0.0178288593888283,0.0312614589929581
1025,0.0147316362708807,0.0100684650242329,0.00878938473761082,-0.5,-0.0167166944593191,0.0275661982595921
1026,0.00866365525871515,0.00344714289531112,0.00422626920044422,-0.5,-0.0174930766224861,0.0180636513978243
1027,0.00630269851535559,0.00109190843068063,0.00282491324469447,-0.5,-0.0168974492698908,0.0119696650654078
1028,0.00592045206576586,0.00102489546407014,0.00276680733077228,-0.492921352386475,-0.0163236856460571,0.0085485652089119
1029,0.00374315609224141,-0.00101180467754602,2.61390759987989E-05,-0.476230025291443,-0.0183596014976501,0.00420262478291988
1030,-0.000906669883988798,-0.00515529373660684,-0.00565015198662877,-0.5,-0.0235218498855829,-0.00110333284828812
1031,-0.00349879148416221,-0.00580183463171124,-0.00817512441426516,-0.5,-0.0278514362871647,-0.00206918991170824
1032,-0.00178641243837774,-0.000959352648351341,-0.00448671588674188,-0.5,-0.0282792430371046,0.00269041443243623
1033,-0.00148574565537274,0.00232687243260443,-0.00140004570130259,-0.5,-0.0277054272592068,0.00544816674664617
1034,-0.00796455424278975,-0.00199016043916345,-0.00611465703696013,-0.5,-0.0304283704608679,-0.000574436271563172
1035,-0.0207080412656069,-0.0135775860399008,-0.0194202400743961,-0.5,-0.0374872945249081,-0.0155255049467087
1036,-0.0331250801682472,-0.0258300080895424,-0.0344418175518513,-0.5,-0.045145072042942,-0.0316101275384426
1037,-0.0375076532363892,-0.0306114014238119,-0.0419189743697643,-0.310590028762817,-0.048621766269207,-0.0385368764400482
1038,-0.0313737727701664,-0.0248569548130035,-0.0374587662518024,-0.225574046373367,-0.0460583679378033,-0.0322423353791237
1039,-0.0179011300206184,-0.0113276587799191,-0.0232202708721161,-0.404470890760422,-0.0382787138223648,-0.0162674225866795
1040,-0.00493737077340484,0.00193822185974568,-0.00846242439001799,-0.5,-0.0294840261340141,-0.000509447767399251
1041,-0.00109386735130101,0.00557620218023658,-0.00413669738918543,-0.5,-0.0257296171039343,0.00453637866303325
1042,-0.00590988621115685,-0.000336285709636286,-0.0100955879315734,-0.5,-0.0280757583677769,-0.000477003981359303
1043,-0.0105155277997255,-0.00621573626995087,-0.0160164870321751,-0.5,-0.0313141122460365,-0.00502789719030261
1044,-0.0105040958151221,-0.00646154396235943,-0.0160735547542572,-0.5,-0.0311145186424255,-0.00361803150735796
1045,-0.00949636567384005,-0.0047198198735714,-0.0136991152539849,-0.5,-0.0284310299903154,-0.000582899956498295
1046,-0.0114070875570178,-0.00629893969744444,-0.0141908088698983,-0.5,-0.0267400164157152,-0.00144052703399211
1047,-0.0179800372570753,-0.014154426753521,-0.0211042333394289,-0.5,-0.0287770386785269,-0.0091435806825757
1048,-0.0282004941254854,-0.0270839016884565,-0.0337487608194351,-0.5,-0.0341011434793472,-0.0223943330347538
1049,-0.0373728349804878,-0.0390875637531281,-0.0460419990122318,-0.5,-0.0397051312029362,-0.0346227250993252
1050,-0.0426505915820599,-0.046429056674242,-0.0540735013782978,-0.5,-0.0442018583416939,-0.0417806841433048
1051,-0.0424223393201828,-0.0472231842577457,-0.0558865740895271,-0.448045372962952,-0.046214371919632,-0.0418533347547054
1052,-0.0370365791022778,-0.0415817387402058,-0.0514119826257229,-0.33871790766716,-0.0450115464627743,-0.034849613904953
1053,-0.0316036455333233,-0.0350276380777359,-0.0456278957426548,-0.317507356405258,-0.0429210364818573,-0.0265909098088741
1054,-0.0295287072658539,-0.0321656093001366,-0.0423177033662796,-0.345334142446518,-0.0413326881825924,-0.0220005065202713
1055,-0.0287672728300095,-0.0315751805901527,-0.0398600436747074,-0.341847449541092,-0.0387528613209724,-0.0198641773313284
1056,-0.0250538010150194,-0.0282467752695084,-0.034372229129076,-0.292876422405243,-0.0331204757094383,-0.0153554026037455
1057,-0.018715700134635,-0.0213611386716366,-0.0265271179378033,-0.264162182807922,-0.0257458388805389,-0.0079261464998126
1058,-0.011203114874661,-0.011425650678575,-0.017389016225934,-0.356523782014847,-0.0185282584279776,0.00183684483636171
1059,0.00048839405644685,0.0051263403147459,-0.0031036373693496,-0.5,-0.0100416606292129,0.0179290324449539
1060,0.0144772091880441,0.025123355910182,0.0145050939172506,-0.5,-0.00110052339732647,0.0376914702355862
1061,0.0231924150139093,0.0381756536662579,0.0266984160989523,-0.5,0.00448285741731524,0.0506909005343914
1062,0.0250329300761223,0.0407507605850697,0.030450539663434,-0.5,0.00656939996406436,0.0527451299130917
1063,0.0229498278349638,0.0356449484825134,0.0275921002030373,-0.5,0.00687194289639592,0.0458768270909786
1064,0.0184490140527487,0.0262112934142351,0.0190970040857792,-0.5,0.00503557361662388,0.0332347340881824
1065,0.012106261216104,0.0155793447047472,0.00658062612637877,-0.5,0.00055848725605756,0.0188289918005466
1066,0.00352920987643301,0.00434650154784322,-0.00825941748917103,-0.5,-0.00606551952660084,0.00464857555925846
1067,-0.00401731533929706,-0.00421270960941911,-0.0204548686742783,-0.5,-0.0117432801052928,-0.00492038112133741
1068,-0.00576945301145315,-0.00578326266258955,-0.0248446427285671,-0.5,-0.0137249268591404,-0.00568583840504289
1069,-0.00438954588025808,-0.00422348920255899,-0.0247347168624401,-0.5,-0.0141108762472868,-0.00320897880010307
1070,-0.00229411432519555,-0.00210989615879953,-0.0224647466093302,-0.5,-0.0139907691627741,-0.0010908244876191
1071,0.00334549718536437,0.00407942477613688,-0.0142925856634974,-0.5,-0.0108190085738897,0.00495679769665003
1072,0.00962123088538647,0.0105208801105618,-0.00389072275720537,-0.5,-0.00627606827765703,0.011297675780952
1073,0.00738611444830894,0.00660692201927304,-0.00370047707110643,-0.5,-0.00730438251048326,0.00623029004782438
1074,-0.00562680140137672,-0.00903753098100424,-0.0184172075241804,-0.5,-0.0162926893681288,-0.011965618468821
1075,-0.0230551343411207,-0.0274571105837822,-0.0410232692956924,-0.5,-0.0288324374705553,-0.0342664532363415
1076,-0.0391904525458813,-0.0414048284292221,-0.0640320405364037,-0.5,-0.0407710373401642,-0.0537192337214947
1077,-0.0478343106806278,-0.044619332998991,-0.0790371894836426,-0.5,-0.0476439744234085,-0.0631733164191246
1078,-0.0464202016592026,-0.0354918502271175,-0.0814169496297836,-0.464341372251511,-0.0470328368246555,-0.0598659366369247
1079,-0.0417511574923992,-0.0224441383033991,-0.0775564834475517,-0.449309796094894,-0.0430248193442822,-0.052018616348505
1080,-0.0369041301310062,-0.00913350563496351,-0.07050621509552,-0.327745109796524,-0.0380250960588455,-0.0428677722811699
1081,-0.0281163603067398,0.00804958492517471,-0.0568688213825226,-0.139829233288765,-0.0302619133144617,-0.0286175031214952
1082,-0.0165029689669609,0.0268910825252533,-0.0397129878401756,0.0136421285569668,-0.0209619272500277,-0.0124512761831284
1083,-0.00740075670182705,0.0414120219647884,-0.0261134244501591,0.0861467644572258,-0.0140475695952773,-0.00111602782271802
1084,-0.00234007625840604,0.0499035641551018,-0.0178577788174152,0.0943434238433838,-0.0110355233773589,0.00431009847670794
1085,-0.0012895594118163,0.0519334524869919,-0.0151437763124704,0.132540866732597,-0.0118630127981305,0.00395852327346802
1086,-0.00676695257425308,0.0450785830616951,-0.0210233684629202,0.304964303970337,-0.0172265414148569,-0.00511264521628618
1087,-0.0178688336163759,0.0314201302826405,-0.0339275896549225,0.5,-0.0253329407423735,-0.021285392343998
1088,-0.0268490929156542,0.0204922016710043,-0.0443052761256695,0.5,-0.0304937232285738,-0.0346580184996128
1089,-0.0287491269409657,0.0180314108729362,-0.0468687452375889,0.5,-0.0299184508621693,-0.0390265993773937
1090,-0.0233584567904472,0.0226910915225744,-0.0440245792269707,0.5,-0.0255223643034697,-0.0356754846870899
1091,-0.0099344402551651,0.0335201099514961,-0.0364113450050354,0.5,-0.0181653760373592,-0.0252530239522457
1092,0.00789523497223854,0.0488507784903049,-0.0236674714833498,0.5,-0.00775406695902348,-0.00903350487351418
