,AF3,AF4,Fp1,Fp2,AF7,AF8
0,0.0412733964622021,0.0406497493386269,0.0361050590872765,-0.00047677694237791,0.0486187599599361,0.0339720472693443
1,0.0399332493543625,0.0411957390606403,0.0330121032893658,-0.000483715441077948,0.0459211803972721,0.0344190634787083
2,0.0419509559869766,0.0436945259571075,0.033125776797533,-0.00049720355309546,0.0463429689407349,0.0376539789140224
3,0.0441443286836147,0.045040026307106,0.0339637361466885,-0.000512218335643411,0.0484924167394638,0.0397120639681816
4,0.0425549633800983,0.0417930744588375,0.0326282195746899,-0.000523012829944491,0.049882210791111,0.0368615947663784
5,0.0379785485565662,0.0359194912016392,0.0306861847639084,-0.000526189862284809,0.0501364320516586,0.031356006860733
6,0.0357960872352123,0.0336466766893864,0.0330973751842976,-0.000522423768416047,0.0515037402510643,0.0293228030204773
7,0.0366673544049263,0.0351531617343426,0.0380238369107246,-0.000515962776262313,0.0530894696712494,0.030611539259553
8,0.037154957652092,0.0362688452005386,0.039747592061758,-0.000512254016939551,0.0519723892211914,0.0312408171594143
9,0.0375232100486755,0.0370847247540951,0.0393960364162922,-0.000515016261488199,0.049147330224514,0.0320447459816933
10,0.038308460265398,0.037850696593523,0.0394641533493996,-0.000524332281202078,0.0467906780540943,0.0339022874832153
11,0.0366282537579536,0.0360416285693645,0.0376268289983273,-0.000536736741196364,0.0444986745715141,0.0346041955053806
12,0.030919436365366,0.0314533300697804,0.0321335792541504,-0.000547180126886815,0.0415837876498699,0.0337011516094208
13,0.0235769804567099,0.0267265681177378,0.0255824998021126,-0.000551760196685791,0.0390865728259087,0.0327218249440193
14,0.0177451595664024,0.0233619324862957,0.021361144259572,-0.00054974592057988,0.0385621376335621,0.0319794677197933
15,0.0159450247883797,0.0229531973600388,0.0219964068382978,-0.000543847214430571,0.0409044362604618,0.0330362804234028
16,0.0199277494102716,0.0274972598999739,0.0295048132538795,-0.000538654217962176,0.0461080744862556,0.038773525506258
17,0.0261609684675932,0.0327673964202404,0.0398531369864941,-0.000538140127900988,0.0517389513552189,0.0446895137429237
18,0.0278603676706553,0.0314444787800312,0.0448534451425076,-0.000543585803825408,0.0539179183542728,0.0425325520336628
19,0.0223110150545835,0.0219243969768286,0.0410485044121742,-0.000553008052520454,0.0508835539221764,0.0309924222528934
20,0.0129116168245673,0.00869371555745602,0.0316005274653435,-0.000562334782443941,0.0449130795896053,0.0150564881041646
21,0.00588587671518326,-0.00186760793440044,0.0230242926627398,-0.000567638489883393,0.0408033728599548,0.00126664654817432
22,0.00416442519053817,-0.00659538013860583,0.0196053069084883,-0.000567204435355961,0.0411206670105457,-0.00673228688538074
23,0.00715899234637618,-0.00579953473061323,0.0213978495448828,-0.000562348053790629,0.0448759011924267,-0.0084425387904048
24,0.0132489940151572,-0.00155981245916337,0.0255742557346821,-0.000556599348783493,0.0495108999311924,-0.00481916917487979
25,0.0182182267308235,0.00122635939624161,0.0271295849233866,-0.000553752295672894,0.0518437549471855,-0.000125448364997283
26,0.0194712057709694,-1.1257354344707E-05,0.0246240478008986,-0.000555855047423393,0.051147285848856,0.00219446164555848
27,0.0204977951943874,-0.00108914612792432,0.023176196962595,-0.000562204804737121,0.0506248772144318,0.00458100344985724
28,0.0235078036785126,0.000875468540471047,0.0254943855106831,-0.000569834548514336,0.052163302898407,0.00865455437451601
29,0.0265873987227678,0.00405602902173996,0.0289643630385399,-0.000575172365643084,0.0541212148964405,0.0124794766306877
30,0.0294711980968714,0.0077784825116396,0.0325222685933113,-0.000575947866309434,0.0555986016988754,0.0164849478751421
31,0.0324358642101288,0.0117146726697683,0.0362597107887268,-0.00057233078405261,0.0572569444775581,0.0216013137251139
32,0.0335240736603737,0.0137603962793946,0.0381170846521854,-0.000566735165193677,0.0582963041961193,0.0254671517759562
33,0.0335085429251194,0.0151987802237272,0.0385894291102886,-0.000562452478334308,0.0579506568610668,0.0280476529151201
34,0.0337853655219078,0.0174346435815096,0.0389283448457718,-0.000561884080525488,0.0563711486756802,0.0299646556377411
35,0.0324185341596603,0.0179760046303272,0.0369962081313133,-0.000565322232432663,0.0530900433659554,0.0288932044059038
36,0.028900969773531,0.0161824934184551,0.0319150499999523,-0.000570894568227232,0.0478545799851418,0.0250957645475864
37,0.0241820532828569,0.0130866663530469,0.0247390866279602,-0.000575647398363799,0.0412806309759617,0.0205790437757969
38,0.0203936025500298,0.0102779567241669,0.0183634869754314,-0.000577145372517407,0.035807728767395,0.0172855816781521
39,0.0206586942076683,0.010455266572535,0.0172296781092882,-0.000574723002500832,0.0339698530733585,0.0178797263652086
40,0.0239824932068586,0.0129283294081688,0.0214008446782827,-0.000569748634006828,0.0350752472877502,0.0216922238469124
41,0.027079014107585,0.0151709159836173,0.0271648783236742,-0.000564810296054929,0.0372885353863239,0.0262631811201572
42,0.0290025379508734,0.0172898080199957,0.0322383120656013,-0.000562303466722369,0.039521723985672,0.0312537848949432
43,0.0282929986715317,0.0173665396869183,0.0336983352899551,-0.00056319049326703,0.0397341847419739,0.0331161953508854
44,0.0248086433857679,0.0138269895687699,0.0303311068564653,-0.00056657160166651,0.0375261306762695,0.0287272315472364
45,0.0221219435334206,0.0100108692422509,0.0258000120520592,-0.000570250849705189,0.0357678942382336,0.0220899861305952
46,0.0221382770687342,0.00828017853200436,0.0231887008994818,-0.000571948534343392,0.036293026059866,0.0177288744598627
47,0.0245151072740555,0.00868388172239065,0.0234527382999659,-0.000570493342820555,0.039118304848671,0.0170067753642797
48,0.0290906187146902,0.0114369597285986,0.026999656111002,-0.0005663734045811,0.0441175103187561,0.0198625326156616
49,0.0346504375338554,0.0160113926976919,0.0325596369802952,-0.000561393157113343,0.049756683409214,0.0249108541756868
50,0.0383654683828354,0.0198729578405619,0.0371906869113445,-0.000557664956431836,0.0535998977720737,0.0293278973549604
51,0.0383062474429607,0.0204121582210064,0.0389138944447041,-0.000556497136130929,0.0547930486500263,0.0305782575160265
52,0.0360004343092442,0.01894286647439,0.0391543507575989,-0.000557762163225561,0.0547362267971039,0.0299893021583557
53,0.0350472144782543,0.0195414312183857,0.0414328202605248,-0.000560046231839806,0.0553894005715847,0.0317619666457176
54,0.0355954430997372,0.0220719035714865,0.0452021695673466,-0.000561455613933504,0.05595363676548,0.0355379655957222
55,0.0362587906420231,0.0245481822639704,0.0481212176382542,-0.000560623768251389,0.0551172867417336,0.0390197597444057
56,0.0369828119874001,0.0265470333397388,0.0502944327890873,-0.000557384511921555,0.0534683018922806,0.0422779135406017
57,0.0360525883734226,0.0259153209626675,0.0503131859004498,-0.000552785350009799,0.0510682053864002,0.0432569272816181
58,0.0328309684991837,0.0223276019096375,0.047713253647089,-0.000548473850358278,0.048862274736166,0.0406132899224758
59,0.0283831115812063,0.0179036557674408,0.0445476211607456,-0.000545815157238394,0.0482672527432442,0.0362847782671452
60,0.0244211424142122,0.0150410141795874,0.0430216826498508,-0.000545211078133434,0.0493740886449814,0.033574890345335
61,0.0233794748783112,0.0157132633030415,0.0446258261799812,-0.000545958231668919,0.0519277639687061,0.0345905683934689
62,0.0257179941982031,0.0189421605318785,0.0485338680446148,-0.000546681345440447,0.0551420971751213,0.0375410802662373
63,0.0288639571517706,0.0212893690913916,0.0513391420245171,-0.000546079885680228,0.0569121390581131,0.0384865738451481
64,0.0293245799839497,0.0199061706662178,0.0493277572095394,-0.000543584930710495,0.0546250306069851,0.0355120338499546
65,0.0254575069993734,0.0140370531007648,0.0413064770400524,-0.000539597182068974,0.0479566268622875,0.0287051666527987
66,0.0185970850288868,0.00527782458811998,0.0293449368327856,-0.000535215658601373,0.0391731038689613,0.0189313404262066
67,0.0117340181022882,-0.00287864729762077,0.0177076067775488,-0.00053163303527981,0.0310031659901142,0.00921353697776794
68,0.00612736074253917,-0.00913967750966549,0.00883720722049475,-0.000529529177583754,0.0255878008902073,0.00105337973218411
69,0.00251554581336677,-0.0136157907545567,0.00343546364456415,-0.000528769101947546,0.0242590960115194,-0.00534628005698323
70,0.000871290045324713,-0.016440387815237,0.00116180360782892,-0.00052853359375149,0.0257966723293066,-0.00975896138697863
71,-0.00193016731645912,-0.0199723523110151,-0.00107380654662848,-0.000527781608980149,0.0269707702100277,-0.0147933661937714
72,-0.00602713041007519,-0.0231254622340202,-0.00307579734362662,-0.000525785144418478,0.0274089407175779,-0.0194604862481356
73,-0.00694330595433712,-0.0207708012312651,-0.000333367701387033,-0.00052246474660933,0.0296993348747492,-0.0179731696844101
74,-0.00321357860229909,-0.0125709986314178,0.0074251270852983,-0.00051837571663782,0.0341731980443001,-0.00976752955466509
75,0.00253444095142186,-0.00272403168492019,0.016582578420639,-0.000514383718837053,0.0384627729654312,0.00060905166901648
76,0.00799069087952375,0.00563516886904836,0.0245988536626101,-0.000511216698214412,0.0410931184887886,0.0095354076474905
77,0.0114207211881876,0.0104963611811399,0.0288823768496513,-0.000509124365635216,0.0414879433810711,0.0142826391384006
78,0.0129310442134738,0.0124915679916739,0.0294963177293539,-0.000507800257764757,0.0400578007102013,0.0156375747174025
79,0.0130539815872908,0.0127113712951541,0.0282017178833485,-0.000506577838677913,0.037615742534399,0.0154535388574004
80,0.0113323992118239,0.0109687484800816,0.0255694594234228,-0.000504780327901244,0.0342821292579174,0.0138709731400013
81,0.0104747703298926,0.0106725934892893,0.0253079570829868,-0.000502041599247605,0.0315040871500969,0.0143151357769966
82,0.01056276448071,0.0114657208323479,0.0273593347519636,-0.000498450535815209,0.0293380711227655,0.0157819613814354
83,0.00667087966576219,0.00691100489348173,0.025329427793622,-0.000494469655677676,0.0256019756197929,0.0109993973746896
84,-0.00116960832383484,-0.00338812079280615,0.0180779378861189,-0.000490689184516668,0.0208803676068783,-0.00062034884467721
85,-0.0072092697955668,-0.0128111327067018,0.0111034270375967,-0.000487547105876729,0.0180254243314266,-0.0117213604971766
86,-0.00683970097452402,-0.0150926494970918,0.00943770539015532,-0.00048514420632273,0.0185114238411188,-0.0149723021313548
87,-0.000293846765998751,-0.00939100701361895,0.0133535219356418,-0.000483226642245427,0.021179748699069,-0.00908072479069233
88,0.00763538619503379,-0.00109338515903801,0.0185032114386559,-0.000481326715089381,0.0232431944459677,0.0001200367914862
89,0.0122916279360652,0.003891222178936,0.0202368274331093,-0.000478984817164019,0.022789292037487,0.00598356127738953
90,0.0141765931621194,0.00555485347285867,0.0194058176130056,-0.000475950946565717,0.0209191404283047,0.00870201364159584
91,0.0165163204073906,0.00755209801718593,0.0204179920256138,-0.00047228203038685,0.0202672760933638,0.0122950850054622
92,0.0185174364596605,0.00918259937316179,0.0228274669498205,-0.00046830321662128,0.0206868182867765,0.0155085548758507
93,0.0159126576036215,0.00565431080758572,0.0216189194470644,-0.000464456825284287,0.019438223913312,0.0129894176498055
94,0.00790981203317642,-0.00359574449248612,0.0151527654379606,-0.0004611071490217,0.015807094052434,0.00406816834583879
95,-0.00110098207369447,-0.0136828674003482,0.00685471389442682,-0.000458382710348815,0.0118037778884172,-0.00653701787814498
96,-0.00788052286952734,-0.0214666482061148,-0.000675228133331984,-0.000456120644230396,0.0082995593547821,-0.015628868713975
97,-0.0115373777225614,-0.0256102830171585,-0.00569920521229506,-0.000453937478596345,0.00553856790065765,-0.0212037079036236
98,-0.0106845162808895,-0.0239096954464912,-0.00572783267125487,-0.000451398082077503,0.00454824604094028,-0.0204203799366951
99,-0.00701358588412404,-0.0182166248559952,-0.00275172828696668,-0.000448213395429775,0.00421926751732826,-0.0150538682937622
100,-0.00545776356011629,-0.0145542873069644,-0.00249773892574012,-0.000444379460532218,0.00212054769508541,-0.011721265502274
101,-0.00583457481116056,-0.0142610082402825,-0.00496772117912769,-0.000440192059613764,-0.000281086249742657,-0.0123387444764376
102,-0.00323028373531997,-0.0135461427271366,-0.00482920883223414,-0.000436120782978833,0.00096391566330567,-0.0128169395029545
103,0.00143466133158654,-0.0127574419602752,-0.00225136638619006,-0.000432592554716393,0.00480624847114086,-0.0125886872410774
104,0.00452464586123824,-0.013383861631155,-0.000108981636003591,-0.000429781735874712,0.00738893356174231,-0.0124417832121253
105,0.00596918305382133,-0.0140410708263516,0.00109069689642638,-0.00042750989086926,0.00715108495205641,-0.0114317070692778
106,0.00662277266383171,-0.0140915876254439,0.000995250884443522,-0.000425314152380452,0.0044205579906702,-0.0102556319907308
107,0.00880455318838358,-0.0115782786160707,0.00232627196237445,-0.000422662851633504,0.00199368037283421,-0.00756573304533958
108,0.0140466541051865,-0.00550075992941856,0.00764283956959844,-0.000419220916228369,0.00221293582580984,-0.00202439562417567
109,0.01918132789433,0.000147322658449411,0.0131410406902432,-0.000415032816817984,0.00300777284428477,0.00241997349075973
110,0.0208914112299681,0.00261054327711463,0.0146532561630011,-0.000410522421589121,0.00104246917180717,0.00349147501401603
111,0.0205365270376205,0.00431494507938623,0.0142405359074473,-0.000406296661822125,-0.00300257280468941,0.00506869191303849
112,0.0194122344255447,0.00594226829707623,0.0142297120764852,-0.000402841513277963,-0.00657648919150233,0.00839012674987316
113,0.0164006017148495,0.00522291613742709,0.0135851232334971,-0.000400262419134378,-0.00923632271587849,0.010359013453126
114,0.00963668245822191,-0.000309394090436399,0.00917084887623787,-0.000398208998376504,-0.0127332396805286,0.00713509181514382
115,-0.001943398732692,-0.0122626051306725,-0.002222043229267,-0.000396035466110334,-0.0188276171684265,-0.00401583546772599
116,-0.0127545511350036,-0.0248100701719522,-0.0155047168955207,-0.000393125897971913,-0.0245680399239063,-0.0174648612737656
117,-0.0149410823360085,-0.0289127621799707,-0.0206980127841234,-0.000389221357181668,-0.0252375435084105,-0.0235060900449753
118,-0.00891686975955963,-0.0238340850919485,-0.0159903541207314,-0.000384574173949659,-0.0213551465421915,-0.020387277007103
119,-0.000249523407546803,-0.0148052498698235,-0.00662114657461643,-0.000379838049411774,-0.015984745696187,-0.0124558620154858
120,0.00631007179617882,-0.0070345182903111,0.00111993099562824,-0.000375738716684282,-0.0117761930450797,-0.00473275408148766
121,0.00881735514849424,-0.00318420538678765,0.00376111106015742,-0.000372691138181835,-0.0106038805097342,-0.000536394130904228
122,0.00864806585013866,-0.00309525802731514,0.00305213825777173,-0.000370565743651241,-0.011408724822104,2.41134694078937E-05
123,0.00681621301919222,-0.00655049690976739,0.000873963464982808,-0.000368736044038087,-0.0125380149111152,-0.00250390800647438
124,0.00278105726465583,-0.0131388921290636,-0.00372564326971769,-0.000366394815500826,-0.0143497455865145,-0.00817733816802502
125,-0.0031610312871635,-0.020922377705574,-0.0112448371946812,-0.000362979510100558,-0.0172210596501827,-0.0161806773394346
126,-0.00730822375044227,-0.024841720238328,-0.0174728445708752,-0.000358482677256688,-0.0192808583378792,-0.0214365869760513
127,-0.0071365823969245,-0.0217305719852448,-0.0184839386492968,-0.000353475334122777,-0.0195980835705996,-0.0196272227913141
128,-0.00544208008795977,-0.0152781400829554,-0.0165667682886124,-0.000348820147337392,-0.0204971972852945,-0.0135148297995329
129,-0.00381812732666731,-0.00926256831735373,-0.0139657985419035,-0.000345217908034101,-0.0219666510820389,-0.00687045557424426
130,-0.00183538265991956,-0.0051143798045814,-0.0112199187278748,-0.00034282638807781,-0.0215157885104418,-0.00210901140235364
131,-0.000898281461559236,-0.00426332606002688,-0.0102328546345234,-0.000341159728122875,-0.019739730283618,-0.000982783385552466
132,-0.00237694033421576,-0.00680798199027777,-0.0120243104174733,-0.000339331629220396,-0.019221555441618,-0.00309524335898459
133,-0.00620549637824297,-0.0116885807365179,-0.0158704202622175,-0.000336521392455325,-0.0208751708269119,-0.00767009239643812
134,-0.0102730290964246,-0.0163119956851006,-0.01949717476964,-0.000332417577737942,-0.0230028554797173,-0.0121646765619516
135,-0.0110169984400272,-0.0170622654259205,-0.0198596399277449,-0.000327398942317814,-0.0228950399905443,-0.012198144569993
136,-0.00875726714730263,-0.0149135878309608,-0.0178188979625702,-0.00032234750688076,-0.0204574093222618,-0.00866991095244884
137,-0.00787804275751114,-0.014293609187007,-0.017506143078208,-0.000318185600917786,-0.0183010660111904,-0.00659311935305595
138,-0.00932715553790331,-0.015594276599586,-0.0194738991558552,-0.000315379904350266,-0.0172137245535851,-0.00691043306142092
139,-0.00928123015910387,-0.0152356587350369,-0.0196695122867823,-0.000313680386170745,-0.0148178189992905,-0.00635972945019603
140,-0.00592779787257314,-0.0116950357332826,-0.0159330349415541,-0.000312240299535915,-0.0100417034700513,-0.00283101736567914
141,-0.00334399659186602,-0.00913592614233494,-0.0130075803026557,-0.000310060975607485,-0.00636834232136607,0.000353995535988361
142,-0.00620664143934846,-0.0123203070834279,-0.0166872497648001,-0.000306527566863224,-0.00755236484110355,-0.00165457534603775
143,-0.0140762906521559,-0.0206915847957134,-0.0269622597843409,-0.000301748048514128,-0.0130931939929724,-0.00922286510467529
144,-0.022534154355526,-0.0299095809459686,-0.039284847676754,-0.000296507903840393,-0.0195058211684227,-0.0189532674849033
145,-0.0274244956672192,-0.0351649224758148,-0.0478049851953983,-0.000291858275886625,-0.0233977269381285,-0.0259207952767611
146,-0.0285038184374571,-0.0352438762784004,-0.0501151829957962,-0.00028855333221145,-0.0245271734893322,-0.0279528927057981
147,-0.0281414818018675,-0.0333121046423912,-0.0488222315907478,-0.000286639056866989,-0.0249226335436106,-0.0276473090052605
148,-0.0276770070195198,-0.0318428166210651,-0.0471042618155479,-0.000285417947452515,-0.0254133846610785,-0.0275897011160851
149,-0.026999942958355,-0.0306628067046404,-0.0458570756018162,-0.00028381499578245,-0.0256260577589273,-0.0276887807995081
150,-0.0246792919933796,-0.0279481876641512,-0.0435819402337074,-0.000280952692264691,-0.0250022299587727,-0.0259066820144653
151,-0.018647501245141,-0.0212410595268011,-0.0377922877669334,-0.000276627339189872,-0.0226402617990971,-0.0199580248445272
152,-0.0116173280403018,-0.0132815772667527,-0.0311646610498428,-0.000271427561528981,-0.0197220165282488,-0.0132735632359982
153,-0.00764986360445619,-0.00824270397424698,-0.0276550147682428,-0.000266426242887974,-0.0186864249408245,-0.00989130698144436
154,-0.00631010252982378,-0.00551351485773921,-0.0264986511319876,-0.000262607296463102,-0.0200571548193693,-0.00820999406278133
155,-0.00744984857738018,-0.00539061101153493,-0.0281272102147341,-0.000260333792539313,-0.0236814748495817,-0.00820441357791424
156,-0.0100022777915001,-0.00728981057181954,-0.0315296426415443,-0.000259145977906883,-0.0276996903121471,-0.00943370070308447
157,-0.0118285091593862,-0.00900593679398298,-0.0331367440521717,-0.00025800138246268,-0.0295028071850538,-0.00973866414278746
158,-0.0130076287314296,-0.0105381030589342,-0.0318873189389706,-0.00025583224487491,-0.0285900421440601,-0.00941401440650225
159,-0.0145227489992976,-0.0128218056634068,-0.02912238240242,-0.000252121477387846,-0.0256485622376204,-0.00973928812891245
160,-0.0157583821564913,-0.0148084769025445,-0.0257094725966454,-0.000247186573687941,-0.0212507732212543,-0.0096845431253314
161,-0.014183753170073,-0.0130379823967814,-0.0204049069434404,-0.000242014750256203,-0.0163411162793636,-0.00585475657135248
162,-0.0114610241726041,-0.00905027985572815,-0.0154948374256492,-0.000237735395785421,-0.0141182849183679,-0.00050549564184621
163,-0.0123460441827774,-0.00866491626948118,-0.0160096697509289,-0.00023501183022745,-0.017042214050889,-0.000226666976232082
164,-0.016801243647933,-0.0123917357996106,-0.021671487018466,-0.000233680533710867,-0.0229186192154884,-0.0053262310102582
165,-0.0196840781718493,-0.014480059966445,-0.0262073315680027,-0.00023283448535949,-0.0268356446176767,-0.0093389768153429
166,-0.017566729336977,-0.0108123365789652,-0.0250823181122541,-0.000231308556976728,-0.0263939406722784,-0.00795074366033077
167,-0.0121696051210165,-0.00311928801238537,-0.0202748868614435,-0.000228306787903421,-0.0236122980713844,-0.00271394592709839
168,-0.0064844605512917,0.00467876670882106,-0.0157085526734591,-0.000223833674681373,-0.0211635660380125,0.00308004766702652
169,-0.00350499572232366,0.00832295604050159,-0.0148171139881015,-0.000218695335206576,-0.0206718184053898,0.00529552809894085
170,-0.00386373163200915,0.00695558777078986,-0.0179571453481913,-0.000214068029890768,-0.0220060162246227,0.00288130156695843
171,-0.00643831631168723,0.00201250612735748,-0.0236742626875639,-0.000210865138797089,-0.0241342857480049,-0.00287355855107307
172,-0.0119025874882936,-0.00691053736954927,-0.0327598415315151,-0.000209243808058091,-0.0271802451461554,-0.0128569593653083
173,-0.0174006056040525,-0.0157954934984446,-0.0417360104620457,-0.000208518104045652,-0.0295887216925621,-0.0230812896043062
174,-0.0174001511186361,-0.0178960859775543,-0.043678805232048,-0.000207526914891787,-0.0288435071706772,-0.0260221138596535
175,-0.0125820366665721,-0.0138302920386195,-0.0390425473451614,-0.000205259144422598,-0.0262082647532225,-0.0219597388058901
176,-0.00868055038154125,-0.00987770408391953,-0.0347427017986774,-0.00020139929256402,-0.0254151932895184,-0.0175238363444805
177,-0.00827724579721689,-0.00913136079907417,-0.0345327779650688,-0.000196498658624478,-0.0276121292263269,-0.016134163364768
178,-0.00894922576844692,-0.00960254669189453,-0.0363141298294067,-0.000191679253475741,-0.0305690858513117,-0.0161767303943634
179,-0.00860643107444048,-0.00942650716751814,-0.0372607484459877,-0.000188029414857738,-0.0323316045105457,-0.0162161886692047
180,-0.0080416351556778,-0.00954555906355381,-0.0372398309409618,-0.000186017146916129,-0.0328951552510262,-0.0171330347657204
181,-0.00697894208133221,-0.00978359393775463,-0.0356189645826817,-0.000185237789992243,-0.0319207385182381,-0.0176465809345245
182,-0.00444536004215479,-0.00924027990549803,-0.0313642062246799,-0.000184632299351506,-0.0286222398281097,-0.0157624147832394
183,-0.00326688098721206,-0.0109035084024072,-0.027900418266654,-0.000183058422408067,-0.0248556584119797,-0.0150576662272215
184,-0.00518845906481147,-0.0152803547680378,-0.0277316849678755,-0.000179906433913857,-0.0230566971004009,-0.0175475925207138
185,-0.00699823210015893,-0.0172456577420235,-0.0281593911349773,-0.00017542731075082,-0.0225500985980034,-0.0191586297005415
186,-0.00729310978204012,-0.0157987885177135,-0.0286878515034914,-0.000170596351381391,-0.0218533929437399,-0.0192327350378037
187,-0.00757720833644271,-0.0137259680777788,-0.0305409673601389,-0.000166586687555537,-0.0206180661916733,-0.0194141287356615
188,-0.00866194162517786,-0.012187329120934,-0.0327302664518356,-0.000164136712555774,-0.0190001856535673,-0.018803708255291
189,-0.010206887498498,-0.0111066689714789,-0.0337848737835884,-0.000163153323228471,-0.0168658588081598,-0.0165264066308737
190,-0.0115687446668744,-0.00979842711240053,-0.0329672992229462,-0.000162764074048027,-0.0140840066596866,-0.0128085240721703
191,-0.0128496335819364,-0.00845495704561472,-0.0310237761586905,-0.000161789314006455,-0.01147735491395,-0.00948462635278702
192,-0.012795927003026,-0.00674997456371784,-0.0277359951287508,-0.000159378556418233,-0.00917014945298433,-0.00716887367889285
193,-0.00996429473161697,-0.00394926406443119,-0.0222710743546486,-0.000155467656441033,-0.00636348035186529,-0.00434843963012099
194,-0.00613742740824819,-0.00120590371079743,-0.0164130572229624,-0.000150810650666244,-0.00356548279523849,-0.000891132920514792
195,-0.00359191070310771,0.000599781924393028,-0.0122620342299342,-0.000146570702781901,-0.00203288928605616,0.00218006409704685
196,-0.00271969521418214,0.00134939735289663,-0.010517654940486,-0.00014369205746334,-0.00226599513553083,0.00329616223461926
197,-0.00366207072511315,0.000262334389844909,-0.0112634496763349,-0.000142392600537278,-0.00409079575911164,0.000728492683265358
198,-0.00612597307190299,-0.0017105913721025,-0.0130714261904359,-0.000142049699206837,-0.00693024322390556,-0.00402653217315674
199,-0.010096718557179,-0.00384160946123302,-0.0157302990555763,-0.000141539407195523,-0.0103897079825401,-0.00923729874193668
200,-0.0159172601997852,-0.00737340049818158,-0.0205765198916197,-0.000139844123623334,-0.0140402102842927,-0.0154881225898862
201,-0.020715544000268,-0.0100869983434677,-0.02478470467031,-0.000136599861434661,-0.0162211395800114,-0.0200857874006033
202,-0.0207986477762461,-0.0081150783225894,-0.0238226503133774,-0.000132288740132935,-0.0150851616635919,-0.018970375880599
203,-0.0174173079431057,-0.00310653331689537,-0.0190036986023188,-0.000127974737551995,-0.011691783554852,-0.0139731094241142
204,-0.0147345280274749,-0.000375339615857229,-0.015684911981225,-0.000124727666843683,-0.00928640924394131,-0.0108345337212086
205,-0.0126144858077168,0.000466708675958216,-0.0138378106057644,-0.000123047342640348,-0.00802335049957037,-0.00923912413418293
206,-0.0093297865241766,0.00288506038486958,-0.0105638932436705,-0.000122598168672994,-0.00686107203364372,-0.0057930494658649
207,-0.00795051921159029,0.00429798616096377,-0.00872042682021856,-0.000122395184007473,-0.00767271406948566,-0.00387690961360931
208,-0.0100016547366977,0.00264784973114729,-0.00984717532992363,-0.000121338358439971,-0.00975233968347311,-0.00569190550595522
209,-0.0118720950558782,0.00149346515536308,-0.00986957643181086,-0.000118805372039787,-0.00950874295085669,-0.00644140178337693
210,-0.0108366217464209,0.00334416911937296,-0.00656832894310355,-0.000114983013190795,-0.0064472439698875,-0.00269703986123204
211,-0.00804950855672359,0.006111865863204,-0.00185631692875177,-0.000110760767711326,-0.00264864694327116,0.00295673217624426
212,-0.00592600321397185,0.00662251561880112,0.00145344692282379,-0.000107247062260285,0.000219397450564429,0.00595520297065377
213,-0.00624633766710758,0.00306825642473996,0.000224613686441444,-0.000105171304312535,0.00069811602588743,0.00315032340586185
214,-0.0106080863624811,-0.00535375392064452,-0.00824891775846481,-0.000104494538391009,-0.00253369915299118,-0.00638730218634009
215,-0.0159783344715834,-0.0140213184058666,-0.0194928236305714,-0.000104436658148188,-0.00725754396989942,-0.0167765840888023
216,-0.0165741499513388,-0.0162086337804794,-0.0251540709286928,-0.000103902100818232,-0.00930334813892841,-0.0198697969317436
217,-0.0151319922879338,-0.0154446512460709,-0.0270807165652514,-0.000102071717265062,-0.0094608822837472,-0.0185282193124294
218,-0.0178636685013771,-0.0190431363880634,-0.0321013852953911,-9.88408210105263E-05,-0.0110702207311988,-0.0202376022934914
219,-0.0225353315472603,-0.0245251841843128,-0.0380962453782558,-9.48691522353329E-05,-0.013148620724678,-0.0229769255965948
220,-0.0228458996862173,-0.02430409938097,-0.0381301864981651,-9.12191389943473E-05,-0.0125689236447215,-0.0194061975926161
221,-0.018544927239418,-0.0177217312157154,-0.0317047573626041,-8.87810019776225E-05,-0.00991916935890913,-0.00954197999089956
222,-0.0145658105611801,-0.0109396269544959,-0.0244942307472229,-8.77957718330435E-05,-0.00841141771525145,-0.00115677062422037
223,-0.012211530469358,-0.00579354539513588,-0.0188399255275726,-8.77319762366824E-05,-0.00866186153143644,0.00286705396138132
224,-0.0102462684735656,-0.000743338605388999,-0.0144196040928364,-8.75789119163528E-05,-0.00997607782483101,0.00487018981948495
225,-0.00967908464372158,0.00245256535708904,-0.0130031006410718,-8.63946552271955E-05,-0.0128597589209676,0.00499229691922665
226,-0.0115469414740801,0.00193989300169051,-0.0151801481842995,-8.38115665828809E-05,-0.0170655399560928,0.00287700048647821
227,-0.0142681356519461,-0.000479334994452074,-0.0180506110191345,-8.02279100753367E-05,-0.0207154005765915,0.000484069314552471
228,-0.0152804860845208,-0.00174956396222115,-0.0184888560324907,-7.65856893849559E-05,-0.022048145532608,-2.92996865027817E-05
229,-0.0152188688516617,-0.00274381064809859,-0.0177946109324694,-7.38586386432871E-05,-0.0213271640241146,-0.000669187633320689
230,-0.0171289760619402,-0.00682164169847965,-0.0199215356260538,-7.25286372471601E-05,-0.0203938372433186,-0.00535802682861686
231,-0.0207667015492916,-0.0129383774474263,-0.0244058929383755,-7.23322882549837E-05,-0.020044406875968,-0.0124226389452815
232,-0.0241243336349726,-0.0180130489170551,-0.0287136845290661,-7.24107521818951E-05,-0.0203763097524643,-0.0180619172751904
233,-0.0296681299805641,-0.0243920981884003,-0.0359303839504719,-7.1777896664571E-05,-0.0234001446515322,-0.025121383368969
234,-0.0380471050739288,-0.0332738496363163,-0.0470249243080616,-6.98514704708941E-05,-0.0291167497634888,-0.0353381410241127
235,-0.0426566116511822,-0.0385204516351223,-0.0539988167583942,-6.67610074742697E-05,-0.0328098759055138,-0.0418543927371502
236,-0.0398206897079945,-0.036361888051033,-0.0514964088797569,-6.32697556284256E-05,-0.0317654460668564,-0.0395782627165318
237,-0.033416822552681,-0.0300578400492668,-0.0431630983948708,-6.03570297244005E-05,-0.028277363628149,-0.0309914294630289
238,-0.0270170010626316,-0.0227654334157705,-0.034206073731184,-5.86896676395554E-05,-0.0253303907811642,-0.0197214987128973
239,-0.0219941157847643,-0.0167629793286324,-0.0285564661026001,-5.82678076170851E-05,-0.0247328355908394,-0.00975191593170166
240,-0.0180703923106194,-0.0130195803940296,-0.026556096971035,-5.84331901336554E-05,-0.0256061721593142,-0.00351167772896588
241,-0.0120041761547327,-0.00776111846789718,-0.0226386096328497,-5.8230958529748E-05,-0.0242397785186768,0.00234432541765273
242,-0.00561085855588317,-0.0017720308387652,-0.0168162863701582,-5.69260664633475E-05,-0.0212368275970221,0.00700145494192839
243,-0.00502600800246,-0.00094597483985126,-0.0159109346568584,-5.43949499842711E-05,-0.0208944287151098,0.00564041500911117
244,-0.00787853077054024,-0.00251777307130396,-0.018186641857028,-5.1183673349442E-05,-0.0220638234168291,0.00328088994137943
245,-0.00890088733285666,-0.00137124571483582,-0.0177028980106115,-4.82058130728547E-05,-0.0216190461069345,0.00547283934429288
246,-0.00915202684700489,0.000567296869121492,-0.0152425672858953,-4.62470889033284E-05,-0.0204116012901068,0.00833397544920444
247,-0.00916551891714334,0.0022286125458777,-0.0120963621884584,-4.55454355687834E-05,-0.0190700944513083,0.00979131925851107
248,-0.00757232261821628,0.00468896003440022,-0.00776269054040313,-4.5670891267946E-05,-0.0168125871568918,0.011589365079999
249,-0.00526408245787025,0.00753800291568041,-0.00335548492148519,-4.57656860817224E-05,-0.0140474932268262,0.0140681490302086
250,-0.00338048301637173,0.0106493029743433,0.000285097863525152,-4.50105035270099E-05,-0.011382126249373,0.0175121240317822
251,-0.0035008336417377,0.0124204587191343,0.00176937459036708,-4.30634572694544E-05,-0.0102338558062911,0.0197722278535366
252,-0.00656888540834188,0.0111482748761773,-0.00012965606583748,-4.02364967158064E-05,-0.0118071883916855,0.017568327486515
253,-0.00845512934029102,0.0102018853649497,-0.00203049415722489,-3.7318401155062E-05,-0.012921460904181,0.013276013545692
254,-0.00859075132757425,0.00917669385671616,-0.00491199875250459,-3.51445451087784E-05,-0.0132263079285622,0.00709291407838464
255,-0.0113489674404264,0.00356139708310366,-0.0141492430120707,-3.41481063514948E-05,-0.0169222727417946,-0.00346786552108824
256,-0.0142134614288807,-0.0028579889331013,-0.0251295492053032,-3.41337981808465E-05,-0.022118866443634,-0.0128368707373738
257,-0.0136662116274238,-0.00545128667727113,-0.0307431630790234,-3.43922038155142E-05,-0.0245818234980106,-0.0165709890425205
258,-0.0107261566445231,-0.00510462652891874,-0.0302077382802963,-3.40880869771354E-05,-0.0237357839941978,-0.016735702753067
259,-0.0063387150876224,-0.00294737867079675,-0.0245158411562443,-3.27101624861825E-05,-0.020118335261941,-0.0152579667046666
260,-0.00274753593839705,-0.00121554965153337,-0.016706358641386,-3.03400411212351E-05,-0.0156298168003559,-0.0148591417819262
261,-0.00375174637883902,-0.00336013501510024,-0.0122046256437898,-2.75989732472226E-05,-0.0137745551764965,-0.0191649068146944
262,-0.00943518523126841,-0.00856772623956203,-0.0133549459278584,-2.53060479735723E-05,-0.0164925847202539,-0.0268381237983704
263,-0.0159367900341749,-0.0123122613877058,-0.0178799293935299,-2.40358785958961E-05,-0.0223273020237684,-0.0324622765183449
264,-0.019613454118371,-0.01170314848423,-0.0221396535634995,-2.38145767070819E-05,-0.0282364804297686,-0.0324175916612148
265,-0.018024992197752,-0.00562256155535579,-0.0223011150956154,-2.41147954511689E-05,-0.031500581651926,-0.025216257199645
266,-0.0128418393433094,0.00315384636633098,-0.0183958727866411,-2.41475390794221E-05,-0.0316877849400043,-0.0138180507346988
267,-0.00779033871367574,0.010415761731565,-0.0126489065587521,-2.3289325326914E-05,-0.0297821797430515,-0.00264309719204903
268,-0.0046845693141222,0.0146441906690598,-0.00656630145385861,-2.14133779081749E-05,-0.0269679389894009,0.0060394573956728
269,-0.00465859333053231,0.0146839041262865,-0.00345132406800985,-1.89489637705265E-05,-0.0252710096538067,0.00957643333822489
270,-0.00654558092355728,0.0120532475411892,-0.00403085025027394,-1.6641708498355E-05,-0.0253958608955145,0.00929980911314487
271,-0.00907711405307055,0.00910542905330658,-0.00683320499956608,-1.51485819515074E-05,-0.0271392893046141,0.00861420854926109
272,-0.0113069042563438,0.00666427612304688,-0.00970470998436213,-1.46874926940654E-05,-0.0288483668118715,0.00890579354017973
273,-0.0119873052462935,0.00441367644816637,-0.010284979827702,-1.49283323480631E-05,-0.0279560387134552,0.00957572553306818
274,-0.0134520847350359,-0.000540995737537742,-0.010991514660418,-1.51795502461027E-05,-0.0260534975677729,0.00733675574883819
275,-0.0178095102310181,-0.00942863058298826,-0.0146795427426696,-1.47649816426565E-05,-0.0262281317263842,0.00106312602292746
276,-0.0235184039920568,-0.0197303723543882,-0.0200417824089527,-1.33855874082656E-05,-0.0286806002259254,-0.00658768229186535
277,-0.0267574153840542,-0.0263501983135939,-0.0224201176315546,-1.12725647340994E-05,-0.0308134779334068,-0.0103677064180374
278,-0.0246465057134628,-0.0255229230970144,-0.0179082490503788,-9.0536623247317E-06,-0.0298327002674341,-0.00654678465798497
279,-0.0200944934040308,-0.0210155453532934,-0.0102726444602013,-7.40963378120796E-06,-0.0267854258418083,0.000281978369457647
280,-0.0181570984423161,-0.0196876842528582,-0.00649640103802085,-6.70876261210651E-06,-0.0242358595132828,0.00240136496722698
281,-0.0183415729552507,-0.0216866862028837,-0.00646405899897218,-6.81561505189165E-06,-0.021670849993825,-4.37881681136787E-05
282,-0.016716580837965,-0.0220265090465546,-0.00512843392789364,-7.17312786946422E-06,-0.0176068730652332,-0.00071642262628302
283,-0.0120791029185057,-0.0183591656386852,-0.000323360873153433,-7.10881977283861E-06,-0.012681694701314,0.00378176779486239
284,-0.00707408646121621,-0.0140208620578051,0.00470763584598899,-6.19684715275071E-06,-0.00871404446661472,0.00928890891373158
285,-0.00529692275449634,-0.014003312215209,0.00518347648903728,-4.48095715910313E-06,-0.00693301670253277,0.00902165658771992
286,-0.00706320209428668,-0.018104700371623,0.00166530290152878,-2.44172883867577E-06,-0.00670449901372194,0.00363299786113203
287,-0.00971298106014729,-0.0225403234362602,-0.00118612812366337,-7.30692192973947E-07,-0.00615718681365252,-0.0010133309988305
288,-0.0111848572269082,-0.0252796243876219,-0.000992630375549197,1.81702915824644E-07,-0.00433814479038119,-0.00248458911664784
289,-0.0103080915287137,-0.0254388749599457,0.00194715824909508,2.54122369369725E-07,-0.0014827277045697,-0.0010097217746079
290,-0.00751397898420691,-0.0231282152235508,0.00531677762046456,-1.12241380634259E-07,0.000786139455158263,0.00236980337649584
291,-0.00651412317529321,-0.0217216592282057,0.00431060837581754,-2.97267177984395E-07,-0.000575543963350356,0.0041074063628912
292,-0.00951556116342545,-0.0237178727984428,-0.00245507922954857,2.02008109795315E-07,-0.00602052360773087,0.00244533875957131
293,-0.012518422678113,-0.0250871237367392,-0.0083287013694644,1.50496146034129E-06,-0.0112801473587751,0.00268481555394828
294,-0.0118217766284943,-0.0218816325068474,-0.0073714847676456,3.29169051838107E-06,-0.0134257646277547,0.00911181606352329
295,-0.00820788182318211,-0.0153261693194509,-0.00051269237883389,4.98340978083434E-06,-0.0135557856410742,0.0190748479217291
296,-0.00326559273526073,-0.00792326871305704,0.00902431458234787,6.05743434789474E-06,-0.012661287561059,0.0283361803740263
297,-5.04735653521493E-05,-0.00361251388676465,0.0165009722113609,6.32541514278273E-06,-0.0117998020723462,0.0324397310614586
298,-0.00125641538761556,-0.00451181270182133,0.0182793326675892,6.02681984673836E-06,-0.0124578652903438,0.0305850636214018
299,-0.00620394013822079,-0.00853393878787756,0.0152975358068943,5.69168196307146E-06,-0.0142226191237569,0.026606110855937
300,-0.0126339737325907,-0.0135523499920964,0.0102885821834207,5.85104817218962E-06,-0.0155511423945427,0.0226044300943613
301,-0.0178520046174526,-0.0176315288990736,0.00542878545820713,6.75327919452684E-06,-0.0161636471748352,0.0193559844046831
302,-0.0214025434106588,-0.0206582229584455,-0.000199727641302161,8.23773643787717E-06,-0.0174667350947857,0.0156485699117184
303,-0.0256755072623491,-0.0254708752036095,-0.00929445121437311,9.82985056907637E-06,-0.0205599255859852,0.00775014655664563
304,-0.029989393427968,-0.0310222413390875,-0.0188545845448971,1.10017790575512E-05,-0.0237825401127338,-0.00263783917762339
305,-0.0315863154828548,-0.0334904417395592,-0.0237792581319809,1.14556005428312E-05,-0.0252057947218418,-0.0105136008933187
306,-0.0306524448096752,-0.033390000462532,-0.0246753059327602,1.12771913336474E-05,-0.0247555710375309,-0.0158045738935471
307,-0.0276119336485863,-0.032575398683548,-0.0232336968183517,1.08815547719132E-05,-0.0218814611434937,-0.0195875708013773
308,-0.0250467695295811,-0.0338007025420666,-0.0222116149961948,1.07836312963627E-05,-0.018368523567915,-0.023960217833519
309,-0.0260918159037828,-0.0384889617562294,-0.0242213103920221,1.13211099233013E-05,-0.0173825789242983,-0.0298041068017483
310,-0.0269869677722454,-0.0410840436816216,-0.0250144060701132,1.2478415555961E-05,-0.0176280830055475,-0.0308047216385603
311,-0.0231909062713385,-0.0369518660008907,-0.0204288922250271,1.39035018946743E-05,-0.0167004708200693,-0.0231667924672365
312,-0.0166386887431145,-0.0290587339550257,-0.0132410181686282,1.51038611875265E-05,-0.0153115009889007,-0.0120697533711791
313,-0.0111595299094915,-0.0217223949730396,-0.00680862413719296,1.5712799722678E-05,-0.0149260209873319,-0.00267383083701134
314,-0.00758237717673182,-0.0157462302595377,-0.000905534718185663,1.5682098819525E-05,-0.0156047996133566,0.00447419006377459
315,-0.00629588449373841,-0.0117698209360242,0.00323918485082686,1.52999928104691E-05,-0.017456891015172,0.00859040021896362
316,-0.00868968944996595,-0.0111277000978589,0.00240334332920611,1.50291753016063E-05,-0.0215257257223129,0.00882912892848253
317,-0.0136337773874402,-0.0122147295624018,-0.00297902780584991,1.52557277033338E-05,-0.0275632571429014,0.00777070363983512
318,-0.0196647606790066,-0.0142741417512298,-0.0111934328451753,1.6085192328319E-05,-0.0340727716684341,0.00555481528863311
319,-0.0256816539913416,-0.0175257455557585,-0.0200183819979429,1.72934214788256E-05,-0.0393075533211231,0.000807358184829354
320,-0.0272855404764414,-0.0173835922032595,-0.0232935324311256,1.84545242518652E-05,-0.0409194976091385,-0.00115456606727093
321,-0.0223449114710093,-0.0111663583666086,-0.0183219388127327,1.91731433005771E-05,-0.0387023687362671,0.00384387420490384
322,-0.0141389416530728,-0.00260291388258338,-0.00893777795135975,1.92944771697512E-05,-0.0349323414266109,0.0126869287341833
323,-0.006801662966609,0.00316708814352751,0.000506387325003743,1.89806123671588E-05,-0.031020088121295,0.0202879644930363
324,-0.00255821039900184,0.00340562500059605,0.00706260651350021,1.86159268196207E-05,-0.0273534264415503,0.0232990738004446
325,-0.000705171900335699,0.000231577767408453,0.00989994592964649,1.85964818228967E-05,-0.0244871601462364,0.0223917104303837
326,-7.85630327300169E-05,-0.00284148822538555,0.00946590397506952,1.91187500604428E-05,-0.0233325660228729,0.0196843128651381
327,-0.003214260796085,-0.00741044525057077,0.0034406827762723,2.00803424377227E-05,-0.0258106049150229,0.0128541328012943
328,-0.0118174264207482,-0.0158191006630659,-0.00904423091560602,2.11426322493935E-05,-0.0319582596421242,3.45299304171931E-05
329,-0.0201557613909245,-0.0227258428931236,-0.0202288087457418,2.19175562961027E-05,-0.037110660225153,-0.0113178985193372
330,-0.0218904782086611,-0.0212559644132853,-0.0217789057642221,2.21756654354976E-05,-0.0372315645217896,-0.0119673879817128
331,-0.0193088967353106,-0.0143950618803501,-0.0166457556188107,2.19639914575964E-05,-0.0341167002916336,-0.00430031633004546
332,-0.018336895853281,-0.0104640098288655,-0.0135649172589183,2.15734253288247E-05,-0.0316401310265064,0.00200603739358485
333,-0.0202245395630598,-0.0120195206254721,-0.0153370425105095,2.13771400012774E-05,-0.0310898572206497,0.00262742931954563
334,-0.0224592462182045,-0.0156352110207081,-0.0185912381857634,2.16297448787373E-05,-0.0317342393100262,6.87181891407818E-05
335,-0.0218558236956596,-0.0164935998618603,-0.0187693312764168,2.23352108150721E-05,-0.0318657495081425,-0.000749534112401307
336,-0.0170881301164627,-0.0122689763084054,-0.0143413078039885,2.32519487326499E-05,-0.0304735116660595,0.00335692358203232
337,-0.0110953152179718,-0.00574037153273821,-0.00853851716965437,2.40284334722674E-05,-0.0288826283067465,0.0101535506546497
338,-0.0075271362438798,-0.00108154735062271,-0.00465346407145262,2.43933900492266E-05,-0.0281304139643908,0.0152180073782802
339,-0.00623653596267104,0.000873386976309121,-0.00211042049340904,2.42977821471868E-05,-0.0267983041703701,0.0175728909671307
340,-0.00585568882524967,0.00101845385506749,0.000310227100271732,2.39344190049451E-05,-0.0240748208016157,0.0182493571192026
341,-0.00705544929951429,-0.000896927376743406,0.00133656442631036,2.36283703998197E-05,-0.0215785596519709,0.0166952237486839
342,-0.00956908706575632,-0.00412216037511826,0.000560032087378204,2.36603082157671E-05,-0.0201383288949728,0.0136800473555923
343,-0.0122213158756495,-0.00784216355532408,-0.0013300689170137,2.41187335632276E-05,-0.0194259397685528,0.0105349523946643
344,-0.0151421390473843,-0.0127156656235456,-0.00463146716356277,2.48588148679119E-05,-0.0192065089941025,0.00582399498671293
345,-0.0161896049976349,-0.0154271451756358,-0.00637063477188349,2.55864852078957E-05,-0.0180504769086838,0.00186194886919111
346,-0.0144734745845199,-0.0134479412809014,-0.00439797202125192,2.60192628047662E-05,-0.0158434920012951,0.0015262447996065
347,-0.0125782424584031,-0.00928684324026108,-0.0014848462305963,2.60359611274907E-05,-0.0139780901372433,0.00290530081838369
348,-0.0126293627545238,-0.0058758370578289,-0.0010509081184864,2.57360552495811E-05,-0.0136257447302341,0.00326053216122091
349,-0.0153021868318319,-0.00495015922933817,-0.00415506865829229,2.53800135396887E-05,-0.015731442719698,0.00109179003629833
350,-0.0184100363403559,-0.00557948648929596,-0.00777522614225745,2.52460195042659E-05,-0.0187269579619169,-0.00222806679084897
351,-0.0194222312420607,-0.00570693612098694,-0.00847342517226934,2.5481844204478E-05,-0.0200860295444727,-0.00404036557301879
352,-0.0184575114399195,-0.0048940940760076,-0.00635158270597458,2.60306987911463E-05,-0.0195771306753159,-0.00357551896013319
353,-0.0172420851886272,-0.00447954516857862,-0.00415367959067225,2.6668019927456E-05,-0.0187048763036728,-0.00299964821897447
354,-0.0192682333290577,-0.0085338531062007,-0.00669966684654355,2.71260905719828E-05,-0.0196998231112957,-0.00797094777226448
355,-0.0250412318855524,-0.0179919265210629,-0.0143387615680695,2.7237436370342E-05,-0.0219942070543766,-0.0200085062533617
356,-0.0287616010755301,-0.0258739907294512,-0.0189691632986069,2.70203381660394E-05,-0.0214417167007923,-0.0310253314673901
357,-0.0276049170643091,-0.0273276437073946,-0.0159905664622784,2.666297586984E-05,-0.0172532983124256,-0.0349039509892464
358,-0.0235823523253202,-0.0226223915815353,-0.00825926475226879,2.64180671365466E-05,-0.0128543768078089,-0.0312421787530184
359,-0.0184283666312695,-0.0133617585524917,-0.000120920733024832,2.64668578893179E-05,-0.0113465897738934,-0.0214996878057718
360,-0.0124359549954534,-0.00238490989431739,0.00615766365081072,2.68256371782627E-05,-0.0124163944274187,-0.00889884028583765
361,-0.00507666449993849,0.00810945872217417,0.0116460155695677,2.73428631771822E-05,-0.0131557006388903,0.00426629325374961
362,0.000451161235105246,0.0147085255011916,0.0151104405522347,2.77852559520397E-05,-0.0137157049030066,0.0142730763182044
363,0.000352376431692392,0.0149483121931553,0.0139859905466437,2.79641681117937E-05,-0.0156229957938194,0.0179409477859735
364,-0.00356412073597312,0.0117452191188931,0.0103320507332683,2.78338357020402E-05,-0.0176043789833784,0.0179253052920103
365,-0.00916536990553141,0.00726102292537689,0.00565553875640035,2.75105412583798E-05,-0.0193856693804264,0.0159008745104074
366,-0.0149923618882895,0.00205861846916378,0.000196900815353729,2.72053348453483E-05,-0.021110437810421,0.0115211736410856
367,-0.017583142966032,-0.000887124508153647,-0.00267791375517845,2.71090975729749E-05,-0.0203271601349115,0.00773959793150425
368,-0.0182202607393265,-0.00290482118725777,-0.00350631261244416,2.72924517048523E-05,-0.0174581166356802,0.00386003986932337
369,-0.0214586332440376,-0.00878605339676142,-0.00687610683962703,2.76729588222224E-05,-0.01617182046175,-0.00446585891768336
370,-0.0262809190899134,-0.0164421387016773,-0.0121692167595029,2.80643998848973E-05,-0.0173443723469973,-0.0136787947267294
371,-0.0284042116254568,-0.0199474580585957,-0.0156072741374373,2.82790333585581E-05,-0.0200106333941221,-0.0160339325666428
372,-0.0254507269710302,-0.0172909181565046,-0.0149060739204288,2.82267810689518E-05,-0.0230198912322521,-0.0100460574030876
373,-0.0185062680393457,-0.0108990464359522,-0.0100038796663284,2.79590440186439E-05,-0.0246307849884033,-0.000562991364859045
374,-0.0105830356478691,-0.00419160583987832,-0.00276847300119698,2.76361806754721E-05,-0.024088341742754,0.00748995784670115
375,-0.00219115009531379,0.00302093429490924,0.00640019169077277,2.74387512035901E-05,-0.0214394871145487,0.0146742425858974
376,0.00595805514603853,0.0107473414391279,0.0157905761152506,2.74716185231227E-05,-0.0180162470787764,0.0214193239808083
377,0.00964508205652237,0.0141800958663225,0.0195302795618773,2.77117615041789E-05,-0.0166798066347837,0.0226375181227922
378,0.0055471071973443,0.00865701027214527,0.0134102487936616,2.80255717370892E-05,-0.0192883312702179,0.0136805772781372
379,-0.00305799045599997,-0.00260295858606696,0.00187134754378349,2.824371222232E-05,-0.0236456915736198,-0.000992169021628797
380,-0.00763412052765489,-0.00962955318391323,-0.00368615239858627,2.8251708499738E-05,-0.0240451358258724,-0.00949870701879263
381,-0.00560499634593725,-0.00901988334953785,0.000630986352916807,2.80479362118058E-05,-0.0194003563374281,-0.00836269836872816
382,-0.00341320922598243,-0.00776066211983562,0.00628545414656401,2.77397975878557E-05,-0.0155278602614999,-0.00655303429812193
383,-0.00473762210458517,-0.00981686823070049,0.00715375645086169,2.74827361863572E-05,-0.0157924927771091,-0.00947960838675499
384,-0.00546228885650635,-0.00988095719367266,0.00748104881495237,2.73965888482053E-05,-0.0178507994860411,-0.0113071110099554
385,-0.00403294945135713,-0.00560953840613365,0.00999649148434401,2.75042602879694E-05,-0.0205899998545647,-0.00848614331334829
386,-0.0047330753877759,-0.00319894589483738,0.0102387396618724,2.77239541901508E-05,-0.0246088355779648,-0.00708724930882454
387,-0.00736324302852154,-0.00457836501300335,0.00739701371639967,2.79167161352234E-05,-0.027223015204072,-0.00915175676345825
388,-0.00847035925835371,-0.00575888389721513,0.00476586678996682,2.79618288914207E-05,-0.0265016239136457,-0.0102468011900783
389,-0.00823767576366663,-0.00557587249204516,0.00308390986174345,2.78192746918648E-05,-0.024253848940134,-0.00911359861493111
390,-0.0087306322529912,-0.00608158344402909,0.00114892364945263,2.75470501946984E-05,-0.0224080476909876,-0.00828689150512218
391,-0.012030134908855,-0.0100688971579075,-0.00293191149830818,2.72663673968054E-05,-0.0218911748379469,-0.0112518332898617
392,-0.0158675536513329,-0.0151327224448323,-0.00679478514939547,2.70953805738827E-05,-0.0210555642843246,-0.0156706497073174
393,-0.0155937969684601,-0.0159493833780289,-0.00566985132172704,2.70876316790236E-05,-0.0175032336264849,-0.0153069831430912
394,-0.012610113248229,-0.0138157559558749,-0.00160715181846172,2.72072029474657E-05,-0.0127821695059538,-0.0108918510377407
395,-0.0103908469900489,-0.0121204415336251,0.00128159113228321,2.73517871391959E-05,-0.00907031167298555,-0.00640148343518376
396,-0.00861581042408943,-0.010095345787704,0.00412982096895576,2.74092981271679E-05,-0.00569861335679889,-0.0019665218424052
397,-0.00675014173611999,-0.00746100069954991,0.00809695664793253,2.73167752311565E-05,-0.00216254149563611,0.00204363372176886
398,-0.00527596101164818,-0.00588372908532619,0.0114315077662468,2.70907530648401E-05,0.000928294088225812,0.00335232145152986
399,-0.00545870326459408,-0.00756164966151118,0.0111998850479722,2.68146868620534E-05,0.00238759093917906,-0.000801545276772231
400,-0.00783618539571762,-0.0129198655486107,0.00691941427066922,2.65922044491163E-05,0.00187506270594895,-0.0103722047060728
401,-0.00918614957481623,-0.0177120789885521,0.00358852231875062,2.64923000941053E-05,0.00159207370597869,-0.0191813241690397
402,-0.00723928539082408,-0.0190822910517454,0.00487370416522026,2.65153921645833E-05,0.0036671101115644,-0.0231087394058704
403,-0.00510018598288298,-0.0200625453144312,0.00727637624368072,2.65967719315086E-05,0.00710448250174522,-0.0256669986993074
404,-0.00727630266919732,-0.0242868661880493,0.00497557269409299,2.66436272795545E-05,0.00819127541035414,-0.0306247640401125
405,-0.0126952519640327,-0.0298925824463367,-0.00133803754579276,2.65845974354306E-05,0.00551024544984102,-0.0353907495737076
406,-0.0168280247598886,-0.0326378606259823,-0.00666194315999746,2.64054688159376E-05,0.00128703145310283,-0.0363302119076252
407,-0.0184885244816542,-0.0318631120026112,-0.00989634916186333,2.61533550656168E-05,-0.00273178447969258,-0.0347188338637352
408,-0.0187856759876013,-0.0290590953081846,-0.0123235657811165,2.5908981115208E-05,-0.00605753064155579,-0.0328480713069439
409,-0.017105033621192,-0.024135384708643,-0.0125614376738667,2.57432602666086E-05,-0.00740216858685017,-0.0294862296432257
410,-0.0133253177627921,-0.0175575315952301,-0.00956449657678604,2.56814564636443E-05,-0.0060220118612051,-0.0237730015069246
411,-0.0127946184948087,-0.0147545393556356,-0.00900675915181637,2.56929542956641E-05,-0.00568119110539556,-0.0208031944930553
412,-0.0176168568432331,-0.0175059642642736,-0.0137300221249461,2.57103074545739E-05,-0.00872999709099531,-0.0224499218165874
413,-0.020889014005661,-0.0189458802342415,-0.0166275668889284,2.56659932347247E-05,-0.0105196675285697,-0.0224565379321575
414,-0.0191020406782627,-0.0155967390164733,-0.0137201920151711,2.55269096669508E-05,-0.00785758998245001,-0.0181820187717676
415,-0.015681816264987,-0.00991075299680233,-0.00797501485794783,2.53091257036431E-05,-0.00316195585764945,-0.0117079103365541
416,-0.0130830528214574,-0.00316117121838033,-0.00115044764243066,2.50666234933306E-05,0.00127103959675878,-0.0033558786381036
417,-0.0106484368443489,0.00426139635965228,0.00749590201303363,2.48615033342503E-05,0.00568133033812046,0.00607327092438936
418,-0.0078065562993288,0.0102552715688944,0.0167941488325596,2.47320367634529E-05,0.00979396421462297,0.0131068984046578
419,-0.00494239060208201,0.0132983475923538,0.02354821190238,2.4674931410118E-05,0.0123540228232741,0.0155322579666972
420,-0.00180055433884263,0.0145658822730184,0.0267700608819723,2.46498002525186E-05,0.0136006604880095,0.0147751541808248
421,0.00186879222746938,0.0156140653416514,0.0278975591063499,2.46020026679616E-05,0.014909147284925,0.0128441397100687
422,0.00374261918477714,0.0144531270489097,0.0261236261576414,2.44910424953559E-05,0.0160121917724609,0.0078875282779336
423,0.000261362409219146,0.00723762344568968,0.0182974264025688,2.43098420469323E-05,0.014818724244833,-0.00396179081872106
424,-0.00785658974200487,-0.004882185254246,0.005736427847296,2.40859426412499E-05,0.0113941095769405,-0.0209236312657595
425,-0.0156055428087711,-0.015762971714139,-0.00526949902996421,2.38653774431441E-05,0.00870420411229134,-0.0355398096144199
426,-0.0187469385564327,-0.0206798575818539,-0.0101636731997132,2.36885862250347E-05,0.00872308388352394,-0.0422984734177589
427,-0.0154056195169687,-0.0177313052117825,-0.00734770623967052,2.35709103435511E-05,0.011793764308095,-0.0396117828786373
428,-0.00819582212716341,-0.00923771318048239,0.000703224155586213,2.34969284065301E-05,0.0165394805371761,-0.0308483503758907
429,-0.00340869463980198,-0.00186815846245736,0.00680929236114025,2.34303006436676E-05,0.0195143166929483,-0.023448133841157
430,-0.00381199107505381,0.000477312103612348,0.00658452836796641,2.3333048375207E-05,0.0190570931881666,-0.0211905706673861
431,-0.00763427605852485,-0.00127566058654338,0.0018464089371264,2.31841022468871E-05,0.0166344530880451,-0.0231083426624537
432,-0.0114847924560308,-0.00355572183616459,-0.00211348850280046,2.29882134590298E-05,0.0147517137229443,-0.0257511176168919
433,-0.0143373114988208,-0.00463609024882317,-0.00312037556432188,2.27717664529337E-05,0.0141292437911034,-0.0268467497080565
434,-0.0174165703356266,-0.00614681141451001,-0.00395761011168361,2.25685907935258E-05,0.0141362370923162,-0.0274128168821335
435,-0.020903691649437,-0.00906771514564753,-0.00740818260237575,2.24033719860017E-05,0.0139507474377751,-0.0286866426467896
436,-0.0225756280124187,-0.00988801568746567,-0.0114356363192201,2.22806884266902E-05,0.0129549475386739,-0.0277674626559019
437,-0.0189989563077688,-0.00356339104473591,-0.0103071182966232,2.21843183680903E-05,0.0123872887343168,-0.0197556689381599
438,-0.0140976160764694,0.00491093844175339,-0.00669986428692937,2.2086278477218E-05,0.0110240606591105,-0.0098805408924818
439,-0.0123046645894647,0.0094494316726923,-0.00539366947486997,2.19606299651787E-05,0.00764741748571396,-0.00432682503014803
440,-0.00981378834694624,0.0133029259741306,-0.00249421037733555,2.17953420360573E-05,0.00564594799652696,0.000907029607333243
441,-0.00469433469697833,0.0185977164655924,0.00426677381619811,2.15970048884628E-05,0.00645663542672992,0.00875409226864576
442,0.001038464368321,0.0240501519292593,0.0123916920274496,2.13867733691586E-05,0.00826570950448513,0.0178474597632885
443,0.00431093946099281,0.0262431632727385,0.0174094438552856,2.11899841815466E-05,0.00911812856793404,0.0232308506965637
444,0.00355001352727413,0.0230438839644194,0.0169969853013754,2.10244525078451E-05,0.00862228218466043,0.0210178587585688
445,-0.000273477344308048,0.0157433953136206,0.0126398447901011,2.08926885534311E-05,0.00774189783260226,0.012390018440783
446,-0.00550720142200589,0.00637692585587502,0.00629177317023277,2.07812936423579E-05,0.00721012474969029,0.000356335542164743
447,-0.00826125778257847,-0.000176006142282858,0.00205166265368462,2.06674903893145E-05,0.00866601336747408,-0.00895074661821127
448,-0.00695916498079896,-0.0016340846195817,0.00167898030485958,2.05297128559323E-05,0.0126379923895001,-0.0125493695959449
449,-0.00272052874788642,0.000867275521159172,0.00403235992416739,2.03574818442576E-05,0.0179438609629869,-0.0115046408027411
450,0.00271545327268541,0.00575998099520803,0.00783528760075569,2.01561942958506E-05,0.0231603551656008,-0.00727445166558027
451,0.00579917384311557,0.00893875490874052,0.0100378608331084,1.99446621991228E-05,0.0268068760633469,-0.0041661742143333
452,0.0056161624379456,0.00876424089074135,0.010283519513905,1.97464833036065E-05,0.0290103778243065,-0.00394341396167874
453,0.00393917877227068,0.00740800378844142,0.0110078509896994,1.95790289581055E-05,0.0304257422685623,-0.00444786157459021
454,0.000991078093647957,0.00607252959161997,0.0120494980365038,1.94450985873118E-05,0.0298757180571556,-0.00466543808579445
455,-0.00571191916242242,0.00248311064206064,0.00872081890702248,1.9331235307618E-05,0.0247753467410803,-0.00728278327733278
456,-0.0138996709138155,-0.00268464256078005,0.00102505332324654,1.9213746782043E-05,0.0167942401021719,-0.0120013626292348
457,-0.0162638816982508,-0.00362975103780627,-0.00341786351054907,1.90698974620318E-05,0.0110216168686748,-0.0127443931996822
458,-0.0129037499427795,0.000168196289450862,-0.00271286070346832,1.8889097191277E-05,0.00772074097767472,-0.00863125175237656
459,-0.0100709442049265,0.00321305217221379,-0.00175721838604659,1.86786164704245E-05,0.00469592539593577,-0.0049608894623816
460,-0.0102431485429406,0.00256807939149439,-0.00251867668703198,1.84607033588691E-05,0.00281869969330728,-0.00421053403988481
461,-0.00971570517867804,0.00184547074604779,-0.00104410899803042,1.82620751729701E-05,0.00461283372715116,-0.00248954258859158
462,-0.0048035210929811,0.00536934845149517,0.00592492194846272,1.81006616912782E-05,0.0104700056836009,0.00375891523435712
463,0.0015958872390911,0.0105985822156072,0.0141351092606783,1.79761445906479E-05,0.0172025077044964,0.0105546433478594
464,0.00425184518098831,0.0125074330717325,0.0173081941902637,1.78693480847869E-05,0.0213430244475603,0.0121878087520599
465,0.00303731556050479,0.0113836200907826,0.0155174182727933,1.77512538357405E-05,0.0225046817213297,0.00956439878791571
466,0.00134651362895966,0.0105030508711934,0.0125345392152667,1.75975346792256E-05,0.0220048353075981,0.00714346161112189
467,0.00258933240547776,0.0127576533704996,0.0117884632200003,1.74013293872122E-05,0.0217098593711853,0.00848675239831209
468,0.00791469030082226,0.0192858763039112,0.0153373060747981,1.71775591297774E-05,0.0237440839409828,0.0146177466958761
469,0.0140798501670361,0.0268746335059404,0.0213720463216305,1.6956071704044E-05,0.0279011558741331,0.0222403351217508
470,0.0167083889245987,0.0305425673723221,0.0255335364490747,1.67666785273468E-05,0.0314085967838764,0.0266992282122374
471,0.0141274183988571,0.0275392848998308,0.0241546407341957,1.66235549841076E-05,0.0319840498268604,0.0246853958815336
472,0.00937943160533905,0.0205165855586529,0.0184551980346441,1.65172077686293E-05,0.0307453330606222,0.0175854414701462
473,0.00729417847469449,0.0155053613707423,0.0135630015283823,1.64185894391267E-05,0.0305260550230742,0.0113400537520647
474,0.00754947122186422,0.013558060862124,0.0103545216843486,1.62936976266792E-05,0.0309740602970123,0.00780882360413671
475,0.0069830184802413,0.0113074481487274,0.00632702466100454,1.61213774845237E-05,0.030382938683033,0.00426513934507966
476,0.00481563759967685,0.0068500516936183,0.000806250551249832,1.59049741341732E-05,0.0287772752344608,-0.000933652685489506
477,0.00299833994358778,0.0023262205068022,-0.00382599560543895,1.56714049808215E-05,0.0268421992659569,-0.00532724428921938
478,0.00467690220102668,0.00203240499831736,-0.00356037355959415,1.54576464410638E-05,0.0262323990464211,-0.0044127618893981
479,0.0101444460451603,0.00662331515923142,0.00185967714060098,1.52914271893678E-05,0.0277104433625937,0.00154219917021692
480,0.0163293089717627,0.013133299537003,0.00830467138439417,1.5176188753685E-05,0.0293032508343458,0.00834180600941181
481,0.0187660716474056,0.0169178172945976,0.0105266291648149,1.50885416587698E-05,0.0281795710325241,0.0111383898183703
482,0.0164822619408369,0.0165159087628126,0.00819796323776245,1.49899797179387E-05,0.0246037133038044,0.00919027533382177
483,0.0138206575065851,0.0162635631859303,0.00671026017516851,1.48470098793041E-05,0.0215841326862574,0.00777561776340008
484,0.0120633579790592,0.0167093183845282,0.00643879175186157,1.46491947816685E-05,0.0194271225482225,0.00764919724315405
485,0.00996318273246288,0.0156724192202091,0.00470707565546036,1.4415338227991E-05,0.0169990230351686,0.00644768727943301
486,0.00901597924530506,0.0151004623621702,0.0032835325691849,1.41841774166096E-05,0.0149070359766483,0.00623862352222204
487,0.00875894445925951,0.0150411138311028,0.00236351741477847,1.39941366796847E-05,0.0128252720460296,0.00678978208452463
488,0.00735233630985022,0.0136975115165114,0.000260596018051729,1.38627592605189E-05,0.0102159371599555,0.00584717513993382
489,0.00598409259691834,0.0125614339485765,-0.00189274048898369,1.37768383865478E-05,0.00859705172479153,0.0048264916986227
490,0.00695373816415668,0.01410748437047,-0.00194850587286055,1.36988401209237E-05,0.0092780627310276,0.00634882831946015
491,0.0106911025941372,0.0183829423040152,0.000516102998517454,1.35865293486859E-05,0.0118953390046954,0.0104559054598212
492,0.0142712509259582,0.0221087280660868,0.00280544674023986,1.34155434352579E-05,0.0146277975291014,0.013449122197926
493,0.0140239829197526,0.0218048710376024,0.00163438054732978,1.31928245536983E-05,0.0156216602772474,0.0118682216852903
494,0.0109373135492206,0.0188461784273386,-0.00181629916187376,1.29534882944427E-05,0.0157230999320745,0.00808727741241455
495,0.00907264091074467,0.0172633361071348,-0.00363289308734238,1.27424809761578E-05,0.0170174371451139,0.00690140249207616
496,0.00895136408507824,0.0168626680970192,-0.00346151506528258,1.25906117318664E-05,0.0195726249366999,0.00763127906247973
497,0.00759575562551618,0.0140116382390261,-0.00458287075161934,1.24977696032147E-05,0.0216050501912832,0.00568555854260921
498,0.00436901208013296,0.00846101902425289,-0.00800621602684259,1.24324969874579E-05,0.0217879731208086,0.000418042094679549
499,0.00350162945687771,0.00560933211818337,-0.00899296253919601,1.23484269352048E-05,0.0220940113067627,-0.00235053733922541
500,0.00662121176719666,0.00772187998518348,-0.00496201356872916,1.22089977594442E-05,0.0242322664707899,0.000128272789879702
501,0.00994709227234125,0.0106372004374862,0.000387278705602512,1.20072645586333E-05,0.0266005266457796,0.00348175619728863
502,0.0101757124066353,0.0104472115635872,0.0031664774287492,1.17700392365805E-05,0.0274792797863483,0.00320676108822227
503,0.00775673054158688,0.00767975812777877,0.00332677597180009,1.15439115688787E-05,0.027312658727169,5.60183616471477E-06
504,0.0055453097447753,0.00586603535339236,0.00318037206307054,1.13704363684519E-05,0.0272566005587578,-0.00162656046450138
505,0.00507797673344612,0.00708074914291501,0.00379935908131301,1.12637198981247E-05,0.0268671065568924,0.000419041549321264
506,0.00642473250627518,0.0111995525658131,0.00507780723273754,1.12025245471159E-05,0.0253565609455109,0.00523719843477011
507,0.00784198939800262,0.0150876771658659,0.00495150033384562,1.11413255581283E-05,0.0221967324614525,0.00931280106306076
508,0.00837353896349669,0.0168538335710764,0.00290634017437696,1.10345699795289E-05,0.0181264225393534,0.0110634015873075
509,0.00798551831394434,0.0172090642154217,0.000171808365848847,1.08611993709928E-05,0.013667588122189,0.0117109948769212
510,0.00532431807368994,0.0149802071973681,-0.00409589894115925,1.06362194856047E-05,0.00834397412836552,0.00972743425518274
511,0.000788484408985823,0.00958446133881807,-0.00966819562017918,1.04029422800522E-05,0.00346413813531399,0.00371817988343537
512,-0.00379350897856057,0.00319676194339991,-0.0144310751929879,1.02099093055585E-05,-0.000111870853288565,-0.00375603465363383
513,-0.00762770138680935,-0.00185397523455322,-0.0167987216264009,1.00848055808456E-05,-0.00269172783009708,-0.00899438560009003
514,-0.0108335893601179,-0.00493534980341792,-0.0169722829014063,1.00194047263358E-05,-0.00385265820659697,-0.01070187240839
515,-0.0129533093422651,-0.00574999116361141,-0.0154604502022266,9.97375082079088E-06,-0.00355532485991716,-0.00934987887740135
516,-0.0143493646755815,-0.00575968017801642,-0.0137055395171046,9.89747331914259E-06,-0.00329963560216129,-0.00826747994869947
517,-0.0168149992823601,-0.00800937414169312,-0.0146483266726136,9.75684270088095E-06,-0.0044852290302515,-0.01159802172333
518,-0.0204641222953796,-0.0123937074095011,-0.0188379678875208,9.55303585215006E-06,-0.00681714387610555,-0.0180608239024878
519,-0.0224394146353006,-0.0156901814043522,-0.0229066982865334,9.32168677536538E-06,-0.00744997384026647,-0.0228381901979446
520,-0.0202471576631069,-0.0159933865070343,-0.0228081177920103,9.11387451196788E-06,-0.00323984026908875,-0.0237693022936583
521,-0.0137675134465098,-0.0123801790177822,-0.0160381458699703,8.96869278221857E-06,0.0051035163924098,-0.0198099482804537
522,-0.00447857659310102,-0.00488455221056938,-0.00320310704410076,8.89215516508557E-06,0.014425509609282,-0.0108858356252313
523,0.00466701528057456,0.00333138299174607,0.0112963709980249,8.85383542481577E-06,0.0224108658730984,-0.000847313378471881
524,0.0110506163910031,0.0093542505055666,0.0226950719952583,8.80313200468663E-06,0.0277149081230164,0.00714347930625081
525,0.012615161947906,0.0116346217691898,0.0267718508839607,8.69645100465277E-06,0.0284286234527826,0.0115849887952209
526,0.00938552152365446,0.0101423021405935,0.0220951978117228,8.52070388646098E-06,0.024461941793561,0.0113093899562955
527,0.00444613303989172,0.00703993672505021,0.0124603044241667,8.30042699817568E-06,0.0189164057374001,0.00728742405772209
528,-0.00088074168888852,0.00272275134921074,0.00180505716707557,8.08464756119065E-06,0.0136450538411736,0.000548234325833619
529,-0.0074441134929657,-0.00443688500672579,-0.00879421643912792,7.92053288023453E-06,0.00882800109684467,-0.00860434677451849
530,-0.0124581251293421,-0.0111133912578225,-0.0160683710128069,7.82799725129735E-06,0.00601300317794085,-0.0150850275531411
531,-0.0117317661643028,-0.0111931161954999,-0.0156406853348017,7.78895719122374E-06,0.00648692576214671,-0.0126776164397597
532,-0.00727534247562289,-0.00615996308624744,-0.0107651315629482,7.75703756517032E-06,0.00761393271386623,-0.004548454657197
533,-0.00438866019248962,-0.00250906450673938,-0.00913757365196943,7.68253448768519E-06,0.00551729649305344,0.000966362305916846
534,-0.0051165628246963,-0.00332871871069074,-0.0132227465510368,7.53916583562386E-06,7.92655191617087E-05,-0.000268379168119282
535,-0.00649401731789112,-0.00536943366751075,-0.0178429950028658,7.3382188929827E-06,-0.00527605740353465,-0.00459076929837465
536,-0.00496903760358691,-0.00405984558165073,-0.0172945447266102,7.12245810063905E-06,-0.00801850669085979,-0.00600476283580065
537,-0.00290102348662913,-0.00178423651959747,-0.0144346235319972,6.94308073434513E-06,-0.00946013908833265,-0.00583479646593332
538,-0.00318634090945125,-0.00223597604781389,-0.0138464830815792,6.8321560320328E-06,-0.0106157436966896,-0.00688313459977508
539,-0.00455213524401188,-0.00427185371518135,-0.014382092282176,6.78539208820439E-06,-0.0110253738239408,-0.00725163146853447
540,-0.00611668964847922,-0.00674797734245658,-0.014735302887857,6.76450736136758E-06,-0.0117935435846448,-0.00649308273568749
541,-0.00557424360886216,-0.00695667183026671,-0.0127288866788149,6.71789985062787E-06,-0.0119522195309401,-0.0032864713575691
542,0.000303906359476969,-0.000561016786377877,-0.0049351966008544,6.60844352751155E-06,-0.00872030574828386,0.00618856260553002
543,0.00842414144426584,0.00999831221997738,0.005834368057549,6.43343446427025E-06,-0.00360845448449254,0.019131513312459
544,0.0143553391098976,0.0191223844885826,0.0149017833173275,6.22595189270214E-06,0.000917020079214126,0.0299686547368765
545,0.0175967700779438,0.0245097484439611,0.0207485929131508,6.03695298195817E-06,0.004111104644835,0.036781869828701
546,0.0151957962661982,0.0218619368970394,0.018472446128726,5.90779973208555E-06,0.00284641073085368,0.0341850072145462
547,0.00605748500674963,0.00983831565827131,0.00640834541991353,5.84804092795821E-06,-0.00349834910593927,0.0196754466742277
548,-0.00274820881895721,-0.00275383144617081,-0.00549457874149084,5.83039263801766E-06,-0.00889100879430771,0.00347225205041468
549,-0.00565758254379034,-0.00836664624512196,-0.00866210367530584,5.80556388740661E-06,-0.00901973899453878,-0.00494059221819043
550,-0.00521118752658367,-0.00914976559579372,-0.00636897142976522,5.72886438021669E-06,-0.00640773586928844,-0.00784401036798954
551,-0.00370146078057587,-0.00727206282317638,-0.00309799308888614,5.58422379981494E-06,-0.00378148932941258,-0.00780321517959237
552,0.00140534283127636,0.000163813077961095,0.00334756611846387,5.39270013177884E-06,-0.000317389756673947,-0.00134696520399302
553,0.00947586819529533,0.011526171118021,0.0126533657312393,5.20097182743484E-06,0.00344401807524264,0.00987808220088482
554,0.0148958591744304,0.0189723819494247,0.0188762359321117,5.05610159962089E-06,0.00494672963395715,0.0169513672590256
555,0.015026181936264,0.018884027376771,0.0189118310809135,4.98022382089403E-06,0.00355036673136055,0.0156471896916628
556,0.0122416941449046,0.0152440210804343,0.0152039574459195,4.95878157380503E-06,0.000548195443116128,0.0109318159520626
557,0.00672558741644025,0.010111890733242,0.00859181210398674,4.94856840305147E-06,-0.00443973345682025,0.00584153225645423
558,-0.00263148848898709,0.00194875476881862,-0.00164843525271863,4.9011318878911E-06,-0.011634754948318,-0.0014949090545997
559,-0.0116367107257247,-0.00688946293666959,-0.011555066332221,4.78885976917809E-06,-0.0171224866062403,-0.00931925140321255
560,-0.0160645488649607,-0.0125114042311907,-0.0169176030904055,4.61968647869071E-06,-0.018045712262392,-0.0141289066523314
561,-0.016733642667532,-0.0143198920413852,-0.0181362852454185,4.43259204985225E-06,-0.0162804070860147,-0.0158127043396235
562,-0.0155567703768611,-0.0131686944514513,-0.0168012361973524,4.27643135481048E-06,-0.014290158636868,-0.0157659482210875
563,-0.0143041890114546,-0.0109907584264874,-0.0143963424488902,4.18360150433728E-06,-0.0132071450352669,-0.016094820573926
564,-0.0143405795097351,-0.00978211965411901,-0.0127298552542925,4.15274689657963E-06,-0.0134321916848421,-0.0178036000579596
565,-0.0138091742992401,-0.00764279114082456,-0.0107515398412943,4.14974238083232E-06,-0.0140236662700772,-0.0167213957756758
566,-0.0115227811038494,-0.00383956241421402,-0.00682550389319658,4.12628378398949E-06,-0.013316698372364,-0.0110073061659932
567,-0.00766787678003311,0.000413424510043114,-1.709444768494E-05,4.04596039516036E-06,-0.00962375942617655,-0.00323792104609311
568,-0.00105243362486362,0.00665145879611373,0.0110566187649965,3.90372269976069E-06,-0.00262445094995201,0.00659062573686242
569,0.00399715639650822,0.011435154825449,0.020610561594367,3.72833596884448E-06,0.00289321411401033,0.0138461571186781
570,0.00190765294246376,0.00970160122960806,0.0206845887005329,3.56663304046378E-06,0.0015529963420704,0.0124269677326083
571,-0.00489587103947997,0.00394811434671283,0.0125849228352308,3.4581948966661E-06,-0.0059716384857893,0.00495529407635331
572,-0.0112233608961105,-0.00107644207309932,0.00260785827413201,3.41414738613821E-06,-0.0156507380306721,-0.00294404430314898
573,-0.0130508877336979,-0.00140552967786789,-0.00337678240612149,3.41144141202676E-06,-0.0231187324970961,-0.00618420587852597
574,-0.0105430250987411,0.00260014436207712,-0.00436850218102336,3.40554925060133E-06,-0.0266381651163101,-0.00412582419812679
575,-0.00667529972270131,0.00766345532611012,-0.00272375112399459,3.35458571498748E-06,-0.0268264897167683,0.000350956077454612
576,-0.00101757631637156,0.0148108704015613,0.00225104298442602,3.24177790389513E-06,-0.0236287675797939,0.00847441516816616
577,0.00402267090976238,0.0215666498988867,0.00728441029787064,3.08422636408068E-06,-0.020088829100132,0.0171869806945324
578,0.00167284335475415,0.0202675070613623,0.00464668916538358,2.92338108920376E-06,-0.0214302428066731,0.0168452877551317
579,-0.00644583394750953,0.0124004920944572,-0.00367967854253948,2.80253107121098E-06,-0.0264022145420313,0.0075384397059679
580,-0.0124955903738737,0.00515651004388928,-0.0100149437785149,2.74353828899621E-06,-0.0291866436600685,-0.00320792547427118
581,-0.0139389261603355,0.000372844893718138,-0.0130823394283652,2.73532168648671E-06,-0.0281428787857294,-0.0120169054716825
582,-0.0113630583509803,-0.00101224426180124,-0.0134324748069048,2.74015883405809E-06,-0.0252825785428286,-0.0162775982171297
583,-0.00511744432151318,0.00277171772904694,-0.00972806941717863,2.71422595687909E-06,-0.0219417233020067,-0.0140335774049163
584,0.00192481162957847,0.00902762170881033,-0.00395370973274112,2.63119136434398E-06,-0.0192617252469063,-0.00904510170221329
585,0.00546345487236977,0.012096056714654,-0.00127270992379636,2.49615322900354E-06,-0.0191730614751577,-0.00761468382552266
586,0.00458452478051186,0.0102227497845888,-0.00335232424549758,2.3425413928635E-06,-0.021766034886241,-0.0110413851216435
587,0.00319463410414755,0.00779630010947585,-0.00578532461076975,2.21384493670485E-06,-0.0241225697100163,-0.0140441795811057
588,0.00517781777307391,0.00929319392889738,-0.00383452419191599,2.14014880839386E-06,-0.0239894632250071,-0.0116734579205513
589,0.00895320903509855,0.012775438837707,0.000907978392206132,2.12214604289329E-06,-0.0225758608430624,-0.00624582730233669
590,0.00857734307646751,0.0117441732436419,0.00135474198032171,2.13111820812628E-06,-0.023543568328023,-0.005529107991606
591,0.00229575508274138,0.00479207467287779,-0.00494337268173695,2.1247042241157E-06,-0.0278715379536152,-0.0121227884665132
592,-0.00437233597040176,-0.00181020295713097,-0.0117579232901335,2.06979757422232E-06,-0.0319015309214592,-0.0196395125240088
593,-0.00791976973414421,-0.00434107845649123,-0.015121441334486,1.96019095710653E-06,-0.0340680554509163,-0.0229502469301224
594,-0.00811643339693546,-0.00270745577290654,-0.0148808285593987,1.81956158940011E-06,-0.035022210329771,-0.0203860141336918
595,-0.00478676008060575,0.00268328166566789,-0.0108700208365917,1.68838118952408E-06,-0.0338759385049343,-0.0123515538871288
596,-5.33519851160236E-05,0.00909114815294743,-0.00550910457968712,1.60198339926865E-06,-0.0309367217123508,-0.00318596046417952
597,0.00325081031769514,0.0138530423864722,-0.00176237511914223,1.57167596626095E-06,-0.0280763804912567,0.003143978305161
598,0.00298682856373489,0.0148325255140662,-0.00161796354223043,1.57899455643928E-06,-0.0269110333174467,0.00415138574317098
599,-0.00128921342547983,0.0111792683601379,-0.00530632631853223,1.58600676058995E-06,-0.0275073833763599,-0.000782596995122731
600,-0.00661981385201216,0.00556763354688883,-0.00938162580132484,1.55591953898693E-06,-0.0277238562703133,-0.00829222332686186
601,-0.0101490374654531,0.000393848255043849,-0.0113248154520988,1.47279115481069E-06,-0.0262193586677313,-0.0152862118557096
602,-0.0116571476683021,-0.00389259238727391,-0.0120977852493525,1.34978495225369E-06,-0.0236809141933918,-0.0206235088407993
603,-0.0104295974597335,-0.00496810162439942,-0.0108576416969299,1.22169592486898E-06,-0.020200764760375,-0.0209911968559027
604,-0.00569505756720901,-0.000795506231952459,-0.0057565844617784,1.12598240775696E-06,-0.0159107241779566,-0.0144822271540761
605,0.000377434538677335,0.00525623932480812,0.000797545071691275,1.08264316622808E-06,-0.0119408397004008,-0.00634635658934712
606,0.00491329375654459,0.00824609026312828,0.00488239340484142,1.08374911178544E-06,-0.00856379978358746,-0.00280749355442822
607,0.00801541283726692,0.00881875399500132,0.00718018179759383,1.09810491721873E-06,-0.00518742669373751,-0.00218759197741747
608,0.0117805451154709,0.0111470557749271,0.0113268932327628,1.08831477518834E-06,-0.00127099582459778,0.00112414930481464
609,0.0153765715658665,0.0146812815219164,0.016606368124485,1.03091633718577E-06,0.00249424856156111,0.00593791762366891
610,0.0155711406841874,0.0146862547844648,0.0185960829257965,9.28738700167742E-07,0.00425791693851352,0.00618837540969253
611,0.012790092267096,0.0106422444805503,0.0168051552027464,8.08978313671105E-07,0.00422630412504077,0.00145153561607003
612,0.0100547624751925,0.00618946366012096,0.0141177568584681,7.08243419467181E-07,0.00410324754193425,-0.00372347934171557
613,0.00887812115252018,0.00386556703597307,0.0123944170773029,6.52788060051535E-07,0.00509856315329671,-0.00609254883602262
614,0.00865362212061882,0.00349395256489515,0.0117172067984939,6.44607951016951E-07,0.00776965636759996,-0.0058613708242774
615,0.00656469259411097,0.0022179689258337,0.00958859454840422,6.60757223158726E-07,0.0100583015009761,-0.0067037926055491
616,0.0028114658780396,-0.00011140698188683,0.00647033657878637,6.66041330532607E-07,0.0109292333945632,-0.00922146998345852
617,0.000615869124885648,-0.00104918645229191,0.00596072431653738,6.32066019079502E-07,0.0124584762379527,-0.0103729302063584
618,-0.000415469927247614,-0.00170040247030556,0.0072199571877718,5.52330732261908E-07,0.0150527646765113,-0.0106606697663665
619,0.000154065113747492,-0.00109071412589401,0.0100738788023591,4.45342635657653E-07,0.0185657776892185,-0.00904139317572117
620,0.00627971161156893,0.00673951394855976,0.0182204302400351,3.4428231288075E-07,0.0238015130162239,0.000284589768853039
621,0.0169912613928318,0.0221589151769876,0.0296181198209524,2.78984458645937E-07,0.0289121344685555,0.0168098099529743
622,0.0250955335795879,0.0362096019089222,0.0357655398547649,2.600170603273E-07,0.0304953437298536,0.0303545538336039
623,0.025520445778966,0.0409942418336868,0.0323734804987907,2.73352611657174E-07,0.0280607286840677,0.0330809578299522
624,0.0190599970519543,0.0362987853586674,0.0221716407686472,2.88302999251755E-07,0.0236005578190088,0.0259621385484934
625,0.0125837111845613,0.0295434463769197,0.0133196739479899,2.74237095254648E-07,0.0208612084388733,0.0174708794802427
626,0.0128699690103531,0.0286844857037067,0.0133075276389718,2.16973219835381E-07,0.0224481783807278,0.0162091609090567
627,0.0200929548591375,0.0343455411493778,0.022084791213274,1.26072919215403E-07,0.0277251303195953,0.0228922981768847
628,0.0293546468019485,0.0414240136742592,0.0336330868303776,2.92930781853329E-08,0.0344472266733646,0.031810000538826
629,0.0346633642911911,0.0449484065175056,0.0413371063768864,-4.26018509358528E-08,0.0389671139419079,0.0378827229142189
630,0.0345060601830482,0.044301088899374,0.0437899529933929,-7.23604003383116E-08,0.0403949357569218,0.0409082248806953
631,0.0293418765068054,0.0388807095587254,0.0406662076711655,-6.52284128932479E-08,0.0399379655718803,0.0392196886241436
632,0.020308343693614,0.0290678422898054,0.0320279523730278,-4.57267113063153E-08,0.0376929193735123,0.0316541977226734
633,0.011183800175786,0.0189309138804674,0.0219854731112719,-4.41742535883805E-08,0.0345190688967705,0.0222398061305285
634,0.00349721219390631,0.0101249273866415,0.0130459507927299,-8.03627173695531E-08,0.0310353748500347,0.0133424093946815
635,-0.00195464282296598,0.00361245591193438,0.00637422921136022,-1.53173886019431E-07,0.0283596720546484,0.00648715067654848
636,-0.00171824311837554,0.00316407321952283,0.00579497450962663,-2.41582711169031E-07,0.0293979495763779,0.00576385296881199
637,0.00530438264831901,0.00985859055072069,0.0135518098250031,-3.16290254431806E-07,0.0353263914585114,0.0124399978667498
638,0.0131626697257161,0.0176132787019014,0.0237921196967363,-3.55556181830252E-07,0.0421702153980732,0.0202036257833242
639,0.0164346564561129,0.0213402435183525,0.0292948223650455,-3.56677901436342E-07,0.0451825149357319,0.0236618798226118
640,0.0188252907246351,0.0250441674143076,0.0323771387338638,-3.37060896526964E-07,0.0457413457334042,0.027467604726553
641,0.0230243857949972,0.030911561101675,0.035276722162962,-3.24514928706776E-07,0.0461061112582684,0.034424927085638
642,0.0245893355458975,0.0336262099444866,0.0335699580609798,-3.4218112432427E-07,0.04421192035079,0.0387627370655537
643,0.0201802160590887,0.0297795888036489,0.0250577796250582,-3.96260418256134E-07,0.0386117361485958,0.0358452200889587
644,0.0114464098587632,0.022217744961381,0.0129658142104745,-4.73048743288018E-07,0.0311172194778919,0.0276617370545864
645,0.00316684227436781,0.0165528301149607,0.00279179634526372,-5.46674016277393E-07,0.0246980655938387,0.0203651897609234
646,-0.0008089350303635,0.0157301463186741,-0.00188591028563678,-5.9317710565665E-07,0.0210937317460775,0.0177388433367014
647,-0.00114943040534854,0.0180062968283892,-0.00243110884912312,-6.03277044319839E-07,0.0189685914665461,0.0184821505099535
648,0.000592806900385767,0.0224299021065235,-0.000371845264453441,-5.87023237130779E-07,0.0163406077772379,0.0228359159082174
649,0.00433041853830218,0.0293444469571114,0.00473461393266916,-5.68019629554328E-07,0.013979759067297,0.031753595918417
650,0.00716028735041618,0.0339397266507149,0.00906430836766958,-5.7052892543652E-07,0.0130400275811553,0.0384803898632526
651,0.00841517560184002,0.0342760570347309,0.0106886448338628,-6.06502624123095E-07,0.0134177831932902,0.0393669493496418
652,0.00991843175143003,0.0329099334776402,0.0112687293440104,-6.69468079195212E-07,0.0138800134882331,0.0370085015892982
653,0.00940060056746006,0.0279489569365978,0.00838897656649351,-7.38390951937618E-07,0.0129653010517359,0.0298691615462303
654,0.00597134372219443,0.0189674161374569,0.00157561444211751,-7.89230512054928E-07,0.0116119449958205,0.0182675514370203
655,0.00306394603103399,0.0106734139844775,-0.00410027476027608,-8.0784485589902E-07,0.0121806589886546,0.0077394493855536
656,0.00333259580656886,0.00654592830687761,-0.00484820362180471,-7.97322456946858E-07,0.0152135882526636,0.00165058230049908
657,0.00558636663481593,0.00511748529970646,-0.00249414145946503,-7.759490472381E-07,0.0185174252837896,-0.00243579922243953
658,0.0060521624982357,0.00202932325191796,-0.00180718244519085,-7.67106200783019E-07,0.0193817801773548,-0.00870268791913986
659,0.00330970739014447,-0.00383410113863647,-0.00430203136056662,-7.86679379416455E-07,0.0177685618400574,-0.0157469678670168
660,-0.000364723498933017,-0.00942683033645153,-0.00766955781728029,-8.34756463063968E-07,0.0156987085938454,-0.0186276473104954
661,-0.00311092264018953,-0.0127299251034856,-0.0103815970942378,-8.95949256118911E-07,0.0140325520187616,-0.0169207155704498
662,-0.00201664376072586,-0.0106894019991159,-0.00912050064653158,-9.47967180309206E-07,0.0140135120600462,-0.0102375689893961
663,0.00499802548438311,-0.00124616920948029,-0.00101872941013426,-9.7367342277721E-07,0.0169645566493273,0.00245801662094891
664,0.0130574023351073,0.00975447986274958,0.00889890547841787,-9.70106839304208E-07,0.0210543591529131,0.0152237508445978
665,0.0167378094047308,0.0157106872648001,0.0150973228737712,-9.49726711496623E-07,0.0240349713712931,0.0216597653925419
666,0.0160214751958847,0.0161582473665476,0.0177012756466866,-9.33401793190569E-07,0.0250647012144327,0.0219203997403383
667,0.0127568421885371,0.0131310764700174,0.0177783500403166,-9.39082326567586E-07,0.0240862853825092,0.0185833722352982
668,0.00925253331661224,0.00909498240798712,0.0163636617362499,-9.7230372375634E-07,0.0224269218742847,0.0142784370109439
669,0.00655748276039958,0.00546597735956311,0.0137480823323131,-1.02354226783064E-06,0.0202016029506922,0.0102460701018572
670,0.00229942123405635,0.000677027041092515,0.00768898706883192,-1.07366622614791E-06,0.0155403958633542,0.00462705036625266
671,-0.00428240792825818,-0.00537625560536981,-0.00180542608723044,-1.1043736094507E-06,0.00866846740245819,-0.0020075854845345
672,-0.0104042841121554,-0.0103753553703427,-0.0109723471105099,-1.10792768737156E-06,0.00269268872216344,-0.00644691335037351
673,-0.0137584898620844,-0.0133710652589798,-0.016149865463376,-1.0910159744526E-06,0.000545947928912938,-0.00834074523299932
674,-0.0140171572566032,-0.0146854724735022,-0.016429603099823,-1.07082462363906E-06,0.00213891407474875,-0.00935954600572586
675,-0.0119636664167047,-0.0143725844100118,-0.0140396170318127,-1.06561776647141E-06,0.00525444000959396,-0.00988262891769409
676,-0.0076377559453249,-0.0105441119521856,-0.01011773198843,-1.08498454665096E-06,0.00861391052603722,-0.00657558161765337
677,-0.00179739948362112,-0.00289496057666838,-0.00458251312375069,-1.12495979465166E-06,0.0112107265740633,0.00175063963979483
678,0.00243617175146937,0.00380756449885666,0.00016051105922088,-1.17049194159335E-06,0.0119480788707733,0.009082549251616
679,0.00435990607365966,0.0064991326071322,0.00293977418914437,-1.20375034384779E-06,0.0124940741807222,0.0117056984454393
680,0.00888686161488295,0.00971281807869673,0.00786780752241611,-1.21369430416962E-06,0.0164124313741922,0.0153139531612396
681,0.0184637866914272,0.0174494553357363,0.01685955747962,-1.20177116968989E-06,0.0236238781362772,0.0242114812135696
682,0.0268975086510181,0.0246416758745909,0.0234102588146925,-1.18081391065061E-06,0.0295702386647463,0.031889446079731
683,0.0287491288036108,0.0258663669228554,0.0225181728601456,-1.16790749871143E-06,0.0315266624093056,0.0323872715234756
684,0.0247216504067183,0.021861320361495,0.0160546898841858,-1.17518595743604E-06,0.0304143652319908,0.0274008326232433
685,0.0176040567457676,0.0152613017708063,0.00743148569017649,-1.20351558052789E-06,0.027822982519865,0.0203844998031855
686,0.0114779770374298,0.00949001125991344,0.000752110732719302,-1.24234782106214E-06,0.0257175303995609,0.0147999292239547
687,0.00927922781556845,0.0068901814520359,-0.000791403872426599,-1.27564931062807E-06,0.025483725592494,0.0124149760231376
688,0.00983159337192774,0.00603942247107625,0.00138495303690434,-1.29058275888383E-06,0.0260465480387211,0.0114305326715112
689,0.0105969067662954,0.00475081615149975,0.00352096417918801,-1.28424505874136E-06,0.0260652955621481,0.00983124319463968
690,0.0107772601768374,0.00285531557165086,0.0041724219918251,-1.26493057450716E-06,0.0263952109962702,0.00748816365376115
691,0.0116947619244456,0.00210691383108497,0.00549652567133307,-1.24740540741186E-06,0.0283660870045424,0.00577383302152157
692,0.0144100887700915,0.00385674741119146,0.00931883975863457,-1.24487701214093E-06,0.0315339900553226,0.00543014938011765
693,0.0176387578248978,0.00672251684591174,0.0134761407971382,-1.26202530736919E-06,0.0340150222182274,0.00502024497836828
694,0.0205579120665789,0.00996993575245142,0.0166029278188944,-1.29276804727851E-06,0.0353145375847816,0.00575503800064325
695,0.0231757070869207,0.0140770450234413,0.0201686304062605,-1.32381069306575E-06,0.0364819876849651,0.0104884775355458
696,0.0247893482446671,0.0179825499653816,0.02470663189888,-1.34192225687002E-06,0.0378026030957699,0.0178311318159103
697,0.0243676658719778,0.0189098324626684,0.0282618887722492,-1.34096057990973E-06,0.0385333932936192,0.0227201730012894
698,0.020730946213007,0.0143587701022625,0.0274285785853863,-1.32492175453081E-06,0.037509698420763,0.0207794401794672
699,0.0154210487380624,0.00684167770668864,0.0223289672285318,-1.30551438815019E-06,0.0350523479282856,0.0136374374851584
700,0.0121316546574235,0.00182453857269138,0.0170635767281055,-1.29571401430439E-06,0.0329438149929047,0.00694602634757757
701,0.0121027948334813,0.00154652493074536,0.0144982365891337,-1.30284263377689E-06,0.0320025086402893,0.00382733903825283
702,0.0121617205440998,0.0026973478961736,0.0124049242585897,-1.32486275106203E-06,0.0312582664191723,0.0012114328565076
703,0.00882518570870161,0.000522692571394145,0.00682267779484391,-1.35175253035413E-06,0.0295922942459583,-0.00559706799685955
704,0.00452272966504097,-0.00306684011593461,0.000498938956297934,-1.37107303999073E-06,0.0283927600830793,-0.0136110726743937
705,0.00290618720464408,-0.0037960740737617,-0.00197001965716481,-1.37464064664528E-06,0.0291941501200199,-0.0172488689422607
706,0.00255398894660175,-0.00334661151282489,-0.00277851987630129,-1.36273069983872E-06,0.0311455931514502,-0.0174908954650164
707,0.00240860972553492,-0.00372650474309921,-0.00394481560215354,-1.34366121073981E-06,0.0341372936964035,-0.016735116019845
708,0.00436122389510274,-0.00288686365820467,-0.00299744587391615,-1.32912816752651E-06,0.0387843772768974,-0.0144441882148385
709,0.00868277531117201,0.000400866469135508,0.00135452020913363,-1.32790319185006E-06,0.0440879389643669,-0.0104559939354658
710,0.014739784412086,0.00621999194845557,0.00912665016949177,-1.34128754325502E-06,0.0487228073179722,-0.0039949482306838
711,0.0204842388629913,0.0127427168190479,0.0180932264775038,-1.36267419748037E-06,0.0509568974375725,0.00425054924562573
712,0.021611412987113,0.0152136171236634,0.0228619780391455,-1.38131144922227E-06,0.0490089282393456,0.00941682886332273
713,0.0161647312343121,0.0109991198405623,0.0199645888060331,-1.38813300054608E-06,0.0427564606070518,0.00774377817288041
714,0.0073191812261939,0.00340331345796585,0.011685854755342,-1.38049881570623E-06,0.0336642861366272,0.00180804263800383
715,0.0016011877451092,-0.000293993449304253,0.00542204361408949,-1.3633725757245E-06,0.0250347964465618,-0.000535409839358181
716,0.0022865068167448,0.00300410971976817,0.00613750051707029,-1.34643687488278E-06,0.0202630218118429,0.00448027439415455
717,0.00557456258684397,0.00860242638736963,0.0107910763472319,-1.33881337660569E-06,0.0191682409495115,0.0118548776954412
718,0.00660445867106318,0.0111816124990582,0.0138131231069565,-1.34426534259546E-06,0.0189690906554461,0.0158177744597197
719,0.00531574338674545,0.0100815650075674,0.0137462308630347,-1.35940183554339E-06,0.0186223406344652,0.0155459614470601
720,0.00273625762201846,0.00600473489612341,0.0109247826039791,-1.37572646963235E-06,0.0179624408483505,0.0115432720631361
721,-0.000479842768982053,0.000808096840046346,0.00652634259313345,-1.38430823426461E-06,0.0169772114604712,0.00594048947095871
722,-0.00285279517993331,-0.0027207201346755,0.00289261410944164,-1.38051279918727E-06,0.0168117359280586,0.00177220022305846
723,-0.00458591897040606,-0.0045274319127202,0.00021726694831159,-1.36629125790932E-06,0.01693613268435,-0.00114722992293537
724,-0.00686240429058671,-0.00607317686080933,-0.00247532711364329,-1.34890967729007E-06,0.0154504058882594,-0.00440395111218095
725,-0.010497665964067,-0.00896573346108198,-0.00621512020006776,-1.33692242343386E-06,0.0122147100046277,-0.00984447356313467
726,-0.0150543712079525,-0.0133333401754498,-0.011092497035861,-1.33561741222366E-06,0.00914700981229544,-0.0168404709547758
727,-0.0181942768394947,-0.0165772885084152,-0.014598180539906,-1.34435663312615E-06,0.00835817772895098,-0.0209214687347412
728,-0.0162570998072624,-0.0144566940143704,-0.0122125688940287,-1.35714083171479E-06,0.0113295307382941,-0.0171944759786129
729,-0.00809946656227112,-0.00573117937892675,-0.00234822439961135,-1.36597702748986E-06,0.0178219322115183,-0.00562302488833666
730,0.00219690147787333,0.00512340199202299,0.0102584380656481,-1.36516337079229E-06,0.0249859914183617,0.00757408048957586
731,0.0114842699840665,0.0150748863816261,0.0216313879936934,-1.35420032165712E-06,0.0307593513280153,0.0188155528157949
732,0.0191332623362541,0.0234266184270382,0.0306630972772837,-1.33784874378762E-06,0.0348219573497772,0.0279204528778791
733,0.0234104748815298,0.0277514066547155,0.0351593345403671,-1.32341870084929E-06,0.0365778245031834,0.0327310897409916
734,0.0222544893622398,0.0262719318270683,0.0334391295909882,-1.31682827486657E-06,0.035227507352829,0.031396746635437
735,0.015259581618011,0.0196020919829607,0.0263322405517101,-1.31955482629564E-06,0.0306853111833334,0.0243722684681416
736,0.00595103902742267,0.0112382443621755,0.0178797971457243,-1.32804439090251E-06,0.0252290777862072,0.0153970811516047
737,-0.00117377750575542,0.00491309491917491,0.012372019700706,-1.33578703298554E-06,0.0211762152612209,0.00855633988976479
738,-0.00504245748743415,0.00141952279955149,0.010433804243803,-1.33685648506798E-06,0.0182126443833113,0.00421744212508202
739,-0.00763377686962485,-0.00137530558276922,0.00875476747751236,-1.3289916296344E-06,0.0155044440180063,-0.000216600397834554
740,-0.00996629428118467,-0.00435087829828262,0.00526756187900901,-1.31462593344622E-06,0.0129212448373437,-0.00463832216337323
741,-0.00943436287343502,-0.00411647232249379,0.00341693917289376,-1.29941224713548E-06,0.011112604290247,-0.00432790908962488
742,-0.00631562154740095,-0.00102586438879371,0.0042176996357739,-1.28912631680578E-06,0.0102559737861156,-0.000757571775466204
743,-0.00258851610124111,0.0021993953268975,0.00633368594571948,-1.28664362364361E-06,0.0107351113110781,0.00160233781207353
744,0.00233794958330691,0.00626149354502559,0.0111227044835687,-1.29056797959493E-06,0.0134800104424357,0.00413462053984404
745,0.0065495022572577,0.00976827088743448,0.0171172749251127,-1.29615477817424E-06,0.0172703806310892,0.00677766371518373
746,0.00896615535020828,0.0121908383443952,0.0225616879761219,-1.2979403436475E-06,0.0210595820099115,0.0091835455968976
747,0.0118843838572502,0.0158706940710545,0.0283943731337786,-1.29262616610504E-06,0.0253501515835524,0.013407725840807
748,0.0142219318076968,0.0188258662819862,0.0322535485029221,-1.28069791571761E-06,0.0285513363778591,0.016776816919446
749,0.0123797170817852,0.0168264079838991,0.0300931297242641,-1.26599672967131E-06,0.0281333886086941,0.0142248561605811
750,0.00765325734391809,0.0114977629855275,0.0241673793643713,-1.25356245916919E-06,0.0251916218549013,0.00782337598502636
751,0.0042948704212904,0.00778314936906099,0.0197680462151766,-1.24695816339226E-06,0.0224330555647612,0.0035564370919019
752,0.00337232835590839,0.00691506266593933,0.0178827308118343,-1.24649181998393E-06,0.020678685978055,0.00272781983949244
753,0.00397670036181808,0.0078517273068428,0.0177971925586462,-1.24921859878668E-06,0.0200598370283842,0.00366786075755954
754,0.00394154526293278,0.00849456153810024,0.0176887344568968,-1.25063058931119E-06,0.0191867984831333,0.00352764315903187
755,0.000860192347317934,0.00658920919522643,0.015064793638885,-1.24707150916947E-06,0.016051072627306,-0.000630357128102332
756,-0.00329057639464736,0.00462407758459449,0.012373760342598,-1.23758741210622E-06,0.0119378482922912,-0.00647075939923525
757,-0.00540560623630881,0.00584262097254395,0.0122922081500292,-1.22428207305347E-06,0.00850868504494429,-0.00960290618240833
758,-0.00650055380538106,0.00768529949709773,0.0117775453254581,-1.21107257200492E-06,0.00510352291166782,-0.0106525681912899
759,-0.00638948334380984,0.00854479894042015,0.0102515146136284,-1.20157551464217E-06,0.00256339553743601,-0.0101362280547619
760,-0.0028208065778017,0.0106040677055717,0.0113493101671338,-1.19726075809012E-06,0.00254070712253451,-0.00659116916358471
761,0.00232923193834722,0.0129531100392342,0.0145709654316306,-1.19681226351531E-06,0.00380593887530267,-0.00271321390755475
762,0.0062274350784719,0.0138287097215652,0.0173361971974373,-1.19695755529392E-06,0.0045195035636425,-0.00123919488396496
763,0.00875102542340755,0.0136870360001922,0.0189809054136276,-1.19425612865598E-06,0.00457310630008578,-0.00149590370710939
764,0.0111849689856172,0.0141669036820531,0.0204724092036486,-1.1868731917275E-06,0.00484382454305887,-0.000975295668467879
765,0.0129485791549087,0.0150852939113975,0.021501088514924,-1.17542879252142E-06,0.00477112783119082,0.000722087570466101
766,0.0123903155326843,0.0142912426963449,0.0205339081585407,-1.16254227577883E-06,0.00288347085006535,0.00121308560483158
767,0.0105023374781013,0.012010894715786,0.0181694906204939,-1.1513825484144E-06,-0.000315102515742183,0.000272102566668764
768,0.00875556562095881,0.00994326546788216,0.014982633292675,-1.14402303097449E-06,-0.00325136934407055,-0.000714150897692889
769,0.00849160552024841,0.0101167634129524,0.0116359665989876,-1.14045474219893E-06,-0.00481618149206042,0.000402696226956323
770,0.0090631041675806,0.0113028027117252,0.00713525479659438,-1.13871556095546E-06,-0.00640263687819242,0.00223448337055743
771,0.00895194616168737,0.0104915015399456,0.000228265853365883,-1.13600299300742E-06,-0.00976177677512169,0.00138995132874697
772,0.00704632932320237,0.00630640145391226,-0.0084873465821147,-1.13014209546236E-06,-0.0146625535562634,-0.00348282139748335
773,0.00183796987403184,-0.00125933345407248,-0.0183697883039713,-1.12064412860491E-06,-0.0201815031468868,-0.0122728105634451
774,-0.00195145723409951,-0.00550326379016042,-0.0229718275368214,-1.10884877813078E-06,-0.0226046517491341,-0.0175554379820824
775,0.00108236051164567,-0.000805506715551019,-0.0170260407030582,-1.09713835172442E-06,-0.0193295944482088,-0.0129914050921798
776,0.00825121998786926,0.00886467937380075,-0.00607957225292921,-1.0876808573812E-06,-0.0134424297139049,-0.00306827598251402
777,0.0155408335849643,0.0187545381486416,0.00332740624435246,-1.08136259768798E-06,-0.00848691258579493,0.00677456567063928
778,0.0216051302850246,0.0268592983484268,0.0096520883962512,-1.07743085209222E-06,-0.00495667429640889,0.0145610952749848
779,0.0244964584708214,0.0304635837674141,0.0122168166562915,-1.07397397641762E-06,-0.00281255389563739,0.0179749056696892
780,0.0226504728198051,0.0280389115214348,0.0108916666358709,-1.06894344753528E-06,-0.0023781459312886,0.0161608457565308
781,0.0185374673455954,0.0225489027798176,0.00825484469532967,-1.0611738616717E-06,-0.00266091525554657,0.0123310228809714
782,0.0150873810052872,0.0173607114702463,0.00575140025466681,-1.05089839053107E-06,-0.00307794008404016,0.00883348379284143
783,0.0128597328439355,0.01323810685426,0.00244658230803907,-1.03954471342149E-06,-0.00448814826086164,0.00510997837409377
784,0.0118066994473338,0.010206968523562,-0.00149761140346527,-1.02896115095064E-06,-0.00730063021183014,0.000582533364649862
785,0.0111427837982774,0.00752603076398373,-0.00545031717047095,-1.02049193628773E-06,-0.0106632681563497,-0.00543267093598843
786,0.0112717095762491,0.00597264524549246,-0.00769377406686544,-1.01435932720051E-06,-0.012433223426342,-0.0107497740536928
787,0.013816699385643,0.00795139465481043,-0.00559754995629191,-1.0096293863171E-06,-0.010939278639853,-0.0106891766190529
788,0.0169729795306921,0.0118591953068972,-0.000952262547798455,-1.00473346265062E-06,-0.00824821926653385,-0.00598612055182457
789,0.0169599466025829,0.0132418889552355,0.00099037610925734,-9.982596793634E-07,-0.00817681849002838,-0.00242335628718138
790,0.0153758823871613,0.0127797909080982,2.79955947917188E-05,-9.89617205959803E-07,-0.0100106121972203,-0.00103533756919205
791,0.0173174943774939,0.01582857593894,0.000615801371168345,-9.79270225798246E-07,-0.0107599692419171,0.00321229500696063
792,0.0222442001104355,0.0226076170802116,0.00283809844404459,-9.68459630712459E-07,-0.0111330272629857,0.0105885779485106
793,0.0248983409255743,0.0273064263164997,0.00241418206132948,-9.58576492848806E-07,-0.0136513272300363,0.0149512914940715
794,0.0235340893268585,0.0276028458029032,-0.00151252979412675,-9.50500975704927E-07,-0.0187083724886179,0.0147361494600773
795,0.0193542614579201,0.0242001134902239,-0.00736712710931897,-9.44213411457895E-07,-0.0248924922198057,0.0116731384769082
796,0.0128461755812168,0.0166263040155172,-0.0150052234530449,-9.38844380016235E-07,-0.0304670613259077,0.00518334610387683
797,0.00592767726629972,0.00723668839782476,-0.0223363284021616,-9.33115700263443E-07,-0.0338246710598469,-0.00257431901991367
798,0.000333247793605551,-0.000428322120569646,-0.0270701870322227,-9.25953315800143E-07,-0.0350678861141205,-0.00830499920994043
799,-0.00374707556329668,-0.00518389279022813,-0.0288875047117472,-9.16983935894677E-07,-0.0348553769290447,-0.0114567959681153
800,-0.00417916709557176,-0.00518810003995895,-0.0252522509545088,-9.06691923319158E-07,-0.0320308059453964,-0.0103880744427443
801,0.000215251056943089,0.000525601790286601,-0.0151803037151694,-8.96174981335207E-07,-0.0266252253204584,-0.00372138223610818
802,0.00722412439063191,0.00971957203000784,-0.00231337291188538,-8.86619432094449E-07,-0.019983671605587,0.00687984330579638
803,0.0133910905569792,0.0180973690003157,0.00842814985662699,-8.7874099108376E-07,-0.0130956135690212,0.0168765224516392
804,0.0161178205162287,0.0223758909851313,0.0140881193801761,-8.72449618327664E-07,-0.00731064798310399,0.0218620859086514
805,0.0165359508246183,0.0240503624081612,0.0165469907224178,-8.66893742568209E-07,-0.00270707835443318,0.0231876987963915
806,0.0171797387301922,0.0261068176478148,0.0187957473099232,-8.60865156937507E-07,0.00108680862467736,0.0249872617423534
807,0.0171995833516121,0.0275182109326124,0.0196829084306955,-8.53376263876271E-07,0.00255518895573914,0.0267534758895636
808,0.0140271671116352,0.0252391286194324,0.0165110416710377,-8.44140117806091E-07,-0.000345301668858156,0.024966286495328
809,0.00782008562237024,0.0188478734344244,0.009997115470469,-8.33721060189418E-07,-0.00651828292757273,0.0190683323889971
810,0.000188329737284221,0.00917511247098446,0.00198860070668161,-8.23275684069813E-07,-0.0121742738410831,0.00965753756463528
811,-0.00755510991439223,-0.00233020563609898,-0.00650881649926305,-8.13998155990703E-07,-0.0150156132876873,-0.00273343431763351
812,-0.0129319010302424,-0.0118423076346517,-0.0129087474197149,-8.06532000297011E-07,-0.0148137491196394,-0.014396958053112
813,-0.0136600369587541,-0.0156758856028318,-0.0145583543926477,-8.00636826170376E-07,-0.0120754893869162,-0.0204490888863802
814,-0.0108284959569573,-0.0140191474929452,-0.0122347241267562,-7.95284165633348E-07,-0.00857112556695938,-0.0198719259351492
815,-0.00769382435828447,-0.0102435406297445,-0.00908976420760155,-7.89151442859293E-07,-0.00675980886444449,-0.0157133359462023
816,-0.00429286295548081,-0.00550692901015282,-0.00498777767643332,-7.81280334649637E-07,-0.00602831691503525,-0.00932808127254248
817,0.000881958869285882,0.000621086161118001,0.00209761224687099,-7.71574264035735E-07,-0.00369820673950017,-0.000755259883590043
818,0.00435838056728244,0.00442869309335947,0.00833913311362267,-7.60875650485104E-07,-0.000876523263286799,0.00500628026202321
819,0.000415858725318685,0.000489187194034457,0.00629676831886172,-7.50566528040508E-07,-0.00166848406661302,0.00112449610605836
820,-0.00915379170328379,-0.00891414284706116,-0.0029786063823849,-7.41877840937377E-07,-0.00614812690764666,-0.00965940859168768
821,-0.0159421730786562,-0.0149377910420299,-0.00993060041218996,-7.35251205696841E-07,-0.00984128378331661,-0.0164053775370121
822,-0.0169152449816465,-0.0151581214740872,-0.0106174554675817,-7.30085560007865E-07,-0.0105770584195852,-0.0158515274524689
823,-0.0153075773268938,-0.0134263262152672,-0.0082401167601347,-7.25015297575737E-07,-0.0100784916430712,-0.0129373800009489
824,-0.0145662371069193,-0.0125283552333713,-0.0067803212441504,-7.18595742910111E-07,-0.0110231954604387,-0.0112822912633419
825,-0.0157188531011343,-0.0129321133717895,-0.0083179259672761,-7.10053484453965E-07,-0.0137730948626995,-0.010649973526597
826,-0.0168632548302412,-0.0124697666615248,-0.0109647279605269,-6.99712188634294E-07,-0.016184963285923,-0.00786478444933891
827,-0.018553851172328,-0.0120277181267738,-0.0143588129431009,-6.88857198838377E-07,-0.0181845128536224,-0.00498173153027892
828,-0.0208492036908865,-0.0126792825758457,-0.017664261162281,-6.79090874200483E-07,-0.0195446889847517,-0.00472261803224683
829,-0.019031036645174,-0.00921244639903307,-0.0147073557600379,-6.71500174576067E-07,-0.0178661812096834,-0.000971069850493222
830,-0.0120538268238306,0.00035686997580342,-0.00409333081915975,-6.66070036459132E-07,-0.0136733939871192,0.00984041672199965
831,-0.00351743027567863,0.0112308310344815,0.00855010841041803,-6.61660692458099E-07,-0.00903128180652857,0.0232441164553165
832,0.00353903160430491,0.0186685938388109,0.0182604137808084,-6.56578890811943E-07,-0.00514653790742159,0.0340506248176098
833,0.00727247633039951,0.0210616942495108,0.0234412141144276,-6.49459195756208E-07,-0.0032104873098433,0.0399423763155937
834,0.00555321155115962,0.0171629246324301,0.0225889179855585,-6.39995846540842E-07,-0.00390346464700997,0.038685504347086
835,-0.00308568635955453,0.00562392687425017,0.0138864926993847,-6.2913215970184E-07,-0.00740938587114215,0.0280276574194431
836,-0.0152829801663756,-0.00955489929765463,0.000769727805163711,-6.1859117295171E-07,-0.0125890569761395,0.0121462494134903
837,-0.0250648465007544,-0.0209923274815083,-0.0102659445255995,-6.09979224464041E-07,-0.0173884648829699,-0.000768951373174787
838,-0.0281770117580891,-0.0240081381052732,-0.0148412361741066,-6.03929379394685E-07,-0.0195696484297514,-0.005394596606493
839,-0.022085202857852,-0.0167410895228386,-0.0104501061141491,-5.99742918439006E-07,-0.0169507041573524,0.000679222284816206
840,-0.00901477783918381,-0.00199678353965282,0.00124916911590844,-5.95732728925213E-07,-0.010395941324532,0.0150830056518316
841,0.00236039282754064,0.0107997693121433,0.0122573068365455,-5.90102331443632E-07,-0.00464467750862241,0.028284789994359
842,0.00663660885766149,0.0156090194359422,0.0169745869934559,-5.81902042995353E-07,-0.00245430856011808,0.0337351411581039
843,0.00565678486600518,0.0147342048585415,0.0170952267944813,-5.71552959627297E-07,-0.00289118266664445,0.0337347537279129
844,0.00132842222228646,0.0104494141414762,0.0142015311866999,-5.60648345526715E-07,-0.00561137311160564,0.0305650606751442
845,-0.00501825753599405,0.00319837755523622,0.00836650095880032,-5.51124287540006E-07,-0.0100640812888741,0.0236436817795038
846,-0.0108524924144149,-0.00528219668194652,0.00171464565210044,-5.44231113508431E-07,-0.0138695733621717,0.0142185725271702
847,-0.0134730692952871,-0.0116432700306177,-0.00231150747276843,-5.39853431291704E-07,-0.0145411789417267,0.00726974289864302
848,-0.0127631174400449,-0.014585523866117,-0.00296103674918413,-5.36549634944095E-07,-0.0119229247793555,0.00518027972429991
849,-0.010525687597692,-0.0148626221343875,-0.00115824025124311,-5.32302635747328E-07,-0.00795305427163839,0.0063949697650969
850,-0.00796142034232616,-0.0129595454782248,0.00229117507115006,-5.2559124696927E-07,-0.0051245242357254,0.00958304014056921
851,-0.00793786346912384,-0.0127930510789156,0.00322031835094094,-5.16212367074331E-07,-0.00566245894879103,0.00981181673705578
852,-0.0112626403570175,-0.0164111442863941,-0.000416158989537507,-5.05408650042227E-07,-0.0082603907212615,0.00449849013239145
853,-0.0148283205926418,-0.02008799277246,-0.00539493095129728,-4.9522230938237E-07,-0.0100822020322084,-0.00156386767048389
854,-0.0162638407200575,-0.0207354929298162,-0.00844061467796564,-4.87411227823031E-07,-0.0104221813380718,-0.00389873259700835
855,-0.0149864256381989,-0.0181948281824589,-0.00817316677421331,-4.8250331019517E-07,-0.00925547257065773,-0.00186547811608762
856,-0.0110090030357242,-0.0130027998238802,-0.0043032243847847,-4.79498623917607E-07,-0.00611201161518693,0.00362825556658208
857,-0.00483881356194615,-0.00584482634440064,0.00292416498996317,-4.76388891001989E-07,-0.00105554866604507,0.0113461297005415
858,0.000278923689620569,-0.000347861292539164,0.00986343063414097,-4.71223671638654E-07,0.00308367214165628,0.0173197090625763
859,0.000809011398814619,-8.0671212344896E-05,0.0119429295882583,-4.63157959984528E-07,0.00271348282694817,0.0176265779882669
860,-0.00141960731707513,-0.00289137265644968,0.0102386875078082,-4.5291682226889E-07,-0.00154485367238522,0.0141591615974903
861,-0.00153336068615317,-0.00395747227594256,0.00910557340830565,-4.42421224988721E-07,-0.00523916352540255,0.0118955979123712
862,0.00165152922272682,-0.00160059286281466,0.010058619081974,-4.33767866070411E-07,-0.00562538113445044,0.0126740895211697
863,0.0054695475846529,0.00306572648696601,0.0119652487337589,-4.28105153105207E-07,-0.00426531722769141,0.0157094094902277
864,0.00676806597039104,0.00724388798698783,0.0124199856072664,-4.25008948923278E-07,-0.00414031092077494,0.0185144916176796
865,0.00369071750901639,0.00714468955993652,0.00841597747057676,-4.22698377633424E-07,-0.00660850573331118,0.0169026274234056
866,-0.00306995189748704,0.00148414366412908,-0.000432450789958239,-4.18982551764202E-07,-0.0109028555452824,0.009330028668046
867,-0.00945252366364002,-0.00529735116288066,-0.00958773028105497,-4.12434673080497E-07,-0.0142502877861261,0.00112777715548873
868,-0.0115152727812529,-0.00754442811012268,-0.014493434689939,-4.031635114643E-07,-0.0146658578887582,-0.000905219349078834
869,-0.00867216009646654,-0.00421463511884212,-0.0145773338153958,-3.92764547996194E-07,-0.0131932506337762,0.00414073932915926
870,-0.0043846988119185,0.000456814625067636,-0.0130607485771179,-3.83471075338093E-07,-0.0126180043444037,0.0105624133720994
871,-0.00312367477454245,0.00083340925630182,-0.0140971103683114,-3.76957927983312E-07,-0.0144299315288663,0.01131755951792
872,-0.00464274827390909,-0.00310673285275698,-0.0169872865080833,-3.73438865608478E-07,-0.0167852938175201,0.00630677724257112
873,-0.00776953250169754,-0.00883348938077688,-0.0198939796537161,-3.71545468169643E-07,-0.0181280486285686,-0.00138705491553992
874,-0.0131502114236355,-0.0158366747200489,-0.0235449206084013,-3.69055896953796E-07,-0.0189290698617697,-0.0108005972579122
875,-0.0195549689233303,-0.0228192396461964,-0.0273252129554749,-3.6408584946912E-07,-0.0194465480744839,-0.0198340471833944
876,-0.0238652154803276,-0.0266513582319021,-0.0285608042031527,-3.5610219129012E-07,-0.0191824976354837,-0.0247183814644814
877,-0.0233013965189457,-0.024343091994524,-0.0249212402850389,-3.46213710145094E-07,-0.0173823907971382,-0.0226617008447647
878,-0.0186665933579206,-0.0170246288180351,-0.0175596456974745,-3.36579830673145E-07,-0.0144667569547892,-0.0152735421434045
879,-0.0143870674073696,-0.010113537311554,-0.0110302660614252,-3.2925257187344E-07,-0.0123066678643227,-0.00845951586961746
880,-0.0134129049256444,-0.00736815948039293,-0.00822961237281561,-3.2507361424905E-07,-0.0121796270832419,-0.00591206317767501
881,-0.0150877879932523,-0.00854974612593651,-0.00880749151110649,-3.23220120890255E-07,-0.0135352611541748,-0.00645462796092033
882,-0.0171134043484926,-0.011339221149683,-0.0111214704811573,-3.21644563427981E-07,-0.0143653368577361,-0.00768898287788033
883,-0.0174360945820808,-0.0126444902271032,-0.0123966531828046,-3.18174102176272E-07,-0.0129174338653684,-0.00750820944085717
884,-0.0157700199633837,-0.011205137707293,-0.0111843189224601,-3.11678007847149E-07,-0.00974391680210829,-0.00536311091855168
885,-0.0135670062154531,-0.00857244059443474,-0.00906615424901247,-3.02675999819257E-07,-0.00687044020742178,-0.00281720655038953
886,-0.0117247682064772,-0.00604612892493606,-0.00718919560313225,-2.9305900284271E-07,-0.00523251062259078,-0.000394540489651263
887,-0.00918990839272738,-0.00279766228049994,-0.00467290030792356,-2.8507284355328E-07,-0.00430725887417793,0.00345600536093116
888,-0.00604180153459311,0.000686129555106163,-0.00184319191612303,-2.80111180472886E-07,-0.00404752371832728,0.00814082752913237
889,-0.00468982988968492,0.00117138307541609,-0.000870985852088779,-2.7796735935226E-07,-0.00489969551563263,0.00997657887637615
890,-0.00447711255401373,-0.000963733007665724,-0.000958222488407046,-2.76946991561999E-07,-0.00573070021346211,0.00915297213941813
891,-0.00259956601075828,-0.00201896810904145,0.000395727780414745,-2.74780347808701E-07,-0.00552866794168949,0.00927024055272341
892,0.00113035691902041,-0.000467309262603521,0.00358313741162419,-2.69843098976708E-07,-0.00469034165143967,0.0117052886635065
893,0.00432064151391387,0.00189394189510494,0.00671776570379734,-2.62027924691211E-07,-0.00403101835399866,0.0146101471036673
894,0.004334497731179,0.00224906369112432,0.00732149463146925,-2.52799083000355E-07,-0.00441248994320631,0.0156648717820644
895,0.000538652413524687,-6.74727925797924E-05,0.00511292601004243,-2.44402059479398E-07,-0.00610507000237703,0.015404187142849
896,-0.00711045926436782,-0.0060487249866128,3.56424279743806E-05,-2.38654763506929E-07,-0.00929034687578678,0.0128070237115026
897,-0.015597109682858,-0.0146078784018755,-0.00585233932361007,-2.35971896245246E-07,-0.0120128626003861,0.00648848433047533
898,-0.0180246457457542,-0.0194619260728359,-0.00679650949314237,-2.35146288218857E-07,-0.0100332600995898,0.000652736576739699
899,-0.0125284744426608,-0.0177733954042196,-0.00136281852610409,-2.34002868637617E-07,-0.00269057345576584,-0.000896796816959977
900,-0.00531044043600559,-0.0143305035308003,0.00470282603055239,-2.30570904591332E-07,0.00536191370338202,-0.000466979836346582
901,-0.00160616915673018,-0.0133744720369577,0.00694246403872967,-2.2414214129185E-07,0.0106157306581736,-0.000807815231382847
902,-0.000290812080493197,-0.0139346485957503,0.00711255799978971,-2.15646380752332E-07,0.0147058358415961,-0.00103210541419685
903,0.000183097552508116,-0.0147490408271551,0.00694780983030796,-2.071448506058E-07,0.0187970362603664,-0.00101123843342066
904,0.000844674534164369,-0.0142049035057426,0.0075438478961587,-2.00717551024354E-07,0.0222512427717447,-0.000375566596630961
905,0.00337415956892073,-0.0106773544102907,0.0103748440742493,-1.97345499941548E-07,0.0250233914703131,0.00157836999278516
906,0.0070172562263906,-0.00555542251095176,0.013810302130878,-1.96389066786651E-07,0.0260293204337358,0.003991040866822
907,0.0099727064371109,-0.000873732846230268,0.0155031010508537,-1.95939932723377E-07,0.0247179195284843,0.00722393905743957
908,0.0102905128151178,0.000514605664648116,0.0136732775717974,-1.93853111341014E-07,0.0218530334532261,0.00933531951159239
909,0.00789172854274511,-0.00244640395976603,0.00890230853110552,-1.8890067110533E-07,0.0188093017786741,0.00712546799331903
910,0.00390807632356882,-0.00866172928363085,0.00258386344648898,-1.81425917844535E-07,0.0162157323211432,-0.000500131980516016
911,-0.000154814362758771,-0.0162175185978413,-0.00411607883870602,-1.73149572901821E-07,0.0141710918396711,-0.0110432300716639
912,-0.000808777695056051,-0.0203930921852589,-0.0065806177444756,-1.66236631571337E-07,0.0142225883901119,-0.0171535778790712
913,0.00100963236764073,-0.020373934879899,-0.00384425930678844,-1.62130433523089E-07,0.0157435741275549,-0.0165134146809578
914,0.00107324786949903,-0.0196294281631708,-0.000480547925690189,-1.60782036573437E-07,0.0160260498523712,-0.01332519762218
915,-0.00117214361671358,-0.0198176987469196,0.000333499512635171,-1.60686695949153E-07,0.0145288342610002,-0.0109370416030288
916,-0.00316484994255006,-0.0196827482432127,-0.000591857184190303,-1.59702437940723E-07,0.0129578998312354,-0.00943841971457005
917,-0.00202229665592313,-0.0162409041076899,0.000380879995645955,-1.56205146595312E-07,0.0132971666753292,-0.00624785572290421
918,0.0024191380944103,-0.00951019208878279,0.0045167556963861,-1.49956917994132E-07,0.0154895549640059,-0.00115601229481399
919,0.00872872304171324,-0.00151883834041655,0.0106400670483708,-1.42222944532477E-07,0.0178489834070206,0.00437767803668976
920,0.0139172729104757,0.00454575102776289,0.0155761893838644,-1.35080099994411E-07,0.0182206314057112,0.00771721638739109
921,0.0158089362084866,0.0064673088490963,0.0168007854372263,-1.30294878886161E-07,0.0165239572525024,0.00714276311919093
922,0.0170346908271313,0.00751851685345173,0.017271826043725,-1.28377337205166E-07,0.0157829187810421,0.00639681937173009
923,0.0179885104298592,0.00861612614244223,0.0179656464606524,-1.28317793723909E-07,0.0158095695078373,0.00647819135338068
924,0.0165280140936375,0.00756076024845243,0.0170704685151577,-1.28142247035612E-07,0.0137824611738324,0.00504744658246636
925,0.0130566982552409,0.00473325606435537,0.0148931005969644,-1.25980690768301E-07,0.00994723569601774,0.00179672020021826
926,0.00710053974762559,-0.000625349523033947,0.00938153360038996,-1.21070002023771E-07,0.00534311030060053,-0.00458018155768514
927,-0.000523973489180207,-0.00800699274986982,-0.000309962400933728,-1.14153280605933E-07,0.00082742131780833,-0.0124885011464357
928,-0.00488577131181955,-0.0122680468484759,-0.00841836910694838,-1.07066519206001E-07,-0.00154023361392319,-0.0154782487079501
929,-0.00459791114553809,-0.0119637921452522,-0.011427279561758,-1.01742372748959E-07,-0.00159490923397243,-0.012744658626616
930,-0.00457943277433515,-0.012225323356688,-0.0135932108387351,-9.91716362364059E-08,-0.00208580191247165,-0.0113129140809178
931,-0.00551866833120584,-0.0130434334278107,-0.015603513456881,-9.88807471458131E-08,-0.00347777479328215,-0.0117803672328591
932,-0.00451285298913717,-0.0108225084841251,-0.0137840360403061,-9.92008182265636E-08,-0.00411096028983593,-0.00968163646757603
933,-0.00286445603705943,-0.00755723752081394,-0.00961603783071041,-9.81756542728363E-08,-0.00390652613714337,-0.006591503508389
934,-0.000111008557723835,-0.00370571715757251,-0.00427498901262879,-9.46145490843264E-08,-0.00219366583041847,-0.00306309759616852
935,0.0047557232901454,0.00125441199634224,0.00216804607771337,-8.87229703039338E-08,0.000846672744955868,0.00141510530374944
936,0.00946814380586147,0.00495773227885365,0.00784310325980186,-8.19769567783624E-08,0.00341394357383251,0.00468620005995035
937,0.0130705293267965,0.0069917687214911,0.0125538595020771,-7.63168372941436E-08,0.00529192760586739,0.00674201920628548
938,0.0134308570995927,0.00565258832648396,0.0135359838604927,-7.31007858689736E-08,0.00537292193621397,0.00563903898000717
939,0.0091986870393157,0.000126674756756984,0.00883117504417896,-7.23826545367956E-08,0.00277027417905629,-0.000147357932291925
940,0.00535672158002853,-0.00334714539349079,0.00510625820606947,-7.28980680264613E-08,6.04886008659378E-05,-0.00433669658377767
941,0.00499003706499934,-0.00205064797773957,0.00610719528049231,-7.27581266346533E-08,-0.0012487187050283,-0.00371042033657432
942,0.00514363357797265,-0.00104174425359815,0.00700205657631159,-7.04699729681124E-08,-0.00202739634551108,-0.00273027177900076
943,0.00483337277546525,-0.00163788429927081,0.00623776437714696,-6.57326424402527E-08,-0.00220970879308879,-0.00191098300274462
944,0.004737320356071,-0.0021644439548254,0.00552271958440542,-5.9583669553831E-08,-0.00211428641341627,-3.64800980605651E-05
945,0.00343389203771949,-0.00373820890672505,0.00400393316522241,-5.38258397853042E-08,-0.00310789770446718,0.000122834142530337
946,0.000430733023677021,-0.00687603838741779,0.00100323290098459,-5.00506054379457E-08,-0.00523136835545301,-0.00271489238366485
947,-0.00247880630195141,-0.00993993878364563,-0.00207133055664599,-4.87872924281874E-08,-0.00674222502857447,-0.00616478733718395
948,-0.00393978413194418,-0.011953323148191,-0.00367160234600306,-4.92329519374834E-08,-0.00602191314101219,-0.00769619131460786
949,-0.00416377279907465,-0.0130523387342691,-0.00346143986098468,-4.97002439203698E-08,-0.00367880053818226,-0.00660016015172005
950,-0.00262730428948998,-0.0123588796705008,-0.00103911000769585,-4.85336819622262E-08,-0.00105881597846746,-0.00293962098658085
951,0.000539335305802524,-0.0101981051266193,0.00305737555027008,-4.49964794313473E-08,0.00110233062878251,0.00131428462918848
952,0.0035021984949708,-0.00798613019287586,0.00748991034924984,-3.96527504165078E-08,0.00224140309728682,0.0043341014534235
953,0.00563972583040595,-0.00543399248272181,0.0119254244491458,-3.40470300841389E-08,0.00255433330312371,0.00705260783433914
954,0.00720046553760767,-0.00261965882964432,0.0160241425037384,-2.98627433892307E-08,0.00292959855869412,0.00971857458353043
955,0.00863774958997965,5.96536574448692E-06,0.0200874898582697,-2.80180039169409E-08,0.00466556940227747,0.0119876153767109
956,0.00997876841574907,0.00211620214395225,0.0238027665764093,-2.81844467764358E-08,0.00780599936842918,0.0136156370863318
957,0.00919253937900066,0.00151156028732657,0.0239790547639132,-2.89809936049323E-08,0.00969576463103294,0.0122849615290761
958,0.00620539346709847,-0.0020342746283859,0.0204349830746651,-2.87289640965582E-08,0.00904066767543554,0.00778881460428238
959,0.0048391348682344,-0.00420789094641805,0.0182942170649767,-2.63556270141407E-08,0.00848374143242836,0.0050921174697578
