,AF3,AF4,Fp1,Fp2,AF7,AF8
0,-0.0244282651692629,-0.021276218816638,-0.010637741535902,-0.00047677694237791,-0.0340856611728668,-0.00513683771714568
1,-0.0245057456195354,-0.0157277975231409,-0.0062122899107635,-0.000483715441077948,-0.0288494024425745,-0.00814413093030453
2,-0.0254337973892689,-0.0141397789120674,-0.00585942948237062,-0.00049720355309546,-0.0242499429732561,-0.0103773307055235
3,-0.0248388350009918,-0.0138777671381831,-0.00644429447129369,-0.000512218335643411,-0.0217276755720377,-0.00979845877736807
4,-0.0197587925940752,-0.0114633599296212,-0.00465313578024507,-0.000523012829944491,-0.0200734548270702,-0.00623509520664811
5,-0.0113908993080258,-0.00653568096458912,-0.00082695169840008,-0.000526189862284809,-0.0180680193006992,-0.000802841794211417
6,-0.00388806057162583,0.000352388015016913,0.00213693082332611,-0.000522423768416047,-0.015901442617178,0.00591582013294101
7,-0.00163092813454568,0.00438909512013197,-0.000482786388602108,-0.000515962776262313,-0.0161604676395655,0.0108677372336388
8,-0.00520164472982287,0.0013163877883926,-0.00981714017689228,-0.000512254016939551,-0.0205445513129234,0.0114373462274671
9,-0.00765174208208919,-0.00339646637439728,-0.0191120579838753,-0.000515016261488199,-0.0269377175718546,0.0115491095930338
10,-0.00342589034698904,-0.00568999350070953,-0.022937161847949,-0.000524332281202078,-0.0324511080980301,0.0130878482013941
11,0.00333211105316877,-0.00819224491715431,-0.022255502641201,-0.000536736741196364,-0.0347497723996639,0.0118791535496712
12,0.00650082901120186,-0.0103177791461349,-0.0182518288493156,-0.000547180126886815,-0.0319584906101227,0.0079469345510006
13,0.00424147304147482,-0.00917739514261484,-0.0120582543313503,-0.000551760196685791,-0.0255040805786848,0.00583958718925714
14,-0.00275669479742646,-0.00589734967797995,-0.00742788426578045,-0.00054974592057988,-0.0198877267539501,0.00655774585902691
15,-0.0117793390527368,-0.00279654911719263,-0.00644469819962978,-0.000543847214430571,-0.0186495333909988,0.00725642731413245
16,-0.0194412898272276,-0.00021839547844138,-0.00742577575147152,-0.000538654217962176,-0.0220334231853485,0.00592041062191129
17,-0.0239060185849667,0.00163563620299101,-0.00836399104446173,-0.000538140127900988,-0.0279770512133837,0.00362570746801794
18,-0.0262484643608332,0.00181018665898591,-0.00992455799132586,-0.000543585803825408,-0.0351671054959297,0.00111156771890819
19,-0.0283606071025133,0.00125511724036187,-0.0129167288541794,-0.000553008052520454,-0.0420507378876209,-0.00223837280645967
20,-0.0315965786576271,-0.000367913220543414,-0.0175331309437752,-0.000562334782443941,-0.0459087416529655,-0.00753880804404616
21,-0.0358608290553093,-0.00571242859587073,-0.0230416264384985,-0.000567638489883393,-0.0451825335621834,-0.013933558948338
22,-0.0390440076589584,-0.0140197733417153,-0.026301359757781,-0.000567204435355961,-0.040673203766346,-0.0177698712795973
23,-0.0401279665529728,-0.0213869325816631,-0.0256193894892931,-0.000562348053790629,-0.0350848846137524,-0.0168846845626831
24,-0.0371441170573235,-0.0216242428869009,-0.0195425562560558,-0.000556599348783493,-0.0285538472235203,-0.00929997675120831
25,-0.0315115936100483,-0.0155089814215899,-0.0108116129413247,-0.000553752295672894,-0.0207606796175241,0.000687774154357612
26,-0.0294063687324524,-0.0123433191329241,-0.00747922761365771,-0.000555855047423393,-0.0155471097677946,0.00328905624337494
27,-0.0310450866818428,-0.0149192214012146,-0.0109119648113847,-0.000562204804737121,-0.0153447929769754,-0.00179687433410436
28,-0.0327432192862034,-0.0193331111222506,-0.0170105490833521,-0.000569834548514336,-0.0183455105870962,-0.00792292412370443
29,-0.0319692902266979,-0.0208023823797703,-0.0224211104214191,-0.000575172365643084,-0.0212787669152021,-0.0103092361241579
30,-0.0275301318615675,-0.0164095368236303,-0.0251166000962257,-0.000575947866309434,-0.0220384150743485,-0.00913930963724852
31,-0.0189467910677195,-0.00642514601349831,-0.0234220046550035,-0.00057233078405261,-0.0202494282275438,-0.00675244815647602
32,-0.00603475654497743,0.00657037412747741,-0.0165129620581865,-0.000566735165193677,-0.0161637719720602,-0.0031696769874543
33,0.00560744106769562,0.0148882195353508,-0.0101473070681095,-0.000562452478334308,-0.0121842492371798,-0.00148334889672697
34,0.010291937738657,0.0147735197097063,-0.00863201636821032,-0.000561884080525488,-0.0100955152884126,-0.00310097727924585
35,0.0118162706494331,0.0125441811978817,-0.00636377697810531,-0.000565322232432663,-0.00804323516786098,-0.00215559499338269
36,0.0162282921373844,0.0112820835784078,2.43953718381817E-06,-0.000570894568227232,-0.00475656846538186,0.00244687148369849
37,0.0228459108620882,0.00912443269044161,0.00684732431545854,-0.000575647398363799,-0.000594737590290606,0.00658771162852645
38,0.0244487170130014,0.00699110981076956,0.00953088421374559,-0.000577145372517407,0.00402782903984189,0.0071875611320138
39,0.0170210283249617,0.00903905369341373,0.00651668990030885,-0.000574723002500832,0.00978398509323597,0.0021896765101701
40,0.00529702007770538,0.0159549526870251,0.00148038030602038,-0.000569748634006828,0.0163025986403227,-0.00606280425563455
41,-0.0040327119641006,0.0202833134680986,-4.5129083446227E-05,-0.000564810296054929,0.019656689837575,-0.0117103718221188
42,-0.00785683002322912,0.0168590191751719,0.00372691522352397,-0.000562303466722369,0.0168503243476152,-0.0113325929269195
43,-0.00800312869250774,0.00776974204927683,0.00756778521463275,-0.00056319049326703,0.00852253288030624,-0.00788741651922464
44,-0.00735632376745343,-0.00151371257379651,0.00683303363621235,-0.00056657160166651,-0.00110289955046028,-0.00573481898754835
45,-0.00638710474595428,-0.00583538506180048,0.00355977797880769,-0.000570250849705189,-0.00731163192540407,-0.00510818744078279
46,-0.0071230479516089,-0.00874244049191475,-0.00167517724912614,-0.000571948534343392,-0.0111637441441417,-0.00717662088572979
47,-0.0108276242390275,-0.0160628352314234,-0.00996108539402485,-0.000570493342820555,-0.0155671173706651,-0.0128214694559574
48,-0.0139422779902816,-0.0248517300933599,-0.0183082688599825,-0.0005663734045811,-0.0193838439881802,-0.0181139782071114
49,-0.0149259911850095,-0.0309178438037634,-0.0242278594523668,-0.000561393157113343,-0.0219069197773933,-0.0203820988535881
50,-0.0159358140081167,-0.03432222828269,-0.0269462410360575,-0.000557664956431836,-0.0238094814121723,-0.0195731110870838
51,-0.0172904618084431,-0.0350004956126213,-0.0248444993048906,-0.000556497136130929,-0.0235474426299334,-0.0155628463253379
52,-0.0168597176671028,-0.0310885980725288,-0.0182860605418682,-0.000557762163225561,-0.0195130314677954,-0.0104940691962838
53,-0.0144839063286781,-0.0240703765302897,-0.0124263316392899,-0.000560046231839806,-0.0133992414921522,-0.0100697772577405
54,-0.01308249309659,-0.0205230787396431,-0.0124202417209744,-0.000561455613933504,-0.00830272864550352,-0.0189740210771561
55,-0.0119526758790016,-0.0220765937119722,-0.0154332108795643,-0.000560623768251389,-0.0044218054972589,-0.0328757427632809
56,-0.00767462886869907,-0.0238785613328218,-0.0165083222091198,-0.000557384511921555,-0.000728262413758785,-0.04324746504426
57,-0.00160700548440218,-0.0247700549662113,-0.0170781221240759,-0.000552785350009799,0.00147584138903767,-0.0485210157930851
58,0.00263637537136674,-0.0268111005425453,-0.0189468134194613,-0.000548473850358278,0.00175128248520195,-0.0507395975291729
59,0.00468102050945163,-0.0288166049867868,-0.0195671487599611,-0.000545815157238394,0.00334805645979941,-0.0496368370950222
60,0.007913863286376,-0.0272479541599751,-0.0162239521741867,-0.000545211078133434,0.00914834253489971,-0.0439228489995003
61,0.0166293140500784,-0.0215130615979433,-0.00919406488537788,-0.000545958231668919,0.0179420448839664,-0.0338148362934589
62,0.0281101390719414,-0.0160710420459509,-0.00192563212476671,-0.000546681345440447,0.0259439721703529,-0.0240591187030077
63,0.0320832133293152,-0.0157097410410643,0.000258011132245883,-0.000546079885680228,0.0294328425079584,-0.0217322967946529
64,0.0271613169461489,-0.0170447137206793,-0.00140727777034044,-0.000543584930710495,0.0284671634435654,-0.0246339309960604
65,0.0228681862354279,-0.012459340505302,0.000756815948989242,-0.000539597182068974,0.0260119345039129,-0.0228534284979105
66,0.0205379743129015,-0.00508506176993251,0.00496841734275222,-0.000535215658601373,0.0217710919678211,-0.017315499484539
67,0.0141930729150772,-0.00372325931675732,0.00320060714147985,-0.00053163303527981,0.0151358162984252,-0.017193678766489
68,0.00295570841990411,-0.00950585026293993,-0.00578097533434629,-0.000529529177583754,0.00865609757602215,-0.0255841966718435
69,-0.0098539050668478,-0.0175520926713943,-0.0190172251313925,-0.000528769101947546,0.00433608330786228,-0.0400219075381756
70,-0.0194746013730764,-0.0223075728863478,-0.0313712656497955,-0.00052853359375149,0.00305061112158,-0.0545151308178902
71,-0.0206277873367071,-0.020292742177844,-0.0349077805876732,-0.000527781608980149,0.0060201003216207,-0.0590838193893433
72,-0.0127089163288474,-0.0135124735534191,-0.0270162709057331,-0.000525785144418478,0.0124808456748724,-0.0483461618423462
73,-0.00248069455847144,-0.00841226894408464,-0.0153418369591236,-0.00052246474660933,0.0183004681020975,-0.0294662080705166
74,0.0055296397767961,-0.00535500515252352,-0.00610849354416132,-0.00051837571663782,0.0222488008439541,-0.0117392269894481
75,0.00995206274092197,-0.00288423500023782,-0.00166187412105501,-0.000514383718837053,0.0257453676313162,-0.00182510435115546
76,0.00614237692207098,-0.00706247286871076,-0.00726016098633409,-0.000511216698214412,0.0269241780042648,-0.00632979394868016
77,-0.00417289510369301,-0.0178313218057156,-0.0203005783259869,-0.000509124365635216,0.0259270574897528,-0.0195925422012806
78,-0.00899271015077829,-0.0221752114593983,-0.025310218334198,-0.000507800257764757,0.0288491547107697,-0.0240442920476198
79,-0.00181250541936606,-0.0133485374972224,-0.0134985148906708,-0.000506577838677913,0.0387273915112019,-0.0134703293442726
80,0.0108255334198475,-0.000993364024907351,0.00530835194513202,-0.000504780327901244,0.0510153062641621,0.000518437009304762
81,0.0218241307884455,0.00662208301946521,0.0180178321897984,-0.000502041599247605,0.0608368813991547,0.0076060863211751
82,0.0303908418864012,0.0107421353459358,0.0220403987914324,-0.000498450535815209,0.0655146911740303,0.00770598882809281
83,0.0352557636797428,0.0105573348701,0.0191665720194578,-0.000494469655677676,0.0624707601964474,0.00216201064176857
84,0.0339840352535248,0.00400738418102264,0.0101515222340822,-0.000490689184516668,0.0518323145806789,-0.00897329673171043
85,0.0290264058858156,-0.00382232363335788,-0.000306493981042877,-0.000487547105876729,0.0381691828370094,-0.0210751984268427
86,0.0258088633418083,-0.00632623676210642,-0.00494683440774679,-0.00048514420632273,0.0281734745949507,-0.0276147034019232
87,0.0276517663151026,-0.00206993008032441,-0.000384100480005145,-0.000483226642245427,0.0273196212947369,-0.0245506688952446
88,0.0351762399077415,0.00542724970728159,0.00982120912522078,-0.000481326715089381,0.0349474735558033,-0.0116870915517211
89,0.0432633310556412,0.0079903919249773,0.0150509383529425,-0.000478984817164019,0.04317856580019,0.00112746260128915
90,0.0455577708780766,0.00330337672494352,0.011024140752852,-0.000475950946565717,0.0465212352573872,0.00393416453152895
91,0.0438496954739094,-0.000328933965647593,0.00698473630473018,-0.00047228203038685,0.0472416281700134,0.0004910824354738
92,0.0414544604718685,0.00125636381562799,0.00863988045603037,-0.00046830321662128,0.0476444102823734,-0.00388953043147922
93,0.0358358472585678,0.00369504163973033,0.010290895588696,-0.000464456825284287,0.0466216877102852,-0.0119638731703162
94,0.0265838820487261,0.00552813243120909,0.01004000287503,-0.0004611071490217,0.0451675951480865,-0.0222617201507092
95,0.0189477000385523,0.00999950990080833,0.0130473282188177,-0.000458382710348815,0.0456207431852818,-0.0261032935231924
96,0.0145014077425003,0.0178915094584227,0.0173615198582411,-0.000456120644230396,0.0455363169312477,-0.0217483434826136
97,0.0117911258712411,0.0277484599500895,0.017643541097641,-0.000453937478596345,0.0425015836954117,-0.0138414390385151
98,0.0126043315976858,0.0366722643375397,0.0156058315187693,-0.000451398082077503,0.0399878695607185,-0.00432883016765118
99,0.0167408473789692,0.0393490418791771,0.0132649596780539,-0.000448213395429775,0.0404703952372074,0.00480284448713064
100,0.0190908424556255,0.0327119454741478,0.00778903253376484,-0.000444379460532218,0.0411677025258541,0.00947901885956526
101,0.0167087074369192,0.0197034906595945,-0.00157185853458941,-0.000440192059613764,0.039918951690197,0.00842227321118116
102,0.0123873399570584,0.00679283123463392,-0.0100980401039124,-0.000436120782978833,0.0378715023398399,0.00474184239283204
103,0.00859162956476212,-0.00317903608083725,-0.0148552441969514,-0.000432592554716393,0.0354799851775169,1.441752192477E-05
104,0.00512245809659362,-0.0120326355099678,-0.0170952416956425,-0.000429781735874712,0.0321387983858585,-0.00659255776554346
105,0.00402349838986993,-0.0184247232973576,-0.0163726340979338,-0.00042750989086926,0.0300173200666904,-0.0118734519928694
106,0.00889832619577646,-0.0171314831823111,-0.0103072188794613,-0.000425314152380452,0.0330768749117851,-0.0102557586506009
107,0.0170011892914772,-0.00918079353868961,-0.00194193713832647,-0.000422662851633504,0.039448793977499,-0.00428753765299916
108,0.0213699042797089,-0.000864784116856754,0.00192328146658838,-0.000419220916228369,0.0424981191754341,-0.0013992014573887
109,0.0217022653669119,0.00758948223665357,0.00166326225735247,-0.000415032816817984,0.0421119667589664,-0.000618159770965576
110,0.0201446339488029,0.0151986787095666,0.000321142928441986,-0.000410522421589121,0.0428537204861641,0.000672979047521949
111,0.017520796507597,0.0174032263457775,-0.00116280990187079,-0.000406296661822125,0.0474786497652531,0.00173514394555241
112,0.0179139766842127,0.0178271774202585,0.00103063008282334,-0.000402841513277963,0.057158924639225,0.00538965361192822
113,0.0223443116992712,0.0204491168260574,0.00675568636506796,-0.000400262419134378,0.0675781071186066,0.0105002522468567
114,0.0277642644941807,0.0222643855959177,0.0106935231015086,-0.000398208998376504,0.0715128928422928,0.0118511905893683
115,0.0346151702105999,0.0235468652099371,0.0121135283261538,-0.000396035466110334,0.0680404081940651,0.0116981333121657
116,0.0432498790323734,0.0274190157651901,0.0137874279171228,-0.000393125897971913,0.0602741725742817,0.0157427564263344
117,0.0482303202152252,0.0306416675448418,0.0147096430882812,-0.000389221357181668,0.0485086105763912,0.0223140623420477
118,0.0462962761521339,0.0291940104216337,0.0130076520144939,-0.000384574173949659,0.0340095497667789,0.0254712887108326
119,0.0411339029669762,0.0239245966076851,0.0105172796174884,-0.000379838049411774,0.0215617623180151,0.0235105361789465
120,0.0356131605803967,0.0153658455237746,0.00804771389812231,-0.000375738716684282,0.0138277057558298,0.0185029394924641
121,0.0296021867543459,0.00564347300678492,0.00490428041666746,-0.000372691138181835,0.010818662121892,0.0144070014357567
122,0.0242988355457783,0.000471022183774039,0.00277274823747575,-0.000370565743651241,0.0126981940120459,0.0145113840699196
123,0.0207033008337021,0.00111134606413543,0.00210715341381729,-0.000368736044038087,0.0176364406943321,0.0150933116674423
124,0.01742690987885,0.00238029751926661,0.000192208288353868,-0.000366394815500826,0.0214776638895273,0.00865187216550112
125,0.0157884564250708,0.00257174274884164,-0.00204523955471814,-0.000362979510100558,0.0234973505139351,-0.00340336584486067
126,0.0179857667535543,0.00377809372730553,-0.00145336578134447,-0.000358482677256688,0.0258640982210636,-0.0132241025567055
127,0.0220733489841223,0.00567988539114594,0.00182862451765686,-0.000353475334122777,0.0289100557565689,-0.0176221132278442
128,0.0264355279505253,0.00834411568939686,0.0077725681476295,-0.000348820147337392,0.0321332365274429,-0.0164065100252628
129,0.0288632176816463,0.0102174142375588,0.0137967579066753,-0.000345217908034101,0.0332151241600513,-0.0127434199675918
130,0.0256185084581375,0.00752951111644506,0.0143661452457309,-0.00034282638807781,0.0292013939470053,-0.0124965263530612
131,0.0187105443328619,0.00207736785523593,0.0105704255402088,-0.000341159728122875,0.0231187958270311,-0.0143373114988208
132,0.0145481647923589,-0.000247727060923353,0.00827221665531397,-0.000339331629220396,0.021781662479043,-0.0113586885854602
133,0.0171254277229309,0.00355072598904371,0.0105552170425653,-0.000336521392455325,0.0286479294300079,-0.000974615628365427
134,0.0250828601419926,0.0108229564502835,0.0158018115907907,-0.000332417577737942,0.0416019074618816,0.0120844589546323
135,0.0345418304204941,0.0188598874956369,0.0217269733548164,-0.000327398942317814,0.0546978563070297,0.0231981631368399
136,0.0431790389120579,0.0281241107732058,0.0284573212265968,-0.00032234750688076,0.0620284639298916,0.0316753499209881
137,0.0476219952106476,0.0359433852136135,0.0326618775725365,-0.000318185600917786,0.0608616657555103,0.0338747054338455
138,0.0448449067771435,0.0377978384494781,0.0295216832309961,-0.000315379904350266,0.0531874299049377,0.0260739009827375
139,0.0372642688453197,0.0329853110015392,0.0206306520849466,-0.000313680386170745,0.0434635914862156,0.0108904391527176
140,0.0307004954665899,0.0255642831325531,0.0126748466864228,-0.000312240299535915,0.0349486842751503,-0.00449959700927138
141,0.0298687182366848,0.0220327079296112,0.0117167737334967,-0.000310060975607485,0.0296553019434214,-0.0113689312711358
142,0.0319885797798634,0.0216924548149109,0.0149289155378938,-0.000306527566863224,0.027233250439167,-0.0101506067439914
143,0.0311877764761448,0.0191066190600395,0.0165720991790295,-0.000301748048514128,0.026202192530036,-0.00780238723382354
144,0.0301252063363791,0.0162512436509132,0.0195464473217726,-0.000296507903840393,0.0277580469846725,-0.00322766602039337
145,0.0329488627612591,0.0157286319881678,0.0250020269304514,-0.000291858275886625,0.0323612652719021,0.00452557578682899
146,0.0373829156160355,0.0175599884241819,0.0288573056459427,-0.00028855333221145,0.0375811085104942,0.0113716991618276
147,0.0375901907682419,0.0203086212277412,0.0279397126287222,-0.000286639056866989,0.03929628059268,0.0128240445628762
148,0.0303054749965668,0.0189686454832554,0.0209156069904566,-0.000285417947452515,0.0345178432762623,0.00776685867458582
149,0.0196550488471985,0.0141132557764649,0.0119171580299735,-0.00028381499578245,0.0261531583964825,0.00416660727933049
150,0.0130542675033212,0.0134836873039603,0.00771683640778065,-0.000280952692264691,0.0206729043275118,0.00999462883919477
151,0.0157543830573559,0.0217088721692562,0.0121811460703611,-0.000276627339189872,0.0223688557744026,0.0236482638865709
152,0.0250235591083765,0.0327302142977715,0.022108007222414,-0.000271427561528981,0.0290857311338186,0.0355044044554234
153,0.0318636670708656,0.0375725962221622,0.0294003020972013,-0.000266426242887974,0.0336346887052059,0.036850843578577
154,0.0305430274456739,0.0342750325798988,0.0288735441863537,-0.000262607296463102,0.0307238008826971,0.0272515006363392
155,0.0218214858323336,0.0252247285097837,0.0207286234945059,-0.000260333792539313,0.021442411467433,0.0114665450528264
156,0.0116037931293249,0.0146962078288198,0.0101702203974128,-0.000259145977906883,0.0123173436149955,-0.00492699677124619
157,0.00610528094694018,0.00740524707362056,0.00343940034508705,-0.00025800138246268,0.00887405034154654,-0.0173185840249062
158,0.00696379691362381,0.00533706974238157,0.00239352765493095,-0.00025583224487491,0.0112957553938031,-0.0241455882787704
159,0.0108740841969848,0.00675477739423513,0.00371234980411828,-0.000252121477387846,0.0156400911509991,-0.0270481798797846
160,0.0119628859683871,0.00619558617472649,0.00148876442108303,-0.000247186573687941,0.0160169564187527,-0.0287384819239378
161,0.00904922466725111,0.00247536157257855,-0.00444671604782343,-0.000242014750256203,0.0107282595708966,-0.0282903965562582
162,0.00596102746203542,0.00270577310584486,-0.00792857445776463,-0.000237735395785421,0.003753598080948,-0.0223339162766933
163,0.0032541265245527,0.00793074071407318,-0.00722193717956543,-0.00023501183022745,-0.00175142707303166,-0.0131049826741219
164,0.000776581175159663,0.0118382731452584,-0.00340872840024531,-0.000233680533710867,-0.00373264658264816,-0.00509587209671736
165,0.000217305016121827,0.0124152675271034,0.00280641787685454,-0.00023283448535949,-0.00163372058887035,-0.000377473857952282
166,-4.42804885096848E-05,0.0118193365633488,0.00731760310009122,-0.000231308556976728,0.00156364857684821,-0.00152779137715697
167,-0.00207360181957483,0.0130967600271106,0.00795527826994658,-0.000228306787903421,0.00430600997060537,-0.00769142573699355
168,-0.00333355786278844,0.0169390719383955,0.00866950210183859,-0.000223833674681373,0.00858389399945736,-0.010535397566855
169,-0.00226032338105142,0.0189689975231886,0.0111193973571062,-0.000218695335206576,0.0141674056649208,-0.00433071097359061
170,-0.00140066863968968,0.0151503747329116,0.0117192454636097,-0.000214068029890768,0.0181688200682402,0.00657883007079363
171,-0.00100948091130704,0.00735941482707858,0.00955487508326769,-0.000210865138797089,0.0201039146631956,0.0149675067514181
172,0.0029953105840832,0.000781756651122123,0.0077895880676806,-0.000209243808058091,0.0209919475018978,0.0180937964469194
173,0.0112029267475009,-0.00277074915356934,0.00797600205987692,-0.000208518104045652,0.0213219057768583,0.0160186439752579
174,0.0194565784186125,-0.00315033900551498,0.0103867622092366,-0.000207526914891787,0.0219187792390585,0.0100656040012836
175,0.0250020325183868,0.00048658499144949,0.0139215178787708,-0.000205259144422598,0.0223504398018122,0.00277726398780942
176,0.0268139410763979,0.005305131431669,0.0152558023110032,-0.00020139929256402,0.0216699931770563,-0.00330529198981822
177,0.0246739313006401,0.00690524326637387,0.0130286412313581,-0.000196498658624478,0.0202302802354097,-0.00686884671449661
178,0.0197611842304468,0.00410108640789986,0.00840162392705679,-0.000191679253475741,0.0179114248603582,-0.00936708226799965
179,0.0145358545705676,-0.000788525328971446,0.00366870523430407,-0.000188029414857738,0.0144707914441824,-0.0117971347644925
180,0.0113392062485218,-0.00400270475074649,0.00125605240464211,-0.000186017146916129,0.0106681557372212,-0.0125337457284331
181,0.00881593395024538,-0.00544440234079957,-0.00067046913318336,-0.000185237789992243,0.00641372241079807,-0.0137201920151711
182,0.0049206642434001,-0.00673977099359035,-0.0044149924069643,-0.000184632299351506,0.00203556288033724,-0.0192861557006836
183,0.00129278935492039,-0.00636395439505577,-0.00732468999922276,-0.000183058422408067,-0.00111739325802773,-0.0263039153069258
184,-0.00126554048620164,-0.00491735525429249,-0.0082259951159358,-0.000179906433913857,-0.0032147616147995,-0.0289962161332369
185,-0.00335500086657703,-0.00547516345977783,-0.00849155709147453,-0.00017542731075082,-0.00335175544023514,-0.0253188889473677
186,-0.00549658481031656,-0.00920806080102921,-0.00943699385970831,-0.000170596351381391,-0.000355994910933077,-0.019794350489974
187,-0.00845749862492085,-0.0152243226766586,-0.0123987840488553,-0.000166586687555537,0.00349236000329256,-0.0190527774393559
188,-0.0110712507739663,-0.0203602574765682,-0.0158544387668371,-0.000164136712555774,0.00632448634132743,-0.0225073844194412
189,-0.0112918233498931,-0.0203015320003033,-0.0165628921240568,-0.000163153323228471,0.00895783305168152,-0.0247383918613195
190,-0.00917217694222927,-0.0155470976606011,-0.0146899968385696,-0.000162764074048027,0.0101405903697014,-0.0245146676898003
191,-0.00546264415606856,-0.0113343978300691,-0.0123694743961096,-0.000161789314006455,0.00719908718019724,-0.0228650327771902
192,-0.0014765546657145,-0.0107819903641939,-0.0109816202893853,-0.000159378556418233,0.000192589315702207,-0.0196416508406401
193,0.000419589370721951,-0.0147592863067985,-0.011818727478385,-0.000155467656441033,-0.00900331977754831,-0.0164931658655405
194,0.000702014076523483,-0.0208333507180214,-0.0136547442525625,-0.000150810650666244,-0.0166547764092684,-0.0148393698036671
195,0.00214892998337746,-0.0226809792220593,-0.0126623464748263,-0.000146570702781901,-0.0180144682526588,-0.0135109955444932
196,0.00513465469703078,-0.0170353595167398,-0.00682020373642445,-0.00014369205746334,-0.0125032933428884,-0.0107246320694685
197,0.00624907994642854,-0.00825891550630331,0.00121045450214297,-0.000142392600537278,-0.00455066375434399,-0.00792065914720297
198,0.00316188996657729,-0.00341527280397713,0.00658871047198772,-0.000142049699206837,0.00327308126725256,-0.00869195442646742
199,0.0010871262056753,-0.00379433715716004,0.00877008400857449,-0.000141539407195523,0.0129346372559667,-0.0108943730592728
200,0.00441895658150315,-0.00736088631674647,0.00897332094609737,-0.000139844123623334,0.0233267899602652,-0.0116459839046001
201,0.00827048067003489,-0.0126854768022895,0.00593802286311984,-0.000136599861434661,0.0290011819452047,-0.013643765822053
202,0.0083945095539093,-0.0161168370395899,0.000702314311638474,-0.000132288740132935,0.0274474434554577,-0.0168807450681925
203,0.00640721153467894,-0.0140375895425677,-0.00331847812049091,-0.000127974737551995,0.0203491002321243,-0.0167735312134027
204,0.00431896094232798,-0.00785074103623629,-0.00541141768917441,-0.000124727666843683,0.0110250161960721,-0.01036680303514
205,0.00230740755796433,-0.00285371928475797,-0.00726148579269648,-0.000123047342640348,0.00263075181283057,8.62945234985091E-05
206,-3.24357752106152E-05,-0.0012475085677579,-0.00893924292176962,-0.000122598168672994,-0.0031589069403708,0.00904200877994299
207,-0.00361395697109401,-0.00102027400862426,-0.0104665383696556,-0.000122395184007473,-0.00707334000617266,0.0113760586827993
208,-0.00653127674013376,0.00142099650111049,-0.0109030259773135,-0.000121338358439971,-0.00980472099035978,0.00810484308749437
209,-0.00514366012066603,0.00725581170991063,-0.00798337999731302,-0.000118805372039787,-0.0104033648967743,0.00602266052737832
210,-0.00161274697165936,0.0115294810384512,-0.00409238087013364,-0.000114983013190795,-0.00880634412169456,0.00719324592500925
211,-0.000676090596243739,0.00909623317420483,-0.00327002513222396,-0.000110760767711326,-0.00567048601806164,0.00824841670691967
212,-0.00205650134012103,0.00152038421947509,-0.00457779318094254,-0.000107247062260285,-0.0018852052744478,0.00839021429419518
213,-0.00267547089606524,-0.00606500264257193,-0.00468210689723492,-0.000105171304312535,0.000998931587673724,0.00795061141252518
214,-0.0030302160885185,-0.0126104354858398,-0.00421339180320501,-0.000104494538391009,0.00197548186406493,0.00295760249719024
215,-0.00339773390442133,-0.0169682484120131,-0.00347980414517224,-0.000104436658148188,0.00194444181397557,-0.00540630938485265
216,-0.00214662705548108,-0.0164016466587782,-0.00131211383268237,-0.000103902100818232,0.00102976628113538,-0.00982261262834072
217,0.000123681515106,-0.0120551893487573,0.000352883129380643,-0.000102071717265062,-0.00177297997288406,-0.00845339894294739
218,0.0013793419348076,-0.00714939087629318,-0.000371330766938627,-9.88408210105263E-05,-0.00486080814152956,-0.00611115712672472
219,-0.00042143723112531,-0.00271947146393359,-0.00277007627300918,-9.48691522353329E-05,-0.00605247495695949,-0.00880043860524893
220,-0.00456883711740375,0.00314202182926238,-0.00425930228084326,-9.12191389943473E-05,-0.005733129568398,-0.0159461218863726
221,-0.00876913405954838,0.0077955573797226,-0.00479600625112653,-8.87810019776225E-05,-0.00536985136568546,-0.0228009019047022
222,-0.0110046155750752,0.00676306383684278,-0.00561107462272048,-8.77957718330435E-05,-0.00458707520738244,-0.0250710994005203
223,-0.00971278268843889,0.00291870604269207,-0.0052498709410429,-8.77319762366824E-05,-0.00255033327266574,-0.0194703321903944
224,-0.00358713255263865,0.00146306038368493,-0.00149688532110304,-8.75789119163528E-05,0.000307167676510289,-0.00672846101224422
225,0.00859276950359344,0.00308265839703381,0.00635072682052851,-8.63946552271955E-05,0.00466327695176005,0.00855718273669481
226,0.0216272529214621,0.00532000139355659,0.0157870557159185,-8.38115665828809E-05,0.0112833781167865,0.0197090562433004
227,0.0271225981414318,0.00747756287455559,0.0245183017104864,-8.02279100753367E-05,0.0184812769293785,0.0231973212212324
228,0.024098901078105,0.00998786929994822,0.0313497856259346,-7.65856893849559E-05,0.0234375577419996,0.020277064293623
229,0.0161915551871061,0.0117920348420739,0.0323483981192112,-7.38586386432871E-05,0.0239701513200998,0.0129702053964138
230,0.0065216994844377,0.01427539344877,0.0245934166014194,-7.25286372471601E-05,0.0202243234962225,0.00480239791795611
231,-0.00244600069709122,0.0195774305611849,0.0107594318687916,-7.23322882549837E-05,0.0145270870998502,-0.00023009764845483
232,-0.0102785229682922,0.0222998075187206,-0.00406882259994745,-7.24107521818951E-05,0.00833207089453936,-0.00293179275467992
233,-0.0155046936124563,0.0173271279782057,-0.0141176376491785,-7.1777896664571E-05,0.00258685369044542,-0.00499256700277328
234,-0.0129414405673742,0.0126757360994816,-0.0130825862288475,-6.98514704708941E-05,-0.000466252386104316,-0.00280589587055147
235,-0.00258030486293137,0.0158306714147329,-0.00268587190657854,-6.67610074742697E-05,-0.000743166950996965,0.00311889126896858
236,0.00822403468191624,0.0211514979600906,0.0074938009493053,-6.32697556284256E-05,-0.00106535188388079,0.00583187490701675
237,0.0146207893267274,0.0220479890704155,0.0125743625685573,-6.03570297244005E-05,-0.00252359570004046,0.00399709306657314
238,0.017253952100873,0.0184748992323875,0.0150547754019499,-5.86896676395554E-05,-0.00250419043004513,0.00137263699434698
239,0.0174439772963524,0.0123154325410724,0.0181288812309504,-5.82678076170851E-05,0.00209603179246187,-0.00109074043575674
240,0.0137707479298115,0.00419965852051973,0.0207347460091114,-5.84331901336554E-05,0.0100997099652886,-0.00547420373186469
241,0.00803526304662228,-0.00210799858905375,0.0223977267742157,-5.8230958529748E-05,0.0184514708817005,-0.00953877437859774
242,0.00387217267416418,-0.00394865637645125,0.0228286199271679,-5.69260664633475E-05,0.0240912828594446,-0.0109139997512102
243,-0.000110574903374072,-0.00534883048385382,0.017975801602006,-5.43949499842711E-05,0.0231103952974081,-0.013744649477303
244,-0.00226447987370193,-0.00515368301421404,0.0102017410099506,-5.1183673349442E-05,0.0164024885743856,-0.01668481528759
245,0.00166436668951064,0.000382857542717829,0.00656188931316137,-4.82058130728547E-05,0.00972370710223913,-0.0141549995169044
246,0.00865547265857458,0.00655624317005277,0.00686794379726052,-4.62470889033284E-05,0.00641797855496407,-0.00874617975205183
247,0.0128061175346375,0.00705496687442064,0.00659161107614636,-4.55454355687834E-05,0.00574958929792047,-0.00660565961152315
248,0.01576317101717,0.00331217516213655,0.00627671461552382,-4.5670891267946E-05,0.00667847506701946,-0.00670090829953551
249,0.0205983631312847,0.000990627566352487,0.00915851350873709,-4.57656860817224E-05,0.00772410165518522,-0.00397289311513305
250,0.0217070169746876,0.000961333920713514,0.0126404715701938,-4.50105035270099E-05,0.00577734131366014,-1.513915049145E-05
251,0.0144266514107585,0.00030200625769794,0.0117355762049556,-4.30634572694544E-05,0.000350118149071932,0.00106191600207239
252,0.00190519250463694,-0.0035438253544271,0.00472461944445968,-4.02364967158064E-05,-0.00581261049956083,-0.000371950765838847
253,-0.010491163469851,-0.0112538263201714,-0.00608162116259336,-3.7318401155062E-05,-0.0100218374282122,-0.00249993707984686
254,-0.0180579759180546,-0.0199589803814888,-0.0153689254075289,-3.51445451087784E-05,-0.0105586694553494,-0.00387101713567972
255,-0.0187800787389278,-0.0251360088586807,-0.0195705499500036,-3.41481063514948E-05,-0.00771259237080812,-0.00363543094135821
256,-0.0153946848586202,-0.0251579582691193,-0.019445551559329,-3.41337981808465E-05,-0.00401239609345794,-0.0031917910091579
257,-0.0112991891801357,-0.0204680953174829,-0.0172495041042566,-3.43922038155142E-05,-0.000229425189900212,-0.0037258299998939
258,-0.00721484003588557,-0.0118359150364995,-0.0149632310494781,-3.40880869771354E-05,0.00526401307433844,-0.00541612831875682
259,-0.00186068913899362,-0.0020432195160538,-0.0125260790809989,-3.27101624861825E-05,0.0125959292054176,-0.0086001493036747
260,0.00675879092887044,0.00658896937966347,-0.00697670830413699,-3.03400411212351E-05,0.0199110694229603,-0.0124657293781638
261,0.0159989837557077,0.0121519276872277,0.000802074035163969,-2.75989732472226E-05,0.0233456548303366,-0.017994336783886
262,0.0204193461686373,0.0128734698519111,0.00561150396242738,-2.53060479735723E-05,0.0206175558269024,-0.0257605612277985
263,0.0194488428533077,0.0103782899677753,0.00565733108669519,-2.40358785958961E-05,0.0141496937721968,-0.0314587168395519
264,0.0166099444031715,0.00841542799025774,0.00399869726970792,-2.38145767070819E-05,0.00613992707803845,-0.0307079758495092
265,0.014144528657198,0.00897476635873318,0.00381384254433215,-2.41147954511689E-05,-0.00344932661391795,-0.0248051267117262
266,0.0121471220627427,0.0116347279399633,0.00576230185106397,-2.41475390794221E-05,-0.0133724166080356,-0.0176815707236528
267,0.0105103738605976,0.0145345963537693,0.00877190008759499,-2.3289325326914E-05,-0.0210199244320393,-0.0111568076536059
268,0.00787686742842197,0.0142923537641764,0.00972684752196074,-2.14133779081749E-05,-0.0258494708687067,-0.00756134325638413
269,0.00272673740983009,0.00939576420933008,0.00600199634209275,-1.89489637705265E-05,-0.0290955286473036,-0.00976021774113178
270,-0.00158103229478002,0.00433336244896054,0.000275775179034099,-1.6641708498355E-05,-0.0295645464211702,-0.0152857322245836
271,0.00158048165030777,0.0037311352789402,-0.00214505800977349,-1.51485819515074E-05,-0.0245730821043253,-0.0178391300141811
272,0.0122501896694303,0.00616779224947095,0.000624120235443115,-1.46874926940654E-05,-0.0154062025249004,-0.0148770986124873
273,0.0214155651628971,0.00818478781729937,0.00572288408875465,-1.49283323480631E-05,-0.00710193999111652,-0.00942744500935078
274,0.0203297343105078,0.00641782395541668,0.0072405762039125,-1.51795502461027E-05,-0.00421391474083066,-0.00768623594194651
275,0.0110116833820939,0.00174489803612232,0.00462092505767941,-1.47649816426565E-05,-0.00611053593456745,-0.0105835553258657
276,0.00247639347799122,-8.73032549861819E-05,0.00376815441995859,-1.33855874082656E-05,-0.00794314779341221,-0.01247214153409
277,-0.000378053839085624,0.00349959474988282,0.00811040215194225,-1.12725647340994E-05,-0.00648944452404976,-0.0100069977343082
278,0.00120115419849753,0.00889276154339314,0.0154262501746416,-9.0536623247317E-06,-0.00218998244963586,-0.00562016479671001
279,0.00495978072285652,0.0125012854114175,0.0222739521414042,-7.40963378120796E-06,0.00301254773512483,-0.00186510931234807
280,0.00945636350661516,0.01484748814255,0.0267614554613829,-6.70876261210651E-06,0.00777939101681113,0.00256666750647128
281,0.0106362728402019,0.0130208898335695,0.0250730756670237,-6.81561505189165E-06,0.0114278653636575,0.00670360820367932
282,0.00799831841140985,0.00353905814699829,0.0171385034918785,-7.17312786946422E-06,0.0162213668227196,0.00827412027865648
283,0.00640297820791602,-0.00836177077144384,0.00971914082765579,-7.10881977283861E-06,0.0233011171221733,0.0085081085562706
284,0.00725184055045247,-0.0153396651148796,0.00700534088537097,-6.19684715275071E-06,0.0276584811508656,0.00921593327075243
285,0.0109682213515043,-0.0134794041514397,0.00974047277122736,-4.48095715910313E-06,0.0262934658676386,0.0120545858517289
286,0.0174588579684496,-0.00286100734956563,0.016032537445426,-2.44172883867577E-06,0.020470118150115,0.0160971023142338
287,0.0220536850392818,0.0129625564441085,0.0201922915875912,-7.30692192973947E-07,0.0109376348555088,0.0173577275127172
288,0.022939708083868,0.0320978313684464,0.021308071911335,1.81702915824644E-07,0.000906891305930912,0.0167873650789261
289,0.0218032002449036,0.0508492179214954,0.0220177378505468,2.54122369369725E-07,-0.00598747516050935,0.0164491590112448
290,0.0175945311784744,0.0612234137952328,0.0200389195233583,-1.12241380634259E-07,-0.0113673219457269,0.0128347016870975
291,0.0112405763939023,0.0592002049088478,0.014848530292511,-2.97267177984395E-07,-0.0169587302953005,0.00447980919852853
292,0.00631552701815963,0.047870796173811,0.0103145521134138,2.02008109795315E-07,-0.0206739120185375,-0.00587442936375737
293,0.00361924897879362,0.0342217274010181,0.00850973464548588,1.50496146034129E-06,-0.0197190549224615,-0.0148957725614309
294,0.00159843172878027,0.0236053094267845,0.00872973818331957,3.29169051838107E-06,-0.0133097833022475,-0.0198297239840031
295,0.000243272239458747,0.0154608311131597,0.00878286827355623,4.98340978083434E-06,-0.00458038598299026,-0.0207008048892021
296,0.00306239724159241,0.00981009285897017,0.00993710942566395,6.05743434789474E-06,0.0025522222276777,-0.016650453209877
297,0.00856268592178822,0.00778961647301912,0.0146122211590409,6.32541514278273E-06,0.00647978996858001,-0.0086866607889533
298,0.00981547497212887,0.00656024273484945,0.0202708151191473,6.02681984673836E-06,0.00743032805621624,-0.00257732905447483
299,0.00485436571761966,0.0046082348562777,0.021885272115469,5.69168196307146E-06,0.00600989256054163,-0.000411327026085928
300,-0.00334170227870345,0.00438298331573606,0.0165378469973803,5.85104817218962E-06,0.00236162543296814,0.000134048546897247
301,-0.0121009955182672,0.00610874639824033,0.00456545827910304,6.75327919452684E-06,-0.00289614871144295,-0.000613168987911195
302,-0.0202058907598257,0.00577125092968345,-0.0114397285506129,8.23773643787717E-06,-0.00897491071373224,-0.00377037283033133
303,-0.0235917959362268,0.00319772213697433,-0.0240582097321749,9.82985056907637E-06,-0.0132606960833073,-0.00483963545411825
304,-0.0183449704200029,0.00219848030246794,-0.0263580363243818,1.10017790575512E-05,-0.012748135253787,0.00132777250837535
305,-0.00822251662611961,0.00324031780473888,-0.0210318975150585,1.14556005428312E-05,-0.00924794655293226,0.0105346534401178
306,-9.50340327108279E-05,0.00464606238529086,-0.0150434263050556,1.12771913336474E-05,-0.00704401172697544,0.0154416086152196
307,0.00265996553935111,0.00463575031608343,-0.0119321784004569,1.08815547719132E-05,-0.00767214270308614,0.0135626895353198
308,0.00375507422722876,0.00463028671219945,-0.00848749000579119,1.07836312963627E-05,-0.0080179562792182,0.0106880692765117
309,0.00965872313827276,0.00855409447103739,0.000298386818030849,1.13211099233013E-05,-0.00519364420324564,0.0147697338834405
310,0.0168166104704142,0.0135000413283706,0.0090920040383935,1.2478415555961E-05,-0.00339038600213826,0.0215546581894159
311,0.0178430061787367,0.0149648794904351,0.0103065269067883,1.39035018946743E-05,-0.00673368666321039,0.0237126853317022
312,0.0143163921311498,0.0152360117062926,0.00703600561246276,1.51038611875265E-05,-0.0121208634227514,0.0245653036981821
313,0.00803465209901333,0.013889541849494,0.00196533696725965,1.5712799722678E-05,-0.0172141715884209,0.025860333815217
314,-0.00175332243088633,0.00857068877667189,-0.00581101141870022,1.5682098819525E-05,-0.0221593827009201,0.0248942822217941
315,-0.010643171146512,0.00471433904021978,-0.0114081613719463,1.52999928104691E-05,-0.0239140726625919,0.0254473723471165
316,-0.015704995021224,0.00570061383768916,-0.0107504958286881,1.50291753016063E-05,-0.0199386607855558,0.0297956001013517
317,-0.0191262047737837,0.00679436232894659,-0.00607396475970745,1.52557277033338E-05,-0.0117937531322241,0.0325644128024578
318,-0.023460952565074,0.00286685489118099,-0.00370578048750758,1.6085192328319E-05,-0.00471115903928876,0.0273760017007589
319,-0.0282934866845608,-0.00629142019897699,-0.00798370223492384,1.72934214788256E-05,-0.00322017469443381,0.013734589330852
320,-0.0292186085134745,-0.015999449416995,-0.0151740936562419,1.84545242518652E-05,-0.00539250951260328,-0.000232664126087911
321,-0.0224579051136971,-0.0231981314718723,-0.0198676791042089,1.91731433005771E-05,-0.00706155318766832,-0.00685069058090448
322,-0.00926853809505701,-0.0270109921693802,-0.0194396208971739,1.92944771697512E-05,-0.00640901690348983,-0.00467506004497409
323,0.00178547773975879,-0.0277435909956694,-0.0161401629447937,1.89806123671588E-05,-0.00361586478538811,0.000974292517639697
324,0.00300995609723032,-0.0274785961955786,-0.0156004093587399,1.86159268196207E-05,-0.000590598792769015,0.00183034455403686
325,-0.00163010018877685,-0.0237847249954939,-0.0168442986905575,1.85964818228967E-05,0.000904083892237395,-0.00239744293503463
326,-0.00498594576492906,-0.0139530971646309,-0.0159344282001257,1.91187500604428E-05,-0.000134940215502866,-0.00728562707081437
327,-0.00560572138056159,-0.00153373356442899,-0.0131517546251416,2.00803424377227E-05,-0.00246692984364927,-0.0100281247869134
328,-0.00441821804270148,0.00963194575160742,-0.00946396961808205,2.11426322493935E-05,-0.00257490668445826,-0.00755454879254103
329,-0.00405040942132473,0.0162881333380938,-0.0068264021538198,2.19175562961027E-05,-0.000428833707701415,-0.00120339798741043
330,-0.00760239083319902,0.0137634053826332,-0.00830535124987364,2.21756654354976E-05,-0.000217934415559284,0.00215058145113289
331,-0.0128589747473598,0.00432026060298085,-0.0118782762438059,2.19639914575964E-05,-0.00286493543535471,0.00220133946277201
332,-0.0167612116783857,-0.0038199087139219,-0.0142142688855529,2.15734253288247E-05,-0.00557335233315825,0.00477088894695044
333,-0.0203362423926592,-0.00703463237732649,-0.0164159741252661,2.13771400012774E-05,-0.00738298427313566,0.0101795149967074
334,-0.023350652307272,-0.0067048235796392,-0.0189778972417116,2.16297448787373E-05,-0.00888103526085615,0.0140252271667123
335,-0.0233880653977394,-0.00465424172580242,-0.0198816452175379,2.23352108150721E-05,-0.00942953769117594,0.0142498780041933
336,-0.0185485333204269,-0.000163486096425913,-0.0166322365403175,2.32519487326499E-05,-0.00586740113794804,0.0140059441328049
337,-0.0116516500711441,0.00457191513851285,-0.0114380642771721,2.40284334722674E-05,0.00187045021448284,0.0124564347788692
338,-0.00856013316661119,0.004005276132375,-0.0101957051083446,2.43933900492266E-05,0.00728603219613433,0.00404858170077205
339,-0.0104091409593821,-0.00208668853156269,-0.0134117752313614,2.42977821471868E-05,0.00622573867440224,-0.0100228879600763
340,-0.0135936895385385,-0.00850609876215458,-0.0164838377386332,2.39344190049451E-05,0.00183316669426858,-0.0224847756326199
341,-0.0154479686170816,-0.0106934821233153,-0.0171503443270922,2.36283703998197E-05,-0.00186862121336162,-0.02786217443645
342,-0.0138858743011951,-0.00687375757843256,-0.0149705745279789,2.36603082157671E-05,-0.00358449690975249,-0.0233736336231232
343,-0.00650394521653652,0.00156986084766686,-0.00939764175564051,2.41187335632276E-05,-0.00300614978186786,-0.00830312538892031
344,0.00301695056259632,0.00781465601176023,-0.00502848578616977,2.48588148679119E-05,-0.00150599435437471,0.00993383396416903
345,0.00887146592140198,0.00733942026272416,-0.00584292272105813,2.55864852078957E-05,-0.000504143303260207,0.0212947148829699
346,0.0121091157197952,0.00489594042301178,-0.0066342931240797,2.60192628047662E-05,0.00124592951033264,0.0256131831556559
347,0.0149191301316023,0.0047163050621748,-0.00259550171904266,2.60359611274907E-05,0.00457471609115601,0.0279576424509287
348,0.013944573700428,0.00371808442287147,0.00133386801462621,2.57360552495811E-05,0.0069922711700201,0.028662757948041
349,0.00801434926688671,-0.00144062377512455,-0.000897430523764342,2.53800135396887E-05,0.00561753800138831,0.0254620276391506
350,0.00396854057908058,-0.00751486606895924,-0.00645815394818783,2.52460195042659E-05,0.00131970818620175,0.0202423539012671
351,0.00384373171254992,-0.0102070970460773,-0.0104757780209184,2.5481844204478E-05,-0.00302433618344367,0.0150808542966843
352,0.000518541724886745,-0.010233998298645,-0.0134019013494253,2.60306987911463E-05,-0.00631528301164508,0.00725322682410479
353,-0.00832266267389059,-0.0095197381451726,-0.0159664489328861,2.6668019927456E-05,-0.00830558408051729,-0.00449440069496632
354,-0.0181204825639725,-0.00861362181603909,-0.0171195603907108,2.71260905719828E-05,-0.00815661903470755,-0.0164227299392223
355,-0.0244651436805725,-0.00781441014260054,-0.0165242590010166,2.7237436370342E-05,-0.00480322958901525,-0.0250280722975731
356,-0.0247564930468798,-0.0069392267614603,-0.0140613345429301,2.70203381660394E-05,0.00138554733712226,-0.0298866014927626
357,-0.0193391777575016,-0.00493294419720769,-0.0101062236353755,2.666297586984E-05,0.00620020693168044,-0.0309873186051846
358,-0.0113801555708051,-0.0014454327756539,-0.00549234542995691,2.64180671365466E-05,0.00550627475604415,-0.0276517458260059
359,-0.00335691310465336,0.00314961490221322,-0.000459952803794295,2.64668578893179E-05,0.000865445355884731,-0.0205090939998627
360,0.00206272443756461,0.00592888426035643,0.00201612943783402,2.68256371782627E-05,-0.00468165148049593,-0.0151970246806741
361,0.000614327494986355,0.00164972699712962,-0.00301327928900719,2.73428631771822E-05,-0.0115312151610851,-0.0190925225615501
362,-0.00792774930596352,-0.00885473098605871,-0.0149732995778322,2.77852559520397E-05,-0.0201585609465837,-0.0302471145987511
363,-0.0173203181475401,-0.0179995372891426,-0.0270530115813017,2.79641681117937E-05,-0.0276186112314463,-0.0381695590913296
364,-0.022216035053134,-0.0217867437750101,-0.0343701504170895,2.78338357020402E-05,-0.0306358598172665,-0.0379359982907772
365,-0.0219889283180237,-0.0208944492042065,-0.0364222303032875,2.75105412583798E-05,-0.0287157166749239,-0.032370388507843
366,-0.0179807413369417,-0.0155187491327524,-0.0339030586183071,2.72053348453483E-05,-0.0233014449477196,-0.02500069886446
367,-0.012912224046886,-0.00720445858314633,-0.0289087723940611,2.71090975729749E-05,-0.0158054791390896,-0.0191677194088697
368,-0.00815811287611723,0.00214707315899432,-0.0223692487925291,2.72924517048523E-05,-0.00477128010243177,-0.0146752092987299
369,-0.00293635600246489,0.0105910645797849,-0.0135480929166079,2.76729588222224E-05,0.00984298065304756,-0.0086935218423605
370,-0.000237543921684846,0.0118837030604482,-0.00686664367094636,2.80643998848973E-05,0.0195608176290989,-0.00482669658958912
371,-0.00398821802809834,0.00258086249232292,-0.00891529768705368,2.82790333585581E-05,0.0156008247286081,-0.00896687246859074
372,-0.0086955651640892,-0.00806055590510368,-0.0150970760732889,2.82267810689518E-05,0.00198450870811939,-0.0157415792346001
373,-0.00790024269372225,-0.0109159564599395,-0.0167962275445461,2.79590440186439E-05,-0.0115137528628111,-0.017261017113924
374,-0.00578821077942848,-0.0109102604910731,-0.0161131080240011,2.76361806754721E-05,-0.0211609415709972,-0.0165063478052616
375,-0.00688036484643817,-0.0140303391963243,-0.0169630087912083,2.74387512035901E-05,-0.0266010109335184,-0.016468008980155
376,-0.0103832008317113,-0.0183219071477652,-0.0188856720924377,2.74716185231227E-05,-0.0292657874524593,-0.0154982870444655
377,-0.0153903104364872,-0.0211629122495651,-0.0222663637250662,2.77117615041789E-05,-0.0322282165288925,-0.0141829764470458
378,-0.0186724122613668,-0.0208855010569096,-0.0259513016790152,2.80255717370892E-05,-0.0358936712145805,-0.012725149281323
379,-0.0161594487726688,-0.0169311370700598,-0.0274802297353745,2.824371222232E-05,-0.0385182499885559,-0.0109331542626023
380,-0.00821562297642231,-0.00927101075649261,-0.0248286686837673,2.8251708499738E-05,-0.0382798686623573,-0.00730623677372932
381,-0.000969601736869663,-0.000542186084203422,-0.0192392189055681,2.80479362118058E-05,-0.0362357646226883,-0.0015806348528713
382,-0.00195212324615568,0.00218775100074708,-0.0175728183239698,2.77397975878557E-05,-0.0365044772624969,-0.000701870187185705
383,-0.0107651799917221,-0.00235647172667086,-0.0224889349192381,2.74827361863572E-05,-0.039686243981123,-0.00814034696668386
384,-0.0208616219460964,-0.00823220238089561,-0.0295176077634096,2.73965888482053E-05,-0.0429755188524723,-0.0196993220597506
385,-0.0288380216807127,-0.0123463943600655,-0.0355759486556053,2.75042602879694E-05,-0.0448697730898857,-0.0325058847665787
386,-0.0350019931793213,-0.0154525991529226,-0.040539413690567,2.77239541901508E-05,-0.0455321297049522,-0.0446396060287952
387,-0.0370304249227047,-0.0160260051488876,-0.0414730608463287,2.79167161352234E-05,-0.0442993901669979,-0.0503133907914162
388,-0.0324052684009075,-0.0123298345133662,-0.0353088043630123,2.79618288914207E-05,-0.0397016480565071,-0.046219926327467
389,-0.0248069409281015,-0.00703283818438649,-0.0255076717585325,2.78192746918648E-05,-0.0320404507219791,-0.0380580648779869
390,-0.0178352016955614,-0.00218869582749903,-0.0162625219672918,2.75470501946984E-05,-0.022651594132185,-0.0311561245471239
391,-0.010857792571187,0.0028281225822866,-0.00758742680773139,2.72663673968054E-05,-0.0127379707992077,-0.0240280404686928
392,-0.00523170223459601,0.00580416386947036,-0.000495495391078293,2.70953805738827E-05,-0.0039184931665659,-0.0164677742868662
393,-0.00269918306730688,0.00593873159959912,0.00391448987647891,2.70876316790236E-05,0.00285597378388047,-0.00963475741446018
394,-0.000296413636533543,0.00974326767027378,0.00903849489986897,2.72072029474657E-05,0.00774786015972495,-0.000941713224165142
395,0.00133501086384058,0.0172734539955854,0.013627452775836,2.73517871391959E-05,0.00774203985929489,0.00633409665897489
396,-0.0027269774582237,0.0190094783902168,0.0112627744674683,2.74092981271679E-05,-0.000599652528762817,0.00515376590192318
397,-0.00983051583170891,0.0136236185207963,0.00417353818193078,2.73167752311565E-05,-0.0131967011839151,-0.000723903009202331
398,-0.0142437014728785,0.00660897325724363,-0.00125813204795122,2.70907530648401E-05,-0.0240674447268248,-0.00332223880104721
399,-0.0156965926289558,-0.000187958110473119,-0.00414399011060596,2.68146868620534E-05,-0.0316747054457664,-0.000752852531149983
400,-0.0131400730460882,-0.00335202016867697,-0.00283168768510222,2.65922044491163E-05,-0.0340716801583767,0.00788213312625885
401,-0.0056130001321435,0.00017591925279703,0.00401106011122465,2.64923000941053E-05,-0.0305657479912043,0.0205798111855984
402,0.00181121984496713,0.00577212776988745,0.0107222003862262,2.65153921645833E-05,-0.0263952687382698,0.0285728480666876
403,0.00465825572609901,0.0083955405279994,0.0122194970026612,2.65967719315086E-05,-0.0264846533536911,0.0263519696891308
404,0.000909409951418638,0.00455663679167628,0.00596433272585273,2.66436272795545E-05,-0.0317495092749596,0.012909097597003
405,-0.00907242204993963,-0.0067597758024931,-0.00852909497916698,2.65845974354306E-05,-0.0402643047273159,-0.00944532640278339
406,-0.0208993423730135,-0.0208564512431622,-0.0267588645219803,2.64054688159376E-05,-0.0491960011422634,-0.0343790873885155
407,-0.0297220461070538,-0.0317590571939945,-0.0424897074699402,2.61533550656168E-05,-0.0569208078086376,-0.0544963702559471
408,-0.0325829945504665,-0.035254992544651,-0.0501894317567348,2.5908981115208E-05,-0.0617125108838081,-0.0621034987270832
409,-0.0311421360820532,-0.0331337749958038,-0.0499705970287323,2.57432602666086E-05,-0.0631145983934402,-0.0569976828992367
410,-0.0268595442175865,-0.0299489088356495,-0.0458535104990005,2.56814564636443E-05,-0.0619477145373821,-0.0456375069916248
411,-0.0191978104412556,-0.0264589320868254,-0.0392912104725838,2.56929542956641E-05,-0.0579667389392853,-0.032966110855341
412,-0.0131569113582373,-0.023353923112154,-0.0321614295244217,2.57103074545739E-05,-0.0519803948700428,-0.0240162871778011
413,-0.0128191374242306,-0.020939078181982,-0.0264379754662514,2.56659932347247E-05,-0.0463943481445313,-0.0211554318666458
414,-0.0156170204281807,-0.0172499939799309,-0.0224233791232109,2.55269096669508E-05,-0.0430918857455254,-0.0217186436057091
415,-0.0196298658847809,-0.0125293806195259,-0.0213250853121281,2.53091257036431E-05,-0.0427263155579567,-0.0232662558555603
416,-0.0241625495254993,-0.00885751377791166,-0.02300114184618,2.50666234933306E-05,-0.044736985117197,-0.0246439520269632
417,-0.0273621063679457,-0.00729481549933553,-0.0251808278262615,2.48615033342503E-05,-0.0480898730456829,-0.02526262588799
418,-0.027966720983386,-0.00760342227295041,-0.0262860972434282,2.47320367634529E-05,-0.0508228689432144,-0.0247996188700199
419,-0.0260297916829586,-0.00900018773972988,-0.0257525853812695,2.4674931410118E-05,-0.0506959520280361,-0.0225919932126999
420,-0.0213224701583385,-0.00898061133921146,-0.0219599474221468,2.46498002525186E-05,-0.0478420481085777,-0.0161435566842556
421,-0.0148703437298536,-0.00557051645591855,-0.0147903505712748,2.46020026679616E-05,-0.0445287711918354,-0.00535810831934214
422,-0.00965726096183062,-0.000925801985431463,-0.00727669522166252,2.44910424953559E-05,-0.0406355746090412,0.00380358472466469
423,-0.00691753067076206,0.00277233705855906,-0.0014998207334429,2.43098420469323E-05,-0.0345795340836048,0.00682753557339311
424,-0.00827395170927048,0.00310035631991923,-0.000801356742158532,2.40859426412499E-05,-0.0302672814577818,0.00224104756489396
425,-0.0135969547554851,-0.00137936323881149,-0.00672830082476139,2.38653774431441E-05,-0.0315809771418571,-0.00727894809097052
426,-0.019927978515625,-0.00970148202031851,-0.0167291685938835,2.36885862250347E-05,-0.0358660891652107,-0.016932362690568
427,-0.0265358034521341,-0.0212232321500778,-0.0290148481726646,2.35709103435511E-05,-0.039679117500782,-0.0262914393097162
428,-0.0308354739099741,-0.0306846238672733,-0.0388107597827911,2.34969284065301E-05,-0.0420520789921284,-0.0327730886638165
429,-0.0310742054134607,-0.0330563560128212,-0.0429262593388557,2.34303006436676E-05,-0.0443565100431442,-0.0346511006355286
430,-0.0294550340622664,-0.0302274879068136,-0.0436959639191628,2.3333048375207E-05,-0.0467106588184834,-0.0353509373962879
431,-0.0261383652687073,-0.0264011453837156,-0.0422072522342205,2.31841022468871E-05,-0.0467581488192081,-0.0353412628173828
432,-0.0227565784007311,-0.0272044688463211,-0.0417659059166908,2.29882134590298E-05,-0.0462442561984062,-0.0361266173422337
433,-0.0228536874055862,-0.0346876420080662,-0.0462952591478825,2.27717664529337E-05,-0.0476152263581753,-0.0413264818489552
434,-0.0242418944835663,-0.0421852208673954,-0.0509638823568821,2.25685907935258E-05,-0.0475597456097603,-0.0462358742952347
435,-0.0222474057227373,-0.0424083098769188,-0.0477982945740223,2.24033719860017E-05,-0.0430967584252357,-0.0420904420316219
436,-0.0175149757415056,-0.0357606820762157,-0.0365435853600502,2.22806884266902E-05,-0.0359802693128586,-0.0297295823693275
437,-0.0121046341955662,-0.0248699821531773,-0.0215526930987835,2.21843183680903E-05,-0.0281731951981783,-0.0149663826450706
438,-0.00469802739098668,-0.0109056904911995,-0.00638498365879059,2.2086278477218E-05,-0.0193824004381895,-0.00125166832003742
439,0.00403951061889529,-0.000492842169478536,0.00283650564961135,2.19606299651787E-05,-0.0104634175077081,0.00478570908308029
440,0.0113841369748116,0.00199367641471326,0.00515746278688312,2.17953420360573E-05,-0.00256256456486881,0.0022326388861984
441,0.0148526411503553,0.000464018958155066,0.00669847708195448,2.15970048884628E-05,0.00374873308464885,-0.00114715611562133
442,0.013276781886816,-0.00217249221168458,0.00844474043697119,2.13867733691586E-05,0.00635200832039118,-0.00165618408937007
443,0.00996707659214735,-0.0042031048797071,0.00918804295361042,2.11899841815466E-05,0.00487301498651505,0.0021969701629132
444,0.00763191469013691,-0.00402193143963814,0.00954886898398399,2.10244525078451E-05,0.00102575472556055,0.0107994414865971
445,0.00308836647309363,-0.00515021197497845,0.00616191793233156,2.08926885534311E-05,-0.00526587292551994,0.016373036429286
446,-0.00712897954508662,-0.0125130312517285,-0.0052253264002502,2.07812936423579E-05,-0.0140424547716975,0.00982826855033636
447,-0.0176962837576866,-0.0217016097158194,-0.0184907875955105,2.06674903893145E-05,-0.021533215418458,-0.00387685978785157
448,-0.0209907051175833,-0.0251811891794205,-0.0242209173738956,2.05297128559323E-05,-0.0244250521063805,-0.0141440518200397
449,-0.017517177388072,-0.0229296516627073,-0.0225458443164825,2.03574818442576E-05,-0.0235790722072124,-0.018974618986249
450,-0.0120581407099962,-0.0187840834259987,-0.0186234284192324,2.01561942958506E-05,-0.0213839057832956,-0.0210571829229593
451,-0.00723480898886919,-0.0148931453004479,-0.0146816866472363,1.99446621991228E-05,-0.019245708361268,-0.0216157175600529
452,-0.00495947897434235,-0.0135727478191257,-0.01194260828197,1.97464833036065E-05,-0.018064197152853,-0.0222409814596176
453,-0.00698657939210534,-0.0165079720318317,-0.0122735239565372,1.95790289581055E-05,-0.0183033458888531,-0.0229682214558125
454,-0.00987128354609013,-0.0181985702365637,-0.0123261017724872,1.94450985873118E-05,-0.0175412725657225,-0.0171233620494604
455,-0.00878775585442781,-0.0137974871322513,-0.00784094166010618,1.9331235307618E-05,-0.0126291327178478,-0.00275844521820545
456,-0.00357449892908335,-0.00601273449137807,-0.000404947932111099,1.9213746782043E-05,-0.00353939272463322,0.012503425590694
457,0.0018258539494127,0.000743186916224658,0.00470703421160579,1.90698974620318E-05,0.0053178477101028,0.0215306561440229
458,0.00505123566836119,0.00529045611619949,0.00573860667645931,1.8889097191277E-05,0.00959212426096201,0.0235449355095625
459,0.00686952751129866,0.00742336083203554,0.005293526686728,1.86786164704245E-05,0.00917683355510235,0.0201718769967556
460,0.0070364885032177,0.00619275774806738,0.00467144651338458,1.84607033588691E-05,0.00533487740904093,0.0126933455467224
461,0.00449626753106713,0.00190302717965096,0.00309310248121619,1.82620751729701E-05,-0.00110176426824182,0.00406858418136835
462,0.000334816228132695,-0.00301515916362405,0.000278573948889971,1.81006616912782E-05,-0.0077530718408525,-0.00287559325806797
463,-0.000916384859010577,-0.00322943762876093,-0.00024445602321066,1.79761445906479E-05,-0.0107399923726916,-0.00454347999766469
464,0.00366033683530986,0.00208409992046654,0.00373163283802569,1.78693480847869E-05,-0.0093052675947547,-1.31586857605726E-05
465,0.0136279566213489,0.00882458128035069,0.0103150773793459,1.77512538357405E-05,-0.00410611229017377,0.00842409115284681
466,0.0254014320671558,0.0156636871397495,0.0177514180541039,1.75975346792256E-05,0.00464927777647972,0.0198358967900276
467,0.0302724279463291,0.0190907549113035,0.0211908146739006,1.74013293872122E-05,0.0114069962874055,0.0278664827346802
468,0.0238024052232504,0.0139940213412046,0.0156965423375368,1.71775591297774E-05,0.010040357708931,0.024686835706234
469,0.0140877179801464,0.00489578442648053,0.00728685036301613,1.6956071704044E-05,0.00470736064016819,0.0164719056338072
470,0.00812675524502993,-0.00221657985821366,0.00315640610642731,1.67666785273468E-05,0.00251076207496226,0.0121470764279366
471,0.00388920167461038,-0.00810875836759806,0.00165096344426274,1.66235549841076E-05,0.00343493837863207,0.010517411865294
472,-0.000600190018303692,-0.0123219219967723,0.000654189439956099,1.65172077686293E-05,0.00539660220965743,0.00777322752401233
473,-0.00534363696351647,-0.0141626112163067,-0.00101608643308282,1.64185894391267E-05,0.00961410067975521,0.00123951979912817
474,-0.00678000645712018,-0.0120152337476611,-0.00161541032139212,1.62936976266792E-05,0.0190443005412817,-0.00465531833469868
475,-0.00209249346517026,-0.00421312777325511,0.00140726787503809,1.61213774845237E-05,0.0300049893558025,-0.00325718685053289
476,0.00491571985185146,0.00515753170475364,0.0052870181389153,1.59049741341732E-05,0.0338658913969994,0.00417038099840283
477,0.012633103877306,0.0124758705496788,0.0100058019161224,1.56714049808215E-05,0.0305816754698753,0.0157410744577646
478,0.0209784973412752,0.0165231302380562,0.0168859753757715,1.54576464410638E-05,0.0252747628837824,0.0283638313412666
479,0.02689622156322,0.0173003934323788,0.0230940710753202,1.52914271893678E-05,0.01925303414464,0.036660086363554
480,0.0294477101415396,0.0175495427101851,0.0268073324114084,1.5176188753685E-05,0.0122875981032848,0.0402959808707237
481,0.0288828201591969,0.0172642040997744,0.0266644470393658,1.50885416587698E-05,0.00428279303014278,0.0403086245059967
482,0.0253347717225552,0.0143827218562365,0.0222707856446505,1.49899797179387E-05,-0.00367913488298655,0.0363772362470627
483,0.0196828376501799,0.0110685219988227,0.0156417768448591,1.48470098793041E-05,-0.00908886082470417,0.0297717321664095
484,0.015143271535635,0.0122919520363212,0.0108835734426975,1.46491947816685E-05,-0.00871349591761827,0.0261530540883541
485,0.0137377884238958,0.0155006917193532,0.00992527324706316,1.4415338227991E-05,-0.00186919944826514,0.0287277176976204
486,0.0116634303703904,0.0132542280480266,0.00861765630543232,1.41841774166096E-05,0.0062557146884501,0.0312718711793423
487,0.00832907017320395,0.00894323084503412,0.00697659514844418,1.39941366796847E-05,0.0114747006446123,0.0303904246538877
488,0.00728291273117065,0.00977260340005159,0.00887678004801273,1.38627592605189E-05,0.0147830564528704,0.0288675092160702
489,0.00868065468966961,0.0130303082987666,0.0112653989344835,1.37768383865478E-05,0.0176793187856674,0.0257173739373684
490,0.0108864409849048,0.0126148127019405,0.00912646390497684,1.36988401209237E-05,0.0211900249123573,0.0170454289764166
491,0.0110960081219673,0.00653153425082564,0.00229266425594687,1.35865293486859E-05,0.0253415089100599,0.00255437917076051
492,0.00680872472003102,-0.00424822792410851,-0.0068367924541235,1.34155434352579E-05,0.0267795789986849,-0.0134763736277819
493,0.000403501791879535,-0.0157544035464525,-0.0143453432247043,1.31928245536983E-05,0.0234858132898808,-0.0254014246165752
494,-0.00469024851918221,-0.023449094966054,-0.0173171684145927,1.29534882944427E-05,0.0184283498674631,-0.030667033046484
495,-0.00792753510177135,-0.0260323360562325,-0.0162492990493774,1.27424809761578E-05,0.0151556497439742,-0.0300653986632824
496,-0.0105147892609239,-0.0255736820399761,-0.0144714722409844,1.25906117318664E-05,0.0136518068611622,-0.0252717155963182
497,-0.0129089551046491,-0.0233666598796844,-0.0140949096530676,1.24977696032147E-05,0.0129865631461143,-0.0167117584496737
498,-0.0138060403987765,-0.0190265979617834,-0.0134133081883192,1.24324969874579E-05,0.0133083267137408,-0.00513352546840906
499,-0.0131683265790343,-0.0147787323221564,-0.0123616689816117,1.23484269352048E-05,0.0125443805009127,0.00477917306125164
500,-0.0110045466572046,-0.011725764721632,-0.0114766396582127,1.22089977594442E-05,0.00888682622462511,0.00970247481018305
501,-0.0059567941352725,-0.00756670814007521,-0.00836729910224676,1.20072645586333E-05,0.0056721605360508,0.0103629557415843
502,0.00183467497117817,-0.00134666147641838,-0.00177943869493902,1.17700392365805E-05,0.00790721364319324,0.00869669765233994
503,0.00949314795434475,0.00523892836645246,0.00638400111347437,1.15439115688787E-05,0.0149011667817831,0.00759654631838202
504,0.0142211662605405,0.0104238335043192,0.0140006523579359,1.13704363684519E-05,0.0213395543396473,0.00933927204459906
505,0.0153379393741488,0.0130038978531957,0.0194917134940624,1.12637198981247E-05,0.0235363021492958,0.0129817854613066
506,0.0148810027167201,0.01418761536479,0.0231159664690495,1.12025245471159E-05,0.0222839992493391,0.018022233620286
507,0.0173238180577755,0.0200181044638157,0.0288644935935736,1.11413255581283E-05,0.0217300131917,0.0278218276798725
508,0.0217847339808941,0.0310850720852613,0.0360073149204254,1.10345699795289E-05,0.0220703277736902,0.0400296971201897
509,0.0219991691410542,0.0387840494513512,0.03777926415205,1.08611993709928E-05,0.01971285790205,0.045458510518074
510,0.0156441573053598,0.0368307530879974,0.0313466712832451,1.06362194856047E-05,0.0160290244966745,0.0398429520428181
511,0.00678592501208186,0.0278127826750278,0.0214581340551376,1.04029422800522E-05,0.0167570784687996,0.0286643374711275
512,0.00119592773262411,0.0193673502653837,0.014847288839519,1.02099093055585E-05,0.0236139297485352,0.0199710633605719
513,-8.04542287369259E-05,0.0150197874754667,0.0121417948976159,1.00848055808456E-05,0.0312793515622616,0.0146143734455109
514,0.00139329466037452,0.0138723980635405,0.0114969937130809,1.00194047263358E-05,0.0348733514547348,0.0103410519659519
515,0.0045316400937736,0.0140896653756499,0.0130222933366895,9.97375082079088E-06,0.0345739796757698,0.00598094705492258
516,0.00665061734616756,0.0124859120696783,0.0153463473543525,9.89747331914259E-06,0.0313850529491901,-0.000212276077945717
517,0.00656252400949597,0.00868491735309362,0.0167495291680098,9.75684270088095E-06,0.0262428615242243,-0.00536317797377706
518,0.00662638852372766,0.00638958159834147,0.0180839579552412,9.55303585215006E-06,0.0213542319834232,-0.00253169680945575
519,0.00763962743803859,0.00667358050122857,0.0195553880184889,9.32168677536538E-06,0.0178530681878328,0.00790072418749332
520,0.00908681936562061,0.0068848691880703,0.0191392730921507,9.11387451196788E-06,0.0166803225874901,0.0172977019101381
521,0.0123364785686135,0.00497555173933506,0.0153145361691713,8.96869278221857E-06,0.0190520565956831,0.0192475263029337
522,0.018090108409524,0.00385402864776552,0.0109034981578588,8.89215516508557E-06,0.0244231298565865,0.0167426653206348
523,0.0234270915389061,0.00800953526049852,0.0104718143120408,8.85383542481577E-06,0.0299165342003107,0.0160733461380005
524,0.0225607622414827,0.0125205712392926,0.0108694583177567,8.80313200468663E-06,0.029579434543848,0.0144961792975664
525,0.0148807428777218,0.0109294392168522,0.00758399954065681,8.69645100465277E-06,0.0212636776268482,0.00751074962317944
526,0.00687410682439804,0.00677842553704977,0.00313248136080801,8.52070388646098E-06,0.0109194163233042,-0.00141178607009351
527,0.00275401910766959,0.00541294645518065,0.000374358467524871,8.30042699817568E-06,0.00439933827146888,-0.00791479460895061
528,0.00311484932899475,0.0087669501081109,0.00124828447587788,8.08464756119065E-06,0.00325358216650784,-0.00843160971999168
529,0.00801383331418037,0.0165927708148956,0.00823926273733377,7.92053288023453E-06,0.00682242913171649,0.000535833591129631
530,0.016228474676609,0.0266766417771578,0.0207861624658108,7.82799725129735E-06,0.0134095111861825,0.017356414347887
531,0.0237541627138853,0.0349559970200062,0.033346738666296,7.78895719122374E-06,0.0203885734081268,0.0340803153812885
532,0.0246009137481451,0.0356481708586216,0.0379255376756191,7.75703756517032E-06,0.0249460078775883,0.0402142927050591
533,0.0187456011772156,0.0286085214465857,0.0331791155040264,7.68253448768519E-06,0.0264022294431925,0.0331360921263695
534,0.0126185156404972,0.0203777942806482,0.0251271817833185,7.53916583562386E-06,0.0253560226410627,0.0208107586950064
535,0.0084710568189621,0.0138725368306041,0.0166116803884506,7.3382188929827E-06,0.0212830733507872,0.0096332561224699
536,0.00630318559706211,0.0105800814926624,0.00978569872677326,7.12245810063905E-06,0.015624025836587,0.00347797921858728
537,0.00691460305824876,0.012275910936296,0.00797520764172077,6.94308073434513E-06,0.0112955123186111,0.00507519859820604
538,0.00859040673822165,0.016460943967104,0.0102856829762459,6.8321560320328E-06,0.00865197833627462,0.0112033365294337
539,0.0101474495604634,0.0207018200308084,0.0147346323356032,6.78539208820439E-06,0.0069883638061583,0.017720952630043
540,0.0101768141612411,0.0224769972264767,0.0179483275860548,6.76450736136758E-06,0.00543685257434845,0.0211008805781603
541,0.0076788286678493,0.0195816606283188,0.0167335048317909,6.71789985062787E-06,0.00369269005022943,0.0185307543724775
542,0.00528757134452462,0.0138563672080636,0.0133965564891696,6.60844352751155E-06,0.00324521050788462,0.0119030578061938
543,0.00494094053283334,0.00837440975010395,0.0116249639540911,6.43343446427025E-06,0.00528203509747982,0.00440775975584984
544,0.00693602813407779,0.00802870467305183,0.0137825757265091,6.22595189270214E-06,0.00969296228140593,-0.000865513400640339
545,0.0101521126925945,0.014511700719595,0.0188130792230368,6.03695298195817E-06,0.0140714403241873,-0.00267600687220693
546,0.0108206085860729,0.020323658362031,0.020771186798811,5.90779973208555E-06,0.0140334842726588,-0.00358492531813681
547,0.0101006738841534,0.0222021415829659,0.0196539591997862,5.84804092795821E-06,0.00943047273904085,-0.00128908699844033
548,0.0111518055200577,0.0214680284261703,0.019220806658268,5.83039263801766E-06,0.00287742121145129,0.0053221951238811
549,0.0110162263736129,0.0147400526329875,0.0166375413537025,5.80556388740661E-06,-0.00527771422639489,0.00775570189580321
550,0.00761376461014152,0.00277602043934166,0.00960792228579521,5.72886438021669E-06,-0.0135030644014478,0.00133135868236423
551,0.00359958945773542,-0.0072703305631876,0.00184745993465185,5.58422379981494E-06,-0.0182289872318506,-0.00880550965666771
552,0.00318821216933429,-0.00836952496320009,-0.000129529100377113,5.39270013177884E-06,-0.0170229412615299,-0.0139222899451852
553,0.00763804093003273,0.000875975762028247,0.005833784583956,5.20097182743484E-06,-0.0112826004624367,-0.00938014220446348
554,0.0122873997315764,0.0124244540929794,0.0133638316765428,5.05610159962089E-06,-0.0050458088517189,0.000265634997049347
555,0.0109157375991344,0.0157834216952324,0.014097023755312,4.98022382089403E-06,-0.00110868108458817,0.00651596300303936
556,0.0034761365968734,0.00993984751403332,0.00683552911505103,4.95878157380503E-06,7.98196779214777E-05,0.00691688945516944
557,-0.00106138316914439,0.00515828747302294,0.000721246004104614,4.94856840305147E-06,0.000754927576053888,0.00802150834351778
558,0.00397489126771688,0.00937376823276281,0.00400882307440043,4.9011318878911E-06,0.00263954396359622,0.0147902024909854
559,0.0137869380414486,0.0184709057211876,0.0131051484495401,4.78885976917809E-06,0.00492045562714338,0.022047271952033
560,0.0212635174393654,0.0240246281027794,0.0194575749337673,4.61968647869071E-06,0.00745098339393735,0.0216167513281107
561,0.0260682348161936,0.0238488800823689,0.0203594975173473,4.43259204985225E-06,0.0107577592134476,0.0130482194945216
562,0.0302415676414967,0.0220583695918322,0.0197712853550911,4.27643135481048E-06,0.0146573157981038,0.00416719634085894
563,0.0313305258750916,0.020109735429287,0.0195010453462601,4.18360150433728E-06,0.0177621487528086,-0.000302689208183438
564,0.0273161567747593,0.0164345260709524,0.0175316780805588,4.15274689657963E-06,0.018012810498476,-0.00185420003253967
565,0.0214775111526251,0.0135183297097683,0.01537742651999,4.14974238083232E-06,0.0151381967589259,-0.000147058992297389
566,0.0155291873961687,0.0129864979535341,0.0143715739250183,4.12628378398949E-06,0.0103377029299736,0.00464351195842028
567,0.00930574536323547,0.0132758719846606,0.0137981502339244,4.04596039516036E-06,0.00619637547060847,0.010604933835566
568,0.00411127973347902,0.0139664402231574,0.0143788894638419,3.90372269976069E-06,0.00612083915621042,0.0160570330917835
569,0.00180877756793052,0.0163431875407696,0.0173339657485485,3.72833596884448E-06,0.0115339495241642,0.0196394212543964
570,0.00288385013118386,0.0207630060613155,0.0222323089838028,3.56663304046378E-06,0.0195503942668438,0.0207078158855438
571,0.00447407411411405,0.0243896339088678,0.0255993027240038,3.4581948966661E-06,0.0249615348875523,0.0180453192442656
572,0.00691698351874948,0.0279465280473232,0.0283493474125862,3.41414738613821E-06,0.0275675822049379,0.0153615903109312
573,0.0132470205426216,0.0346394665539265,0.035176195204258,3.41144141202676E-06,0.0306825041770935,0.0178162530064583
574,0.0211764462292194,0.042012695223093,0.0444878786802292,3.40554925060133E-06,0.0338596627116203,0.0243884287774563
575,0.0246520936489105,0.0432607643306255,0.0487188510596752,3.35458571498748E-06,0.0336171835660934,0.0299551114439964
576,0.0226304233074188,0.0364735275506973,0.0451510474085808,3.24177790389513E-06,0.0300124380737543,0.0311893057078123
577,0.0198862869292498,0.027774840593338,0.0389725938439369,3.08422636408068E-06,0.0272939465939999,0.029338538646698
578,0.0185222513973713,0.0222666896879673,0.0340365990996361,2.92338108920376E-06,0.0269765965640545,0.0262379571795464
579,0.0174846146255732,0.0203775204718113,0.030936585739255,2.80253107121098E-06,0.0259447600692511,0.0226820334792137
580,0.0150800440460444,0.0199874378740788,0.0287088640034199,2.74353828899621E-06,0.0206378549337387,0.0173640716820955
581,0.0103802960366011,0.0195466466248035,0.0260070003569126,2.73532168648671E-06,0.0116633232682943,0.00923184119164944
582,0.00539422687143087,0.0195948593318462,0.0241110529750586,2.74015883405809E-06,0.00316312699578702,0.0015635717427358
583,0.00190689857117832,0.0187947656959295,0.0241760462522507,2.71422595687909E-06,-0.00201686983928084,-0.00193339900579304
584,9.2273567133816E-06,0.0150549402460456,0.0247626136988401,2.63119136434398E-06,-0.00201717321760952,-0.000538468942977488
585,0.00051381322555244,0.00987026747316122,0.0249417871236801,2.49615322900354E-06,0.00416333694010973,0.00467554060742259
586,0.00368577195331454,0.00633302098140121,0.0248814765363932,2.3425413928635E-06,0.0127422586083412,0.0113676246255636
587,0.00710477074608207,0.00482655363157392,0.0235917177051306,2.21384493670485E-06,0.0179736409336329,0.0155694866552949
588,0.00786354392766953,0.00342883705161512,0.0203764010220766,2.14014880839386E-06,0.0180869307368994,0.0146687859669328
589,0.00609689624980092,0.00124297547154129,0.0162885971367359,2.12214604289329E-06,0.0143936723470688,0.0100320456549525
590,0.00816029123961926,0.00153799599502236,0.015526189468801,2.13111820812628E-06,0.0100707355886698,0.00764579931274056
591,0.0189214888960123,0.0075689647346735,0.0214661210775375,2.1247042241157E-06,0.00873145088553429,0.0137453507632017
592,0.0307595226913691,0.0155932726338506,0.0291262622922659,2.06979757422232E-06,0.00999514944851398,0.0267415922135115
593,0.0339275263249874,0.0201948266476393,0.0311824698001146,1.96019095710653E-06,0.0100599797442555,0.0390597842633724
594,0.0282744243741035,0.020943645387888,0.0267553254961967,1.81956158940011E-06,0.00613275170326233,0.043137077242136
595,0.0193897001445293,0.0202963780611753,0.0202898569405079,1.68838118952408E-06,-0.000856441096402705,0.0356819368898869
596,0.0118275508284569,0.019169507548213,0.0156048890203238,1.60198339926865E-06,-0.00706721842288971,0.0203404705971479
597,0.00715310918167233,0.016697159036994,0.013113671913743,1.57167596626095E-06,-0.0090208426117897,0.00485497945919633
598,0.00547627964988351,0.0125884367153049,0.0119243068620563,1.57899455643928E-06,-0.00640355423092842,-0.00516557553783059
599,0.00646801292896271,0.00850093737244606,0.012169529683888,1.58600676058995E-06,-0.00139086530543864,-0.00912794657051563
600,0.00903161428868771,0.00568652572110295,0.0143608758226037,1.55591953898693E-06,0.00461441650986671,-0.00999778509140015
601,0.0108581250533462,0.00208655069582164,0.0168299395591021,1.47279115481069E-06,0.0108477557078004,-0.0114702126011252
602,0.0115009434521198,-0.00261249882169068,0.0185019243508577,1.34978495225369E-06,0.0160081870853901,-0.0136164482682943
603,0.0133236590772867,-0.00489522097632289,0.021580396220088,1.22169592486898E-06,0.0194372776895761,-0.0123984981328249
604,0.0151127176359296,-0.00620171939954162,0.0249580852687359,1.12598240775696E-06,0.0203681401908398,-0.00700208498165011
605,0.0126125188544393,-0.0119314352050424,0.023961428552866,1.08264316622808E-06,0.0183776393532753,-0.00164707319345325
606,0.00734649179503322,-0.0194339454174042,0.0199192985892296,1.08374911178544E-06,0.016247833147645,0.00177056703250855
607,0.00487532140687108,-0.0211073383688927,0.0188297051936388,1.09810491721873E-06,0.0177713986486197,0.00438791932538152
608,0.0070480047725141,-0.015477167442441,0.0231320764869452,1.08831477518834E-06,0.0229485258460045,0.00746304541826248
609,0.0113651752471924,-0.00734077952802181,0.0297795105725527,1.03091633718577E-06,0.0277758222073317,0.0107658039778471
610,0.014897707849741,-0.000952833506744355,0.0346156246960163,9.28738700167742E-07,0.0292270611971617,0.0124294497072697
611,0.0158414766192436,0.0038308841176331,0.0355028435587883,8.08978313671105E-07,0.0268526189029217,0.0113682271912694
612,0.0129494238644838,0.00696860859170556,0.030809884890914,7.08243419467181E-07,0.0202866736799479,0.00695608835667372
613,0.00651489710435271,0.0045561040751636,0.0202182214707136,6.52788060051535E-07,0.0106932939961553,-0.0012106210924685
614,-2.73484893114073E-05,-0.00355872698128223,0.00856055691838264,6.44607951016951E-07,0.00231337314471602,-0.00972255412489176
615,-0.00243560434319079,-0.0110382596030831,0.00245474721305072,6.60757223158726E-07,-0.000596562458667904,-0.0126864016056061
616,0.00125822157133371,-0.0124625153839588,0.00437785312533379,6.66041330532607E-07,0.00327796093188226,-0.00645858095958829
617,0.00979903619736433,-0.0076530110090971,0.0121923023834825,6.32066019079502E-07,0.0106907542794943,0.00744823971763253
618,0.0172423794865608,-0.002690410008654,0.01908303424716,5.52330732261908E-07,0.0147691173478961,0.0201648771762848
619,0.0205069575458765,-0.000953784154262394,0.0222349688410759,4.45342635657653E-07,0.0129607729613781,0.0266997069120407
620,0.0224563740193844,0.000514063751325011,0.0252421051263809,3.4428231288075E-07,0.00862168241292238,0.0299699176102877
621,0.0229230783879757,0.00161650509107858,0.0273129101842642,2.78984458645937E-07,0.00408720318228006,0.0285116154700518
622,0.0200748555362225,-0.000603005639277399,0.024132926017046,2.600170603273E-07,-0.000355589523678645,0.0178137663751841
623,0.0147407418116927,-0.00667973048985004,0.014701571315527,2.73352611657174E-07,-0.00551056768745184,-0.000944942643400282
624,0.00938631035387516,-0.0130914803594351,0.00407645711675286,2.88302999251755E-07,-0.0115980776026845,-0.0182529576122761
625,0.00664379773661494,-0.0166326630860567,-0.00131691887509078,2.74237095254648E-07,-0.0162918698042631,-0.0243528075516224
626,0.00696103041991591,-0.0180016122758389,-0.000470243103336543,2.16973219835381E-07,-0.0175727922469378,-0.0193223897367716
627,0.00986953917890787,-0.0165157802402973,0.00513903656974435,1.26072919215403E-07,-0.0155367376282811,-0.00877405144274235
628,0.0123398704454303,-0.0126048810780048,0.0118653206154704,2.92930781853329E-08,-0.0113030420616269,-0.000495095329824835
629,0.00986283272504807,-0.0109603125602007,0.014426002278924,-4.26018509358528E-08,-0.00594341149553657,-0.00122609070967883
630,0.00414245016872883,-0.0125844785943627,0.013129074126482,-7.23604003383116E-08,-1.36364851641702E-05,-0.00789977051317692
631,-0.00220421818085015,-0.0164343491196632,0.00982571300119162,-6.52284128932479E-08,0.00507593201473355,-0.0154149169102311
632,-0.00981676485389471,-0.0222444366663694,0.00396640272811055,-4.57267113063153E-08,0.0074301790446043,-0.0234781801700592
633,-0.0184213165193796,-0.028615839779377,-0.00485801557078958,-4.41742535883805E-08,0.00555958459153771,-0.0322944633662701
634,-0.0268519595265388,-0.0347842201590538,-0.0160336531698704,-8.03627173695531E-08,8.81105643202318E-06,-0.0420285575091839
635,-0.031925480812788,-0.0383466631174088,-0.0249762032181025,-1.53173886019431E-07,-0.00485896831378341,-0.0492519102990627
636,-0.0317821577191353,-0.0380623228847981,-0.0279185585677624,-2.41582711169031E-07,-0.00582279590889812,-0.0494224317371845
637,-0.0292008090764284,-0.0367619507014751,-0.0268017947673798,-3.16290254431806E-07,-0.00367463147267699,-0.0443740636110306
638,-0.0266857855021954,-0.0352805070579052,-0.0242388062179089,-3.55556181830252E-07,-0.000283869419945404,-0.0384416431188583
639,-0.023510729894042,-0.030904384329915,-0.0199172496795654,-3.56677901436342E-07,0.00289131118915975,-0.0323120765388012
640,-0.018290638923645,-0.0223094504326582,-0.0128775164484978,-3.37060896526964E-07,0.00590058974921703,-0.0257730223238468
641,-0.0118815153837204,-0.013139140792191,-0.00455136504024267,-3.24514928706776E-07,0.00917248614132404,-0.0213590320199728
642,-0.00688362866640091,-0.0096312602981925,0.00175686297006905,-3.4218112432427E-07,0.0114755211398005,-0.0215327870100737
643,-0.00293611455708742,-0.0115353837609291,0.00576931843534112,-3.96260418256134E-07,0.0127957575023174,-0.0225360263139009
644,0.00188639003317803,-0.0129376826807857,0.00930877588689327,-4.73048743288018E-07,0.0138122905045748,-0.0186205878853798
645,0.00546550145372748,-0.0131626985967159,0.0102965477854013,-5.46674016277393E-07,0.0125227235257626,-0.0129474913701415
646,0.0053353002294898,-0.014060097746551,0.00675589684396982,-5.9317710565665E-07,0.00769251817837358,-0.0126236984506249
647,0.0026261112652719,-0.0134111559018493,0.00146821548696607,-6.03277044319839E-07,0.0013218653621152,-0.018642520532012
648,4.65620651084464E-05,-0.00963037274777889,-0.00167386804241687,-5.87023237130779E-07,-0.00407567666843534,-0.0267852079123259
649,0.000709031417500228,-0.00339112407527864,0.000234774212003686,-5.68019629554328E-07,-0.00638914061710238,-0.031339168548584
650,0.00451617734506726,0.00303977890871465,0.00585448136553168,-5.7052892543652E-07,-0.0059128999710083,-0.0313105098903179
651,0.00631748698651791,0.00344862649217248,0.00840616691857576,-6.06502624123095E-07,-0.00621800916269422,-0.0335204228758812
652,0.00451019732281566,-0.00343198678456247,0.0059033534489572,-6.69468079195212E-07,-0.00728267757222056,-0.0405730046331882
653,0.00343784666620195,-0.010587957687676,0.00296120881102979,-7.38390951937618E-07,-0.00556719303131104,-0.045212808996439
654,0.00490513117983937,-0.0152945881709456,0.000986737897619605,-7.89230512054928E-07,-0.00153462844900787,-0.0421608909964561
655,0.00487446459010243,-0.0204019341617823,-0.00238384399563074,-8.0784485589902E-07,0.00091054558288306,-0.0334527976810932
656,-2.84124544123188E-05,-0.0256319008767605,-0.00669639557600021,-7.97322456946858E-07,0.000735040870495141,-0.022620802745223
657,-0.0072832484729588,-0.028239194303751,-0.00867379363626242,-7.759490472381E-07,0.000129096195450984,-0.012432356365025
658,-0.0131463315337896,-0.0270869750529528,-0.00731654884293675,-7.67106200783019E-07,-0.000362574151949957,-0.00544615462422371
659,-0.0162697285413742,-0.0222269240766764,-0.00373721146024764,-7.86679379416455E-07,-0.000351085909642279,-0.000549320480786264
660,-0.0181900300085545,-0.0171842165291309,-0.000786896795034409,-8.34756463063968E-07,0.00153525790665299,0.00388256646692753
661,-0.0216709282249212,-0.0163105539977551,-0.00159053143579513,-8.95949256118911E-07,0.00456151599064469,0.0063410229049623
662,-0.0246579684317112,-0.0162996109575033,-0.00316437217406929,-9.47967180309206E-07,0.00690403021872044,0.00872661639004946
663,-0.0242956504225731,-0.0136971333995461,-0.00202943803742528,-9.7367342277721E-07,0.00616819597780705,0.0127864116802812
664,-0.0230287704616785,-0.0122589478269219,-0.000846263719722629,-9.70106839304208E-07,0.000236549036344513,0.0149496803060174
665,-0.022471621632576,-0.013251256197691,-0.000607200257945806,-9.49726711496623E-07,-0.00903877429664135,0.0141822649165988
666,-0.0224785804748535,-0.0149601716548204,-0.000484463729662821,-9.33401793190569E-07,-0.0174467545002699,0.0114063862711191
667,-0.0244286134839058,-0.0176291223615408,-0.00235080346465111,-9.39082326567586E-07,-0.0223844051361084,0.00598998554050922
668,-0.0273653194308281,-0.0191170647740364,-0.00595501204952598,-9.7230372375634E-07,-0.0231187790632248,0.000471796549391001
669,-0.0291054826229811,-0.0181879997253418,-0.00956999789923429,-1.02354226783064E-06,-0.0213275272399187,-0.00305522419512272
670,-0.030992703512311,-0.0197672843933105,-0.0146142113953829,-1.07366622614791E-06,-0.020759254693985,-0.00773512152954936
671,-0.0319314487278461,-0.0234820637851954,-0.0187200345098972,-1.1043736094507E-06,-0.0216169599443674,-0.0117516350001097
672,-0.0277878548949957,-0.0221294462680817,-0.0160529967397451,-1.10792768737156E-06,-0.0204586014151573,-0.00934587698429823
673,-0.0204309113323689,-0.0158710051327944,-0.00937857758253813,-1.0910159744526E-06,-0.0178051367402077,-0.0040372246876359
674,-0.013728897087276,-0.00908077415078878,-0.00523880682885647,-1.07082462363906E-06,-0.0169156529009342,-0.00104444450698793
675,-0.00824034120887518,-0.00319731328636408,-0.00483670644462109,-1.06561776647141E-06,-0.0184047035872936,0.000966090417932719
676,-0.00559356482699513,0.000461357267340645,-0.00840497855097055,-1.08498454665096E-06,-0.0221793539822102,0.00195253489073366
677,-0.00602842541411519,0.00288914632983506,-0.0141963446512818,-1.12495979465166E-06,-0.0268973186612129,0.00103274825960398
678,-0.00611162558197975,0.00497931707650423,-0.0175148695707321,-1.17049194159335E-06,-0.0293096527457237,-5.30257639184128E-05
679,-0.00532801449298859,0.00289582717232406,-0.0186311732977629,-1.20375034384779E-06,-0.0297039896249771,-0.00156008056364954
680,-0.00551242055371404,-0.00397010939195752,-0.0203213673084974,-1.21369430416962E-06,-0.0302731078118086,-0.00341190816834569
681,-0.00789562612771988,-0.0124290250241756,-0.02342195995152,-1.20177116968989E-06,-0.0315670743584633,-0.00469287671148777
682,-0.0112032052129507,-0.0181817095726728,-0.0258739721029997,-1.18081391065061E-06,-0.0322214737534523,-0.00524167250841856
683,-0.0101280249655247,-0.0151608940213919,-0.0224503017961979,-1.16790749871143E-06,-0.0291396267712116,-0.00278335250914097
684,-0.0052635483443737,-0.00739383790642023,-0.0155582493171096,-1.17518595743604E-06,-0.023779820650816,-1.53957753354916E-05
685,-0.00220093573443592,-0.00539453653618693,-0.0128050232306123,-1.20351558052789E-06,-0.0206204075366259,-0.00257446663454175
686,0.00157711305655539,-0.00826454535126686,-0.0120193539187312,-1.24234782106214E-06,-0.0185485277324915,-0.00651638489216566
687,0.0098123587667942,-0.00826924853026867,-0.0067130527459085,-1.27564931062807E-06,-0.0140620982274413,-0.00421459367498755
688,0.0170376151800156,-0.00483976397663355,0.00164039351511747,-1.29058275888383E-06,-0.00727729965001345,0.00295802648179233
689,0.0167495813220739,-0.004253507591784,0.00656470516696572,-1.28424505874136E-06,-0.000288498849840835,0.00668220035731792
690,0.0104125514626503,-0.00855274591594934,0.00658690324053168,-1.26493057450716E-06,0.00517779914662242,0.00426235888153315
691,0.00434094714000821,-0.01243413425982,0.00563347339630127,-1.24740540741186E-06,0.00795641262084246,0.00105470395646989
692,0.000756403023842722,-0.013375299051404,0.00457927957177162,-1.24487701214093E-06,0.00819640047848225,-0.000683645543176681
693,-0.00351712084375322,-0.0148291783407331,0.000679059943649918,-1.26202530736919E-06,0.0066005433909595,-0.0046359971165657
694,-0.0102882953360677,-0.0180542655289173,-0.00570203363895416,-1.29276804727851E-06,0.00303334346972406,-0.0115634389221668
695,-0.0159211196005344,-0.0183031000196934,-0.00895743072032928,-1.32381069306575E-06,-0.00101327616721392,-0.0137489857152104
696,-0.0176398642361164,-0.0132856545969844,-0.00675109587609768,-1.34192225687002E-06,-0.00343654304742813,-0.00646759290248156
697,-0.0173293929547071,-0.00779796298593283,-0.0034184418618679,-1.34096057990973E-06,-0.00419915979728103,0.00393729424104095
698,-0.0137338871136308,-0.00318579212762415,0.000954428978729993,-1.32492175453081E-06,-0.00300332740880549,0.0137987714260817
699,-0.00511225499212742,0.00357090006582439,0.00898900534957647,-1.30551438815019E-06,-0.000209775913390331,0.0240988377481699
700,0.00366890197619796,0.0104462029412389,0.0168846510350704,-1.29571401430439E-06,0.00204169098287821,0.0321718491613865
701,0.00623201299458742,0.0109478067606688,0.017968786880374,-1.30284263377689E-06,0.00256711081601679,0.0330783650279045
702,0.00138125405646861,0.00253859325312078,0.0111334156244993,-1.32486275106203E-06,0.00173306127544492,0.0246572308242321
703,-0.00464727263897657,-0.00731177721172571,0.00447897147387266,-1.35175253035413E-06,0.00123918405734003,0.0141499759629369
704,-0.00516988663002849,-0.00965857785195112,0.00541651388630271,-1.37107303999073E-06,0.00199093483388424,0.0116821546107531
705,-0.00267389207147062,-0.00708261458203197,0.00964335165917873,-1.37464064664528E-06,0.000857119797728956,0.0155046582221985
706,-0.0028137278277427,-0.00719724223017693,0.00911607779562473,-1.36273069983872E-06,-0.00537092098966241,0.0171888489276171
707,-0.00516867591068149,-0.00995161104947329,0.00368328462354839,-1.34366121073981E-06,-0.0154177770018578,0.0151160676032305
708,-0.00590482307597995,-0.00991994235664606,-0.00106797460466623,-1.32912816752651E-06,-0.0257380418479443,0.0130357258021832
709,-0.00425788853317499,-0.00519827101379633,-0.0029047594871372,-1.32790319185006E-06,-0.033906914293766,0.0116867460310459
710,-0.00292249443009496,0.00236326549202204,-0.00417685601860285,-1.34128754325502E-06,-0.0392959006130695,0.00865844544023275
711,-0.00298390490934253,0.0123656019568443,-0.00570588512346148,-1.36267419748037E-06,-0.0421681515872478,0.00383570068515837
712,-0.00487723294645548,0.0210576206445694,-0.00804693531244993,-1.38131144922227E-06,-0.0433875173330307,-0.00226784637197852
713,-0.00759651837870479,0.0222398173063993,-0.0113682150840759,-1.38813300054608E-06,-0.0420888401567936,-0.00819144304841757
714,-0.00826496537774801,0.0160596184432507,-0.0143596958369017,-1.38049881570623E-06,-0.0366892069578171,-0.0107036605477333
715,-0.00904618203639984,0.00615601986646652,-0.0181994009763002,-1.3633725757245E-06,-0.0282919201999903,-0.0097789466381073
716,-0.0125801730901003,-0.00345025537535548,-0.0229599829763174,-1.34643687488278E-06,-0.0196387860924006,-0.00661221193149686
717,-0.0158650688827038,-0.00947348400950432,-0.0259538758546114,-1.33881337660569E-06,-0.014234603382647,-0.0015898821875453
718,-0.0169063694775105,-0.0115892216563225,-0.026608269661665,-1.34426534259546E-06,-0.0140170734375715,0.00401230156421661
719,-0.0172034297138453,-0.0105731720104814,-0.0261435508728027,-1.35940183554339E-06,-0.0173708721995354,0.00895289704203606
720,-0.0152987670153379,-0.00551696587353945,-0.02291614189744,-1.37572646963235E-06,-0.0207167211920023,0.0142965922132134
721,-0.00813526939600706,0.00363422627560794,-0.0150176621973515,-1.38430823426461E-06,-0.0225941054522991,0.0216798894107342
722,0.00117081275675446,0.0133503060787916,-0.00638662138953805,-1.38051279918727E-06,-0.0253647286444902,0.0290548279881477
723,0.00514932023361325,0.0195853039622307,-0.00350467208772898,-1.36629125790932E-06,-0.0309690125286579,0.0315187387168407
724,0.000315620040055364,0.0197401028126478,-0.00866444781422615,-1.34890967729007E-06,-0.0379979126155376,0.0258097909390926
725,-0.00905121676623821,0.0147571275010705,-0.0179664976894856,-1.33692242343386E-06,-0.0428989827632904,0.0145801333710551
726,-0.0148353967815638,0.0109670106321573,-0.0238696467131376,-1.33561741222366E-06,-0.042633943259716,0.00645387172698975
727,-0.0143958637490869,0.01199269015342,-0.0233031921088696,-1.34435663312615E-06,-0.0384862199425697,0.00668707489967346
728,-0.0129596274346113,0.0125494673848152,-0.0214460100978613,-1.35714083171479E-06,-0.0356161370873451,0.0103124678134918
729,-0.0158619433641434,0.00627272576093674,-0.0237232334911823,-1.36597702748986E-06,-0.0362828709185123,0.00980344135314226
730,-0.0217227078974247,-0.00437707686796784,-0.0282707959413528,-1.36516337079229E-06,-0.037028182297945,0.00562636833637953
731,-0.0251373052597046,-0.0114022307097912,-0.0294670816510916,-1.35420032165712E-06,-0.0338221527636051,0.00396466674283147
732,-0.0246457867324352,-0.0127039961516857,-0.025762215256691,-1.33784874378762E-06,-0.0264355801045895,0.00590499909594655
733,-0.0211656633764505,-0.0106090800836682,-0.0187893398106098,-1.32341870084929E-06,-0.0165001880377531,0.0081104589626193
734,-0.0153423482552171,-0.00660989759489894,-0.0108856773003936,-1.31682827486657E-06,-0.00666826730594039,0.00865953881293535
735,-0.00900916568934917,-0.0022907298989594,-0.00430328585207462,-1.31955482629564E-06,-0.000527515716385096,0.00728584127500653
736,-0.00487233325839043,-0.000533440965227783,-0.00126713409554213,-1.32804439090251E-06,-0.000156755864736624,0.00342142791487277
737,-0.00385654554702342,-0.0028002574108541,-0.00229408545419574,-1.33578703298554E-06,-0.00440640980377793,-0.00196842919103801
738,-0.00231832056306303,-0.00444601289927959,-0.00247243838384748,-1.33685648506798E-06,-0.00906304735690355,-0.00349211599677801
739,0.000928800087422132,-0.00256387912668288,0.000165459816344082,-1.3289916296344E-06,-0.0125069003552198,0.000444020930444822
740,0.000998403294943273,-0.00233401264995337,-0.000682004203554243,-1.31462593344622E-06,-0.0177658963948488,0.00393221108242869
741,-0.000678346259519458,-0.00398370902985334,-0.00617084046825767,-1.29941224713548E-06,-0.0236660894006491,0.00604782719165087
742,0.00115000305231661,-0.00286613125354052,-0.0108843455091119,-1.28912631680578E-06,-0.0256070289760828,0.00934045109897852
743,0.00210809707641602,-0.00221981969662011,-0.0149429189041257,-1.28664362364361E-06,-0.0252510346472263,0.00893534254282713
744,-0.00114812259562314,-0.00370136834681034,-0.0186631176620722,-1.29056797959493E-06,-0.026374937966466,0.00324122607707977
745,-0.00514572067186236,-0.00428225612267852,-0.0193790309131145,-1.29615477817424E-06,-0.0290288459509611,-0.0023275800049305
746,-0.00913826376199722,-0.00516554852947593,-0.0181862078607082,-1.2979403436475E-06,-0.0314762108027935,-0.00561415869742632
747,-0.0147673394531012,-0.00817396864295006,-0.0186656806617975,-1.29262616610504E-06,-0.0324172377586365,-0.00777275860309601
748,-0.02242236956954,-0.0128726800903678,-0.0232408344745636,-1.28069791571761E-06,-0.0330997966229916,-0.0103870900347829
749,-0.0308060646057129,-0.0183910857886076,-0.0313051640987396,-1.26599672967131E-06,-0.035683486610651,-0.014583989046514
750,-0.0366808362305164,-0.0226949062198401,-0.0386158376932144,-1.25356245916919E-06,-0.0391019769012928,-0.0185630619525909
751,-0.0369126945734024,-0.0229029338806868,-0.0404945127665997,-1.24695816339226E-06,-0.0403327830135822,-0.0180685240775347
752,-0.0328371971845627,-0.0199015066027641,-0.0375265702605248,-1.24649181998393E-06,-0.0391874872148037,-0.0126641457900405
753,-0.0274349451065063,-0.0172249097377062,-0.0332380272448063,-1.24921859878668E-06,-0.0374111719429493,-0.00564003549516201
754,-0.0210931152105331,-0.0153136365115643,-0.0287902988493443,-1.25063058931119E-06,-0.0349614322185516,0.000185099357622676
755,-0.014265850186348,-0.0120837660506368,-0.0236825235188007,-1.24707150916947E-06,-0.0306311547756195,0.00406854692846537
756,-0.0085252346470952,-0.00673703709617257,-0.0177507512271404,-1.23758741210622E-06,-0.0252506881952286,0.00997771974653006
757,-0.00601874571293592,-0.00161914119962603,-0.0137077486142516,-1.22428207305347E-06,-0.0220756828784943,0.0205806996673346
758,-0.00763715710490942,0.00110594020225108,-0.0142850009724498,-1.21107257200492E-06,-0.0220446344465017,0.0305841155350208
759,-0.0102410055696964,0.00335942371748388,-0.0167232342064381,-1.20157551464217E-06,-0.0221599098294973,0.035080723464489
760,-0.0127196721732616,0.0050206370651722,-0.01988510414958,-1.19726075809012E-06,-0.0230704564601183,0.0339883714914322
761,-0.0185333583503962,0.00166979571804404,-0.0280626248568296,-1.19681226351531E-06,-0.0294945798814297,0.0282838325947523
762,-0.0252396930009127,-0.00461825495585799,-0.0379009954631329,-1.19695755529392E-06,-0.0392767786979675,0.0219661798328161
763,-0.0265246462076902,-0.00763522367924452,-0.0403530038893223,-1.19425612865598E-06,-0.0453816913068295,0.0177756678313017
764,-0.0223222989588976,-0.00646796310320497,-0.0343874506652355,-1.1868731917275E-06,-0.0462215207517147,0.0138684995472431
765,-0.0174248106777668,-0.00397985894232988,-0.0258745308965445,-1.17542879252142E-06,-0.0453043393790722,0.00862094387412071
766,-0.0166554674506187,-0.00363766239024699,-0.0205346997827291,-1.16254227577883E-06,-0.0461596362292767,0.0013609885936603
767,-0.0200476050376892,-0.00549989193677902,-0.0183665473014116,-1.1513825484144E-06,-0.0487609058618546,-0.00553076900541782
768,-0.0246914643794298,-0.00850993767380714,-0.0176650788635015,-1.14402303097449E-06,-0.0512666217982769,-0.00954160653054714
769,-0.0299367569386959,-0.0133814262226224,-0.020218787714839,-1.14045474219893E-06,-0.053539652377367,-0.0125676821917295
770,-0.0344121381640434,-0.0170036368072033,-0.0248471442610025,-1.13871556095546E-06,-0.0548186935484409,-0.0145863639190793
771,-0.0357126109302044,-0.0150545528158545,-0.027361087501049,-1.13600299300742E-06,-0.0535031780600548,-0.0135357324033976
772,-0.0353367924690247,-0.00953358877450228,-0.0282234530895948,-1.13014209546236E-06,-0.0513164550065994,-0.0117312679067254
773,-0.034806601703167,-0.00293428474105895,-0.0283845253288746,-1.12064412860491E-06,-0.0506723113358021,-0.00948235392570496
774,-0.0349172204732895,0.0022375974804163,-0.0280035119503737,-1.10884877813078E-06,-0.0515119954943657,-0.00665370700880885
775,-0.0385716184973717,0.000133432462462224,-0.0303371753543615,-1.09713835172442E-06,-0.0536145344376564,-0.0084015903994441
776,-0.0437781102955341,-0.00727799674496055,-0.0341704152524471,-1.0876808573812E-06,-0.0560144372284412,-0.0131031004711986
777,-0.0462786965072155,-0.0117463609203696,-0.0356739386916161,-1.08136259768798E-06,-0.0570829212665558,-0.0140241431072354
778,-0.0449528880417347,-0.00839447043836117,-0.0339873433113098,-1.07743085209222E-06,-0.0558298490941525,-0.00814348459243774
779,-0.0407894067466259,0.000592228840105236,-0.0302724242210388,-1.07397397641762E-06,-0.0534153245389462,0.00293807685375214
780,-0.0376712456345558,0.00655119866132736,-0.0285840202122927,-1.06894344753528E-06,-0.0534429922699928,0.0117685468867421
781,-0.036250289529562,0.0069531355984509,-0.029006976634264,-1.0611738616717E-06,-0.0558476708829403,0.015705244615674
782,-0.033045768737793,0.00706651946529746,-0.0271190293133259,-1.05089839053107E-06,-0.0563325025141239,0.020002543926239
783,-0.0293081067502499,0.00717951776459813,-0.0247410200536251,-1.03954471342149E-06,-0.054502796381712,0.0244095101952553
784,-0.0266470201313496,0.00598729634657502,-0.0254273265600204,-1.02896115095064E-06,-0.0532978102564812,0.0264856368303299
785,-0.0214921124279499,0.00633411295711994,-0.0270006097853184,-1.02049193628773E-06,-0.0536142252385616,0.0288870073854923
786,-0.014861878938973,0.00812151376157999,-0.028174152597785,-1.01435932720051E-06,-0.0552295260131359,0.0310215596109629
787,-0.0125930653885007,0.00903224479407072,-0.0297106336802244,-1.0096293863171E-06,-0.0571574829518795,0.0291760414838791
788,-0.0145769929513335,0.00986122991889715,-0.0302375238388777,-1.00473346265062E-06,-0.057498000562191,0.0244241077452898
789,-0.0153100350871682,0.013308210298419,-0.0273077860474586,-9.982596793634E-07,-0.0549255833029747,0.0222169458866119
790,-0.0129342833533883,0.0186321958899498,-0.0216123014688492,-9.89617205959803E-07,-0.0501511693000793,0.0237017851322889
791,-0.0122527331113815,0.0206516347825527,-0.0181728899478912,-9.79270225798246E-07,-0.0459914356470108,0.0232910569757223
792,-0.0161255206912756,0.0177409164607525,-0.0189423020929098,-9.68459630712459E-07,-0.0440775379538536,0.0203860253095627
793,-0.0209573581814766,0.0128314895555377,-0.0206051152199507,-9.58576492848806E-07,-0.0434182323515415,0.0191823467612267
794,-0.0243984311819077,0.0060377917252481,-0.0226777866482735,-9.50500975704927E-07,-0.0432838946580887,0.0162849351763725
795,-0.0273383930325508,-0.00392815703526139,-0.0272673852741718,-9.44213411457895E-07,-0.0441812835633755,0.00605314318090677
796,-0.0285928156226873,-0.0136497216299176,-0.0318688340485096,-9.38844380016235E-07,-0.0446552075445652,-0.0078419167548418
797,-0.0244071893393993,-0.0158195924013853,-0.0301248636096716,-9.33115700263443E-07,-0.0411926135420799,-0.0157099179923534
798,-0.0142434872686863,-0.00845037493854761,-0.0205421950668097,-9.25953315800143E-07,-0.0338060334324837,-0.0135980527848005
799,-0.00426052464172244,0.00074003724148497,-0.00990208797156811,-9.16983935894677E-07,-0.0274771172553301,-0.0077179130166769
800,-0.000146397651406005,0.00428702309727669,-0.00402083620429039,-9.06691923319158E-07,-0.0256784092634916,-0.00508516933768988
801,-0.000344277417752892,0.00278946966864169,-0.00129616423510015,-8.96174981335207E-07,-0.0267071295529604,-0.00507934344932437
802,-0.000903326144907624,0.000337225123075768,0.00124903884716332,-8.86619432094449E-07,-0.0276284199208021,-0.00396084832027555
803,-0.00123508146498352,-0.00175542815122753,0.00265953317284584,-8.7874099108376E-07,-0.0281546395272017,-0.00179038045462221
804,-0.00187074078712612,-0.00453990371897817,0.000968681764788926,-8.72449618327664E-07,-0.0288193877786398,-0.00109579379204661
805,-0.00110570469405502,-0.0074861547909677,-0.00236421986483037,-8.66893742568209E-07,-0.0280999951064587,-0.00186905160080642
806,0.00256714480929077,-0.00831983331590891,-0.00393936736509204,-8.60865156937507E-07,-0.0254266168922186,-0.00107482518069446
807,0.00692824507132173,-0.00678754411637783,-0.00343144172802567,-8.53376263876271E-07,-0.0237939637154341,0.00240179663524032
808,0.00813685730099678,-0.00604027369990945,-0.00357642280869186,-8.44140117806091E-07,-0.0252447333186865,0.0046176016330719
809,0.00683725252747536,-0.00670553231611848,-0.0038885127287358,-8.33721060189418E-07,-0.0269564464688301,0.00412332732230425
810,0.00740812299773097,-0.00496696215122938,-0.000332048832206056,-8.23275684069813E-07,-0.0247214343398809,0.00636553671211004
811,0.0114367008209229,0.000602825486566871,0.00770072918385267,-8.13998155990703E-07,-0.0180190466344357,0.0141885289922357
812,0.017771415412426,0.00860278680920601,0.0170451793819666,-8.06532000297011E-07,-0.00984128843992949,0.0246891416609287
813,0.0241974964737892,0.0167506020516157,0.0239570513367653,-8.00636826170376E-07,-0.00369723374024034,0.0333835519850254
814,0.0273773316293955,0.0214877165853977,0.0254607889801264,-7.95284165633348E-07,-0.00227066152729094,0.0369732119143009
815,0.0261708553880453,0.0213121995329857,0.0223038177937269,-7.89151442859293E-07,-0.00557112274691463,0.0361547544598579
816,0.0217409953474998,0.0176385194063187,0.0173182412981987,-7.81280334649637E-07,-0.0100225294008851,0.0323081985116005
817,0.0155907506123185,0.0131981074810028,0.0121708689257503,-7.71574264035735E-07,-0.0120895160362124,0.0257788170129061
818,0.0114995408803225,0.0111841307953,0.00907322019338608,-7.60875650485104E-07,-0.0118006598204374,0.0202187150716782
819,0.0144040463492274,0.0132079189643264,0.00958238914608955,-7.50566528040508E-07,-0.0111622028052807,0.0204681884497404
820,0.0221229866147041,0.0167920291423798,0.0102910362184048,-7.41877840937377E-07,-0.0118446443229914,0.0254254080355167
821,0.0247510895133018,0.0167215149849653,0.00566050969064236,-7.35251205696841E-07,-0.0152170993387699,0.0290858652442694
822,0.0180959869176149,0.0112728159874678,-0.004375577904284,-7.30085560007865E-07,-0.0213622897863388,0.0287044588476419
823,0.00945379491895437,0.00549391470849514,-0.0130344638600945,-7.25015297575737E-07,-0.0278643891215324,0.028285063803196
824,0.00609201053157449,0.00409161066636443,-0.0152706820517778,-7.18595742910111E-07,-0.0321318879723549,0.0295825805515051
825,0.00544642005115747,0.00372895249165595,-0.0149833746254444,-7.10053484453965E-07,-0.0354719720780849,0.0255318619310856
826,0.00313300057314336,0.00128296099137515,-0.016130156815052,-6.99712188634294E-07,-0.0395897850394249,0.0135095939040184
827,-0.00019350070215296,-0.00155448319856077,-0.0177775267511606,-6.88857198838377E-07,-0.0425437912344933,-0.000631131755653769
828,-0.00347143737599254,-0.00528137758374214,-0.0202947296202183,-6.79090874200483E-07,-0.0421725064516068,-0.0137278325855732
829,-0.00580446189269423,-0.0102601759135723,-0.0229251105338335,-6.71500174576067E-07,-0.038093376904726,-0.0244585443288088
830,-0.00492614088580012,-0.0119148045778275,-0.0217255782335997,-6.66070036459132E-07,-0.0319217257201672,-0.0283604208379984
831,-0.00164747948292643,-0.00880821794271469,-0.0173745453357697,-6.61660692458099E-07,-0.027742313221097,-0.0244970116764307
832,0.00161206652410328,-0.00431761145591736,-0.0131064280867577,-6.56578890811943E-07,-0.0265266112983227,-0.0164552871137857
833,0.00540782976895571,0.000759664981160313,-0.00744884833693504,-6.49459195756208E-07,-0.0239092409610748,-0.00575882056728005
834,0.00960875768214464,0.00579111883416772,0.00166615843772888,-6.39995846540842E-07,-0.0169582441449165,0.00568095734342933
835,0.0125120133161545,0.0087976697832346,0.0133036533370614,-6.2913215970184E-07,-0.00653140433132648,0.0141950286924839
836,0.0118513591587543,0.00671674311161041,0.0223027486354113,-6.1859117295171E-07,0.004717908333987,0.0149334315210581
837,0.00743545684963465,-0.00188218068797141,0.0235763099044561,-6.09979224464041E-07,0.0149123184382916,0.0063704657368362
838,0.00329862954095006,-0.0120168849825859,0.0182146038860083,-6.03929379394685E-07,0.0224039349704981,-0.00493567250669003
839,0.00298415031284094,-0.0165835302323103,0.0109843770042062,-5.99742918439006E-07,0.0239566899836063,-0.0105340909212828
840,0.00595611240714788,-0.0144618470221758,0.00534610915929079,-5.95732728925213E-07,0.0180204287171364,-0.00849921442568302
841,0.0100236274302006,-0.0103653138503432,0.00215726369060576,-5.90102331443632E-07,0.00771286152303219,-0.00330282375216484
842,0.0144601995125413,-0.00731839565560222,0.00190886564087123,-5.81902042995353E-07,-0.00115585629828274,0.000899546721484512
843,0.0177736971527338,-0.00659728515893221,0.00271588983014226,-5.71552959627297E-07,-0.00532223796471953,0.000296040874673054
844,0.0175902247428894,-0.0102099953219295,7.86662567406893E-05,-5.60648345526715E-07,-0.00593620259314775,-0.00853555370122194
845,0.0154494000598788,-0.0154191581532359,-0.00498480396345258,-5.51124287540006E-07,-0.00413435325026512,-0.020644711330533
846,0.0150407431647182,-0.0158153176307678,-0.00664504524320364,-5.44231113508431E-07,0.000883532804436982,-0.0258743111044168
847,0.0152696678414941,-0.011905612424016,-0.00519868265837431,-5.39853431291704E-07,0.00772587954998016,-0.0231417436152697
848,0.0131715331226587,-0.00948483869433403,-0.00554226571694016,-5.36549634944095E-07,0.0126556539908051,-0.0189271420240402
849,0.00967027992010117,-0.0104121211916208,-0.00902972929179668,-5.32302635747328E-07,0.0129873352125287,-0.0165688507258892
850,0.00692098075523973,-0.0137525526806712,-0.014222813770175,-5.2559124696927E-07,0.00891621876507998,-0.0171617027372122
851,0.00562242651358247,-0.0185324586927891,-0.0192521680146456,-5.16212367074331E-07,0.00323221459984779,-0.0214284304529428
852,0.00539013650268316,-0.0212652496993542,-0.0224445853382349,-5.05408650042227E-07,-0.00176262890454382,-0.0265543311834335
853,0.00579214515164495,-0.0189582128077745,-0.0235629323869944,-4.9522230938237E-07,-0.00618728995323181,-0.0297133699059486
854,0.00845265481621027,-0.0149761745706201,-0.023330919444561,-4.87411227823031E-07,-0.0104992380365729,-0.0313516333699226
855,0.0139540107920766,-0.0144760031253099,-0.0225385800004005,-4.8250331019517E-07,-0.0131035074591637,-0.0319595672190189
856,0.0178152713924646,-0.0176879893988371,-0.022582920268178,-4.79498623917607E-07,-0.0122548500075936,-0.0330477729439735
857,0.0192276425659657,-0.0187101811170578,-0.0211109090596437,-4.76388891001989E-07,-0.00626571523025632,-0.0340161733329296
858,0.0215069185942411,-0.0140398563817143,-0.0154571430757642,-4.71223671638654E-07,0.0045521236024797,-0.0325414575636387
859,0.0248587466776371,-0.00695215817540884,-0.00796845369040966,-4.63157959984528E-07,0.0161065626889467,-0.0282320026308298
860,0.0279694478958845,-0.000343725696438923,-0.00103841244708747,-4.5291682226889E-07,0.0252607818692923,-0.0208543799817562
861,0.0263815969228745,0.000466495053842664,0.000866266258526593,-4.42421224988721E-07,0.0295663811266422,-0.0161463469266891
862,0.017814913764596,-0.00813989713788033,-0.00421478599309921,-4.33767866070411E-07,0.0270540956407785,-0.0186803452670574
863,0.0078135784715414,-0.0199903268367052,-0.0100021827965975,-4.28105153105207E-07,0.0192409306764603,-0.0222296565771103
864,0.00113543902989477,-0.0291185770183802,-0.0124101908877492,-4.25008948923278E-07,0.00938019435852766,-0.0232122223824263
865,-0.00184621650259942,-0.0341190248727798,-0.0130480267107487,-4.22698377633424E-07,0.000437009090092033,-0.024601086974144
866,-0.00304802320897579,-0.0358786657452583,-0.0152715053409338,-4.18982551764202E-07,-0.00607723137363791,-0.0282447505742311
867,-0.00517425546422601,-0.0371403023600578,-0.0208697952330112,-4.12434673080497E-07,-0.0101424288004637,-0.0342767275869846
868,-0.00758520932868123,-0.0370897762477398,-0.0262678861618042,-4.031635114643E-07,-0.0112316897138953,-0.039110466837883
869,-0.00871595460921526,-0.0338565707206726,-0.028304735198617,-3.92764547996194E-07,-0.0102987978607416,-0.0398260615766048
870,-0.0082562156021595,-0.027826739475131,-0.0269907508045435,-3.83471075338093E-07,-0.00972982961684465,-0.0367689020931721
871,-0.00465647038072348,-0.0187876597046852,-0.0212131422013044,-3.76957927983312E-07,-0.00842929072678089,-0.0298858564347029
872,0.00137639127206057,-0.00854105968028307,-0.012990539893508,-3.73438865608478E-07,-0.0044942875392735,-0.0232121646404266
873,0.00593723077327013,-0.00162370200268924,-0.00839669723063707,-3.71545468169643E-07,0.000461700430605561,-0.0219960734248161
874,0.0082037691026926,-0.000337887438945472,-0.00871504191309214,-3.69055896953796E-07,0.00533579150214791,-0.0237904619425535
875,0.0109795117750764,-0.0027782921679318,-0.00899289082735777,-3.6408584946912E-07,0.0105512784793973,-0.0224904697388411
876,0.0157265458256006,-0.00530218612402678,-0.00566696701571345,-3.5610219129012E-07,0.0139126451686025,-0.0160880703479052
877,0.0207427553832531,-0.00612060306593776,-0.00101972743868828,-3.46213710145094E-07,0.0122950980439782,-0.00838494021445513
878,0.0231068655848503,-0.00641028862446547,0.00064740382367745,-3.36579830673145E-07,0.00632620463147759,-0.00599033432081342
879,0.0224176812916994,-0.00723090022802353,-0.000746671110391617,-3.2925257187344E-07,-0.00030694535234943,-0.0108307488262653
880,0.0209074169397354,-0.00862832926213741,-0.00274254963733256,-3.2507361424905E-07,-0.00435098493471742,-0.0192889552563429
881,0.0224975161254406,-0.00975754018872976,-0.00385808851569891,-3.23220120890255E-07,-0.00453272275626659,-0.0271905027329922
882,0.0285367462784052,-0.00932050123810768,-0.00385955348610878,-3.21644563427981E-07,-0.00165602774359286,-0.0318970046937466
883,0.0324628315865994,-0.0092204250395298,-0.0047639706172049,-3.18174102176272E-07,0.00229451595805585,-0.0341800525784492
884,0.0298064723610878,-0.0109209641814232,-0.00702201295644045,-3.11678007847149E-07,0.00587488617748022,-0.034239511936903
885,0.0263258386403322,-0.0101772332563996,-0.00565223209559917,-3.02675999819257E-07,0.00974577758461237,-0.027228944003582
886,0.028118135407567,-0.00375667284242809,0.00332609354518354,-2.9305900284271E-07,0.0153641812503338,-0.0111607722938061
887,0.0308491513133049,0.00167862582020462,0.0128059023991227,-2.8507284355328E-07,0.0200734380632639,0.00372593174688518
888,0.0270289555191994,-0.00144153425935656,0.0127546917647123,-2.80111180472886E-07,0.0197562444955111,0.00716725597158074
889,0.0203004535287619,-0.00807567313313484,0.00671955524012446,-2.7796735935226E-07,0.0167118795216084,0.00460966397076845
890,0.0196880958974361,-0.00885102245956659,0.00492738466709852,-2.76946991561999E-07,0.0161165129393339,0.00684933736920357
891,0.026775611564517,-0.0017828579293564,0.0100868586450815,-2.74780347808701E-07,0.0186134967952967,0.0164988376200199
892,0.0376894846558571,0.00967822968959808,0.0191220212727785,-2.69843098976708E-07,0.0225140601396561,0.0296002775430679
893,0.0477964729070663,0.0196856651455164,0.0278311986476183,-2.62027924691211E-07,0.0264528132975101,0.0400837585330009
894,0.0512265488505363,0.0205389689654112,0.030745942145586,-2.52799083000355E-07,0.0272031538188457,0.0417270921170712
895,0.0464026555418968,0.0104687884449959,0.026521535590291,-2.44402059479398E-07,0.0231898948550224,0.0339652225375175
896,0.037218265235424,-0.0034792572259903,0.0184921622276306,-2.38654763506929E-07,0.0167158041149378,0.0217393301427364
897,0.0266803819686174,-0.0142841618508101,0.00913453381508589,-2.35971896245246E-07,0.0113599300384521,0.00760106835514307
898,0.0191234927624464,-0.0172848999500275,0.00339141068980098,-2.35146288218857E-07,0.0115602482110262,-0.00423124432563782
899,0.0166648104786873,-0.0138616319745779,0.00353424879722297,-2.34002868637617E-07,0.0168759152293205,-0.00936847738921642
900,0.0158620309084654,-0.0104681421071291,0.00501349847763777,-2.30570904591332E-07,0.0208554100245237,-0.00923358555883169
901,0.0141778588294983,-0.00967115815728903,0.00424490589648485,-2.2414214129185E-07,0.018309697508812,-0.00717205973342061
902,0.00892816483974457,-0.0123353786766529,-0.00187368982005864,-2.15646380752332E-07,0.00739658391103148,-0.00885895173996687
903,0.00240339688025415,-0.0144762434065342,-0.010322324000299,-2.071448506058E-07,-0.00729836989194155,-0.0134460972622037
904,0.000995120499283075,-0.0115877334028482,-0.0141234258189797,-2.00717551024354E-07,-0.0181689653545618,-0.0153522146865726
905,0.00168161850888282,-0.0096978759393096,-0.0171012282371521,-1.97345499941548E-07,-0.024460444226861,-0.0183331519365311
906,-0.00296773249283433,-0.0147453220561147,-0.0265903677791357,-1.96389066786651E-07,-0.0294578783214092,-0.0265152975916862
907,-0.0126675795763731,-0.0248775500804186,-0.0402036570012569,-1.95939932723377E-07,-0.0331342481076717,-0.0361666195094585
908,-0.0218141283839941,-0.0362727642059326,-0.0505960509181023,-1.93853111341014E-07,-0.0336579978466034,-0.042898491024971
909,-0.0262377522885799,-0.0454474948346615,-0.0539467930793762,-1.8890067110533E-07,-0.0301013477146626,-0.0443414784967899
910,-0.0218758098781109,-0.0472624748945236,-0.0476744771003723,-1.81425917844535E-07,-0.0202386174350977,-0.0360024534165859
911,-0.00842418987303972,-0.0424823425710201,-0.0348448380827904,-1.73149572901821E-07,-0.00605106633156538,-0.0199594479054213
912,0.00510875694453716,-0.0401609055697918,-0.0260425750166178,-1.66236631571337E-07,0.00366926030255854,-0.0091365659609437
913,0.009442581795156,-0.0435060560703278,-0.0252714287489653,-1.62130433523089E-07,0.00539568299427629,-0.0111989798024297
914,0.00494303274899721,-0.0476781986653805,-0.0278646256774664,-1.60782036573437E-07,0.00418366631492972,-0.0202686376869679
915,6.64295075694099E-05,-0.0467313192784786,-0.0275880713015795,-1.60686695949153E-07,0.00528138317167759,-0.0240378957241774
916,0.000693845853675157,-0.0389861352741718,-0.0220171026885509,-1.59702437940723E-07,0.00807658582925797,-0.0184080339968205
917,0.00366167887113988,-0.0300608817487955,-0.0158198662102222,-1.56205146595312E-07,0.00779973156750202,-0.0117945335805416
918,0.00474437372758985,-0.0241769794374704,-0.0133074028417468,-1.49956917994132E-07,0.00431059487164021,-0.0112640131264925
919,0.00614173337817192,-0.0180904567241669,-0.0112323574721813,-1.42222944532477E-07,0.00402653170749545,-0.0129551291465759
920,0.0100012300536036,-0.0103066675364971,-0.0062173861078918,-1.35080099994411E-07,0.00937971379607916,-0.010180645622313
921,0.0132116544991732,-0.00545468926429749,-0.00113178917672485,-1.30294878886161E-07,0.0151630975306034,-0.00320791150443256
922,0.0136174336075783,-0.00566929439082742,0.00142950692679733,-1.28377337205166E-07,0.0171376150101423,0.00430707819759846
923,0.0116819152608514,-0.00926209148019552,0.00127664371393621,-1.28317793723909E-07,0.0145431393757463,0.00839241500943899
924,0.00997539702802897,-0.0121766990050673,0.000927494023926556,-1.28142247035612E-07,0.00916185416281223,0.00794876646250486
925,0.0118979187682271,-0.010291357524693,0.00408797571435571,-1.25980690768301E-07,0.00439366512000561,0.00582837825641036
926,0.0144215533509851,-0.0065225032158196,0.00713802734389901,-1.21070002023771E-07,0.000824031420052052,0.00144484580960125
927,0.0122769875451922,-0.00643853237852454,0.00399159034714103,-1.14153280605933E-07,-0.00226360908709466,-0.00567577872425318
928,0.00770309148356318,-0.00992014352232218,-0.00272925314493477,-1.07066519206001E-07,-0.0033435293007642,-0.010103328153491
929,0.00608171196654439,-0.0130807403475046,-0.00596102420240641,-1.01742372748959E-07,-0.00155899894889444,-0.00817928649485111
930,0.00850084517151117,-0.0127741452306509,-0.00313636101782322,-9.91716362364059E-08,0.00105956813786179,-0.00267798127606511
931,0.0116835804656148,-0.00924265757203102,0.00160564016550779,-9.88807471458131E-08,0.00131013349164277,0.000899332633707672
932,0.0146508626639843,-0.00348592852242291,0.00457518734037876,-9.92008182265636E-08,-0.000317551952321082,0.00170425593387336
933,0.0206490661948919,0.00462476396933198,0.00817346759140491,-9.81756542728363E-08,0.000281677348539233,0.00463776104152203
934,0.0310887228697538,0.0144170885905623,0.0161759406328201,-9.46145490843264E-08,0.00408770004287362,0.0134122809395194
935,0.044159859418869,0.0257030986249447,0.0290734730660915,-8.87229703039338E-08,0.0091331647709012,0.0271269828081131
936,0.053923238068819,0.0347175411880016,0.040710162371397,-8.19769567783624E-08,0.013334178365767,0.0377879478037357
937,0.0557007901370525,0.0365601405501366,0.0450936444103718,-7.63168372941436E-08,0.0150663899257779,0.0388796441257
938,0.0544009692966938,0.033642090857029,0.0449928268790245,-7.31007858689736E-08,0.0141035923734307,0.0353100672364235
939,0.0537898018956184,0.0277799759060144,0.0427283830940723,-7.23826545367956E-08,0.010580200701952,0.0305643137544394
940,0.0489367246627808,0.0175197012722492,0.0363173857331276,-7.28980680264613E-08,0.00552807794883847,0.0213097203522921
941,0.0397579595446587,0.007974105887115,0.0293117128312588,-7.27581266346533E-08,0.00186665961518884,0.0116393407806754
942,0.0311236176639795,0.00397671433165669,0.0256658941507339,-7.04699729681124E-08,0.000283247325569391,0.00771487737074494
943,0.0229384265840054,0.00248896237462759,0.0217735655605793,-6.57326424402527E-08,-0.00112237071152776,0.0056907320395112
944,0.0151054784655571,0.00155550776980817,0.0157611891627312,-5.9583669553831E-08,-0.00204240879975259,0.00205302657559514
945,0.00918351672589779,0.00162269314751029,0.00965981930494308,-5.38258397853042E-08,-0.0015500895678997,-0.00131587206851691
946,0.00414270721375942,0.000857193430420011,0.00334072019904852,-5.00506054379457E-08,-0.00160433177370578,-0.00451742438599467
947,-0.000582173466682434,-0.00165629456751049,-0.00317137339152396,-4.87872924281874E-08,-0.00432475097477436,-0.00911587756127119
948,-0.00369112496264279,-0.00462550483644009,-0.00854471605271101,-4.92329519374834E-08,-0.0089237242937088,-0.0143727771937847
949,-0.00397452805191278,-0.0064492798410356,-0.0112827057018876,-4.97002439203698E-08,-0.0126809068024158,-0.0164908245205879
950,-0.00328685692511499,-0.00906134769320488,-0.0130534954369068,-4.85336819622262E-08,-0.0153761114925146,-0.0164626371115446
951,-0.00438470672816038,-0.0144902784377337,-0.016512168571353,-4.49964794313473E-08,-0.0193146429955959,-0.0197385624051094
952,-0.00640514912083745,-0.0179435070604086,-0.0196462906897068,-3.96527504165078E-08,-0.0250636115670204,-0.0251605324447155
953,-0.0079613234847784,-0.0149824181571603,-0.0197718404233456,-3.40470300841389E-08,-0.0302450507879257,-0.0274016670882702
954,-0.00837564747780561,-0.00746772857382894,-0.0162655115127563,-2.98627433892307E-08,-0.0300061497837305,-0.0230498872697353
955,-0.00770418299362063,-0.000385946303140372,-0.0114172399044037,-2.80180039169409E-08,-0.0211117006838322,-0.0145351830869913
956,-0.00813587848097086,0.00147397688124329,-0.0102432295680046,-2.81844467764358E-08,-0.00748237408697605,-0.0105136279016733
957,-0.0109581435099244,-0.00284401467069983,-0.0149124730378389,-2.89809936049323E-08,0.00133069243747741,-0.0153870293870568
958,-0.0130303138867021,-0.00824935641139746,-0.0207378175109625,-2.87289640965582E-08,0.000481387804029509,-0.0231874752789736
959,-0.0112314177677035,-0.00840782839804888,-0.0220590680837631,-2.63556270141407E-08,-0.00605965964496136,-0.0268395878374577
960,-0.00754224322736263,-0.00367743475362659,-0.0205983780324459,-2.19597033890295E-08,-0.0135542675852776,-0.0266811400651932
