,AF3,AF4,Fp1,Fp2,AF7,AF8
0,-0.00333667849190533,-0.00729487603530288,-0.0283370353281498,0.451718717813492,0.0124019682407379,-0.00979859940707684
1,-0.00226549105718732,-0.00926217343658209,-0.0236431695520878,0.451417863368988,0.018717035651207,-0.00593698350712657
2,0.00423437170684338,-0.00880059879273176,-0.0165581237524748,0.451528489589691,0.0263468306511641,0.00340552115812898
3,0.0156885329633951,-0.0087579358369112,-0.00966235809028149,0.451251745223999,0.0342194177210331,0.0138073600828648
4,0.0267165564000607,-0.0106787541881204,-0.00480425590649247,0.449973344802856,0.0404102578759193,0.020390821620822
5,0.0324930250644684,-0.0115207936614752,-0.00109421170782298,0.447625726461411,0.0437293499708176,0.0238853450864553
6,0.0331344157457352,-0.00786256603896618,0.0026654175017029,0.444736272096634,0.0436003543436527,0.0271928943693638
7,0.029349809512496,-0.00259971898049116,0.00473527144640684,0.44212993979454,0.0396441854536533,0.0285329669713974
8,0.0235788617283106,0.0011015891795978,0.00633892090991139,0.44045501947403,0.034662127494812,0.0277974754571915
9,0.0195287559181452,0.0033441954292357,0.0114861177280545,0.439804583787918,0.0335150212049484,0.0282657481729984
10,0.0164343062788248,0.00273994775488973,0.0188983138650656,0.439653724431992,0.0369481146335602,0.0288736168295145
11,0.0126982880756259,-0.0010709788184613,0.0247320923954248,0.439153164625168,0.0421317480504513,0.026378720998764
12,0.0111999707296491,-0.00383927300572395,0.0290912818163633,0.437614291906357,0.0469793975353241,0.0221367217600346
13,0.0147156249731779,-0.00128884636797011,0.0339832752943039,0.434909462928772,0.0504455342888832,0.0202314499765635
14,0.0187744572758675,0.00383634679019451,0.0365372002124786,0.431555896997452,0.050279226154089,0.0190637558698654
15,0.0178846996277571,0.00839055515825748,0.0328992158174515,0.428430706262589,0.0455575473606586,0.014645166695118
16,0.0152096273377538,0.0134460246190429,0.025923790410161,0.426274985074997,0.039952777326107,0.00955333653837442
17,0.0153079647570848,0.0155546637251973,0.0206241589039564,0.425267845392227,0.0377472415566444,0.00922426301985979
18,0.0156280249357224,0.0107847256585956,0.0192569307982922,0.42491489648819,0.0400224030017853,0.0152106499299407
19,0.0116976955905557,0.00114973203744739,0.0202420949935913,0.424319088459015,0.0442831330001354,0.023301687091589
20,0.00500622903928161,-0.00759131647646427,0.0219593551009893,0.422685325145721,0.0479820556938648,0.0301162488758564
21,-0.000339582533342764,-0.0113929193466902,0.0245892647653818,0.419774979352951,0.0503293685615063,0.0357869453728199
22,-0.00259814690798521,-0.011167929507792,0.0276393480598927,0.416051030158997,0.0504686385393143,0.0399516224861145
23,9.10331727936864E-05,-0.00823748949915171,0.0320971570909023,0.412427544593811,0.0492400303483009,0.0431924946606159
24,0.00690085859969258,-0.00538272177800536,0.0375732481479645,0.409759789705276,0.0480154752731323,0.0447985529899597
25,0.0144821964204311,-0.0047302464954555,0.0427888780832291,0.408360093832016,0.0472934767603874,0.0452274903655052
26,0.0196182038635015,-0.00486429175361991,0.0473584234714508,0.407813549041748,0.0470267347991467,0.0467087775468826
27,0.0187401250004768,-0.00565078016370535,0.0487879067659378,0.407201766967773,0.0458724871277809,0.0471679270267487
28,0.012292574159801,-0.00659947982057929,0.0469907782971859,0.405613392591476,0.0440038964152336,0.0465097725391388
29,0.00353472284041345,-0.00689897639676929,0.0446925945580006,0.402657568454742,0.0428072437644005,0.0484319068491459
30,-0.00485453335568309,-0.00672544213011861,0.0434391424059868,0.398691236972809,0.043059591203928,0.0536419451236725
31,-0.0118933385238051,-0.00876736082136631,0.0417136922478676,0.394629418849945,0.0454322062432766,0.0568834133446217
32,-0.0168729517608881,-0.015597989782691,0.0382815636694431,0.3914395570755,0.0511760227382183,0.0558415353298187
33,-0.0160843804478645,-0.0223515089601278,0.0363010205328465,0.38960075378418,0.0598380900919437,0.0567738339304924
34,-0.00965557992458344,-0.0252739675343037,0.0364496149122715,0.3888298869133,0.0658769756555557,0.0597636327147484
35,-0.00441041076555848,-0.0263005569577217,0.0358168184757233,0.388231366872787,0.064604178071022,0.058677863329649
36,-0.00560459401458502,-0.0262900497764349,0.0329562351107597,0.386790841817856,0.0567743740975857,0.0529580637812614
37,-0.012500231154263,-0.0255582369863987,0.0278855282813311,0.383940547704697,0.0447099097073078,0.0446036420762539
38,-0.0212870985269547,-0.0257790610194206,0.0217047687619925,0.379881143569946,0.0312893353402615,0.033740472048521
39,-0.0286906510591507,-0.0256024356931448,0.0170656237751246,0.375478178262711,0.021360207349062,0.0227521173655987
40,-0.0306194797158241,-0.0188530683517456,0.0188011303544044,0.371787309646606,0.0190728418529034,0.0191506091505289
41,-0.0256099719554186,-0.00559591082856059,0.0282402597367764,0.36946913599968,0.0237331092357636,0.0259541235864162
42,-0.0180214047431946,0.0059421262703836,0.0396401472389698,0.368418753147125,0.0314305275678635,0.0371778421103954
43,-0.0116909686475992,0.0111288297921419,0.0471345670521259,0.367817789316177,0.0389816239476204,0.047060389071703
44,-0.00840219017118216,0.0103736612945795,0.048814594745636,0.366582900285721,0.0435472391545773,0.0537241585552692
45,-0.00878486596047878,0.00609042309224606,0.0457144267857075,0.363965153694153,0.0438231527805328,0.0566476173698902
46,-0.00873586256057024,0.00209222594276071,0.0414856299757957,0.359968036413193,0.0422666557133198,0.0564421787858009
47,-0.00332331587560475,0.00160466879606247,0.0406317114830017,0.35535129904747,0.0422032289206982,0.0560039095580578
48,0.00463200639933348,0.00468572787940502,0.0438797362148762,0.351216048002243,0.0454286225140095,0.0570983178913593
49,0.00803472381085157,0.00542425690218806,0.0459811761975288,0.34839802980423,0.0505136847496033,0.0556482821702957
50,0.00502283871173859,-0.00212249718606472,0.0427876301109791,0.347004264593124,0.0522996708750725,0.0486954301595688
51,-0.000467643461888656,-0.0142706893384457,0.0386343970894814,0.346349954605103,0.0487746335566044,0.0421129539608955
52,-0.00546599738299847,-0.0232042707502842,0.0392259135842323,0.345332801342011,0.0439533814787865,0.0414032675325871
53,-0.01100018247962,-0.0269869212061167,0.0427771769464016,0.343039512634277,0.0413109995424747,0.0433592610061169
54,-0.0164295565336943,-0.025687525048852,0.0456707589328289,0.339251130819321,0.0405637957155705,0.0443892888724804
55,-0.017435921356082,-0.0177287366241217,0.048416405916214,0.334567070007324,0.0398722141981125,0.0470796450972557
56,-0.0126175656914711,-0.00653061643242836,0.0514756962656975,0.330078452825546,0.0386515147984028,0.0533972680568695
57,-0.00639333529397845,0.000175532244611532,0.0527051277458668,0.326769232749939,0.0378869399428368,0.0587703175842762
58,-0.00268064229749143,0.00214707828126848,0.0532560683786869,0.324974328279495,0.0399204343557358,0.059773426502943
59,-0.00145814521238208,0.00624411646276712,0.0569582879543304,0.324193507432938,0.0462458617985249,0.0590713210403919
60,-0.00197248626500368,0.01486402656883,0.0628343895077705,0.323364526033401,0.0536901541054249,0.060013085603714
61,-0.00356225133873522,0.024569483473897,0.0667762979865074,0.321446090936661,0.0576512441039085,0.0642008036375046
62,-0.00546997459605336,0.0313144437968731,0.066951647400856,0.317990690469742,0.057418167591095,0.0703229531645775
63,-0.0070433565415442,0.0352432429790497,0.0659163221716881,0.313391774892807,0.05695566162467,0.0753582939505577
64,-0.00869839824736118,0.038382388651371,0.066645011305809,0.308669328689575,0.0605041496455669,0.076640322804451
65,-0.00929111801087856,0.0393812730908394,0.0692701861262321,0.304911106824875,0.0679081529378891,0.0734321996569633
66,-0.00393975665792823,0.0374294221401215,0.073882170021534,0.302675873041153,0.0778834521770477,0.0697895511984825
67,0.00566584849730134,0.0320962369441986,0.0780115276575089,0.30168679356575,0.0889576002955437,0.0704559162259102
68,0.0113351596519351,0.0220007281750441,0.0771161541342735,0.300983160734177,0.0951940938830376,0.0751035511493683
69,0.0115291038528085,0.0110739041119814,0.0715594589710236,0.29944708943367,0.0914449989795685,0.0795573592185974
70,0.00699435267597437,0.0033972233068198,0.063491977751255,0.296416521072388,0.0787043869495392,0.0771732330322266
71,-0.000871005584485829,-0.000995552516542375,0.0559713132679462,0.292047917842865,0.062298733741045,0.0658754780888557
72,-0.00639095809310675,-0.00184114149305969,0.0516922138631344,0.287230402231216,0.0466569922864437,0.0518618188798428
73,-0.0091180894523859,-0.00185120943933725,0.047643780708313,0.283098459243774,0.0322395600378513,0.040596678853035
74,-0.0145609816536307,-0.00480834441259503,0.0413759611546993,0.280411005020142,0.0199431087821722,0.0331517085433006
75,-0.0246634762734175,-0.00936529226601124,0.0345656126737595,0.279136955738068,0.0117217171937227,0.0271471086889505
76,-0.0350420735776424,-0.0115064345300198,0.0300536882132292,0.278473645448685,0.00960490852594376,0.0198160354048014
77,-0.0400923900306225,-0.00979334767907858,0.0296019949018955,0.277287632226944,0.016173493117094,0.011445801705122
78,-0.0363819859921932,-0.00561867468059063,0.0336953401565552,0.274735122919083,0.0301796812564135,0.00557730533182621
79,-0.0254608504474163,-0.000561765569727868,0.0421565100550652,0.270722717046738,0.0456981882452965,0.00833852123469114
80,-0.015354547649622,0.00331936636939645,0.0511606857180595,0.265956610441208,0.0571412965655327,0.0214625783264637
81,-0.0120580000802875,0.00400982843711972,0.0546839274466038,0.261554718017578,0.0614783354103565,0.0371447950601578
82,-0.0130638787522912,0.00364819238893688,0.0531522296369076,0.258435130119324,0.0602431669831276,0.0475777089595795
83,-0.0144892195239663,0.00438478449359536,0.0511705651879311,0.256815731525421,0.05783936008811,0.0507573820650578
84,-0.016228387132287,0.0044793663546443,0.0499742366373539,0.256098031997681,0.05665173381567,0.0471981875598431
85,-0.0196469258517027,0.00244591850787401,0.0482909269630909,0.255196988582611,0.0568702518939972,0.0387773998081684
86,-0.0263551697134972,-0.0024283672682941,0.0437637232244015,0.25313526391983,0.0573314651846886,0.0265276711434126
87,-0.0316818691790104,-0.00870570633560419,0.0383510589599609,0.249575927853584,0.0595431067049503,0.014521243982017
88,-0.0263440757989883,-0.0126192895695567,0.0380388461053371,0.245003506541252,0.0677497833967209,0.010071674361825
89,-0.0143702430650592,-0.012641086243093,0.0429283790290356,0.240456029772758,0.0803520381450653,0.0132337007671595
90,-0.009716528467834,-0.0104577243328094,0.0487712100148201,0.236956775188446,0.0901588350534439,0.0189255308359861
91,-0.0144656887277961,-0.00738313514739275,0.0544726923108101,0.23495677113533,0.0925389677286148,0.0261803362518549
92,-0.0190831534564495,-0.0012186752865091,0.0615195259451866,0.234092369675636,0.0894082188606262,0.0376617237925529
93,-0.0172132328152657,0.00850116275250912,0.068617507815361,0.23338808119297,0.0857350900769234,0.0517603904008865
94,-0.0103782266378403,0.0164569728076458,0.0717784538865089,0.231791481375694,0.0834468305110931,0.0602691434323788
95,-0.00343290925957263,0.0177052300423384,0.0695111751556396,0.228746935725212,0.08100226521492,0.0577441193163395
96,0.000798029243014753,0.0127178309485316,0.0635207667946815,0.224495127797127,0.0765182301402092,0.0465968102216721
97,0.0023660589940846,0.00500462017953396,0.055943351238966,0.219937056303024,0.0699185952544212,0.0329405181109905
98,0.00161061994731426,-0.00225564581342041,0.0486852005124092,0.216139480471611,0.0629900246858597,0.0224833097308874
99,-0.00236854678951204,-0.00537920603528619,0.0425610393285751,0.213753536343575,0.0580611974000931,0.0155583741143346
100,-0.00915477424860001,-0.000873205834068358,0.0370103977620602,0.212663561105728,0.0561934225261211,0.00863543711602688
101,-0.0157178249210119,0.00845984555780888,0.0318239443004131,0.21205572783947,0.0560567788779736,0.00249275355599821
102,-0.0196164045482874,0.0148439025506377,0.0271696429699659,0.21086585521698,0.0559364967048168,0.00147228490095586
103,-0.0192431956529617,0.015324973501265,0.024602772668004,0.208360061049461,0.0563403107225895,0.00759170530363917
104,-0.0159067437052727,0.0100919054821134,0.0244464501738548,0.204531297087669,0.0570311099290848,0.0157244969159365
105,-0.0135876527056098,0.00165757769718766,0.0257208086550236,0.200097411870956,0.0559133514761925,0.0197509005665779
106,-0.014069052413106,-0.00388264050707221,0.0286025293171406,0.196105286478996,0.0526650585234165,0.019497150555253
107,-0.0160790849477053,-0.00280870101414621,0.0323262251913548,0.193359345197678,0.0487393327057362,0.017781101167202
108,-0.0177008062601089,0.00500899367034435,0.036027155816555,0.191986709833145,0.0452750697731972,0.0177616588771343
109,-0.0200505834072828,0.0127673037350178,0.0378623530268669,0.191374242305756,0.0422221273183823,0.0177665334194899
110,-0.0232524424791336,0.012864819727838,0.0367987491190434,0.190508186817169,0.0405789390206337,0.0151994870975614
111,-0.021494135260582,0.00806025322526693,0.0356751158833504,0.188528433442116,0.0433595143258572,0.0126560125499964
112,-0.0110678309574723,0.00359810190275311,0.0366581343114376,0.18519414961338,0.0507666692137718,0.011615221388638
113,0.00103898346424103,-0.000892707379534841,0.0370287448167801,0.18100880086422,0.0578957013785839,0.0090150274336338
114,0.00515593774616718,-0.00609637005254626,0.0333571881055832,0.176939710974693,0.0612506195902824,0.00384262856096029
115,0.000531612313352525,-0.0111855352297425,0.0273742116987705,0.173888713121414,0.0635344162583351,0.00163216656073928
116,-0.00564772821962833,-0.0153325907886028,0.0247576907277107,0.17220351099968,0.0680934190750122,0.00860133767127991
117,-0.00633562356233597,-0.0153388604521751,0.0299620144069195,0.171494722366333,0.073512963950634,0.0236782431602478
118,-0.0023923993576318,-0.0106569221243262,0.0398703254759312,0.170854866504669,0.0746744871139526,0.0363682098686695
119,0.00168645672965795,-0.00355257093906403,0.0491284094750881,0.169356048107147,0.0692820623517036,0.0379196330904961
120,0.00362558430060744,0.00455367797985673,0.0549600161612034,0.166553527116776,0.060665849596262,0.0303007382899523
121,0.000672646274324507,0.00935897044837475,0.0520135760307312,0.162721693515778,0.0514137223362923,0.0190791916102171
122,-0.00754578923806548,0.00685072550550103,0.0387799143791199,0.158697456121445,0.0417210049927235,0.00699925096705556
123,-0.0152182122692466,-0.00133821624331176,0.0232801269739866,0.155420303344727,0.0334960669279099,-0.00461090402677655
124,-0.0164871606975794,-0.00978549011051655,0.0132933715358377,0.153421938419342,0.0288843903690577,-0.0136355208232999
125,-0.0126913990825415,-0.0150911919772625,0.00774949137121439,0.152542889118195,0.0272051617503166,-0.0199733711779118
126,-0.00664963945746422,-0.0152746522799134,0.0054557048715651,0.152027040719986,0.0284594129770994,-0.0226669032126665
127,0.000823230715468526,-0.00945174880325794,0.00917018577456474,0.150938466191292,0.0330326929688454,-0.019393440335989
128,0.00472763972356915,-0.00483060022816062,0.0153111703693867,0.148670762777328,0.0388276502490044,-0.0146815488114953
129,0.00210800487548113,-0.00720266299322248,0.0194556377828121,0.145271569490433,0.0460244528949261,-0.0113773737102747
130,-0.00090750097297132,-0.00959166884422302,0.0244255699217319,0.141408741474152,0.0561132058501244,-0.00351168983615935
131,0.000677116040606052,-0.00658209389075637,0.0309117492288351,0.138000994920731,0.0659534186124802,0.00952373538166285
132,0.00274044810794294,-0.002306665526703,0.0338843874633312,0.135717213153839,0.0708730965852737,0.0195363666862249
133,3.91810317523777E-05,0.000599685474298894,0.0314933285117149,0.13461746275425,0.0697234272956848,0.0233100708574057
134,-0.00692561268806458,0.00363114732317626,0.026318222284317,0.134128481149673,0.06375802308321,0.0230159685015678
135,-0.0137827126309276,0.00949136354029179,0.0207182392477989,0.133362293243408,0.0560932531952858,0.0198134183883667
136,-0.0138823855668306,0.019029950723052,0.017821054905653,0.131601214408875,0.0511899068951607,0.019390968605876
137,-0.0057896850630641,0.0269049648195505,0.020163444802165,0.128683924674988,0.0501264669001102,0.0289476253092289
138,0.00162897608242929,0.0290529206395149,0.0266224108636379,0.12508536875248,0.0492973141372204,0.0466505475342274
139,0.000985096907243133,0.0272840447723866,0.0337087735533714,0.121650971472263,0.044058796018362,0.0625348389148712
140,-0.00647899555042386,0.0202371962368488,0.0363211706280708,0.119134061038494,0.0328971073031425,0.0650512054562569
141,-0.0153022175654769,0.00673383334651589,0.0329256393015385,0.117789641022682,0.0216321125626564,0.0523604415357113
142,-0.0209266692399979,-0.00796065200120211,0.0282913092523813,0.117243498563766,0.0185048654675484,0.0331479385495186
143,-0.0247168745845556,-0.0201011411845684,0.0255145896226168,0.116703726351261,0.0239297300577164,0.0128234578296542
144,-0.0304511059075594,-0.0278711728751659,0.0226910188794136,0.115395113825798,0.0324864014983177,-0.00657253991812468
145,-0.0371072813868523,-0.0279953740537167,0.0168685130774975,0.112978205084801,0.0390408486127853,-0.0209495257586241
146,-0.0390131436288357,-0.0200408324599266,0.0104666342958808,0.109726421535015,0.0405812673270702,-0.0260496195405722
147,-0.0328583382070065,-0.00899590644985437,0.00808113347738981,0.106369070708752,0.0367524996399879,-0.0222590640187263
148,-0.0215765666216612,-9.15253185667098E-05,0.00821033772081137,0.103690139949322,0.0301463436335325,-0.0151176238432527
149,-0.00866722967475653,0.00780881056562066,0.00836965907365084,0.102103643119335,0.0267785359174013,-0.00683966465294361
150,0.00678071659058332,0.0171837285161018,0.00931881926953793,0.101435497403145,0.0306627415120602,0.00281747011467814
151,0.0236949622631073,0.0258680284023285,0.0125111937522888,0.101026810705662,0.0392616465687752,0.0126806702464819
152,0.0332580991089344,0.0314143858850002,0.0188652984797955,0.100097611546516,0.0477876141667366,0.0242509115487337
153,0.0274779982864857,0.0321478433907032,0.0247165113687515,0.0981703475117683,0.0507949739694595,0.0358563661575317
154,0.00793204084038734,0.0259883999824524,0.0230660885572433,0.0953230708837509,0.0440914034843445,0.0390462912619114
155,-0.0144255412742496,0.0186945106834173,0.0150728300213814,0.0921383276581764,0.0316255763173103,0.0330613479018211
156,-0.0298671126365662,0.0174678117036819,0.00686777243390679,0.0893801674246788,0.0196395330131054,0.0250154081732035
157,-0.0379592552781105,0.0166509822010994,-0.000658728997223079,0.0875783786177635,0.00820850022137165,0.0176263153553009
158,-0.0402365475893021,0.011214355006814,-0.00651408731937408,0.0867461487650871,-0.00266498210839927,0.0133603401482105
159,-0.0384692549705505,0.00409981608390808,-0.00977381411939859,0.0863816365599632,-0.00983696710318327,0.0136542525142431
160,-0.0349684804677963,-0.00153507373761386,-0.0112245865166187,0.085747703909874,-0.0110333682969213,0.0158034730702639
161,-0.0284092091023922,-0.00250518415123224,-0.00883646868169308,0.0842740535736084,-0.00687566725537181,0.0193435996770859
162,-0.0188854057341814,0.000946794229093939,-0.00247913436032832,0.0818623304367065,0.00110463588498533,0.0226491969078779
163,-0.00992582086473703,0.00462512904778123,0.00340721220709383,0.0789310708642006,0.0124982595443726,0.0197264514863491
164,-0.00535711972042918,0.00472519546747208,0.00426815217360854,0.0761806294322014,0.0237185154110193,0.00693173939362168
165,-0.00603012973442674,0.0023077130317688,0.000860992586240172,0.0742100775241852,0.029094859957695,-0.00997255463153124
166,-0.0083638122305274,0.0017878171056509,-0.00104955909773707,0.0731955841183662,0.0282355789095163,-0.0189861860126257
167,-0.0122352903708816,0.00170988356694579,-0.00116079684812576,0.0728028565645218,0.0241453647613525,-0.0172962434589863
168,-0.0195834804326296,-0.000656965305097401,-0.00297954119741917,0.0723768249154091,0.020047040656209,-0.0110809514299035
169,-0.0270736664533615,-0.00249644485302269,-0.00507866218686104,0.0713010504841805,0.019159983843565,-0.00269403262063861
170,-0.0289030410349369,-7.70973638282157E-05,-0.00407330924645066,0.069329708814621,0.0219749752432108,0.00929097831249237
171,-0.0229074656963348,0.00752039952203631,0.00140971119981259,0.0667133703827858,0.0275094285607338,0.0241879615932703
172,-0.0155095998197794,0.015246688388288,0.00747974263504148,0.0640545040369034,0.033133614808321,0.0351844653487206
173,-0.013277156278491,0.0176216568797827,0.00924995820969343,0.0619757249951363,0.0340444929897785,0.0365054234862328
174,-0.0137461228296161,0.0169416945427656,0.00864043459296227,0.0607834830880165,0.0296454560011625,0.0321502685546875
175,-0.0129237622022629,0.0173831190913916,0.00858325324952602,0.0603087209165096,0.0236935559660196,0.0284677483141422
176,-0.0109357899054885,0.0186015088111162,0.00799406506121159,0.0600072257220745,0.0188804492354393,0.0270229149609804
177,-0.00866384338587523,0.0192850735038519,0.00713686738163233,0.059260468930006,0.0173551253974438,0.0266596656292677
178,-0.00595620227977633,0.0199261233210564,0.00888138450682163,0.0577106736600399,0.0217712428420782,0.0261164698749781
179,-0.00422705570235848,0.0198413785547018,0.0131299011409283,0.0554486475884914,0.0313750393688679,0.0241599977016449
180,-0.00395493116229773,0.0170675087720156,0.0180500857532024,0.0529558472335339,0.0424511916935444,0.0209311544895172
181,-0.00301031349226832,0.0117656569927931,0.0228861216455698,0.050836905837059,0.052537877112627,0.0189079567790031
182,-0.00424204953014851,0.0074962442740798,0.0232762284576893,0.0494910441339016,0.0578283555805683,0.0187769830226898
183,-0.011121672578156,0.00879725627601147,0.0155048798769712,0.0489009357988834,0.0547761805355549,0.0195946637541056
184,-0.0177644807845354,0.0143182659521699,0.00472328066825867,0.0486505590379238,0.047386959195137,0.021355178207159
185,-0.0180280487984419,0.0174984782934189,-0.00291649531573057,0.0481576696038246,0.0417106337845325,0.0218022838234901
186,-0.0133435418829322,0.015771871432662,-0.00730778090655804,0.046991154551506,0.0374122783541679,0.018219068646431
187,-0.00614016223698854,0.0116236107423902,-0.00785678345710039,0.0451002418994904,0.0332950130105019,0.012291413731873
188,-0.00100024195853621,0.00481570977717638,-0.00508415699005127,0.0428338274359703,0.0296732895076275,0.00506450003013015
189,-0.00174826942384243,-0.00467508705332875,-0.0020745312795043,0.0407438986003399,0.0255017746239901,-0.00166325410827994
190,-0.00482687074691057,-0.0127833876758814,0.000237353800912388,0.0392836295068264,0.0204167142510414,-0.00350586883723736
191,-0.00731383543461561,-0.0193734709173441,-1.42377975862473E-05,0.0385652258992195,0.0149320689961314,-0.00298615987412632
192,-0.00879344437271357,-0.0252772886306047,-0.00331023964099586,0.0383068025112152,0.0099543072283268,-0.00519766286015511
193,-0.00691371224820614,-0.0265349466353655,-0.00635275477543473,0.0379928760230541,0.00679202331230044,-0.00839328300207853
194,0.00118637620471418,-0.0210342146456242,-0.00704983621835709,0.0371572375297546,0.00767680024728179,-0.00880709756165743
195,0.0149448290467262,-0.0114677390083671,-0.0054469583556056,0.0356330573558807,0.0138738937675953,-0.00646139774471521
196,0.0264552161097527,-0.00187233265023679,-0.00305353011935949,0.0336360484361649,0.0215622149407864,-0.00101626466494054
197,0.026008166372776,0.00335272285155952,-0.00333058461546898,0.0316396206617355,0.0246625673025846,0.0096316784620285
198,0.014834170229733,0.00257383822463453,-0.00633667502552271,0.030113946646452,0.0225826967507601,0.0236107502132654
199,0.00360642932355404,-0.00120452616829425,-0.00613757548853755,0.0292727127671242,0.0198266785591841,0.0349516421556473
200,-0.00153473566751927,-0.00482387794181705,-0.000642645405605435,0.0289638303220272,0.0170608665794134,0.0378386825323105
201,-0.00401460379362106,-0.007103290874511,0.00466180965304375,0.0287597831338644,0.0121681382879615,0.0305954795330763
202,-0.00914615951478481,-0.00809591915458441,0.00441341754049063,0.0281942691653967,0.00663874391466379,0.0163515787571669
203,-0.0175211653113365,-0.00911486707627773,-0.00285688741132617,0.0270142294466496,0.000704239995684475,-0.00151493144221604
204,-0.0271470379084349,-0.0124912308529019,-0.0160344280302525,0.0253110695630312,-0.0090737696737051,-0.0215882491320372
205,-0.032815083861351,-0.0175596568733454,-0.0301635302603245,0.02346321195364,-0.0219571106135845,-0.0402683056890965
206,-0.0300382189452648,-0.0211140662431717,-0.039032019674778,0.0219253916293383,-0.0316182412207127,-0.0522026866674423
207,-0.0247651562094688,-0.0252431035041809,-0.043466504663229,0.0209818985313177,-0.0331556163728237,-0.0573275350034237
208,-0.0233846884220839,-0.0308185499161482,-0.0455804318189621,0.0205975696444511,-0.0246987380087376,-0.0562107861042023
209,-0.0221622250974178,-0.0288990028202534,-0.0410366728901863,0.0204444844275713,-0.00851796101778746,-0.0434647612273693
210,-0.0184962972998619,-0.016740720719099,-0.0304437410086393,0.0200856775045395,0.00673626130446792,-0.0206140018999577
211,-0.0135294916108251,-0.00404730159789324,-0.0204943306744099,0.0192130617797375,0.0146902352571487,0.00128770561423153
212,-0.00744764087721705,0.0030139044392854,-0.0120955090969801,0.0178100373595953,0.0166641902178526,0.014783545397222
213,-0.00519455410540104,0.00229660840705037,-0.00600287690758705,0.0161530785262585,0.0146682756021619,0.0149281099438667
214,-0.00815841928124428,-0.00632484629750252,-0.00502469064667821,0.0146554317325354,0.0101150004193187,0.00404381845146418
215,-0.00960949901491404,-0.0192462857812643,-0.00851144548505545,0.0136411441490054,0.00221329415217042,-0.00734695279970765
216,-0.00653515895828605,-0.033042348921299,-0.0156844723969698,0.0131728583946824,-0.012742156162858,-0.0142606254667044
217,5.46299197594635E-05,-0.0384770296514034,-0.0227693021297455,0.0130247920751572,-0.0305034685879946,-0.0147760631516576
218,0.00605972995981574,-0.0278474148362875,-0.0247833617031574,0.0128117073327303,-0.0423804894089699,-0.00943715497851372
219,0.00628202129155397,-0.0104688927531242,-0.022204328328371,0.0122003778815269,-0.0462151728570461,-0.00298441480845213
220,0.00257309526205063,0.000669724890030921,-0.017143065109849,0.0110875181853771,-0.0429522171616554,0.00364543939940631
221,-8.2125494373031E-05,0.00478247366845608,-0.0114890038967133,0.00964922551065683,-0.0351212359964848,0.0116195632144809
222,-0.00102433632127941,0.00520787900313735,-0.00881269108504057,0.0082387076690793,-0.028356010094285,0.0186662338674068
223,-0.000349140056641772,0.00292418291792274,-0.0109645174816251,0.00719138933345675,-0.0260326322168112,0.0204354412853718
224,0.00298664509318769,0.000101983103377279,-0.0141016757115722,0.00664484361186624,-0.0259859748184681,0.0153688453137875
225,0.00608242442831397,-0.00329085416160524,-0.0147211607545614,0.00647010421380401,-0.0256971344351768,0.00493049481883645
226,0.0054311347194016,-0.00965861137956381,-0.0144476499408484,0.00634832447394729,-0.0242634862661362,-0.00887374021112919
227,0.00248552742414176,-0.0167833361774683,-0.0142260920256376,0.00594753865152597,-0.0196496713906527,-0.0214117337018251
228,-0.00138807983603328,-0.0200707949697971,-0.013228015974164,0.00510159833356738,-0.0125333024188876,-0.0260595604777336
229,-0.00467367563396692,-0.0164348017424345,-0.0110282944515347,0.0038948692381382,-0.00753775937482715,-0.0187086965888739
230,-0.00507988128811121,-0.00718720583245158,-0.00830119010061026,0.00260972394607961,-0.00830756779760122,-0.00289508071728051
231,-0.0051601710729301,-0.000390575674828142,-0.0082464748993516,0.00156894256360829,-0.0146215846762061,0.0122025795280933
232,-0.00727224862203002,-0.00110344006679952,-0.0116680515930057,0.000960849341936409,-0.0212463885545731,0.0214749649167061
233,-0.00966346077620983,-0.00624517444521189,-0.0150093352422118,0.000741818337701261,-0.0240499563515186,0.023094380274415
234,-0.0109488414600492,-0.0121600273996592,-0.0163924433290958,0.000666423002257943,-0.0247095301747322,0.0151360025629401
235,-0.010190756060183,-0.0169559214264154,-0.0170018021017313,0.000425313570303842,-0.0244254525750875,0.00100501824636012
236,-0.00747013511136174,-0.0196569804102182,-0.0194839052855968,-0.000186535486136563,-0.023784851655364,-0.0122536523267627
237,-0.00484096352010965,-0.020100699737668,-0.024560771882534,-0.00116267602425069,-0.026031706482172,-0.0206789746880531
238,-0.00264474004507065,-0.017776845023036,-0.0275072809308767,-0.00229501887224615,-0.0300831347703934,-0.0237298812717199
239,0.000977087882347405,-0.0131702208891511,-0.0247919838875532,-0.00329188490286469,-0.0295848362147808,-0.022855581715703
240,0.00917297322303057,-0.00801403075456619,-0.0187775269150734,-0.00393748888745904,-0.0214357320219278,-0.0197187308222055
241,0.0240489598363638,-0.00361721962690353,-0.0111823147162795,-0.00420575030148029,-0.00878845155239105,-0.0136843118816614
242,0.0377036482095718,0.000167629666975699,-0.00149601348675787,-0.0042685461230576,0.000593162432778627,-0.00417989166453481
243,0.0362675040960312,0.00306855724193156,0.00661935843527317,-0.00439718132838607,-0.000337993464199826,0.00406600721180439
244,0.0180626604706049,0.0026442005764693,0.00676488690078259,-0.00481340661644936,-0.0115443868562579,0.00574426306411624
245,-0.00556840701028705,-0.00166310626082122,-0.00160026247613132,-0.00557174533605576,-0.0282560344785452,0.00216641183942556
246,-0.0215815436094999,-0.00528470240533352,-0.0107167949900031,-0.00653550680726767,-0.0437116511166096,-0.00204671872779727
247,-0.0228364244103432,-0.0032010436989367,-0.0132736805826426,-0.00745645631104708,-0.0474765449762344,-0.00294130807742476
248,-0.0141444662585855,0.00165154854767025,-0.0145548563450575,-0.00811197608709335,-0.0363369211554527,-0.000888906768523157
249,-0.00585486274212599,0.00174968573264778,-0.0238282848149538,-0.00842403341084719,-0.0225436855107546,-0.000335167802404612
250,-0.00232523214071989,-0.000701920711435378,-0.0361712239682674,-0.00849649403244257,-0.0182373039424419,-0.00160142534878105
251,-0.003597128437832,0.000584514229558408,-0.0423410348594189,-0.00855333264917135,-0.0247994419187307,-0.00286033214069903
252,-0.0090553667396307,0.000541033630724996,-0.0440138652920723,-0.00881423056125641,-0.0381739065051079,-0.0059722806327045
253,-0.0145207913592458,-0.00649819942191243,-0.0438555963337421,-0.00937659200280905,-0.0514554530382156,-0.00963990949094296
254,-0.0172213148325682,-0.0164435636252165,-0.0413786210119724,-0.0101673118770123,-0.0585762038826942,-0.0112673277035356
255,-0.0213995315134525,-0.025210315361619,-0.0407060906291008,-0.01098791975528,-0.0597476996481419,-0.0153422579169273
256,-0.0282254796475172,-0.0324162729084492,-0.0434893928468227,-0.0116256820037961,-0.05857914686203,-0.0244791712611914
257,-0.0323790274560452,-0.0382290259003639,-0.0449583232402802,-0.0119685865938663,-0.0557712502777576,-0.033693864941597
258,-0.0310699846595526,-0.0404682010412216,-0.0418530069291592,-0.012062169611454,-0.0478128306567669,-0.0357646942138672
259,-0.0255954451858997,-0.0360361449420452,-0.0357814133167267,-0.0120795639231801,-0.0344889611005783,-0.02691868878901
260,-0.0192798171192408,-0.0262483507394791,-0.0312732383608818,-0.0122239058837295,-0.0235228948295116,-0.0122314253821969
261,-0.014592113904655,-0.0142832780256867,-0.030129250138998,-0.0126180211082101,-0.0213796235620975,-0.000455193367088214
262,-0.0105489501729608,-0.00495224958285689,-0.0301719680428505,-0.0132412584498525,-0.0253662187606096,0.00482691638171673
263,-0.00579841015860438,-0.00394242675974965,-0.0299153048545122,-0.0139458207413554,-0.0289066769182682,0.00531604280695319
264,-0.000176994435605593,-0.00812969449907541,-0.0271329004317522,-0.014540976844728,-0.0286167208105326,0.00622830400243402
265,0.00470049073919654,-0.00974223855882883,-0.0189863108098507,-0.014897333458066,-0.0241395626217127,0.0124461790546775
266,0.00425652880221605,-0.00971111003309488,-0.00884630531072617,-0.015014261007309,-0.0173494853079319,0.0210211277008057
267,-0.0021344218403101,-0.0117722470313311,-0.00324794114567339,-0.0150154884904623,-0.0104186153039336,0.0244261957705021
268,-0.00577741442248225,-0.0147551838308573,-0.00342780095525086,-0.0150778749957681,-0.00429370999336243,0.0198649074882269
269,0.002510353224352,-0.0161478780210018,-0.00340891070663929,-0.0153342364355922,0.00100989360362291,0.0127097917720675
270,0.0196080319583416,-0.0143659934401512,0.00259324908256531,-0.0158035662025213,0.00737470900639892,0.00930046662688255
271,0.0312417056411505,-0.0115661351010203,0.0102300830185413,-0.0163852404803038,0.0150825567543507,0.00606413511559367
272,0.0279297456145287,-0.00996152404695749,0.0110575528815389,-0.0169179067015648,0.0200269445776939,-0.00326163531281054
273,0.0135540682822466,-0.00752619048580527,0.00372973340563476,-0.0172688066959381,0.0189204085618258,-0.0176504049450159
274,-0.00233727018348873,-0.00454438710585237,-0.00784091930836439,-0.0174042154103518,0.0149071682244539,-0.0325443558394909
275,-0.0121858827769756,-0.00538300117477775,-0.0187277775257826,-0.0174036994576454,0.0145592875778675,-0.0434769280254841
276,-0.0135007482022047,-0.0113742277026176,-0.0259389691054821,-0.0174127481877804,0.017788453027606,-0.0465645156800747
277,-0.0107096815481782,-0.0196778699755669,-0.0317668616771698,-0.0175617393106222,0.0164106022566557,-0.0417604334652424
278,-0.00863920338451862,-0.0256481803953648,-0.036847922950983,-0.0178963392972946,0.00816726963967085,-0.0316835939884186
279,-0.00818533450365067,-0.0277721155434847,-0.0382333397865295,-0.0183564256876707,-6.20222854195163E-05,-0.0214815884828568
280,-0.00703134434297681,-0.0274061746895313,-0.0347713828086853,-0.0188129656016827,-0.0033068684861064,-0.0174665525555611
281,0.00136114389169961,-0.0217635631561279,-0.0246191490441561,-0.0191405415534973,-0.000630281050689518,-0.0175022464245558
282,0.016054593026638,-0.0112207634374499,-0.0105500491335988,-0.0192848965525627,0.00591649115085602,-0.0158145111054182
283,0.0249287597835064,-0.00283821416087449,-0.000647785316687077,-0.0192892085760832,0.0120738726109266,-0.0120877688750625
284,0.0223728083074093,0.000321473315125331,0.00250044208951294,-0.0192666202783585,0.0158229656517506,-0.00910322554409504
285,0.016639020293951,0.000399733864469454,0.00167504569981247,-0.0193361658602953,0.0186355002224445,-0.00911723729223013
286,0.0179834049195051,-0.000178144095116295,0.000218376924749464,-0.0195582862943411,0.0212581213563681,-0.0109167089685798
287,0.0270176865160465,0.00168977421708405,0.000768003636039793,-0.0199048332870007,0.0222372729331255,-0.00973519682884216
288,0.0375136025249958,0.00836468301713467,0.00505695771425962,-0.0202782992273569,0.0217634160071611,-0.00255957315675914
289,0.0424047634005547,0.0180192198604345,0.0123936608433723,-0.0205676946789026,0.0209621619433165,0.00648908875882626
290,0.0373533256351948,0.0249526333063841,0.0170468986034393,-0.0207092221826315,0.0183926280587912,0.00928723532706499
291,0.0252171382308006,0.0259052086621523,0.0147426100447774,-0.020718639716506,0.0121364528313279,0.00590670993551612
292,0.0118417758494616,0.0213747769594193,0.00849816482514143,-0.0206790845841169,0.0027802602853626,0.00529935816302896
293,0.00286979740485549,0.0134910251945257,0.00452678604051471,-0.0206929370760918,-0.00467104651033878,0.0136760966852307
294,0.00257210363633931,0.00649048201739788,0.00601674662902951,-0.020825520157814,-0.00510894600301981,0.0280990190804005
295,0.00785424094647169,-0.0019162951502949,0.00875068828463554,-0.0210715215653181,-0.00134673179127276,0.035625658929348
296,0.0156862940639257,-0.0134875699877739,0.00984773971140385,-0.0213613361120224,0.00303651974536479,0.0296558272093534
297,0.0245316028594971,-0.0190680660307407,0.0110045988112688,-0.0216020029038191,0.00694712717086077,0.0178063027560711
298,0.0288964752107859,-0.0136540671810508,0.010684460401535,-0.0217288490384817,0.0061920159496367,0.00657699396833777
299,0.0272886529564857,-0.00381431845016778,0.00580653874203563,-0.0217392407357693,-0.00176875782199204,-0.00346762337721884
300,0.0227519497275352,-0.00038339156890288,-0.00380253000184894,-0.02169094607234,-0.0149752525612712,-0.0136636411771178
301,0.0190529339015484,-0.00849513988941908,-0.01433483697474,-0.0216676983982325,-0.0302322488278151,-0.0239043571054935
302,0.0174591112881899,-0.0216982644051313,-0.0208971481770277,-0.0217323452234268,-0.0446550846099854,-0.0304299537092447
303,0.0156009430065751,-0.0292499177157879,-0.019367253407836,-0.0218937415629625,-0.0530268810689449,-0.0284975133836269
304,0.0137917781248689,-0.0269385725259781,-0.0106891253963113,-0.0221047811210155,-0.0509663037955761,-0.0209805723279715
305,0.0146371927112341,-0.0172250829637051,-0.00191307859495282,-0.022291075438261,-0.0409365855157375,-0.0164757743477821
306,0.0186405330896378,-0.00359946489334106,0.00561055634170771,-0.0223930645734072,-0.0273279137909412,-0.0153754940256476
307,0.0236670058220625,0.00991439633071423,0.0142610818147659,-0.0223978329449892,-0.0123086581006646,-0.0129868732765317
308,0.0265232753008604,0.0182439275085926,0.0181605480611324,-0.0223436951637268,0.00163748837076128,-0.00911750737577677
309,0.0289346668869257,0.0186829715967178,0.013702841475606,-0.0222964733839035,0.0139095885679126,-0.00217141606844962
310,0.0338923893868923,0.0143198864534497,0.00858868286013603,-0.0223119109869003,0.0252206195145845,0.0110372351482511
311,0.0377897173166275,0.010778434574604,0.0100321359932423,-0.0224056597799063,0.0327362976968288,0.0286151692271233
312,0.0373716056346893,0.00988269783556461,0.0171615183353424,-0.0225469190627337,0.0341222994029522,0.0454298220574856
313,0.0349205806851387,0.00818227417767048,0.0251244362443686,-0.0226780436933041,0.0305352378636599,0.055498480796814
314,0.0320079475641251,0.00188769190572202,0.0304927919059992,-0.0227478984743357,0.0234239436686039,0.0548795722424984
315,0.0265653152018785,-0.00937083084136248,0.0306019801646471,-0.0227397885173559,0.0124380653724074,0.0431903339922428
316,0.0194721426814795,-0.0232681576162577,0.0247501973062754,-0.0226788073778152,-0.00219103321433067,0.0230038687586784
317,0.0133799891918898,-0.0357472263276577,0.0158216748386621,-0.0226155798882246,-0.0174588561058044,-0.00134765834081918
318,0.00791392754763365,-0.0430091954767704,0.00732277426868677,-0.0225967038422823,-0.0285299737006426,-0.0243311207741499
319,0.00456896331161261,-0.0404827445745468,0.00317791337147355,-0.0226390603929758,-0.0299829673022032,-0.0366415083408356
320,0.00308856787160039,-0.028903266415,0.00229316297918558,-0.0227221101522446,-0.0221879649907351,-0.033161960542202
321,-0.00108364596962929,-0.0179566405713558,-0.00118313077837229,-0.0228015407919884,-0.0122889894992113,-0.0195962991565466
322,-0.00409378670156002,-0.00995503179728985,-0.0028342951554805,-0.0228355247527361,-0.00357882375828922,-0.00166065758094192
323,0.00335367722436786,0.00191473611630499,0.00874994695186615,-0.0228081420063972,0.00647793198004365,0.0184818208217621
324,0.0190769731998444,0.0166118796914816,0.0322746746242046,-0.0227369703352451,0.0196686573326588,0.0371020920574665
325,0.0335419215261936,0.0262180119752884,0.0545977912843227,-0.0226613245904446,0.0368357598781586,0.0525374338030815
326,0.043279092758894,0.0261846650391817,0.0646875873208046,-0.0226188022643328,0.0541503019630909,0.0626814216375351
327,0.0520324110984802,0.0189408455044031,0.061837911605835,-0.0226240009069443,0.0633782148361206,0.0641660541296005
328,0.0608420744538307,0.0101328296586871,0.0517866648733616,-0.0226614233106375,0.0624471381306648,0.057242002338171
329,0.0609554871916771,0.000562053348403424,0.0349411964416504,-0.0226959269493818,0.0551051460206509,0.0411196015775204
330,0.0459618456661701,-0.00935772713273764,0.0118918055668473,-0.0226939544081688,0.0461705103516579,0.0192250888794661
331,0.0230663046240807,-0.0151374852284789,-0.00804295018315315,-0.0226428583264351,0.038582768291235,0.00230416329577565
332,0.00258604576811194,-0.0169183816760778,-0.0177407581359148,-0.0225572921335697,0.0310309641063213,-0.00563337467610836
333,-0.012307982891798,-0.0165379382669926,-0.0174328275024891,-0.0224695280194283,0.0223153457045555,-0.00764436973258853
334,-0.0222154520452023,-0.0125774014741182,-0.0114206429570913,-0.0224099326878786,0.0123668452724814,-0.0063499971292913
335,-0.0284715313464403,-0.00938790757209063,-0.00752832088619471,-0.0223893020302057,0.000813914637546986,-0.00491476058959961
336,-0.0291527435183525,-0.011873746290803,-0.00855023041367531,-0.0223932880908251,-0.00969068706035614,-0.00509627861902118
337,-0.0225785318762064,-0.0196785870939493,-0.0128478948026896,-0.0223917327821255,-0.0174790248274803,-0.00907881185412407
338,-0.0156281106173992,-0.030865516513586,-0.0205992553383112,-0.0223570074886084,-0.0244907699525356,-0.0186450947076082
339,-0.0126067250967026,-0.0389452502131462,-0.0269752126187086,-0.0222803447395563,-0.0275154933333397,-0.0281805768609047
340,-0.00810488592833281,-0.0371117182075977,-0.0239454787224531,-0.0221766047179699,-0.0203333832323551,-0.0301054678857327
341,0.000392091169487685,-0.0246718395501375,-0.0101461913436651,-0.0220749713480473,-0.00360327563248575,-0.0229104124009609
342,0.0104346703737974,-0.00676041841506958,0.0093923406675458,-0.022001326084137,0.0185376983135939,-0.00923790968954563
343,0.0209450740367174,0.00759385852143168,0.0288059301674366,-0.0219628773629665,0.0437188036739826,0.00663182558491826
344,0.0272590443491936,0.0113981617614627,0.0410869941115379,-0.0219440907239914,0.0658001154661179,0.0169991925358772
345,0.0249825231730938,0.00516335014253855,0.0403608120977879,-0.0219161957502365,0.0765479356050491,0.0164364781230688
346,0.0192546509206295,-0.00580497598275542,0.0292861368507147,-0.0218544993549585,0.0752770602703094,0.00950196664780378
347,0.0160440262407064,-0.0168826580047607,0.0164548698812723,-0.021753191947937,0.0673119947314262,0.00384812662377954
348,0.0159003473818302,-0.0244466215372086,0.0092290909960866,-0.0216288827359676,0.057655394077301,0.00278936210088432
349,0.0172373168170452,-0.0265509933233261,0.00883342884480953,-0.021510798484087,0.0496647097170353,0.00625595357269049
350,0.0159430559724569,-0.0256059151142836,0.00860102195292711,-0.0214234218001366,0.0452496558427811,0.0101702734827995
351,0.00954217743128538,-0.0273427963256836,0.00179816677700728,-0.021371878683567,0.0430602356791496,0.00702133169397712
352,0.00391718512400985,-0.0315857529640198,-0.00689238542690873,-0.021338677033782,0.0411968640983105,-0.00307845883071423
353,0.00410335697233677,-0.0320472382009029,-0.00870433170348406,-0.0212938543409109,0.0400037094950676,-0.0123113207519054
354,0.00377217517234385,-0.0290936138480902,-0.0067913169041276,-0.0212126132100821,0.0396193414926529,-0.0202319268137217
355,-0.00298052188009024,-0.026934115216136,-0.00937401503324509,-0.0210901387035847,0.0401754230260849,-0.0298573803156614
356,-0.0104879783466458,-0.0242511499673128,-0.0155467027798295,-0.0209448449313641,0.0415654815733433,-0.0362422280013561
357,-0.0122399199754,-0.0188316833227873,-0.0199883915483952,-0.0208079721778631,0.0429416932165623,-0.0333888530731201
358,-0.00973521079868078,-0.0121477097272873,-0.0218329187482595,-0.0207054708153009,0.0433725342154503,-0.0236300472170115
359,-0.0072941342368722,-0.00749911786988378,-0.0220880098640919,-0.0206426680088043,0.0415503419935703,-0.0134510872885585
360,-0.00627419725060463,-0.00555752124637365,-0.0193951353430748,-0.0206007156521082,0.0379578955471516,-0.00490686111152172
361,-0.00455991411581635,1.09635257103946E-05,-0.0118484292179346,-0.0205471124500036,0.0360576286911964,0.0034008368384093
362,3.70947454939596E-05,0.0119297979399562,-0.00189918628893793,-0.0204543899744749,0.0383246727287769,0.0101498896256089
363,0.00978523679077625,0.0211362801492214,0.00716319307684898,-0.0203162506222725,0.045028243213892,0.0138647304847836
364,0.021691957488656,0.0202968493103981,0.0143779199570417,-0.0201517418026924,0.0551350973546505,0.0148021606728435
365,0.0278839264065027,0.0127844614908099,0.0184319037944078,-0.0199948269873858,0.0679188668727875,0.0120506407693028
366,0.0264107845723629,0.00375300459563732,0.018060352653265,-0.0198751036077738,0.0817498788237572,0.00226748781278729
367,0.0208521857857704,-0.00471473857760429,0.0134808234870434,-0.0198006462305784,0.0912943854928017,-0.0152810690924525
368,0.0161759983748198,-0.0110017778351903,0.00792571809142828,-0.0197528898715973,0.0933030173182487,-0.0316495448350906
369,0.0138755645602942,-0.0146092940121889,0.00534489657729864,-0.0196967143565416,0.0902344137430191,-0.0368261858820915
370,0.0103480061516166,-0.0159804373979568,0.00546562066301703,-0.0196002535521984,0.0864758118987083,-0.0317953713238239
371,0.00235935021191835,-0.0173309799283743,0.00310438219457865,-0.0194532349705696,0.083527572453022,-0.0245827455073595
372,-0.00716659799218178,-0.0191234294325113,-0.00357388751581311,-0.0192733407020569,0.0807021781802177,-0.0180492270737886
373,-0.0110505474731326,-0.0180817879736423,-0.0100276442244649,-0.0190967451781034,0.0782383978366852,-0.0105271311476827
374,-0.0074312686920166,-0.0126176737248898,-0.0124137084931135,-0.0189579110592604,0.0761130899190903,-0.00228688213974237
375,-0.000650250469334424,-0.00407640682533383,-0.00971428211778402,-0.0188699942082167,0.0756643265485764,0.0076856748200953
376,0.00338492775335908,0.00156530935782939,-0.00567910308018327,-0.0188169591128826,0.0798799395561218,0.015605597756803
377,0.00273029925301671,-0.000422321783844382,-0.00429196702316403,-0.018762119114399,0.0891469419002533,0.0138220144435763
378,0.0026572763454169,-0.00463691214099526,-0.000863211054820567,-0.0186685305088758,0.102030418813229,0.00670522358268499
379,0.00589740043506026,-0.00578419165685773,0.0084134703502059,-0.018519876524806,0.115082800388336,0.00116522330790758
380,0.00994073785841465,-0.00422344356775284,0.019708564504981,-0.0183300767093897,0.122068889439106,-0.00333347334526479
381,0.0143610769882798,0.000313489028485492,0.0285006836056709,-0.0181359928101301,0.119251184165478,-0.00595949171110988
382,0.017878569662571,0.00494582345709205,0.0297219324856997,-0.0179770980030298,0.106767453253269,-0.00718154618516564
383,0.0190858729183674,0.00686265248805285,0.022033927962184,-0.0178733468055725,0.0893008336424828,-0.00860726926475763
384,0.0186644606292248,0.00793746113777161,0.00981054455041885,-0.0178136751055717,0.0744134336709976,-0.00867974851280451
385,0.016339298337698,0.00965980999171734,-0.00286125903949142,-0.0177617408335209,0.0662537813186646,-0.00713355978950858
386,0.0145980780944228,0.0132966218516231,-0.0114240711554885,-0.0176759120076895,0.0655859783291817,-0.00539190974086523
387,0.0161467138677835,0.0188091937452555,-0.0119301034137607,-0.0175325144082308,0.0716161355376244,-0.00375334220007062
388,0.0189445894211531,0.0237639173865318,-0.00469344714656472,-0.0173393338918686,0.0824476704001427,-0.00178462918847799
389,0.0219488609582186,0.0256725251674652,0.00568834831938148,-0.0171317141503096,0.0940985530614853,-0.000622716557700187
390,0.027879873290658,0.0249732453376055,0.0160757601261139,-0.0169532243162394,0.101616941392422,0.000584239896852523
391,0.0354617275297642,0.0228486582636833,0.0244972892105579,-0.0168314874172211,0.103046633303165,0.00313136586919427
392,0.037184938788414,0.0170172806829214,0.026077214628458,-0.0167626217007637,0.099233478307724,0.002678950317204
393,0.0299685541540384,0.00774399796500802,0.0202328804880381,-0.0167130399495363,0.092056430876255,-0.00369518692605197
394,0.0193623136729002,0.00158822583034635,0.0125487316399813,-0.0166378132998943,0.0837564021348953,-0.0112231448292732
395,0.0099998340010643,0.00120493641588837,0.00478342361748219,-0.0165055152028799,0.0756573006510735,-0.0155986165627837
396,0.00161307083908468,0.00207029050216079,-0.00469957338646054,-0.016315832734108,0.0686897486448288,-0.0172149408608675
397,-0.00381070002913475,0.00338338199071586,-0.0109070967882872,-0.0161000620573759,0.065944030880928,-0.0136456377804279
398,-0.00287489243783057,0.00826760474592447,-0.00791205000132322,-0.0159040782600641,0.070638582110405,-0.0027091249357909
399,0.00256932200863957,0.0150670669972897,0.000539435364771634,-0.0157630667090416,0.080957293510437,0.00954324752092361
400,0.00806359946727753,0.0178329311311245,0.00656148325651884,-0.0156819745898247,0.0903200879693031,0.014629852026701
401,0.0121995881199837,0.0141156753525138,0.00698105432093143,-0.0156325325369835,0.0932569652795792,0.0103073231875896
402,0.0151985436677933,0.00727936206385493,0.00388012803159654,-0.0155686372891068,0.0892056077718735,0.00024568458320573
403,0.0146959880366921,0.000789046753197908,0.000593719712924212,-0.0154517097398639,0.0819306075572968,-0.0113722532987595
404,0.0100073758512735,-0.00231370632536709,-0.000541712914127856,-0.0152720641344786,0.0773230418562889,-0.0206691827625036
405,0.00572494976222515,0.00035724276676774,0.00051040283869952,-0.0150544615462422,0.0779744759202003,-0.0241634473204613
406,0.00428800145164132,0.00439688609912992,0.000215959647903219,-0.0148446774110198,0.0806829184293747,-0.0240471214056015
407,0.00417630234733224,0.00365407881326973,-0.00313206156715751,-0.0146844070404768,0.0829799324274063,-0.0251976605504751
408,0.00467342138290405,-0.00105697649996728,-0.00632761465385556,-0.0145882787182927,0.0849204733967781,-0.0275848936289549
409,0.0052118799649179,-0.00561493448913097,-0.00729476986452937,-0.014535672031343,0.0848317369818687,-0.0293598715215921
410,0.00461069121956825,-0.0076881512068212,-0.00690609961748123,-0.0144819086417556,0.0827948153018951,-0.0305471364408731
411,0.00247515458613634,-0.00729205645620823,-0.00592910498380661,-0.0143827460706234,0.0822980776429176,-0.0306849386543036
412,0.00092063588090241,-0.00488879112526774,-0.0036071555223316,-0.0142187168821692,0.0851362273097038,-0.0280644875019789
413,0.00487928325310349,-7.89595433161594E-05,0.00147562008351088,-0.0140059385448694,0.0911956578493118,-0.0206295326352119
414,0.0141337756067514,0.00418013893067837,0.00654384260997176,-0.0137873888015747,0.0990436300635338,-0.00922559760510921
415,0.0241951774805784,0.00636553205549717,0.0108891129493713,-0.0136093953624368,0.107467524707317,0.00473582744598389
416,0.0322649106383324,0.00984151475131512,0.0176389329135418,-0.0134962182492018,0.113004446029663,0.0184036269783974
417,0.031909853219986,0.0120845455676317,0.0207910127937794,-0.0134366992861032,0.10681564360857,0.0218893196433783
418,0.0220505651086569,0.0103922765702009,0.0159745011478662,-0.0133903147652745,0.0886120274662972,0.0143147651106119
419,0.0127355381846428,0.00832284521311522,0.00898109003901482,-0.0133093567565084,0.0697055757045746,0.00638012262061238
420,0.0111643010750413,0.00799706298857927,0.00261465436778963,-0.0131650874391198,0.0575515739619732,0.00304367276839912
421,0.0159925203770399,0.0109239546582103,-0.00311305210925639,-0.0129635185003281,0.0526025891304016,0.00553064327687025
422,0.0204639993607998,0.0156432874500752,-0.00685057649388909,-0.0127421543002129,0.0522928237915039,0.0123999742791057
423,0.0203319657593966,0.0170284789055586,-0.00813699886202812,-0.0125494888052344,0.0532478764653206,0.0171418469399214
424,0.0186974909156561,0.015087747015059,-0.00626520905643702,-0.0124184647575021,0.0546124130487442,0.0162225421518087
425,0.0182563401758671,0.0125239668413997,-0.00135703920386732,-0.012348460033536,0.0572546720504761,0.010350339114666
426,0.0174141488969326,0.00871297437697649,0.00333187356591225,-0.0123056462034583,0.0612158887088299,-0.000153247616253793
427,0.0154599137604237,0.00398316234350204,0.00557844387367368,-0.0122415143996477,0.0661765411496162,-0.0124708823859692
428,0.0135944969952106,0.00232829642482102,0.00703089125454426,-0.0121194226667285,0.0717435926198959,-0.0196195226162672
429,0.0117735071107745,0.00620409240946174,0.00916751567274332,-0.0119346166029572,0.0765384137630463,-0.0160780921578407
430,0.00801362749189138,0.0113186249509454,0.00959775503724813,-0.0117167895659804,0.0776643306016922,-0.00463432306423783
431,0.00197757314890623,0.0111945541575551,0.00587914837524295,-0.0115138189867139,0.0746758654713631,0.0044601890258491
432,-0.00288775051012635,0.00553864426910877,0.000235273837461136,-0.0113655850291252,0.0714071169495583,0.00578307267278433
433,-0.00247726542875171,-0.000947575026657432,-0.00331037933938205,-0.011282229796052,0.069049671292305,0.00490061286836863
434,0.00428487220779061,-0.00385922542773187,-0.00247003696858883,-0.0112386951223016,0.0650379210710526,0.00830133724957705
435,0.0135739576071501,-0.000295625417493284,0.00255924533121288,-0.0111885033547878,0.059950202703476,0.0151032228022814
436,0.0199783500283957,0.00960643962025642,0.00894726626574993,-0.0110891796648502,0.0574411079287529,0.0205611549317837
437,0.0225877314805985,0.0196416769176722,0.0122715719044209,-0.0109254168346524,0.0577807873487473,0.0214478559792042
438,0.0219923313707113,0.0236298609524965,0.00989746954292059,-0.0107173332944512,0.0569794960319996,0.0190181843936443
439,0.015763970091939,0.0205755047500134,0.002360999584198,-0.0105093857273459,0.0505789630115032,0.0147539814934134
440,0.00509984092786908,0.0120060592889786,-0.00719549087807536,-0.0103460475802422,0.0378950797021389,0.00824751611799002
441,-0.00445694103837013,0.00375448353588581,-0.0148302977904677,-0.0102475816383958,0.0236309505999088,0.00145979749504477
442,-0.00882264878600836,0.00578908389434218,-0.0169735290110111,-0.0101991146802902,0.0136158280074596,-0.000924427062273026
443,-0.00739252846688032,0.019535219296813,-0.0125571098178625,-0.0101589029654861,0.00918796844780445,0.00417151860892773
444,-0.00344652310013771,0.0334862433373928,-0.00533720618113875,-0.0100812008604407,0.00858754757791758,0.0132862972095609
445,-0.000508277269545943,0.0386363826692104,0.000518860237207264,-0.00994119606912136,0.0103486403822899,0.0202245824038982
446,-0.00129889918025583,0.0338046215474606,0.00137890875339508,-0.00974840577691793,0.0106959445402026,0.0194300133734941
447,-0.00722835259512067,0.0197259243577719,-0.00652167852967978,-0.00954132247716188,0.00592202506959438,0.00678651453927159
448,-0.014708399772644,0.000185557524673641,-0.0211674850434065,-0.00936630181968212,-0.00166523666121066,-0.0136545542627573
449,-0.0171376820653677,-0.0158841963857412,-0.0335552617907524,-0.00925230979919434,-0.00557907996699214,-0.0302780959755182
450,-0.0137134660035372,-0.0230290591716766,-0.038029957562685,-0.00919527374207973,-0.00290238880552351,-0.0376346334815025
451,-0.00882537476718426,-0.0236380901187658,-0.0355333499610424,-0.00916051398962736,0.00387076241895556,-0.0393848605453968
452,-0.0047488329000771,-0.0192278977483511,-0.0281458403915167,-0.00910180248320103,0.0115373423323035,-0.037786640226841
453,-0.00230999290943146,-0.011166456155479,-0.018789729103446,-0.0089865792542696,0.0177103560417891,-0.0324735827744007
454,5.32102149009006E-06,-0.00278436811640859,-0.00781255308538675,-0.00881355628371239,0.022346880286932,-0.0221649631857872
455,0.00587953254580498,0.00580699928104877,0.00619135145097971,-0.00861319992691278,0.02775514498353,-0.0054772449657321
456,0.0139326816424727,0.0149737196043134,0.0191549267619848,-0.00843095034360886,0.0349933356046677,0.0126357050612569
457,0.0178629495203495,0.0216574314981699,0.0247227642685175,-0.00830242410302162,0.0431718043982983,0.0228962283581495
458,0.0156922098249197,0.0217509474605322,0.0204759128391743,-0.00823414884507656,0.0479260236024857,0.0220232587307692
459,0.00707178190350533,0.0114821856841445,0.00560466013848782,-0.00820025522261858,0.0394719988107681,0.0114975795149803
460,-0.00752146122977138,-0.00447921082377434,-0.0147168785333633,-0.00815678760409355,0.0153494793921709,-0.00237294239923358
461,-0.0190199371427298,-0.0112441340461373,-0.0272234082221985,-0.00806572288274765,-0.0110203064978123,-0.0077088619582355
462,-0.0215096995234489,-0.00423366483300924,-0.0274294503033161,-0.00791556388139725,-0.0266031064093113,-0.00281191989779472
463,-0.019907021895051,0.00584935769438744,-0.0231207758188248,-0.00772735476493835,-0.0305552408099175,0.00329946121200919
464,-0.0191362798213959,0.0101656960323453,-0.0204339995980263,-0.00754297059029341,-0.0294161140918732,0.00695907277986407
465,-0.0183206647634506,0.0102210463955998,-0.018160454928875,-0.00740221654996276,-0.0287351608276367,0.0105966441333294
466,-0.0155300470069051,0.0120342606678605,-0.0138460509479046,-0.00732125015929341,-0.0294079687446356,0.0141596402972937
467,-0.0138379409909248,0.0156344063580036,-0.010493166744709,-0.00728404708206654,-0.0300950817763805,0.0142387123778462
468,-0.0161021593958139,0.0170067604631186,-0.0104753412306309,-0.00725140050053597,-0.0281985867768526,0.0100262928754091
469,-0.0185634382069111,0.0172559041529894,-0.00911934766918421,-0.00718241278082132,-0.0214912090450525,0.00627633696421981
470,-0.0182810220867395,0.0184154361486435,-0.00389762921258807,-0.00705669075250626,-0.0134322596713901,0.00754142180085182
471,-0.018498258665204,0.0185693148523569,-0.000834945123642683,-0.00688519654795527,-0.0111621776595712,0.0124359168112278
472,-0.0205836221575737,0.0177095402032137,-0.0030951458029449,-0.00670398306101561,-0.0143493739888072,0.0170732028782368
473,-0.0203646793961525,0.0178110990673304,-0.00449331570416689,-0.00655439449474216,-0.013731081970036,0.0196997504681349
474,-0.0157506633549929,0.0184425283223391,-0.000817035383079201,-0.00646060425788164,-0.00606110505759716,0.020660700276494
475,-0.00937976129353046,0.018738305196166,0.00377628696151078,-0.00641670683398843,4.11962828366086E-05,0.0201107505708933
476,-0.00341908680275083,0.0192635953426361,0.00538655510172248,-0.00639024702832103,-0.00116822682321072,0.0169448871165514
477,0.0025718288961798,0.0209649540483952,0.00637920154258609,-0.00634010275825858,-0.00513696298003197,0.0118829235434532
478,0.006174654699862,0.0221595261245966,0.00813193526118994,-0.00623885821551085,-0.00637520663440228,0.00546368956565857
479,0.00281612109392881,0.019336961209774,0.00682386429980397,-0.00608749641105533,-0.00622125761583447,-0.00438433233648539
480,-0.00232663936913013,0.0148476865142584,0.00314775411970913,-0.00591453770175576,-0.00861071888357401,-0.0144939031451941
481,-0.000926216715015471,0.0131487073376775,0.00205879379063845,-0.00576027110219002,-0.0138769550248981,-0.0180849600583315
482,0.00134191568940878,0.0131338555365801,0.00205344497226179,-0.00565480254590511,-0.0216991566121578,-0.0142672611400485
483,-0.00568744959309697,0.0135991126298904,-0.000825727824121714,-0.00560188153758645,-0.0313178934156895,-0.00618128338828683
484,-0.018279992043972,0.0167472455650568,-0.00360530358739197,-0.00557719822973013,-0.0373874083161354,0.00494340807199478
485,-0.0260273534804583,0.0217311959713697,-0.00231885234825313,-0.00554189039394259,-0.0357730090618134,0.016905440017581
486,-0.0267907846719027,0.0233544260263443,0.000673985166940838,-0.00546376220881939,-0.0303641520440578,0.0238808877766132
487,-0.0237211249768734,0.0188353732228279,0.0011828028364107,-0.00533461989834905,-0.0279792584478855,0.0213606599718332
488,-0.0191377829760313,0.00822645332664251,-0.00446556741371751,-0.0051743951626122,-0.0309988260269165,0.00771960895508528
489,-0.0142286513000727,-0.00527363084256649,-0.0155693562701344,-0.00501999258995056,-0.0355438999831676,-0.0120386239141226
490,-0.00942255742847919,-0.0146373920142651,-0.0237655900418758,-0.00490510324016213,-0.0370860956609249,-0.0271422546356916
491,-0.00326106348074973,-0.0148936249315739,-0.0204622987657785,-0.00484202336519957,-0.0360742397606373,-0.0304859261959791
492,0.00481197983026505,-0.00780502846464515,-0.00630704639479518,-0.00481529673561454,-0.035231813788414,-0.0218480937182903
493,0.0105295833200216,0.00202618702314794,0.00826436094939709,-0.00479045510292053,-0.0362887047231197,-0.00847853999584913
494,0.0108419815078378,0.0120125003159046,0.0142704397439957,-0.00473292078822851,-0.0403817147016525,0.000897273479495198
495,0.00793293956667185,0.0193927697837353,0.0127212405204773,-0.00462670531123877,-0.0462923273444176,0.00544418161734939
496,0.00418118108063936,0.0213245563209057,0.00903885532170534,-0.00448278663679957,-0.0504973046481609,0.00720790307968855
497,-0.000720374286174774,0.0166858322918415,0.00473776459693909,-0.00433278828859329,-0.0535207875072956,0.00439619924873114
498,-0.00472777150571346,0.00932394340634346,0.00175535446032882,-0.00421158643439412,-0.0578446090221405,0.000172335770912468
499,-0.00476481299847364,0.00434829946607351,0.00303377420641482,-0.00413841148838401,-0.0625420808792114,0.000487075507408008
500,-0.00296212709508836,0.000923005805816501,0.00609938427805901,-0.00410668924450874,-0.066617839038372,0.00293627707287669
501,0.000347566412528977,5.22245863976423E-05,0.0106266476213932,-0.00408797850832343,-0.0675570219755173,0.00653102342039347
502,0.00757565768435597,0.00477098254486918,0.0192528069019318,-0.00404767086729407,-0.0616670288145542,0.0150826945900917
503,0.0133862579241395,0.00871343165636063,0.0244396831840277,-0.00396378198638558,-0.0548965372145176,0.0231848321855068
504,0.0145182646811008,0.00735534727573395,0.0202341955155134,-0.00383863318711519,-0.0551108233630657,0.0246061980724335
505,0.0156435184180737,0.00773644680157304,0.0143613517284393,-0.00369721720926464,-0.0589273534715176,0.0233688410371542
506,0.0143701983615756,0.012353191152215,0.0101635549217463,-0.00357334199361503,-0.0638070404529572,0.0192651674151421
507,0.00428147055208683,0.0121667571365833,0.00150232808664441,-0.00349123007617891,-0.073244720697403,0.00561614986509085
508,-0.0121119627729058,0.00156602333299816,-0.0132132982835174,-0.00345259113237262,-0.0858753174543381,-0.0147740636020899
509,-0.0266918949782848,-0.0126009322702885,-0.0285203158855438,-0.00343606295064092,-0.0957947373390198,-0.0301330499351025
510,-0.0335620008409023,-0.0200728885829449,-0.03724529966712,-0.00340912281535566,-0.0989597514271736,-0.0328746102750301
511,-0.0313866138458252,-0.015991784632206,-0.0356212295591831,-0.0033458296675235,-0.0953328832983971,-0.0250771697610617
512,-0.0269367769360542,-0.00830010697245598,-0.0311893485486507,-0.00324071804061532,-0.0917362570762634,-0.0182734839618206
513,-0.0283976290374994,-0.0106461029499769,-0.0341250747442245,-0.0031114041339606,-0.0947139039635658,-0.021050900220871
514,-0.0314175486564636,-0.0208711475133896,-0.040603157132864,-0.00298868375830352,-0.100183881819248,-0.0269416701048613
515,-0.0258805211633444,-0.0262132734060287,-0.0419050678610802,-0.00289968540892005,-0.101378999650478,-0.0263434797525406
516,-0.0133520718663931,-0.0249172206968069,-0.0396486297249794,-0.00285329110920429,-0.0985682159662247,-0.0219341497868299
517,-0.00341397523880005,-0.0232084728777409,-0.0387250743806362,-0.00283566047437489,-0.0946874171495438,-0.0208349656313658
518,0.000769849517382681,-0.023021012544632,-0.038203377276659,-0.00281809573061764,-0.0905558690428734,-0.0233673732727766
519,0.0011298693716526,-0.0243903826922178,-0.0366030819714069,-0.0027727885171771,-0.0867529138922691,-0.0284090582281351
520,-0.00101819564588368,-0.0275697875767946,-0.0348533689975739,-0.00268780579790473,-0.0843719691038132,-0.0354093573987484
521,-0.00317599857226014,-0.0295017752796412,-0.0321892090141773,-0.00257323984988034,-0.0835330337285995,-0.0382338054478168
522,-0.00284854788333178,-0.0264053922146559,-0.0271081980317831,-0.00245536351576447,-0.0837715268135071,-0.0300186593085527
523,0.000683254096657038,-0.0189578719437122,-0.0198675747960806,-0.00236216094344854,-0.0833675712347031,-0.0129621420055628
524,0.00656002340838313,-0.0119264768436551,-0.0121420221403241,-0.00230820151045918,-0.0807861015200615,0.00311122043058276
525,0.0111251696944237,-0.00901205558329821,-0.00649837404489517,-0.00228703022003174,-0.0778311416506767,0.010048714466393
526,0.012355393730104,-0.00789669435471296,-0.00290662050247192,-0.00227504153735936,-0.0750219076871872,0.00871213153004646
527,0.0110510960221291,-0.00644612731412053,-0.00103064707946032,-0.00224453071132302,-0.0706557333469391,0.00387605000287294
528,0.00807477813214064,-0.00647570751607418,-0.00285937311127782,-0.00217870948836207,-0.0657024383544922,-0.00171898945700377
529,0.00418847892433405,-0.00675941165536642,-0.00785354431718588,-0.00208054506219924,-0.0635752603411675,-0.00510971993207932
530,-0.000554002763237804,-0.00541391083970666,-0.0132647454738617,-0.00197077798657119,-0.067411296069622,-0.0060528046451509
531,-0.00428697699680924,-0.00323005812242627,-0.0169913694262505,-0.00187639193609357,-0.0762501209974289,-0.006974873598665
532,-0.00568103836849332,-0.00138510053511709,-0.0189201775938272,-0.00181594444438815,-0.0859093368053436,-0.00866237189620733
533,-0.00545679219067097,-0.00073904381133616,-0.0197423715144396,-0.00178972876165062,-0.0924918726086617,-0.0101558929309249
534,-0.00207374803721905,0.000329317670548335,-0.0173830687999725,-0.00177997886203229,-0.092130184173584,-0.00852316524833441
535,0.00485144089907408,0.00284551503136754,-0.0103503074496984,-0.00176080572418869,-0.0840325504541397,-0.004013457801193
536,0.0139134908095002,0.00528872199356556,0.000101764569990337,-0.0017123109428212,-0.072662889957428,-0.00118899159133434
537,0.0224200189113617,0.00568667752668262,0.0101440558210015,-0.00163118587806821,-0.0652527138590813,-0.00298366625793278
538,0.0233964659273624,0.00260618468746543,0.0141123812645674,-0.00153215101454407,-0.0667925775051117,-0.00769957341253757
539,0.014960179105401,-0.000488906051032245,0.0117777604609728,-0.00143964937888086,-0.0736893936991692,-0.00894879642874002
540,0.00346561474725604,0.000256364233791828,0.0070258155465126,-0.00137447251472622,-0.0788734182715416,-0.00378488376736641
541,-0.00672284187749028,0.00193654757458717,0.00256726541556418,-0.00134263467043638,-0.0790438503026962,0.00389978173188865
542,-0.0149021958932281,0.00349564081989229,0.000453107815701514,-0.00133244355674833,-0.0727752447128296,0.00911155249923468
543,-0.0213742647320032,0.00573752960190177,-0.000833449419587851,-0.00132117467001081,-0.0631521865725517,0.00782233942300081
544,-0.0252627711743116,0.00672626262530684,-0.00290422281250358,-0.00128754565957934,-0.0557047128677368,0.00365364365279675
545,-0.0261849984526634,0.00443324912339449,-0.00573901366442442,-0.00122314621694386,-0.0532974936068058,0.00237630540505052
546,-0.0256542377173901,-0.00224629673175514,-0.0111214220523834,-0.00113668397534639,-0.0577170848846436,6.28667185083032E-05
547,-0.0204608831554651,-0.00760036008432508,-0.0172465238720179,-0.00104891788214445,-0.0669634863734245,-0.00496678566560149
548,-0.00562332477420568,-0.00723277404904366,-0.0202670972794294,-0.000981210265308619,-0.0753665268421173,-0.00822407379746437
549,0.0141982436180115,-0.00597254000604153,-0.02068498916924,-0.000944009167142212,-0.080895870923996,-0.0106603931635618
550,0.0261779259890318,-0.00695619592443109,-0.0220976751297712,-0.000931465183384717,-0.0882328525185585,-0.0171222202479839
551,0.0248688254505396,-0.00728110037744045,-0.025755800306797,-0.000924946740269661,-0.100121110677719,-0.0258247517049313
552,0.0162858422845602,-0.00607165275141597,-0.0291704814881086,-0.00090335967252031,-0.111671224236488,-0.031543180346489
553,0.00701546855270863,-0.00633471878245473,-0.0302639473229647,-0.000854556681588292,-0.117310769855976,-0.0341739393770695
554,0.000701778801158071,-0.0079664159566164,-0.0281636733561754,-0.000781667593400925,-0.115733847022057,-0.0346736572682858
555,-0.00014118300168775,-0.00807555206120014,-0.0230904035270214,-0.000701057317201048,-0.108565643429756,-0.0325928404927254
556,0.00328574771992862,-0.00624954188242555,-0.0170381236821413,-0.000633205403573811,-0.0983475148677826,-0.0283254589885473
557,0.00521789910271764,-0.00496197864413261,-0.0127950413152575,-0.000591584423091263,-0.0882573872804642,-0.0239862930029631
558,0.00242660264484584,-0.00683104526251554,-0.012981653213501,-0.000575573416426778,-0.0812601894140244,-0.0219381656497717
559,-0.00159821682609618,-0.0101034734398127,-0.0167329031974077,-0.000571126700378954,-0.0771311149001122,-0.0200452152639627
560,-0.000417363888118416,-0.00737457908689976,-0.0168921835720539,-0.000558652798645198,-0.0716204941272736,-0.0117884492501616
561,0.00724200671538711,0.00299836182966828,-0.00915983133018017,-0.000523688679095358,-0.0624035634100437,0.00325846951454878
562,0.0125868562608957,0.010530736297369,-0.00122944707982242,-0.000464554061181843,-0.0546020604670048,0.0150279523804784
563,0.0087878629565239,0.00953422673046589,0.000299262843327597,-0.000392938818549737,-0.0531772077083588,0.0182955786585808
564,0.00227415468543768,0.00792639516294003,0.000964343780651689,-0.000327280344208702,-0.0549181140959263,0.0188527647405863
565,0.000731570820789784,0.0107883075252175,0.00441587623208761,-0.000282674154732376,-0.0557410828769207,0.0190802421420813
566,0.0033934973180294,0.0171340741217136,0.00715867429971695,-0.000262834539171308,-0.0556880608201027,0.0177671182900667
567,0.00835212785750628,0.0291916262358427,0.00925543531775475,-0.000258382002357394,-0.0550863780081272,0.0184836946427822
568,0.0111113227903843,0.0394357517361641,0.00884565338492393,-0.00025221923715435,-0.0573020577430725,0.0182224493473768
569,0.00441436935216188,0.0329328775405884,0.000912775110919029,-0.000228922595852055,-0.0654584541916847,0.00633867550641298
570,-0.0103600528091192,0.0127702793106437,-0.0101180886849761,-0.000182991963811219,-0.0742232128977776,-0.0167990736663342
571,-0.0251268334686756,-0.0066347005777061,-0.0172142293304205,-0.000121548371680547,-0.0775649473071098,-0.0389535874128342
572,-0.0337581261992455,-0.0176106132566929,-0.019364096224308,-6.01714782533236E-05,-0.0762015357613564,-0.0489267222583294
573,-0.0337896458804607,-0.0187529753893614,-0.016784681007266,-1.42959988806979E-05,-0.0729010328650475,-0.0432918556034565
574,-0.0257858298718929,-0.0147452503442764,-0.0119318310171366,9.08685888134642E-06,-0.0690167993307114,-0.0279474519193172
575,-0.0147937275469303,-0.0154730416834354,-0.0109043987467885,1.49654488268425E-05,-0.0675061121582985,-0.0151872830465436
576,-0.00761044025421143,-0.0219524726271629,-0.0152388736605644,1.7305521396338E-05,-0.0696828812360764,-0.011282398365438
577,-0.00526691041886806,-0.0251913145184517,-0.0204383265227079,3.13004238705616E-05,-0.0716729834675789,-0.0116288308054209
578,-0.00419506896287203,-0.0216190535575151,-0.0233269706368446,6.51714726700448E-05,-0.0719698518514633,-0.00944358389824629
579,-0.00243288115598261,-0.0143112065270543,-0.0235813371837139,0.000115942166303284,-0.0738482847809792,-0.00200602132827044
580,-0.00302679743617773,-0.00794737786054611,-0.0241264589130878,0.000171350911841728,-0.0799500048160553,0.00597764505073428
581,-0.00741248810663819,-0.00314354686997831,-0.0247118063271046,0.00021670397836715,-0.086494043469429,0.0101703917607665
582,-0.0108365155756474,0.00289252307265997,-0.0206963140517473,0.000242845038883388,-0.0877380818128586,0.0117390779778361
583,-0.010965995490551,0.00743507221341133,-0.0144018996506929,0.000250922894338146,-0.0861346051096916,0.0102384043857455
584,-0.0083015039563179,0.0074128326959908,-0.0103141544386745,0.000251483026659116,-0.085908941924572,0.00578446174040437
585,-0.00351180345751345,0.00583116244524717,-0.0077529982663691,0.000258532265434042,-0.0850018411874771,0.00105714914388955
586,0.000769989914260805,0.00764670129865408,-0.00591665180400014,0.000281913205981255,-0.0810635983943939,-0.00217031664215028
587,0.00194839912001044,0.0135326376184821,-0.00550904776901007,0.000322137697366998,-0.0762084200978279,-0.00231821835041046
588,-0.00195501372218132,0.0168342422693968,-0.00633013853803277,0.000370387977454811,-0.0734026208519936,-0.000231621495913714
589,-0.0113178109750152,0.0120660411193967,-0.00755069404840469,0.000413533387472853,-0.0728343948721886,-0.00071910407859832
590,-0.0234668757766485,0.000445039971964434,-0.00898946169763803,0.000441317679360509,-0.0728330388665199,-0.00586045999079943
591,-0.0332912132143974,-0.0127788428217173,-0.0088055832311511,0.000451786909252405,-0.0707889795303345,-0.00972378347069025
592,-0.0346101745963097,-0.0200747437775135,-0.00445913290604949,0.000452091393526644,-0.0641019269824028,-0.00608817022293806
593,-0.025960199534893,-0.0206329803913832,0.000832069432362914,0.000454369292128831,-0.0563468001782894,0.000667963875457644
594,-0.0138961840420961,-0.0216550454497337,0.000829646654892713,0.000469073944259435,-0.0549726262688637,0.00244606798514724
595,-0.00510697206482291,-0.0244521573185921,-0.00369260576553643,0.00049941148608923,-0.0591092742979527,-0.000627090979833156
596,0.000594328972510993,-0.0255953427404165,-0.00717001408338547,0.000539845961611718,-0.0640420839190483,-0.00452437670901418
597,0.0053485888056457,-0.0247018784284592,-0.00750647438690066,0.000579350045882165,-0.0689156875014305,-0.00774393836036325
598,0.00626981537789106,-0.0212835837155581,-0.00681205978617072,0.000607505673542619,-0.0717200413346291,-0.0106346011161804
599,0.00103359646163881,-0.0127054518088698,-0.00691067799925804,0.000620084523689002,-0.0703833624720573,-0.0127108097076416
600,-0.00638771010562778,6.48205241304822E-05,-0.00777693931013346,0.000621123937889934,-0.0673169121146202,-0.0134986136108637
601,-0.0105579942464828,0.0083926934748888,-0.0102599887177348,0.000620493665337563,-0.0654134824872017,-0.0151551598683
602,-0.00715753203257918,0.00949633959680796,-0.0118258781731129,0.000628406007308513,-0.0621022246778011,-0.0147660905495286
603,0.00274470797739923,0.0097822044044733,-0.00640441896393895,0.000649920431897044,-0.0540321879088879,-0.00549298292025924
604,0.0114505095407367,0.0113533213734627,0.00505641847848892,0.000682398094795644,-0.0439194887876511,0.00956838391721249
605,0.0140720875933766,0.0130690410733223,0.0150633733719587,0.00071717839455232,-0.0359713919460773,0.0202122908085585
606,0.0121127907186747,0.0164612364023924,0.020073339343071,0.000744436052627862,-0.0312321707606316,0.0225596949458122
607,0.00886252988129854,0.0225446168333292,0.0219889655709267,0.000758501410018653,-0.0276974961161613,0.0208732262253761
608,0.00343124708160758,0.0261195711791515,0.019483232870698,0.00076076720142737,-0.0238947104662657,0.0166302304714918
609,-0.00624866085126996,0.0206313468515873,0.00917149521410465,0.000758700189180672,-0.0234472956508398,0.00690748449414968
610,-0.0159858521074057,0.00655509438365698,-0.00576607277616858,0.000761621515266597,-0.0313361957669258,-0.0066894949413836
611,-0.0200289506465197,-0.010674312710762,-0.0193048324435949,0.000775637046899647,-0.0478041917085648,-0.0189241394400597
612,-0.0169676188379526,-0.0240611247718334,-0.0278075113892555,0.000800472218543291,-0.0670143291354179,-0.0254933349788189
613,-0.0105399833992124,-0.0284181348979473,-0.030502263456583,0.000829848751891404,-0.0812367796897888,-0.0250452142208815
614,-0.0061073680408299,-0.0235723722726107,-0.0292949769645929,0.000855074555147439,-0.0872817188501358,-0.0202132947742939
615,-0.00591498659923673,-0.0154573870822787,-0.0275386981666088,0.000869803596287966,-0.088679276406765,-0.016287149861455
616,-0.0102826133370399,-0.013736117631197,-0.0292611010372639,0.000873362179845572,-0.0917129889130592,-0.0181153193116188
617,-0.0160816330462694,-0.0197267718613148,-0.0334577970206738,0.000870905525516719,-0.0969866365194321,-0.0236543584614992
618,-0.0169402379542589,-0.0234572719782591,-0.0332943834364414,0.00087043410167098,-0.098887637257576,-0.0249389782547951
619,-0.0126313837245107,-0.019324442371726,-0.0275341887027025,0.000878391030710191,-0.0944691151380539,-0.0210907738655806
620,-0.00908216461539268,-0.0120796458795667,-0.0207073874771595,0.00089626043336466,-0.0840583220124245,-0.0180334150791168
621,-0.00708242366090417,-0.0052004000172019,-0.012365497648716,0.000919960846658796,-0.0678102225065231,-0.0147853540256619
622,-0.00471225567162037,0.000761331815738231,-0.00274099968373775,0.000942254031542689,-0.0520299263298512,-0.00857424270361662
623,-0.00599432270973921,0.001769820577465,0.000722876808140427,0.000956759322434664,-0.0483610033988953,-0.00412255665287375
624,-0.0119593786075711,-0.00151565310079604,-0.00357209611684084,0.000961352197919041,-0.0580977648496628,-0.00258763390593231
625,-0.0170873571187258,-0.00340690743178129,-0.00910506024956703,0.000959140830673277,-0.0717106834053993,-0.000707553117536008
626,-0.020411366596818,-0.00438053999096155,-0.0141585413366556,0.000956589996349067,-0.0828318372368813,-0.00162294774781913
627,-0.023056348785758,-0.00499338284134865,-0.0186202805489302,0.000959913188125938,-0.0892929881811142,-0.00583495851606131
628,-0.0235169567167759,-0.00228376104496419,-0.0189189314842224,0.000971744186244905,-0.0895712822675705,-0.00674687465652823
629,-0.0218519009649754,0.00304669165052474,-0.0145614678040147,0.000989869586192071,-0.0843645334243774,-0.00272055389359593
630,-0.0179125238209963,0.00845254678279161,-0.0089170653373003,0.00100862036924809,-0.0769890695810318,0.00240881484933198
631,-0.00974042806774378,0.0143501041457057,-0.00345057505182922,0.00102206750307232,-0.0704459324479103,0.00888238567858934
632,-0.000502618146128953,0.0192353129386902,0.000516328669618815,0.00102722377050668,-0.0666726157069206,0.0170157086104155
633,0.00301534356549382,0.016975549980998,-0.000212161219678819,0.00102552818134427,-0.0678839012980461,0.0204119980335236
634,0.000911991228349507,0.00830764882266521,-0.00361743126995862,0.00102188484743238,-0.0732449069619179,0.016329187899828
635,-0.00293656066060066,0.00211819657124579,-0.00585562316700816,0.00102187599986792,-0.0791847854852676,0.00798613484948874
636,-0.00752278277650476,0.00543728517368436,-0.00759915681555867,0.0010287300683558,-0.0829663723707199,-0.000926338951103389
637,-0.0115750413388014,0.0173201598227024,-0.00890816561877728,0.00104168977122754,-0.0814737007021904,-0.00447493698447943
638,-0.0131670664995909,0.0270542744547129,-0.00949965510517359,0.00105659908149391,-0.0739694982767105,-0.000480883609270677
639,-0.0129927294328809,0.0263607669621706,-0.0115254279226065,0.00106829719152302,-0.0656862482428551,0.00474738841876388
640,-0.0135252261534333,0.0188224855810404,-0.0148366428911686,0.00107344542630017,-0.0608507394790649,0.00516087701544166
641,-0.0152165750041604,0.0117851970717311,-0.0156470686197281,0.00107224495150149,-0.0576718337833881,0.00170306849759072
642,-0.016285328194499,0.00767686264589429,-0.0118252392858267,0.00106816610787064,-0.0540905147790909,-0.00136972567997873
643,-0.0171335320919752,0.0036166429053992,-0.00671490980312228,0.00106592627707869,-0.052363358438015,-0.00340374605730176
644,-0.019527655094862,-0.00262139644473791,-0.00475050089880824,0.00106888916343451,-0.0549994967877865,-0.00735301151871681
645,-0.0217306688427925,-0.00809586048126221,-0.0053485450334847,0.0010773167014122,-0.0607179217040539,-0.0130434697493911
646,-0.0220054984092712,-0.00979386921972036,-0.00655333651229739,0.00108838046435267,-0.0676255002617836,-0.0179842747747898
647,-0.0198092795908451,-0.00798855535686016,-0.00714107463136315,0.0010978413047269,-0.0729785114526749,-0.020343916490674
648,-0.0127932168543339,-0.00269503286108375,-0.00464358413591981,0.00110241037327796,-0.072708360850811,-0.017215421423316
649,-0.00264147529378533,0.00478467857465148,0.00186682096682489,0.0011014809133485,-0.0670126527547836,-0.00914955884218216
650,0.00606373231858015,0.0122477049008012,0.0132646048441529,0.00109732197597623,-0.0583882741630077,0.000884748704265803
651,0.0105338878929615,0.0176120735704899,0.0272120647132397,0.00109370669815689,-0.0490209236741066,0.0111182006075978
652,0.00922914780676365,0.0187362972646952,0.0353868789970875,0.00109379482455552,-0.0411759577691555,0.0187673028558493
653,0.00221119052730501,0.0157476142048836,0.0329442098736763,0.00109845609404147,-0.0359425246715546,0.0203294642269611
654,-0.0090477941557765,0.01049480214715,0.0222626309841871,0.00110592169221491,-0.0352311059832573,0.0135295893996954
655,-0.0194097999483347,0.00455725565552711,0.00890662055462599,0.00111288670450449,-0.0400128290057182,0.000626867637038231
656,-0.0233984552323818,-0.00244862586259842,-0.0031297414097935,0.00111638684757054,-0.047254916280508,-0.0133327040821314
657,-0.0211359765380621,-0.00779346050694585,-0.0105179725214839,0.00111539172939956,-0.0514807514846325,-0.0227056033909321
658,-0.0166709888726473,-0.00713616469874978,-0.0110331047326326,0.00111125898547471,-0.0496513023972511,-0.024035083130002
659,-0.013653670437634,-0.00271413917653263,-0.00751780346035957,0.00110686523839831,-0.0442353487014771,-0.0207136776298285
660,-0.0120314890518785,0.00205688341520727,-0.00193105102516711,0.00110495579428971,-0.0379252508282661,-0.0162992756813765
661,-0.0102501194924116,0.00703627383336425,0.00573070533573627,0.00110665848478675,-0.0315472036600113,-0.0106521556153893
662,-0.00977603066712618,0.0107803177088499,0.0114655196666718,0.00111096340697259,-0.0284534469246864,-0.00570570304989815
663,-0.0120535464957356,0.010877950116992,0.0122354775667191,0.00111540080979466,-0.0318224392831326,-0.00360033544711769
664,-0.013985263183713,0.0090598426759243,0.010607372969389,0.00111747940536588,-0.0387905426323414,-0.00266679818741977
665,-0.0139727788046002,0.0067502991296351,0.00736870616674423,0.00111605320125818,-0.0452024228870869,-0.00293494411744177
666,-0.0164753943681717,-0.000622293504420668,-0.00152298505418003,0.00111187121365219,-0.0520687438547611,-0.00880154315382242
667,-0.0194507762789726,-0.0101975286379457,-0.0115662133321166,0.00110705278348178,-0.0576530620455742,-0.0165916159749031
668,-0.0149157689884305,-0.0113322492688894,-0.0125402333214879,0.00110383960418403,-0.0566698648035526,-0.0167087912559509
669,-0.00599490758031607,-0.00545792654156685,-0.00799251813441515,0.00110335496719927,-0.0516119077801704,-0.0119149489328265
670,-0.000842622946947813,-0.00102757045533508,-0.00660627940669656,0.00110505404882133,-0.0487528443336487,-0.00932008493691683
671,0.000825237366370857,0.00114710570778698,-0.00622686883434653,0.00110713148023933,-0.0489095188677311,-0.00607486208900809
672,0.00239270483143628,0.00258243619464338,-0.00252718408592045,0.00110760319512337,-0.0487295612692833,0.000826343602966517
673,0.00281170848757029,0.000864348607137799,0.00152975937817246,0.00110542273614556,-0.0450260080397129,0.00654863193631172
674,0.0010417983867228,-0.00422992976382375,0.00335954083129764,0.00110100663732737,-0.0372648537158966,0.00742522301152349
675,-0.000950281508266926,-0.00856663379818201,0.00440052337944508,0.0010959105566144,-0.0286693330854177,0.0042258114553988
676,-0.00155152380466461,-0.00948428548872471,0.00554622197523713,0.00109188689384609,-0.0229929089546204,-0.00198505469597876
677,-0.000789052981417626,-0.00820079166442156,0.00714345648884773,0.00108988804277033,-0.0212190058082342,-0.00915133114904165
678,-0.000714081979822367,-0.00821082293987274,0.00751131819561124,0.00108958163764328,-0.0232744067907333,-0.016242228448391
679,-0.0024112593382597,-0.00899937376379967,0.00599088752642274,0.00108962028753012,-0.0265357475727797,-0.0225548036396503
680,-0.00350459874607623,-0.00589447049424052,0.00568909011781216,0.0010884718503803,-0.0263593792915344,-0.0252771656960249
681,-0.000258974614553154,0.00232430640608072,0.00912820361554623,0.00108530651777983,-0.0213817972689867,-0.0223424397408962
682,0.00895768124610186,0.0122381402179599,0.0166340153664351,0.00108043197542429,-0.0147297699004412,-0.014036038890481
683,0.0188824236392975,0.0167465396225452,0.0230380389839411,0.0010750504443422,-0.0117147155106068,-0.0071718106046319
684,0.0216231308877468,0.012023514136672,0.0225161612033844,0.00107051490340382,-0.0135891959071159,-0.00918626226484776
685,0.0167922638356686,0.00404548924416304,0.0177933610975742,0.00106753630097955,-0.0163223836570978,-0.0157434921711683
686,0.00850268732756376,-0.00263098650611937,0.012497921474278,0.0010658047394827,-0.0189959183335304,-0.0209892261773348
687,-0.00126042868942022,-0.0100401090458035,0.00558653986081481,0.00106422428507358,-0.0248333103954792,-0.0265265218913555
688,-0.00890110805630684,-0.0156642217189074,-0.000207647433853708,0.00106159725692123,-0.0326789505779743,-0.0311260093003511
689,-0.0105056390166283,-0.0150932893157005,0.000147190919960849,0.00105733925011009,-0.0368932113051414,-0.0309901479631662
690,-0.00902986992150545,-0.0117754573002458,0.00436420738697052,0.00105180183891207,-0.0347613580524921,-0.0282506663352251
691,-0.00790180545300245,-0.00777282333001494,0.00902918912470341,0.00104602973442525,-0.0275234673172235,-0.0239293817430735
692,-0.00585875101387501,-0.0011406991397962,0.0147838909178972,0.00104111293330789,-0.0195087399333715,-0.0155431590974331
693,-0.0021869782358408,0.00582109531387687,0.0204950533807278,0.00103753141593188,-0.0152901746332645,-0.0056142364628613
694,0.00120272021740675,0.00903485901653767,0.0218384098261595,0.00103488203603774,-0.0151528296992183,0.000610635499469936
695,0.00032544243731536,0.00308328168466687,0.0144795328378677,0.00103214208502322,-0.0182466078549623,0.000870213028974831
696,-0.00507573271170259,-0.012532502412796,0.00134308193810284,0.00102830026298761,-0.0223713088780642,-0.0025763891171664
697,-0.00897320173680782,-0.0257783066481352,-0.0079266894608736,0.00102297274861485,-0.0214665532112122,-0.00577277503907681
698,-0.00700320536270738,-0.0256200116127729,-0.00706305028870702,0.00101663346868008,-0.0138876466080546,-0.00730517273768783
699,-9.32737020775676E-05,-0.0140213137492538,0.00267676915973425,0.00101032562088221,-0.00598519435152411,-0.00686769792810082
700,0.00940185505896807,0.000825376308057457,0.0158525016158819,0.00100502918940037,-0.00310431630350649,-0.00236633839085698
701,0.0185754727572203,0.013464817777276,0.0276445467025042,0.00100106548052281,-0.00474576419219375,0.00694899912923574
702,0.0240115560591221,0.0226403269916773,0.0359132252633572,0.000997896888293326,-0.00831925868988037,0.0168944112956524
703,0.0231275726109743,0.0275490861386061,0.038207296282053,0.000994443311356008,-0.0132966758683324,0.0200409144163132
704,0.0160144176334143,0.0270492564886808,0.0329546444118023,0.000989729072898626,-0.0189267955720425,0.0127326538786292
705,0.00744282128289342,0.022467989474535,0.0244912076741457,0.000983476522378623,-0.0213708337396383,-0.000510430661961436
706,0.0028049002867192,0.0174995791167021,0.0191419497132301,0.000976289215032011,-0.0181127674877644,-0.0122577426955104
707,0.00216017500497401,0.0138970408588648,0.0178154781460762,0.000969310931395739,-0.0116946371272206,-0.0191735997796059
708,0.00144248560536653,0.0093163289129734,0.0155087765306234,0.000963554077316076,-0.0070737898349762,-0.0228840708732605
709,0.00194486358668655,0.00384674081578851,0.0106236897408962,0.000959291530307382,-0.00526132853701711,-0.02334956638515
710,0.00801881961524487,0.000441795302322134,0.00865268427878618,0.000955875031650066,-0.00410458631813526,-0.0182977505028248
711,0.0155974039807916,0.000617884041275829,0.0130206141620874,0.000952095026150346,-0.00386042054742575,-0.00828701816499233
712,0.0175047088414431,0.00372159387916327,0.0191923603415489,0.000946882588323206,-0.00586980767548084,0.00263975560665131
713,0.0118923997506499,0.00576758664101362,0.0194895341992378,0.000939946214202791,-0.0106439925730228,0.00848428066819906
714,0.00268095592036843,0.00600430462509394,0.0135943600907922,0.000931968213990331,-0.0174209550023079,0.00928649585694075
715,-0.00485247978940606,0.00807825662195683,0.0072675421833992,0.000924234511330724,-0.024287847802043,0.0117264036089182
716,-0.00956842955201864,0.0114590413868427,0.00255177728831768,0.000917901284992695,-0.0288648083806038,0.0166959911584854
717,-0.012124614790082,0.0121734840795398,-0.00166419602464885,0.000913316616788507,-0.0283953342586756,0.0182004421949387
718,-0.011383343487978,0.00946949608623981,-0.0049402448348701,0.000909795111510903,-0.0223996452987194,0.0144429998472333
719,-0.00778892962262034,0.00619376730173826,-0.0063221575692296,0.000905985885765404,-0.0152635332196951,0.00897314120084047
720,-0.00602480070665479,0.00296515598893166,-0.00696615735068917,0.000900636427104473,-0.0131476130336523,0.00269099837169051
721,-0.00751508446410298,-0.000138515242724679,-0.00631926394999027,0.000893320073373616,-0.0166980195790529,-0.00363043788820505
722,-0.00866023637354374,-0.000377259100787342,-0.00225845770910382,0.000884706212673336,-0.0195088274776936,-0.00710397912189364
723,-0.00770892249420285,0.00418026512488723,0.00399871775880456,0.000876207195688039,-0.0149989984929562,-0.0063593010418117
724,-0.00540593545883894,0.0127513781189919,0.0100594637915492,0.000869189272634685,-0.00402938248589635,0.000206329714274034
725,-0.00380367925390601,0.0218447148799896,0.0140968421474099,0.000864190340507776,0.00549221225082874,0.0126989465206862
726,-0.00765503058210015,0.0250700060278177,0.0112594878301024,0.000860592059325427,0.00561107322573662,0.0227179285138845
727,-0.0179914422333241,0.0176951438188553,-0.00104131759144366,0.000856943603139371,-0.00344960018992424,0.0204569865018129
728,-0.0250771772116423,0.00574682606384158,-0.0129803037270904,0.000851767545100302,-0.0119057111442089,0.00970484223216772
729,-0.0214715301990509,-0.000800121983047575,-0.0137186488136649,0.000844399153720587,-0.0126992808654904,-7.08882726030424E-05
730,-0.0126031516119838,-0.00154401466716081,-0.00559413619339466,0.000835383427329361,-0.00878460798412561,-0.00667791580781341
731,-0.00540846912190318,-0.000229066892643459,0.00460832612589002,0.000826194824185222,-0.00465525360777974,-0.00945262052118778
732,0.000772108789533377,0.00332668703049421,0.0149682071059942,0.000818425847683102,-0.000804574461653829,-0.00629442231729627
733,0.00723318243399262,0.00698370719328523,0.0223248060792685,0.000812891405075789,0.00137200090102851,-0.000559441687073559
734,0.0107404235750437,0.00763365207239985,0.0229765009135008,0.000809154415037483,0.000334648677380756,0.00364773673936725
735,0.0073656952008605,0.00682830670848489,0.0189479533582926,0.000805747113190591,-0.00256294617429376,0.00652377167716622
736,-0.00232569128274918,0.00479070842266083,0.0138029968366027,0.000800976471509784,-0.0056783789768815,0.00862300023436546
737,-0.010584750212729,0.00349592743441463,0.0111775202676654,0.000793870713096112,-0.00562921678647399,0.0135066322982311
738,-0.0120162311941385,0.00616624765098095,0.0113989915698767,0.000784738454967737,-0.000990120926871896,0.0232832860201597
739,-0.0110976211726666,0.00813096668571234,0.0095230471342802,0.000775018823333085,0.0025791390798986,0.0319308377802372
740,-0.0135690588504076,0.00390822114422917,0.00290001230314374,0.000766497105360031,-0.00047320855082944,0.0325227044522762
741,-0.0186153519898653,-0.00471761077642441,-0.00666376575827599,0.000760313589125872,-0.00914002675563097,0.0250315703451633
742,-0.0211474932730198,-0.0124546503648162,-0.0144327124580741,0.00075631751678884,-0.0178964100778103,0.0157675128430128
743,-0.0191567428410053,-0.0157799087464809,-0.0166950020939112,0.000753132451791316,-0.0227184295654297,0.00969851668924093
744,-0.0146981719881296,-0.014308619312942,-0.0146722141653299,0.000748905004002154,-0.0239049140363932,0.00624779425561428
745,-0.00803257059305906,-0.00866683479398489,-0.00957473367452621,0.00074233062332496,-0.0218547116965055,0.00433765770867467
746,0.000925179687328637,-0.00019714368681889,-0.00130738143343478,0.000733386666979641,-0.015485005453229,0.00406106747686863
747,0.00766471913084388,0.00746345100924373,0.00627008825540543,0.000723362842109054,-0.00661771837621927,0.00290077482350171
748,0.00694778002798557,0.0104168839752674,0.00737493438646197,0.000714162131771445,-0.000151122934767045,-0.00301148346625268
749,0.000363260216545314,0.0103386240079999,0.00281229382380843,0.000707253580912948,0.00235246121883392,-0.0119343362748623
750,-0.00554852467030287,0.0124029954895377,-0.000482085742987692,0.000702853489201516,0.00377101311460137,-0.0159380938857794
751,-0.00878284778445959,0.0164368357509375,-0.000329094065818936,0.00069979258114472,0.005833740811795,-0.0119578158482909
752,-0.0122386664152145,0.0185368694365025,-1.46171269079787E-05,0.00069614895619452,0.00870747957378626,-0.00559104792773724
753,-0.0154056129977107,0.0179817173629999,0.00052582414355129,0.000690304033923894,0.0148847494274378,-0.00119016761891544
754,-0.0143988514319062,0.0162606071680784,0.00318274297751486,0.000681840640027076,0.0256798639893532,0.0026154019869864
755,-0.0102378092706203,0.0128105459734797,0.0053807427175343,0.00067178497556597,0.0337698124349117,0.00735288159921765
756,-0.00943729188293219,0.00566716026514769,0.00376618327572942,0.000662053236737847,0.0298298969864845,0.00977916177362204
757,-0.0117151709273458,-0.00135730451438576,0.00165427732281387,0.000654402421787381,0.0166572406888008,0.00798003096133471
758,-0.0101507883518934,-0.000699126394465566,0.00431189220398664,0.00064946070779115,0.00560802593827248,0.00657925941050053
759,-0.00525185326114297,0.00676520029082894,0.0102537916973233,0.000646373722702265,0.00207493617199361,0.00862685404717922
760,-0.00187030097004026,0.0145086506381631,0.0148713868111372,0.000643264909740537,0.00315568596124649,0.0126467635855079
761,-0.00137780932709575,0.0184496846050024,0.0151637345552444,0.000638262717984617,0.00376102514564991,0.0157195031642914
762,-0.00274408934637904,0.0186163615435362,0.0111337034031749,0.000630530645139515,0.00143626856151968,0.0159952621906996
763,-0.00529952254146338,0.0169002208858728,0.00452543143182993,0.000620733771938831,-0.00350061384961009,0.0128799667581916
764,-0.00990837719291449,0.0123708136379719,-0.00279997056350112,0.000610681890975684,-0.00985265523195267,0.00514067523181438
765,-0.017097607254982,0.00469723530113697,-0.00780222332105041,0.000602340907789767,-0.0151243284344673,-0.00620207283645868
766,-0.0256121065467596,-0.00268818368203938,-0.00904535688459873,0.00059675466036424,-0.0164530836045742,-0.0161529369652271
767,-0.0315647125244141,-0.00578923476859927,-0.00770015409216285,0.000593468372244388,-0.0113304769620299,-0.0172404330223799
768,-0.0320654697716236,-0.00351251545362175,-0.00580710498616099,0.000590772717259824,0.000347957684425637,-0.00708504766225815
769,-0.0278443563729525,0.00142376741860062,-0.00465060072019696,0.000586637412197888,0.0140022877603769,0.00692530162632465
770,-0.0200420394539833,0.00653331773355603,-0.00265443348325789,0.000579823914449662,0.0244444832205772,0.0174815114587545
771,-0.0106883617118001,0.0107476944103837,0.0014599411515519,0.000570566859096289,0.0296657122671604,0.0215004421770573
772,-0.00239776098169386,0.0138373328372836,0.00621307920664549,0.000560449552722275,0.0302351843565702,0.0180905908346176
773,0.00412043323740363,0.0173597168177366,0.00984854344278574,0.000551540055312216,0.0269168447703123,0.010273527354002
774,0.00669840537011623,0.0196421947330236,0.00968802347779274,0.000545260380022228,0.0184751879423857,-0.000199804606381804
775,0.00418660556897521,0.0178949702531099,0.00497812498360872,0.000541607441846281,0.00575770437717438,-0.0123195247724652
776,-0.000136894042952918,0.0136175006628037,-0.000574455771129578,0.00053915346506983,-0.0055451737716794,-0.0225746557116508
777,-0.00431985780596733,0.00847578980028629,-0.00456785690039396,0.000535826024133712,-0.0110096102580428,-0.0295532029122114
778,-0.00709449872374535,0.00608325283974409,-0.00583952711895108,0.000530040997546166,-0.0103033380582929,-0.0306279920041561
779,-0.00679962802678347,0.0109653752297163,-0.002874601399526,0.000521569163538516,-0.00518403854221106,-0.0223390851169825
780,-0.00598152447491884,0.0181248392909765,0.00154390768148005,0.000511661579366773,0.000456237845355645,-0.00820743292570114
781,-0.00503683555871248,0.0213948134332895,0.00596692832186818,0.000502366165164858,0.00420767674222589,0.00779392523691058
782,0.00120288005564362,0.0235093012452126,0.0131638664752245,0.000495408952701837,0.00705350749194622,0.0238267779350281
783,0.0126579161733389,0.0259619727730751,0.0220029875636101,0.000491252518258989,0.0102097308263183,0.0336834341287613
784,0.0215651821345091,0.0254614651203156,0.0289249755442142,0.000488844991195947,0.0146227106451988,0.0340766422450542
785,0.0218427255749702,0.0188133046030998,0.031402762979269,0.000486196833662689,0.0193068347871304,0.0282695889472961
786,0.0154557097703218,0.00740904593840241,0.0294597130268812,0.000481467752251774,0.0209977440536022,0.0207446832209826
787,0.00935901701450348,-0.0021431113127619,0.0264868419617414,0.000473970576422289,0.0182001758366823,0.0149463461712003
788,0.00679290154948831,-0.00607382087036967,0.0231838300824165,0.000464543525595218,0.0125300651416183,0.00997617561370134
789,0.00598769914358854,-0.00545650394633412,0.017668679356575,0.000455089844763279,0.00707467366009951,0.00359303830191493
790,0.00561461923643947,-0.00199798122048378,0.0113915428519249,0.000447537691798061,0.00421430775895715,-0.00275580096058548
791,0.00730630336329341,0.00444685621187091,0.00920909736305475,0.000442789896624163,0.00420611305162311,-0.00412462325766683
792,0.0112067582085729,0.0126558402553201,0.0122204469516873,0.000440235628047958,0.00468003051355481,0.0014746964443475
793,0.0130502954125404,0.0168777350336313,0.014646259136498,0.000438088580267504,0.00283330143429339,0.00918961595743895
794,0.0107493447139859,0.0145857380703092,0.0131671419367194,0.000434364279499277,-0.000778141256887466,0.0160176623612642
795,0.00565889105200768,0.00835491064935923,0.00928686186671257,0.000427961436798796,-0.00446739792823792,0.0203257389366627
796,0.000614242744632065,0.00228612194769084,0.00602847384288907,0.000419257790781558,-0.00695244083181024,0.0198127944022417
797,-0.00306699145585299,-0.00109666795469821,0.00430003507062793,0.000409898231737316,-0.00760473217815161,0.0146328825503588
798,-0.00604838971048594,-0.00218715728260577,0.00293372641317546,0.000401894067181274,-0.00633848924189806,0.00785533990710974
799,-0.00718082720413804,-0.00218910002149642,0.00341953034512699,0.000396527466364205,-0.00213813735172153,0.00450831651687622
800,-0.00654359627515078,-0.00323064462281764,0.00608228612691164,0.000393658061511815,0.0042798207141459,0.00411368533968925
801,-0.00459720892831683,-0.00474036019295454,0.0101718790829182,0.000391807086998597,0.0117616103962064,0.00333508825860918
802,-0.00023168811458163,-0.00341201550327241,0.0158335026353598,0.000388968852348626,0.0213572327047586,0.00393568584695458
803,0.00459140632301569,-0.000651404960080981,0.0198572110384703,0.000383704318664968,0.0318392813205719,0.00591100752353668
804,0.00582811795175076,-0.00101451203227043,0.0183743834495544,0.000375919684302062,0.0373762473464012,0.0044286772608757
805,0.00272153201512992,-0.00510951830074191,0.0116377817466855,0.000366909254807979,0.033822663128376,-0.00196500075981021
806,-0.00218281499110162,-0.0112587949261069,0.00257407710887492,0.000358643446816131,0.02412249147892,-0.0102158477529883
807,-0.0050856308080256,-0.0161541942507029,-0.00348227913491428,0.000352694187313318,0.0147827751934528,-0.015088570304215
808,-0.00253757298924029,-0.0158851519227028,-0.00256024533882737,0.000349384208675474,0.00913002528250217,-0.0120691433548927
809,0.00335007137618959,-0.0133567880839109,0.000678588461596519,0.000347620662068948,0.00510556157678366,-0.00470596738159657
810,0.00553020462393761,-0.0150269493460655,-0.000773221196141094,0.000345498934620991,-0.000564818095881492,-0.000938085897359997
811,0.00291108177043498,-0.0199448093771935,-0.00495160138234496,0.000341342558385804,-0.00740141840651631,-0.000840348657220602
812,-0.00259401858784258,-0.0248294174671173,-0.00864758528769016,0.000334611540893093,-0.0144184250384569,-0.0023466213606298
813,-0.01043850928545,-0.0286109894514084,-0.0121325105428696,0.000326186447637156,-0.0202895514667034,-0.00522127514705062
814,-0.0169863980263472,-0.0283840578049421,-0.0133413318544626,0.000317879370413721,-0.020642813295126,-0.00540603045374155
815,-0.0187896005809307,-0.0227376669645309,-0.010239870287478,0.000311443320242688,-0.0132368318736553,-0.000119004864245653
816,-0.0138680320233107,-0.0121768256649375,-0.00138629460707307,0.000307621929096058,-0.000331101997289807,0.0101568838581443
817,-0.00592485861852765,-0.00240977783687413,0.00816079881042242,0.000305755092995241,0.0111003601923585,0.0184242427349091
818,-0.00212256540544331,-0.00107728270813823,0.00920927990227938,0.000304149318253621,0.0148869547992945,0.0152343772351742
819,-0.00268516386859119,-0.00694790109992027,0.00255537359043956,0.000301005289657041,0.0125150559470057,0.00212230184115469
820,-0.0040824175812304,-0.0150826331228018,-0.00510140834376216,0.000295394274871796,0.00811929628252983,-0.0124487346038222
821,-0.00337980524636805,-0.0215405113995075,-0.00832803454250097,0.000287753471639007,0.00467230612412095,-0.0199801102280617
822,0.000102197038359009,-0.0236514676362276,-0.0052451491355896,0.000279635976767167,0.00355255440808833,-0.0156960971653461
823,0.00310953217558563,-0.0221693515777588,-4.18447234551422E-05,0.000272858480457217,0.0040882951579988,-0.00436968728899956
824,0.00434457883238792,-0.0182988233864307,0.00407905643805861,0.000268514326307923,0.00710553722456098,0.00612426083534956
825,0.00467469915747643,-0.0138900363817811,0.00720186391845346,0.000266388757154346,0.0128668928518891,0.0117826256901026
826,0.00265838694758713,-0.0119525967165828,0.00756982294842601,0.00026508851442486,0.0174653753638268,0.0121299726888537
827,0.000475330394692719,-0.0106420312076807,0.00615572510287166,0.000262809015111998,0.0186696294695139,0.0123776355758309
828,0.00113552703987807,-0.00840099807828665,0.00430320994928479,0.000258315849350765,0.016449399292469,0.0140957124531269
829,0.00126515736337751,-0.00984930712729692,-0.00107056193519384,0.000251607125392184,0.0100156934931874,0.0107975145801902
830,-0.000642212748061866,-0.0150019247084856,-0.00793565437197685,0.000243900925852358,0.0021165432408452,0.00387275079265237
831,-0.00209121126681566,-0.0183426719158888,-0.0101013984531164,0.000236962354392745,-0.00271107931621373,0.000791207596193999
832,-0.00261119124479592,-0.0192576814442873,-0.00753758708015084,0.000232141959713772,-0.003769087838009,0.0010672960197553
833,-0.00357301672920585,-0.0213768072426319,-0.00569802429527044,0.00022964965319261,-0.00307955103926361,-0.00112308701500297
834,-0.00582616310566664,-0.026656461879611,-0.00836156960576773,0.000228454358875752,-0.00267656892538071,-0.00908881798386574
835,-0.00722998753190041,-0.0324305854737759,-0.0124043207615614,0.000226856689550914,-0.00384052307344973,-0.0187191162258387
836,-0.00255654123611748,-0.0331956595182419,-0.0105276685208082,0.000223416354856454,-0.00537461414933205,-0.0208492185920477
837,0.00936942547559738,-0.0278553012758493,-0.0018620032351464,0.000217728142160922,-0.00457743741571903,-0.0136135751381516
838,0.0227794963866472,-0.0195956472307444,0.00781858991831541,0.000210628379136324,-0.000765009666793048,-0.00309290643781424
839,0.031387235969305,-0.0116587243974209,0.0149598345160484,0.00020372704602778,0.00448983907699585,0.00637373561039567
840,0.0314738526940346,-0.00803514756262302,0.0172793287783861,0.000198527312022634,0.00793404132127762,0.011735170148313
841,0.0244738049805164,-0.00881701521575451,0.0140441795811057,0.000195614149561152,0.0069732335396111,0.0119158150628209
842,0.0154359666630626,-0.0106027899309993,0.00799492560327053,0.000194349879166111,0.00161538680549711,0.00895905680954456
843,0.00930059887468815,-0.0104686981067061,0.00390430726110935,0.000193235042388551,-0.0045553338713944,0.00734193297103047
844,0.00930822547525167,-0.00624531973153353,0.00645106239244342,0.000190730395843275,-0.00607258314266801,0.0118090966716409
845,0.0134371789172292,0.000700026925187558,0.0150098586454988,0.000186089368071407,-0.00175812572706491,0.0198708605021238
846,0.01752276904881,0.00897022988647223,0.0252633094787598,0.000179750801180489,0.00545867253094912,0.0257713403552771
847,0.0171939637511969,0.0154111236333847,0.0312107428908348,0.000173085354617797,0.0108832698315382,0.0253491848707199
848,0.00974017940461636,0.0131530612707138,0.0275034047663212,0.000167641876032576,0.010204404592514,0.0157992150634527
849,-0.000598522718064487,0.00274347071535885,0.0167460478842258,0.000164308017701842,0.00572429830208421,0.000748939928598702
850,-0.00552559830248356,-0.00629998603835702,0.00891211908310652,0.000162840049597435,0.00497494777664542,-0.0100637031719089
851,-0.00197248649783432,-0.00979576446115971,0.00923265889286995,0.000162010837811977,0.00881665479391813,-0.0119407204911113
852,0.00470674503594637,-0.0124153774231672,0.0119398459792137,0.000160286901518703,0.00996626261621714,-0.00938429683446884
853,0.00839115679264069,-0.0160118155181408,0.0114628747105598,0.000156661204528064,0.00501166190952063,-0.00765757914632559
854,0.00907356943935156,-0.0175588764250278,0.00994100142270327,0.000151189029566012,-0.00211833114735782,-0.00836255867034197
855,0.00948529783636332,-0.0158279538154602,0.0101739326491952,0.000144942168844864,-0.00667669344693422,-0.0102130025625229
856,0.00908124353736639,-0.0142448162660003,0.0106128845363855,0.00013941471115686,-0.00717387907207012,-0.0115433419123292
857,0.00398777844384313,-0.0192706566303968,0.00679247640073299,0.000135709808091633,-0.00695655168965459,-0.01501340046525
858,-0.0070239664055407,-0.0318028852343559,-0.00301525346003473,0.000133950161398388,-0.0100251343101263,-0.0235536061227322
859,-0.0157164372503757,-0.0402700677514076,-0.0108338231220841,0.000133227062178776,-0.0125065231695771,-0.0292582251131535
860,-0.0123885637149215,-0.0330544300377369,-0.00748699996620417,0.000132107132230885,-0.00836730655282736,-0.0218890514224768
861,0.000375063536921516,-0.0148127675056458,0.00470828544348478,0.00012941425666213,0.000100902696431149,-0.00624621799215674
862,0.0132819637656212,0.00190709659364074,0.0175779275596142,0.000124860045616515,0.00699756108224392,0.00586223229765892
863,0.0218532346189022,0.0120762754231691,0.0256542209535837,0.00011918501695618,0.00898002553731203,0.0110340127721429
864,0.024088816717267,0.0150123443454504,0.0252438299357891,0.000113742040412035,0.00351174874231219,0.0106014963239431
865,0.0208928901702166,0.0123243406414986,0.0182989332824945,0.000109756198071409,-0.00744741130620241,0.00759479450061917
866,0.0179319977760315,0.0085092494264245,0.0116173382848501,0.000107665939140134,-0.0160506498068571,0.00580248096957803
867,0.0149251716211438,0.00301922648213804,0.00526471622288227,0.00010689975169953,-0.0185174141079187,0.00216858135536313
868,0.00663268938660622,-0.0056154141202569,-0.00395976612344384,0.000106201543530915,-0.0187775939702988,-0.00652715377509594
869,-0.00492118624970317,-0.0138128763064742,-0.0138723934069276,0.000104319798992947,-0.022459926083684,-0.0165173038840294
870,-0.0140008060261607,-0.0203671585768461,-0.0220481771975756,0.000100682409538422,-0.0310212131589651,-0.0251630116254091
871,-0.0180622991174459,-0.0268494952470064,-0.0277969650924206,9.56932199187577E-05,-0.0399997159838676,-0.032391119748354
872,-0.0165539011359215,-0.0309428740292788,-0.0286535006016493,9.04969856492244E-05,-0.0439888872206211,-0.035683523863554
873,-0.0131595926359296,-0.0311281196773052,-0.0252948720008135,8.63488967297599E-05,-0.043586727231741,-0.0346253179013729
874,-0.0127324061468244,-0.0302592217922211,-0.0226672478020191,8.39357453514822E-05,-0.042701780796051,-0.0329548642039299
875,-0.0137191209942102,-0.0282890144735575,-0.021790249273181,8.30158969620243E-05,-0.0416039042174816,-0.0305107422173023
876,-0.0124491145834327,-0.0242495611310005,-0.0202603675425053,8.25663228170015E-05,-0.0394521951675415,-0.0237940680235624
877,-0.00816241558641195,-0.0202848836779594,-0.0168053135275841,8.13483638921753E-05,-0.0364234521985054,-0.0129055613651872
878,-0.00204824982210994,-0.0172272715717554,-0.0114968875423074,7.85792217357084E-05,-0.0302735175937414,-0.00139659259002656
879,0.00410330761224031,-0.0140634579584002,-0.00562756089493632,7.43452328606509E-05,-0.0191234592348337,0.00707775168120861
880,0.0100032053887844,-0.00943899806588888,0.000475896464195102,6.95389026077464E-05,-0.00614232709631324,0.010726629756391
881,0.0135246282443404,-0.00564456451684237,0.00480795139446855,6.53625393169932E-05,0.00195135141257197,0.00791992712765932
882,0.00984830968081951,-0.00801591016352177,0.00275399163365364,6.26744222245179E-05,0.000623190950136632,-0.00208258628845215
883,-0.000256229017395526,-0.0153047367930412,-0.00421223696321249,6.15328608546406E-05,-0.00718782655894756,-0.014530198648572
884,-0.0114958584308624,-0.0223770011216402,-0.0112908752635121,6.11802825005725E-05,-0.0158891193568707,-0.0245066210627556
885,-0.0219255834817886,-0.0298905670642853,-0.0193164236843586,6.04671840847004E-05,-0.0255406368523836,-0.034224521368742
886,-0.0302355550229549,-0.038975864648819,-0.0282627250999212,5.84789922868367E-05,-0.0366667434573174,-0.0456538833677769
887,-0.0329339057207108,-0.0448832549154758,-0.0323205962777138,5.50239055883139E-05,-0.0447335503995419,-0.0530141778290272
888,-0.0274093057960272,-0.0410126298666,-0.0258341562002897,5.07215954712592E-05,-0.0447852164506912,-0.0473547242581844
889,-0.0146598191931844,-0.0250080078840256,-0.00904151331633329,4.66529818368144E-05,-0.0351249873638153,-0.0271036997437477
890,-0.0023604987654835,-0.00440815929323435,0.00847248360514641,4.37686358054634E-05,-0.0199248604476452,-0.00398941477760673
891,0.000530004559550434,0.0085602980107069,0.0148395132273436,4.23794735979754E-05,-0.00743742845952511,0.00847770366817713
892,-0.00633821869269013,0.00948837213218212,0.00777285313233733,4.20024625782389E-05,-0.00216247444041073,0.00781718082726002
893,-0.0162450708448887,0.00308576156385243,-0.00536035792902112,4.16371040046215E-05,-0.00206512515433133,-0.00125138484872878
894,-0.0222231354564428,-0.00200536171905696,-0.0148265464231372,4.03148223995231E-05,-0.00222777738235891,-0.010931690223515
895,-0.0205909367650747,-0.000946909480262548,-0.0165503602474928,3.76196039724164E-05,8.11814825283363E-05,-0.014400658197701
896,-0.011040466837585,0.00337455724366009,-0.0133981453254819,3.39000580424909E-05,0.00365254725329578,-0.0107366051524878
897,0.00146009540185332,0.00733065186068416,-0.00909918174147606,3.00652664009249E-05,0.00581812160089612,-0.00221625645644963
898,0.00914654787629843,0.0107446629554033,-0.00474766315892339,2.70832551905187E-05,0.00499891070649028,0.00731151970103383
899,0.0104191554710269,0.0139456065371633,-0.000107308580481913,2.54586138908053E-05,0.00181685923598707,0.0130787137895823
900,0.00864450633525848,0.0166413690894842,0.00421386584639549,2.49709901254391E-05,-0.00139515462797135,0.014710009098053
901,0.00562646705657244,0.0182923059910536,0.00652582198381424,2.48095548158744E-05,-0.00324644171632826,0.0166593324393034
902,-0.00134105305187404,0.0149681717157364,0.00236112461425364,2.40223271248396E-05,-0.00608186516910791,0.0169457793235779
903,-0.013105109333992,0.00500996969640255,-0.00970444548875093,2.20314286707435E-05,-0.0116138029843569,0.00953056383877993
904,-0.0240728966891766,-0.00549394264817238,-0.0235905591398478,1.89354486792581E-05,-0.0170974917709827,-0.00420550629496574
905,-0.0310457739979029,-0.0123777650296688,-0.0345216989517212,1.54409026436042E-05,-0.0204107537865639,-0.0204532891511917
906,-0.0338292084634304,-0.0161923002451658,-0.0407621264457703,1.24681255329051E-05,-0.0210616681724787,-0.0354188568890095
907,-0.0299268998205662,-0.0160177331417799,-0.0401201583445072,1.06511570265866E-05,-0.0177415385842323,-0.042620562016964
908,-0.017657857388258,-0.00905807688832283,-0.0310952607542276,1.00032257250859E-05,-0.00949128065258265,-0.0367073602974415
909,-0.000933332077693194,0.00376248057000339,-0.0157278850674629,9.92403420241317E-06,0.00204581441357732,-0.0208158977329731
910,0.0140745555981994,0.016958536580205,0.00131880852859467,9.53693961491808E-06,0.0133810918778181,-0.00486071081832051
911,0.0241577886044979,0.0253360774368048,0.0157230645418167,8.16683768789517E-06,0.0221284721046686,0.00458349008113146
912,0.0278443954885006,0.0265584141016006,0.0235040578991175,5.69827079743845E-06,0.0265878699719906,0.0063423328101635
913,0.0243262648582459,0.021886894479394,0.0221197139471769,2.62392131844535E-06,0.0247205030173063,0.00222007534466684
914,0.0143381198868155,0.0139442048966885,0.0124281384050846,-2.3515211466929E-07,0.01584267988801,-0.00529758725315332
915,0.000639378849882632,0.00378495617769659,-0.00111036736052483,-2.17910042010772E-06,0.00238763331435621,-0.0148542718961835
916,-0.0122285727411509,-0.00647075148299336,-0.0130414823070169,-3.00268561659323E-06,-0.0102526191622019,-0.0245283786207438
917,-0.0178076662123203,-0.00890364125370979,-0.0174993574619293,-3.0934963888285E-06,-0.0151950279250741,-0.0282403454184532
918,-0.0127378264442086,0.00134165410418063,-0.0111959055066109,-3.20894218930334E-06,-0.0104968249797821,-0.0208711344748735
919,-0.00249071093276143,0.0163247436285019,0.00124758505262434,-4.05996070185211E-06,-0.0033107353374362,-0.00679785571992397
920,0.00424325140193105,0.0244628004729748,0.0108397966250777,-5.93018557992764E-06,-0.0017938690725714,0.00492114806547761
921,0.00465134624391794,0.0230984147638083,0.0127902161329985,-8.53450183058158E-06,-0.006901522167027,0.0100069418549538
922,0.001907097408548,0.0174637902528048,0.00881040003150702,-1.11869821921573E-05,-0.0142400627955794,0.00906644854694605
923,0.00157905172090977,0.012470786459744,0.00232156203128397,-1.31799824885093E-05,-0.0193765088915825,0.00441392092034221
924,0.0057560782879591,0.00748594338074327,-0.00641682604327798,-1.4165103493724E-05,-0.0205967407673597,-0.00295881438069046
925,0.0103525882586837,0.000550132943317294,-0.0163113903254271,-1.43311181091121E-05,-0.0177792645990849,-0.0120273949578404
926,0.0120393838733435,-0.00503423344343901,-0.0222758259624243,-1.4288496458903E-05,-0.0132134575396776,-0.0186646096408367
927,0.00914330594241619,-0.0076977452263236,-0.0240311175584793,-1.47303308040136E-05,-0.0131288850679994,-0.0222344975918531
928,0.00201902026310563,-0.00984104629606009,-0.0253388546407223,-1.60578765644459E-05,-0.0197162460535765,-0.0246798489242792
929,-0.00343632302246988,-0.00958848651498556,-0.0242152530699968,-1.81729683390586E-05,-0.0259248223155737,-0.0228084288537502
930,-0.00424604117870331,-0.00603690836578608,-0.0194438397884369,-2.05444302991964E-05,-0.025657394900918,-0.0161217208951712
931,-0.0045103570446372,-0.00283779413439333,-0.0165757723152637,-2.25053627218585E-05,-0.0212550777941942,-0.00981220975518227
932,-0.00446962006390095,0.00165171246044338,-0.0161643233150244,-2.36152282013791E-05,-0.0164775419980288,-0.00279368693009019
933,-0.0021142391487956,0.00959054287523031,-0.0147163663059473,-2.38903139688773E-05,-0.0134698338806629,0.00713090877979994
934,-0.000749256345443428,0.0156400967389345,-0.0141151631250978,-2.37823569477769E-05,-0.0142720304429531,0.0138745699077845
935,-0.0024890445638448,0.0157428476959467,-0.0159738380461931,-2.39238106587436E-05,-0.0175155755132437,0.0120882298797369
936,-0.00351085513830185,0.0137107335031033,-0.0164835657924414,-2.47831922024488E-05,-0.0189319960772991,0.00517809623852372
937,-0.000699574826285243,0.0133581031113863,-0.0130286263301969,-2.6418285415275E-05,-0.0165893509984016,-0.00119871611241251
938,0.00120624783448875,0.0107198525220156,-0.0106635699048638,-2.84570432995679E-05,-0.0134869338944554,-0.00809387303888798
939,-0.00306053995154798,0.00245452462695539,-0.0138412360101938,-3.03099113807548E-05,-0.0129263261333108,-0.0169407334178686
940,-0.0106208184733987,-0.00749699678272009,-0.019260935485363,-3.14928583975416E-05,-0.0139424428343773,-0.0232739131897688
941,-0.015865745022893,-0.0137874679639935,-0.0223988387733698,-3.18842648994178E-05,-0.01375403534621,-0.0230061449110508
942,-0.0176139939576387,-0.0151774985715747,-0.0229877717792988,-3.17796220770106E-05,-0.0123061910271645,-0.0167186595499516
943,-0.0189178697764874,-0.0157786291092634,-0.0245646182447672,-3.17205813189503E-05,-0.013542746193707,-0.010116214863956
944,-0.0202169716358185,-0.0179305039346218,-0.028081763535738,-3.2196898246184E-05,-0.0188691355288029,-0.00793297402560711
945,-0.0193018577992916,-0.0186537113040686,-0.0295494087040424,-3.33852294716053E-05,-0.0239291340112686,-0.00831990595906973
946,-0.0182695481926203,-0.0179816950112581,-0.0284206867218018,-3.50639529642649E-05,-0.0266482979059219,-0.0100430240854621
947,-0.0176652316004038,-0.0173378624022007,-0.0265620090067387,-3.67444918083493E-05,-0.0282013304531574,-0.0122314263135195
948,-0.0135750602930784,-0.0152605976909399,-0.0233560390770435,-3.79419325327035E-05,-0.0286405012011528,-0.0115242153406143
949,-0.00591876264661551,-0.0106665221974254,-0.0178824625909328,-3.8435282476712E-05,-0.0275044441223145,-0.00656046159565449
950,0.00151915696915239,-0.00478804018348455,-0.0110088270157576,-3.83779079129454E-05,-0.0251742638647556,0.000791826518252492
951,0.00546360621228814,-0.00174078205600381,-0.00674849189817905,-3.82034959329758E-05,-0.0235807057470083,0.00583962351083755
952,0.00445557851344347,-0.00320707727223635,-0.00699326535686851,-3.83844744646922E-05,-0.0231712944805622,0.00715090427547693
953,0.000316172343445942,-0.00459258304908872,-0.00780203612521291,-3.91773719456978E-05,-0.0215471535921097,0.00953400321304798
954,-0.00396470166742802,-0.00212547997944057,-0.00668032513931394,-4.0492264815839E-05,-0.0177973750978708,0.0147273931652308
955,-0.00835384614765644,0.000756027875468135,-0.00667923782020807,-4.19524621975143E-05,-0.0141586186364293,0.0171780213713646
956,-0.0115766171365976,0.00118163553997874,-0.00863043870776892,-4.31061889685225E-05,-0.0126043502241373,0.0154024353250861
957,-0.010354682803154,0.00161921151448041,-0.00831089727580547,-4.36716036347207E-05,-0.0130790518596768,0.0162622649222612
958,-0.00622788444161415,0.0021487099584192,-0.00436438713222742,-4.36824375356082E-05,-0.0153378564864397,0.0216220300644636
959,-0.00422404753044248,0.000278991326922551,-0.000881818705238402,-4.34593894169666E-05,-0.0188314765691757,0.0232630372047424
960,-0.00520138861611485,-0.00246439757756889,-7.5075491622556E-05,-4.34284193033818E-05,-0.0208149515092373,0.0170698184520006
961,-0.00713649019598961,-0.00457700062543154,-0.00120484596118331,-4.38887072959915E-05,-0.0196452718228102,0.00696651032194495
962,-0.00967216864228249,-0.00844281073659658,-0.00419199420139194,-4.48566570412368E-05,-0.0161169990897179,-0.00377008551731706
963,-0.0112353432923555,-0.0132646383717656,-0.00677993427962065,-4.60670489701442E-05,-0.00970604363828897,-0.011257947422564
964,-0.010592058300972,-0.016161510720849,-0.00769833382219076,-4.7125322453212E-05,-0.00155695993453264,-0.0129044381901622
965,-0.00891978200525045,-0.017183942720294,-0.00849774945527315,-4.77239409519825E-05,0.00374328345060349,-0.010620872490108
966,-0.00803147535771132,-0.0183254107832909,-0.00988526456058025,-4.78043839393649E-05,0.00277634058147669,-0.00871998257935047
967,-0.00911067146807909,-0.0212292931973934,-0.0123243778944016,-4.75796623504721E-05,-0.00378801207989454,-0.011044492945075
968,-0.0106964632868767,-0.0240462832152843,-0.0148250227794051,-4.74103107990231E-05,-0.0114673357456923,-0.0154980635270476
969,-0.0100877042859793,-0.0228524245321751,-0.0142209129408002,-4.76056629850063E-05,-0.016220960766077,-0.0164274852722883
970,-0.00654739327728748,-0.016915712505579,-0.00939624290913343,-4.82599316455889E-05,-0.0170352756977081,-0.0121275745332241
971,-0.00369319226592779,-0.0121849915012717,-0.005683618132025,-4.92097860842478E-05,-0.0154099799692631,-0.006763422396034
972,-0.00360166211612523,-0.0133352242410183,-0.00724457064643502,-5.01317699672654E-05,-0.0132819628342986,-0.0036139776930213
