,AF3,AF4,Fp1,Fp2,AF7,AF8
0,-0.0119557790458202,-0.00905614253133535,0.0557748191058636,-0.00047677694237791,0.0654700696468353,0.0682399123907089
1,-0.0249342117458582,-0.021924527361989,0.0375158414244652,-0.000483715441077948,0.0530118234455585,0.0563723333179951
2,-0.0293925516307354,-0.0270021501928568,0.0289906226098537,-0.00049720355309546,0.0469888262450695,0.0512803494930267
3,-0.0248721577227116,-0.0232569240033627,0.0313169695436955,-0.000512218335643411,0.0484413206577301,0.0535318702459335
4,-0.0158165451139212,-0.0155629944056273,0.0396214686334133,-0.000523012829944491,0.0547306947410107,0.058532577008009
5,-0.00783194229006767,-0.00972611270844936,0.0470186471939087,-0.000526189862284809,0.060909278690815,0.0616401955485344
6,-0.00304338638670743,-0.00604613637551665,0.0515626855194569,-0.000522423768416047,0.0640182346105576,0.0637694746255875
7,-0.00126334559172392,-0.00198810384608805,0.0542713552713394,-0.000515962776262313,0.0640023201704025,0.0665474086999893
8,-0.00179847318213433,0.00172421312890947,0.0544142164289951,-0.000512254016939551,0.0612927079200745,0.0677054151892662
9,-0.00195969385094941,0.00317924818955362,0.0528013594448566,-0.000515016261488199,0.0574811659753323,0.0669504627585411
10,-0.000442671705968678,0.00127592054195702,0.0508578903973103,-0.000524332281202078,0.0545367375016212,0.0651490092277527
11,0.00336918025277555,-0.00174863124266267,0.0506882034242153,-0.000536736741196364,0.0540044717490673,0.0636479407548904
12,0.00850577931851149,-0.00332151586189866,0.0528116934001446,-0.000547180126886815,0.0550576820969582,0.0632508620619774
13,0.0108684794977307,-0.00465794233605266,0.0539731793105602,-0.000551760196685791,0.0548686981201172,0.0620051436126232
14,0.00860082544386387,-0.00751244043931365,0.0518834963440895,-0.00054974592057988,0.0522464588284492,0.0581418089568615
15,0.00241254991851747,-0.0132929207757115,0.0456079170107841,-0.000543847214430571,0.0472550615668297,0.0506938025355339
16,-0.00614724354818463,-0.0217935498803854,0.0357257798314095,-0.000538654217962176,0.0406760051846504,0.0405116453766823
17,-0.0131685733795166,-0.0286403056234121,0.0271123386919498,-0.000538140127900988,0.0354793407022953,0.0318124294281006
18,-0.0140111483633518,-0.0285207536071539,0.025535624474287,-0.000543585803825408,0.0354093760251999,0.0294919069856405
19,-0.00801076181232929,-0.0207045171409845,0.0313537791371346,-0.000553008052520454,0.0408382825553417,0.0347177796065807
20,-0.000535905943252146,-0.0111894514411688,0.0381454415619373,-0.000562334782443941,0.0475426241755486,0.0418091490864754
21,0.00215660431422293,-0.00725602079182863,0.038961585611105,-0.000567638489883393,0.0508931502699852,0.0432326048612595
22,-0.000393932859878987,-0.0094663193449378,0.0336804464459419,-0.000567204435355961,0.0505767092108727,0.0385999754071236
23,-0.00469491770491004,-0.01363296341151,0.0271365940570831,-0.000562348053790629,0.0494531542062759,0.0324512384831905
24,-0.00762982619926333,-0.0164802987128496,0.023803336545825,-0.000556599348783493,0.049604631960392,0.0284738689661026
25,-0.00616983557119966,-0.0150023614987731,0.0265779197216034,-0.000553752295672894,0.0519527904689312,0.0299086794257164
26,0.000519269786309451,-0.00808628369122744,0.0347071103751659,-0.000555855047423393,0.0559898428618908,0.0369438007473946
27,0.00715580442920327,-0.00186255562584847,0.0411304049193859,-0.000562204804737121,0.0584426037967205,0.0417502447962761
28,0.00872530415654182,-0.00210565654560924,0.0404111221432686,-0.000569834548514336,0.057177048176527,0.0379357896745205
29,0.00678649125620723,-0.00595877366140485,0.0355753302574158,-0.000575172365643084,0.0541267655789852,0.0298089869320393
30,0.003231814596802,-0.0103300213813782,0.0300840605050325,-0.000575947866309434,0.0512756444513798,0.0223078299313784
31,-0.000653832103125751,-0.0138377789407969,0.0257317628711462,-0.00057233078405261,0.0496644489467144,0.0178328547626734
32,-0.00178494199644774,-0.0137128764763474,0.0252287182956934,-0.000566735165193677,0.050245113670826,0.0189265049993992
33,-0.000341808190569282,-0.0107168005779386,0.0273554436862469,-0.000562452478334308,0.0517352186143398,0.0228739064186811
34,-0.000437618029536679,-0.00953918509185314,0.0267836600542068,-0.000561884080525488,0.0513220466673374,0.0230497624725103
35,-0.00304355728439987,-0.0109811900183558,0.0222367513924837,-0.000565322232432663,0.0485221929848194,0.0184952616691589
36,-0.00471976306289434,-0.0109106907621026,0.0179749168455601,-0.000570894568227232,0.0454240404069424,0.0142639745026827
37,-0.00409094616770744,-0.00835370644927025,0.0160540696233511,-0.000575647398363799,0.0432625487446785,0.0121788419783115
38,-0.00253942469134927,-0.00533958803862333,0.0154809942469001,-0.000577145372517407,0.0415867269039154,0.0110196154564619
39,-0.00209720409475267,-0.00371577893383801,0.0146592957898974,-0.000574723002500832,0.0386707596480846,0.00969950761646032
40,-0.003792445641011,-0.00429930770769715,0.0130294701084495,-0.000569748634006828,0.0337545797228813,0.00751972990110517
41,-0.00610487628728151,-0.00492932600900531,0.0124969398602843,-0.000564810296054929,0.0283683370798826,0.00596934370696545
42,-0.00984626729041338,-0.00602324632927775,0.0113443415611982,-0.000562303466722369,0.0222672391682863,0.0035953049082309
43,-0.0178631879389286,-0.01142159383744,0.00505721708759665,-0.00056319049326703,0.0142080560326576,-0.00400891760364175
44,-0.0274897497147322,-0.0191022828221321,-0.00399060593917966,-0.00056657160166651,0.00669359136372805,-0.0143290935084224
45,-0.0332865864038467,-0.0231879111379385,-0.00978315062820911,-0.000570250849705189,0.00310105876997113,-0.0208389833569527
46,-0.0351327173411846,-0.0231283865869045,-0.0121340295299888,-0.000571948534343392,0.00273496098816395,-0.0230347719043493
47,-0.0353199541568756,-0.0210022777318954,-0.0133299278095365,-0.000570493342820555,0.00358729483559728,-0.0227248258888721
48,-0.0339797027409077,-0.0167101286351681,-0.0128044225275517,-0.0005663734045811,0.00549841299653053,-0.0185030717402697
49,-0.0307813230901957,-0.0101291416212916,-0.00900195818394423,-0.000561393157113343,0.0088017750531435,-0.00918951537460089
50,-0.0279487073421478,-0.00449326867237687,-0.00397072546184063,-0.000557664956431836,0.011379037052393,0.000987013336271048
51,-0.0286745727062225,-0.00334098329767585,-0.00188237219117582,-0.000556497136130929,0.0100697828456759,0.00586370751261711
52,-0.0307660326361656,-0.00411922903731465,-0.00119732110761106,-0.000557762163225561,0.00679927552118897,0.00603086967021227
53,-0.0307469330728054,-0.00386554910801351,0.000636804092209786,-0.000560046231839806,0.00528943119570613,0.00430644955486059
54,-0.0291370954364538,-0.00363635248504579,0.00200032745487988,-0.000561455613933504,0.00556959677487612,0.0010234797373414
55,-0.0269038341939449,-0.00413595838472247,0.00195771781727672,-0.000560623768251389,0.00665813777595758,-0.00257868459448218
56,-0.0249481052160263,-0.00524616241455078,0.000878354476299137,-0.000557384511921555,0.00806521065533161,-0.00514212483540177
57,-0.0256786346435547,-0.00766198849305511,-0.00224018353037536,-0.000552785350009799,0.00812344904989004,-0.00751856807619333
58,-0.029632331803441,-0.0106736086308956,-0.00748902000486851,-0.000548473850358278,0.00534454081207514,-0.00972957070916891
59,-0.0349176824092865,-0.0129417739808559,-0.0132051706314087,-0.000545815157238394,0.000600698520429432,-0.0106678744778037
60,-0.0389909036457539,-0.0135948937386274,-0.01658652164042,-0.000545211078133434,-0.00282543641515076,-0.00939925666898489
61,-0.0387467183172703,-0.0111113572493196,-0.0138065703213215,-0.000545958231668919,-0.00132145860698074,-0.00494966749101877
62,-0.035808514803648,-0.0086319949477911,-0.00772936176508665,-0.000546681345440447,0.0035913847386837,-0.00279372604563832
63,-0.0347282402217388,-0.0109178861603141,-0.00653888052329421,-0.000546079885680228,0.00636142631992698,-0.00976856052875519
64,-0.0357893481850624,-0.0166144240647554,-0.0127550838515162,-0.000543584930710495,0.00463567906990647,-0.0228624623268843
65,-0.0368204638361931,-0.021476311609149,-0.022490743547678,-0.000539597182068974,0.000581670727115124,-0.0344771146774292
66,-0.0385059043765068,-0.0252519194036722,-0.0333403237164021,-0.000535215658601373,-0.00379872974008322,-0.043029960244894
67,-0.0407557711005211,-0.0284865573048592,-0.0434947796165943,-0.00053163303527981,-0.00719134928658605,-0.0495808497071266
68,-0.0386571697890759,-0.0270443521440029,-0.0472396947443485,-0.000529529177583754,-0.00693933386355639,-0.0505337454378605
69,-0.0329911708831787,-0.0221118740737438,-0.0456408374011517,-0.000528769101947546,-0.00452268263325095,-0.0477673895657063
70,-0.030241783708334,-0.0200224500149488,-0.0459509305655956,-0.00052853359375149,-0.00459074880927801,-0.048011876642704
71,-0.0294379480183125,-0.0190217830240726,-0.046798974275589,-0.000527781608980149,-0.00615182658657432,-0.0486859977245331
72,-0.0243680775165558,-0.0130622927099466,-0.0415872447192669,-0.000525785144418478,-0.00463064899668098,-0.0434966236352921
73,-0.0131071759387851,-0.00153951032552868,-0.0287700816988945,-0.00052246474660933,0.00137009785976261,-0.0319913849234581
74,-0.00209134700708091,0.00772800156846642,-0.0158107336610556,-0.00051837571663782,0.008036102168262,-0.0220783054828644
75,0.00120097200851887,0.00746500166133046,-0.012181157246232,-0.000514383718837053,0.0106827430427074,-0.0219924114644527
76,-0.00225962535478175,0.000899512902833521,-0.0173861030489206,-0.000511216698214412,0.0092723872512579,-0.0290092658251524
77,-0.00710725504904985,-0.00513594644144177,-0.0240474604070187,-0.000509124365635216,0.00691127451136708,-0.0358217433094978
78,-0.0101703098043799,-0.00813962519168854,-0.0272709354758263,-0.000507800257764757,0.00616839341819286,-0.0394410863518715
79,-0.0119828740134835,-0.00957497581839561,-0.0273994896560907,-0.000506577838677913,0.00696406187489629,-0.0408572219312191
80,-0.0126104429364204,-0.00944954250007868,-0.0255788844078779,-0.000504780327901244,0.00829437747597694,-0.0394784547388554
81,-0.0106536885723472,-0.0064868819899857,-0.022116357460618,-0.000502041599247605,0.0100276423618197,-0.0342709645628929
82,-0.0070383776910603,-0.00193621474318206,-0.0183195732533932,-0.000498450535815209,0.0116045875474811,-0.0277712233364582
83,-0.00295146112330258,0.00353999878279865,-0.0138292768970132,-0.000494469655677676,0.0128817996010184,-0.0212032478302717
84,0.000133068897412159,0.00886011961847544,-0.00901504512876272,-0.000490689184516668,0.0135119780898094,-0.0153593979775906
85,0.000502033799421042,0.0121159348636866,-0.00599102023988962,-0.000487547105876729,0.0124024981632829,-0.0119899595156312
86,-0.00139994744677097,0.0131748896092176,-0.00533258076757193,-0.00048514420632273,0.00961139053106308,-0.0108488844707608
87,-0.00495202513411641,0.0119723379611969,-0.00783784221857786,-0.000483226642245427,0.00557895237579942,-0.0112683847546577
88,-0.0106974905356765,0.00767368031665683,-0.0142940925434232,-0.000481326715089381,0.000335592194460332,-0.0138320522382855
89,-0.0179385039955378,0.000805438088718802,-0.0228221025317907,-0.000478984817164019,-0.00536361895501614,-0.0194709356874228
90,-0.0231601819396019,-0.00495442934334278,-0.0295220110565424,-0.000475950946565717,-0.0101147629320621,-0.0259365141391754
91,-0.0245378408581018,-0.00712339486926794,-0.0327689200639725,-0.00047228203038685,-0.0136969480663538,-0.0299286413937807
92,-0.022596824914217,-0.00522486958652735,-0.0328313186764717,-0.00046830321662128,-0.016398822888732,-0.0296747963875532
93,-0.0186425764113665,-0.000252612691838294,-0.0307460483163595,-0.000464456825284287,-0.0185423977673054,-0.0262382626533508
94,-0.0157630275934935,0.0032652651425451,-0.0297619942575693,-0.0004611071490217,-0.0209927447140217,-0.0255634058266878
95,-0.0149951446801424,0.00304181361570954,-0.0310015007853508,-0.000458382710348815,-0.0234294813126326,-0.0308773797005415
96,-0.0145672438666224,0.00149761361535639,-0.0322109200060368,-0.000456120644230396,-0.0248614437878132,-0.0379272997379303
97,-0.0137854591012001,0.00139862205833197,-0.0320127233862877,-0.000453937478596345,-0.0256161373108625,-0.040507934987545
98,-0.0138562666252255,0.00274726515635848,-0.0316540710628033,-0.000451398082077503,-0.0267471801489592,-0.037294115871191
99,-0.0138293486088514,0.00522137898951769,-0.0310305263847113,-0.000448213395429775,-0.0274759661406279,-0.0307660549879074
100,-0.0122299091890454,0.00859321560710669,-0.0296944193542004,-0.000444379460532218,-0.0274583604186773,-0.0236638598144054
101,-0.0104652158915997,0.0109806787222624,-0.0298031717538834,-0.000440192059613764,-0.0281928982585669,-0.0183818005025387
102,-0.00749726966023445,0.0135752642527223,-0.0298349037766457,-0.000436120782978833,-0.0284858271479607,-0.0136736296117306
103,-0.00146396085619926,0.0183806680142879,-0.0265751536935568,-0.000432592554716393,-0.0263404343277216,-0.00771853001788259
104,0.00548878265544772,0.0236962083727121,-0.0214200355112553,-0.000429781735874712,-0.0231362152844667,-0.00231917132623494
105,0.0103131085634232,0.0270392261445522,-0.0175094287842512,-0.00042750989086926,-0.021488469094038,-0.000139479612698779
106,0.00990977790206671,0.0252502728253603,-0.0183018036186695,-0.000425314152380452,-0.0233698654919863,-0.00414411770179868
107,0.0034790572244674,0.0176559742540121,-0.0248787384480238,-0.000422662851633504,-0.0290017798542976,-0.0135913183912635
108,-0.00251074112020433,0.0113825490698218,-0.0306425783783197,-0.000419220916228369,-0.0349784269928932,-0.0199302658438683
109,-0.00326774315908551,0.0115111013874412,-0.030492851510644,-0.000415032816817984,-0.0388097800314426,-0.0186198092997074
110,-0.00232410570606589,0.0144734345376492,-0.028196332976222,-0.000410522421589121,-0.0420485623180866,-0.014407024718821
111,-0.00269964034669101,0.0167686082422733,-0.0273967292159796,-0.000406296661822125,-0.045865710824728,-0.0109300315380096
112,-0.0038234933745116,0.0181420426815748,-0.0278626810759306,-0.000402841513277963,-0.0497017353773117,-0.00846738833934069
113,-0.00409769499674439,0.0203481093049049,-0.0275086499750614,-0.000400262419134378,-0.0524315722286701,-0.00557140493765473
114,-0.00402091443538666,0.0229121558368206,-0.0265696719288826,-0.000398208998376504,-0.0541978813707829,-0.00310256495140493
115,-0.00527858035638928,0.0226664412766695,-0.0273937396705151,-0.000396035466110334,-0.0556356012821198,-0.00447423662990332
116,-0.00440327357500792,0.022224523127079,-0.0264129731804132,-0.000393125897971913,-0.0542344786226749,-0.00652875937521458
117,0.000516541360411793,0.0242901779711246,-0.021202003583312,-0.000389221357181668,-0.0492446906864643,-0.00596698885783553
118,0.0038659474812448,0.0249311160296202,-0.0175951272249222,-0.000384574173949659,-0.0452838316559792,-0.00643242569640279
119,0.00295224157162011,0.0231158435344696,-0.0184236578643322,-0.000379838049411774,-0.0445942431688309,-0.00851969234645367
120,0.00112449575681239,0.0224666502326727,-0.0203428212553263,-0.000375738716684282,-0.044438324868679,-0.00892655085772276
121,0.000628324982244521,0.0243389531970024,-0.0211314838379622,-0.000372691138181835,-0.0433332361280918,-0.0070761926472187
122,0.000121166543976869,0.0261722262948751,-0.0220142658799887,-0.000370565743651241,-0.0433086454868317,-0.0053000170737505
123,-0.00136054051108658,0.0257880501449108,-0.023745521903038,-0.000368736044038087,-0.0451806746423244,-0.00522702606394887
124,-0.00163392466492951,0.0251435749232769,-0.0237556044012308,-0.000366394815500826,-0.0466198362410069,-0.00515660224482417
125,0.000497231318149716,0.0260725729167461,-0.0209065023809671,-0.000362979510100558,-0.046365138143301,-0.00412563141435385
126,0.00385286984965205,0.0278023816645145,-0.017048355191946,-0.000358482677256688,-0.0450176298618317,-0.00349819846451283
127,0.00534769846126437,0.0274240430444479,-0.0158673003315926,-0.000353475334122777,-0.0442704074084759,-0.00616329256445169
128,0.00213380670174956,0.0227491147816181,-0.0203213505446911,-0.000348820147337392,-0.0449852384626865,-0.013717950321734
129,-0.00440497789531946,0.016126262024045,-0.0278759524226189,-0.000345217908034101,-0.044560793787241,-0.0225040763616562
130,-0.010398555546999,0.0108363116160035,-0.033476434648037,-0.00034282638807781,-0.0410822704434395,-0.0280758943408728
131,-0.011608830653131,0.00930275954306126,-0.0333706699311733,-0.000341159728122875,-0.0359790660440922,-0.027844425290823
132,-0.00702197989448905,0.0118067674338818,-0.027360862120986,-0.000339331629220396,-0.0313370861113071,-0.0228958781808615
133,-0.000892032345291227,0.0149004058912396,-0.0200432855635881,-0.000336521392455325,-0.0286953877657652,-0.018466928973794
134,0.0036845610011369,0.0172548741102219,-0.0145706590265036,-0.000332417577737942,-0.0286579076200724,-0.0159276947379112
135,0.00600593304261565,0.0186185352504253,-0.0117440186440945,-0.000327398942317814,-0.0312650129199028,-0.0149702141061425
136,0.00402538012713194,0.0154302250593901,-0.0144346365705132,-0.00032234750688076,-0.0365383625030518,-0.0189765468239784
137,-0.00185202923603356,0.00806102342903614,-0.0225868411362171,-0.000318185600917786,-0.0430631823837757,-0.026291374117136
138,-0.00566991977393627,0.00390647491440177,-0.028554754331708,-0.000315379904350266,-0.0470306798815727,-0.0285410154610872
139,-0.00255996710620821,0.00803420133888721,-0.0255173575133085,-0.000313680386170745,-0.044987328350544,-0.0218795612454414
140,0.00382041395641863,0.0158744715154171,-0.0170137211680412,-0.000312240299535915,-0.0388608686625957,-0.0122382417321205
141,0.00563318049535155,0.0182292256504297,-0.0120311044156551,-0.000310060975607485,-0.0348891876637936,-0.00892420019954443
142,0.00110091653186828,0.0122467698529363,-0.0143019631505013,-0.000306527566863224,-0.0358473472297192,-0.0147071033716202
143,-0.00388917094096541,0.0039420765824616,-0.0201595909893513,-0.000301748048514128,-0.0384330824017525,-0.0237130150198936
144,-0.00232230569235981,-0.000194536725757644,-0.0244973078370094,-0.000296507903840393,-0.0396903567016125,-0.029181057587266
145,0.00746579188853502,-7.48563525121426E-06,-0.0259337909519672,-0.000291858275886625,-0.0407038927078247,-0.0300467777997255
146,0.0207176953554153,0.00360376038588583,-0.0246894229203463,-0.00028855333221145,-0.0427096113562584,-0.0269002299755812
147,0.0309840720146894,0.0119124995544553,-0.0202349554747343,-0.000286639056866989,-0.0454042963683605,-0.0190387852489948
148,0.0336249172687531,0.0200507566332817,-0.015808641910553,-0.000285417947452515,-0.0489341989159584,-0.0112218502908945
149,0.0274041872471571,0.0198694542050362,-0.0170260965824127,-0.00028381499578245,-0.0530216097831726,-0.0111915972083807
150,0.015845637768507,0.0113111641258001,-0.0244725625962019,-0.000280952692264691,-0.0562024191021919,-0.0192573741078377
151,0.00614735204726458,0.00262270565144718,-0.0319325588643551,-0.000276627339189872,-0.056700449436903,-0.0268961228430271
152,0.00346092437393963,0.000445666839368641,-0.0327940620481968,-0.000271427561528981,-0.0533808954060078,-0.0270168464630842
153,0.00683246366679668,0.00209213024936616,-0.0284101366996765,-0.000266426242887974,-0.0473657138645649,-0.0231102481484413
154,0.0130053516477346,0.00325280823744833,-0.023580202832818,-0.000262607296463102,-0.0411540791392326,-0.0201624222099781
155,0.0178915150463581,0.00415783748030663,-0.0203767381608486,-0.000260333792539313,-0.0375522747635841,-0.0173870921134949
156,0.0167254861444235,0.00352751696482301,-0.0213973913341761,-0.000259145977906883,-0.0393529683351517,-0.0158222578465939
157,0.00930758751928806,-0.000209279416594654,-0.0274493098258972,-0.00025800138246268,-0.0463699698448181,-0.0181801524013281
158,-0.000343409978086129,-0.00536289857700467,-0.0355214700102806,-0.00025583224487491,-0.0553861521184444,-0.024173503741622
159,-0.0084572359919548,-0.0093202069401741,-0.0422249883413315,-0.000252121477387846,-0.0628971979022026,-0.0308648496866226
160,-0.0121933165937662,-0.00963253434747458,-0.044283252209425,-0.000247186573687941,-0.0660983100533485,-0.0343030095100403
161,-0.0109836077317595,-0.00593041535466909,-0.0406663939356804,-0.000242014750256203,-0.0636977627873421,-0.0334682948887348
162,-0.00756562547758222,-0.0013331895461306,-0.034774761646986,-0.000237735395785421,-0.0570323690772057,-0.0310211405158043
163,-0.00380496890284121,0.00194245134480298,-0.0297759678214788,-0.00023501183022745,-0.0497698485851288,-0.0278867911547422
164,0.00139932369347662,0.00480942334979773,-0.0251299850642681,-0.000233680533710867,-0.0446891225874424,-0.0226036943495274
165,0.00688874302431941,0.00634129345417023,-0.0216949228197336,-0.00023283448535949,-0.0427642874419689,-0.0181397013366222
166,0.00936905574053526,0.0045931632630527,-0.022357514128089,-0.000231308556976728,-0.0443680174648762,-0.019493380561471
167,0.00836113374680281,0.00039770093280822,-0.0268903207033873,-0.000228306787903421,-0.0484728179872036,-0.0263139326125383
168,0.00562098063528538,-0.00487910583615303,-0.03306794911623,-0.000223833674681373,-0.0534459874033928,-0.0350606888532639
169,0.00248074741102755,-0.010093804448843,-0.039026353508234,-0.000218695335206576,-0.0583499222993851,-0.0427789464592934
170,0.000669380300678313,-0.0120187941938639,-0.0416140407323837,-0.000214068029890768,-0.0615358203649521,-0.0460619144141674
171,0.00198253360576928,-0.00846459902822971,-0.0388235673308373,-0.000210865138797089,-0.0615678243339062,-0.0432069785892963
172,0.00561304949223995,-0.00234067416749895,-0.0329868495464325,-0.000209243808058091,-0.0596467368304729,-0.0373801365494728
173,0.00961096957325935,0.00239180424250662,-0.0273353774100542,-0.000208518104045652,-0.0578009150922298,-0.0325394943356514
174,0.0111456913873553,0.00315715768374503,-0.0251821111887693,-0.000207526914891787,-0.0578352548182011,-0.03140839189291
175,0.00764476507902145,-0.00101551809348166,-0.0291123241186142,-0.000205259144422598,-0.0610364079475403,-0.0351868905127048
176,0.00211579422466457,-0.00595537386834621,-0.0353671498596668,-0.00020139929256402,-0.0651130825281143,-0.0394557379186153
177,-0.000967412022873759,-0.00706293620169163,-0.0378061719238758,-0.000196498658624478,-0.0662342309951782,-0.039449330419302
178,-0.00409844191744924,-0.00652384292334318,-0.0383085161447525,-0.000191679253475741,-0.0652656108140945,-0.0395373553037643
179,-0.0104281893000007,-0.00624866643920541,-0.0415678285062313,-0.000188029414857738,-0.0652038231492043,-0.0449311323463917
180,-0.0158002264797688,-0.00414529908448458,-0.0449535027146339,-0.000186017146916129,-0.0652144774794579,-0.0507936999201775
181,-0.0151213807985187,-0.000691396067850292,-0.0438257679343224,-0.000185237789992243,-0.0627252012491226,-0.0493997521698475
182,-0.00894657988101244,0.00184171600267291,-0.0391235277056694,-0.000184632299351506,-0.0572125427424908,-0.0404366254806519
183,-0.000492206716444343,0.00352671137079597,-0.0336654372513294,-0.000183058422408067,-0.049808394163847,-0.0289465077221394
184,0.00758902030065656,0.00567666115239263,-0.0278832316398621,-0.000179906433913857,-0.0427968464791775,-0.018645154312253
185,0.0129972780123353,0.00925000105053186,-0.0217708852142096,-0.00017542731075082,-0.0388437435030937,-0.010722266510129
186,0.0145476348698139,0.0138460900634527,-0.0168708339333534,-0.000170596351381391,-0.0387667827308178,-0.00648857187479734
187,0.0105701666325331,0.0140060391277075,-0.0177744701504707,-0.000166586687555537,-0.0431224927306175,-0.0101996585726738
188,0.000983048812486231,0.00557826505973935,-0.0268976371735334,-0.000164136712555774,-0.0515093058347702,-0.0227489247918129
189,-0.00844134856015444,-0.00589899811893702,-0.0385474599897861,-0.000163153323228471,-0.0594495758414268,-0.036756869405508
190,-0.0106548741459847,-0.0125393383204937,-0.0448822304606438,-0.000162764074048027,-0.0626343712210655,-0.0444946028292179
191,-0.00458290986716747,-0.0121178217232227,-0.0432879850268364,-0.000161789314006455,-0.061581164598465,-0.0436994433403015
192,0.0041332570835948,-0.00819873064756393,-0.0375101082026958,-0.000159378556418233,-0.0598288401961327,-0.0379131659865379
193,0.010713305324316,-0.00575343752279878,-0.0335811637341976,-0.000155467656441033,-0.0597842857241631,-0.0332341976463795
194,0.0157533343881369,-0.00483903475105762,-0.0326079986989498,-0.000150810650666244,-0.0605699755251408,-0.0306195467710495
195,0.0210529491305351,-0.000734693312551826,-0.0301197860389948,-0.000146570702781901,-0.0598900467157364,-0.024863364174962
196,0.024120120331645,0.00602339673787355,-0.0264322869479656,-0.00014369205746334,-0.0587087646126747,-0.0165977366268635
197,0.0224929209798574,0.0104470141232014,-0.0257027335464954,-0.000142392600537278,-0.0584684982895851,-0.0123511459678411
198,0.0198811590671539,0.0126922521740198,-0.0266985204070807,-0.000142049699206837,-0.0570478215813637,-0.0128108439967036
199,0.0183179099112749,0.0128700574859977,-0.0289915837347507,-0.000141539407195523,-0.0544716753065586,-0.0169292129576206
200,0.0152973169460893,0.00880379974842072,-0.0347907282412052,-0.000139844123623334,-0.0530371405184269,-0.0248244665563107
201,0.0104183796793222,0.00199763919226825,-0.0421654731035233,-0.000136599861434661,-0.0526035279035568,-0.0331282205879688
202,0.00551331648603082,-0.00356565602123737,-0.0470124557614326,-0.000132288740132935,-0.0518967285752296,-0.0373273603618145
203,0.00184798648115247,-0.00524061638861895,-0.0472006127238274,-0.000127974737551995,-0.0508073791861534,-0.0354965217411518
204,0.000133849651319906,-0.00320364395156503,-0.0432191975414753,-0.000124727666843683,-0.0506093576550484,-0.0297588761895895
205,0.00140079099219292,0.00163399486336857,-0.0368352942168713,-0.000123047342640348,-0.0521695092320442,-0.0234240591526031
206,0.00494974246248603,0.00769467325881124,-0.0308166053146124,-0.000122598168672994,-0.0553388111293316,-0.0191162265837193
207,0.00804240442812443,0.0116898957639933,-0.027895275503397,-0.000122395184007473,-0.0590417943894863,-0.0193709451705217
208,0.00944141112267971,0.0125012053176761,-0.0277565233409405,-0.000121338358439971,-0.0610712729394436,-0.0235633347183466
209,0.00886012054979801,0.0107416417449713,-0.0295827388763428,-0.000118805372039787,-0.0609057694673538,-0.0296181160956621
210,0.0078082331456244,0.00836401525884867,-0.0320880822837353,-0.000114983013190795,-0.0591139793395996,-0.0350501835346222
211,0.0105580920353532,0.00965300016105175,-0.0312843583524227,-0.000110760767711326,-0.0548912659287453,-0.0352417156100273
212,0.0159167814999819,0.0128974206745625,-0.0284095536917448,-0.000107247062260285,-0.0499245934188366,-0.0316115468740463
213,0.0200914964079857,0.0140943098813295,-0.0270588602870703,-0.000105171304312535,-0.0468018241226673,-0.0285635534673929
214,0.0256907735019922,0.0166230779141188,-0.0243803150951862,-0.000104494538391009,-0.0443171709775925,-0.0243254564702511
215,0.033589169383049,0.0216675344854593,-0.0198127198964357,-0.000104436658148188,-0.0419977866113186,-0.0196471735835075
216,0.03850432112813,0.0240926723927259,-0.0182079747319222,-0.000103902100818232,-0.0418384559452534,-0.0191373582929373
217,0.0366776511073112,0.0208142977207899,-0.0220942832529545,-0.000102071717265062,-0.044543419033289,-0.0235695745795965
218,0.0310479402542114,0.0149810994043946,-0.0279695186764002,-9.88408210105263E-05,-0.0477342642843723,-0.0290409754961729
219,0.0259745791554451,0.0106036067008972,-0.0318207480013371,-9.48691522353329E-05,-0.0493749529123306,-0.0322114489972591
220,0.0208719410002232,0.0068897595629096,-0.0350997895002365,-9.12191389943473E-05,-0.0508003756403923,-0.0344270579516888
221,0.0144676687195897,0.00246235425584018,-0.0400448404252529,-8.87810019776225E-05,-0.0531983748078346,-0.0376112498342991
222,0.00701997056603432,-0.00316756963729858,-0.0474904775619507,-8.77957718330435E-05,-0.0564313270151615,-0.0433621183037758
223,0.000370961963199079,-0.00908176694065332,-0.0559072233736515,-8.77319762366824E-05,-0.0593750365078449,-0.0514643676578999
224,-0.00124636886175722,-0.0112532237544656,-0.0601597614586353,-8.75789119163528E-05,-0.0597056522965431,-0.0571611039340496
225,0.00419963942840695,-0.00707444734871387,-0.0571807958185673,-8.63946552271955E-05,-0.0568960607051849,-0.0564540512859821
226,0.0130899250507355,0.00126305664889514,-0.0499822124838829,-8.38115665828809E-05,-0.0539386197924614,-0.0509380474686623
227,0.0200063809752464,0.00900299940258265,-0.0438832715153694,-8.02279100753367E-05,-0.0535322614014149,-0.0456392057240009
228,0.0232594422996044,0.0134032182395458,-0.0412298403680325,-7.65856893849559E-05,-0.055069524794817,-0.0433263443410397
229,0.0233111940324306,0.014112763106823,-0.042741172015667,-7.38586386432871E-05,-0.0581407994031906,-0.0442143082618713
230,0.0206818394362926,0.0117301680147648,-0.0482663959264755,-7.25286372471601E-05,-0.0632021874189377,-0.0477827116847038
231,0.0170639287680388,0.00840228702872992,-0.0554331950843334,-7.23322882549837E-05,-0.0688303485512733,-0.0524504110217094
232,0.0127967959269881,0.00490689463913441,-0.0635202378034592,-7.24107521818951E-05,-0.0741922333836555,-0.0584443360567093
233,0.00797499530017376,0.0010079393396154,-0.0721805468201637,-7.1777896664571E-05,-0.0792817920446396,-0.0664153471589088
234,0.00573892844840884,-0.000796192733105272,-0.0773605480790138,-6.98514704708941E-05,-0.0820865631103516,-0.0733946040272713
235,0.00751238828524947,0.00102311919908971,-0.0770142674446106,-6.67610074742697E-05,-0.0818094313144684,-0.0766276195645332
236,0.0111320884898305,0.00484017189592123,-0.0735893771052361,-6.32697556284256E-05,-0.0803497284650803,-0.0761396810412407
237,0.0143995778635144,0.00880875252187252,-0.0700718387961388,-6.03570297244005E-05,-0.080047532916069,-0.0721472427248955
238,0.0165883097797632,0.0126262996345758,-0.0682081058621407,-5.86896676395554E-05,-0.0828346461057663,-0.0642118081450462
239,0.0182370003312826,0.0168218221515417,-0.0682301223278046,-5.82678076170851E-05,-0.0882497206330299,-0.0540455095469952
240,0.0192167442291975,0.0201205927878618,-0.0703611075878143,-5.84331901336554E-05,-0.0934261307120323,-0.0468655489385128
241,0.0222712829709053,0.0227470435202122,-0.0722031518816948,-5.8230958529748E-05,-0.0945159271359444,-0.0442458018660545
242,0.0312969349324703,0.0265765320509672,-0.0707534402608871,-5.69260664633475E-05,-0.0909989476203918,-0.0437981374561787
243,0.0408177115023136,0.0308693461120129,-0.0699903070926666,-5.43949499842711E-05,-0.0883776322007179,-0.0477965511381626
244,0.0427156239748001,0.0354200229048729,-0.0745071917772293,-5.1183673349442E-05,-0.0900649651885033,-0.0578807033598423
245,0.0400858819484711,0.0391576401889324,-0.0816290825605392,-4.82058130728547E-05,-0.0928918942809105,-0.0686312317848206
246,0.0415581353008747,0.0367012433707714,-0.0876995474100113,-4.62470889033284E-05,-0.0937698483467102,-0.0764048546552658
247,0.0487529672682285,0.0286189783364534,-0.0903380736708641,-4.55454355687834E-05,-0.0925734713673592,-0.0801940709352493
248,0.0551482252776623,0.0248791482299566,-0.0872572958469391,-4.5670891267946E-05,-0.0892443358898163,-0.07826978713274
249,0.0559540539979935,0.0282028168439865,-0.0815396383404732,-4.57656860817224E-05,-0.0838190466165543,-0.074656568467617
250,0.055347140878439,0.0311477668583393,-0.0767232775688171,-4.50105035270099E-05,-0.0757090151309967,-0.0739523991942406
251,0.0572787299752235,0.0282712299376726,-0.0734186694025993,-4.30634572694544E-05,-0.0651175305247307,-0.0754970908164978
252,0.0563697069883347,0.0178402289748192,-0.0766141563653946,-4.02364967158064E-05,-0.057842742651701,-0.0806832388043404
253,0.04525276273489,0.00105792982503772,-0.0913567021489143,-3.7318401155062E-05,-0.0609890483319759,-0.091191828250885
254,0.0265886206179857,-0.0149599770084023,-0.112911432981491,-3.51445451087784E-05,-0.0742262750864029,-0.101954184472561
255,0.0133777325972915,-0.0194671861827374,-0.12908062338829,-3.41481063514948E-05,-0.0895642638206482,-0.10645192861557
256,0.0157037600874901,-0.00794681813567877,-0.130556404590607,-3.41337981808465E-05,-0.0990038067102432,-0.103404797613621
257,0.0302537456154823,0.0114581575617194,-0.118860945105553,-3.43922038155142E-05,-0.102317199110985,-0.0953129231929779
258,0.0458617173135281,0.0259124301373959,-0.103725902736187,-3.40880869771354E-05,-0.105116911232471,-0.0834788009524345
259,0.0564415380358696,0.0315158665180206,-0.0928089469671249,-3.27101624861825E-05,-0.108880996704102,-0.067323237657547
260,0.0653146132826805,0.0338740572333336,-0.0875574573874474,-3.03400411212351E-05,-0.107886917889118,-0.0504471026360989
261,0.074315257370472,0.0363224595785141,-0.0880155712366104,-2.75989732472226E-05,-0.100412055850029,-0.0407874137163162
262,0.0749924406409264,0.0365718454122543,-0.0941712632775307,-2.53060479735723E-05,-0.0952413603663445,-0.0442590489983559
263,0.0618667006492615,0.0352320149540901,-0.100639499723911,-2.40358785958961E-05,-0.0982263535261154,-0.0576946772634983
264,0.0428446494042873,0.0327449701726437,-0.102576218545437,-2.38145767070819E-05,-0.10635793954134,-0.0720874816179276
265,0.0301086492836475,0.0280534215271473,-0.100124530494213,-2.41147954511689E-05,-0.113699808716774,-0.0812583938241005
266,0.0254784524440765,0.0251952335238457,-0.0944841727614403,-2.41475390794221E-05,-0.116256512701511,-0.0844102427363396
267,0.0194072388112545,0.0239288713783026,-0.0908889919519424,-2.3289325326914E-05,-0.117341049015522,-0.0879222974181175
268,0.00925759505480528,0.0204448252916336,-0.0913928672671318,-2.14133779081749E-05,-0.120459869503975,-0.0947372317314148
269,0.00151760061271489,0.0159901175647974,-0.0916370749473572,-1.89489637705265E-05,-0.12335367500782,-0.0995425283908844
270,-0.00184886110946536,0.0111255776137114,-0.0907752811908722,-1.6641708498355E-05,-0.123745240271091,-0.0999033749103546
271,-0.00334221380762756,0.00372953782789409,-0.0916314721107483,-1.51485819515074E-05,-0.121645145118237,-0.098385363817215
272,-0.00430689519271255,-0.00623892387375236,-0.0950816869735718,-1.46874926940654E-05,-0.117506042122841,-0.0974427908658981
273,-0.00505341868847609,-0.0156274642795324,-0.0990915820002556,-1.49283323480631E-05,-0.112371236085892,-0.0970950052142143
274,-0.00467296317219734,-0.0192997232079506,-0.0995843857526779,-1.51795502461027E-05,-0.10738817602396,-0.0943304598331451
275,-0.0013730654027313,-0.0133902104571462,-0.0929463356733322,-1.47649816426565E-05,-0.102229103446007,-0.0857846215367317
276,0.00263132154941559,-0.0022840725723654,-0.0822723954916,-1.33855874082656E-05,-0.0977178812026978,-0.0751968324184418
277,0.00339971063658595,0.0051537393592298,-0.0738673955202103,-1.12725647340994E-05,-0.0951013192534447,-0.0697704777121544
278,0.00187276164069772,0.00644970126450062,-0.06816665828228,-9.0536623247317E-06,-0.0925493687391281,-0.0677633658051491
279,0.00169135793112218,0.00541296089068055,-0.0619200505316257,-7.40963378120796E-06,-0.0873697698116302,-0.0602646172046661
280,0.0036498277913779,0.0056404210627079,-0.0547760352492332,-6.70876261210651E-06,-0.0792780742049217,-0.0453754849731922
281,0.00592337362468243,0.00896743685007095,-0.047937948256731,-6.81561505189165E-06,-0.0694776028394699,-0.0312707088887692
282,0.00786801613867283,0.0185284577310085,-0.0404625460505486,-7.17312786946422E-06,-0.0583718121051788,-0.02264110930264
283,0.00924766529351473,0.0325786061584949,-0.0323610939085484,-7.10881977283861E-06,-0.0475888065993786,-0.01682049036026
284,0.0067949234507978,0.0391336120665073,-0.0281158611178398,-6.19684715275071E-06,-0.0417594984173775,-0.015374606475234
285,-0.000289862131467089,0.0322693064808846,-0.0293130241334438,-4.48095715910313E-06,-0.0419449545443058,-0.0208918415009975
286,-0.00695133069530129,0.0199424382299185,-0.0302285738289356,-2.44172883867577E-06,-0.0428452156484127,-0.0286547318100929
287,-0.00863214023411274,0.011213444173336,-0.0252000689506531,-7.30692192973947E-07,-0.0391589961946011,-0.0331991761922836
288,-0.00446721725165844,0.00867691356688738,-0.0138227511197329,1.81702915824644E-07,-0.0292619541287422,-0.0335999988019466
289,0.00224661361426115,0.00853952672332525,-0.00155417714267969,2.54122369369725E-07,-0.0160724371671677,-0.0326095819473267
290,0.0068753962405026,0.00659271096810699,0.0052251392044127,-1.12241380634259E-07,-0.00589871313422918,-0.0320307426154613
291,0.00800886657088995,0.00357965053990483,0.00584321049973369,-2.97267177984395E-07,-0.00221883715130389,-0.0307567398995161
292,0.00804291293025017,0.00396510772407055,0.00628151977434754,2.02008109795315E-07,-0.00115359190385789,-0.027058407664299
293,0.00901698786765337,0.0091539304703474,0.0113148475065827,1.50496146034129E-06,0.00184593547601253,-0.0214051827788353
294,0.0101323053240776,0.0148270847275853,0.0181764122098684,3.29169051838107E-06,0.00579274771735072,-0.0165036041289568
295,0.0101152993738651,0.0169411618262529,0.0222677104175091,4.98340978083434E-06,0.00855986028909683,-0.0138969756662846
296,0.00837315618991852,0.0141502125188708,0.0227643847465515,6.05743434789474E-06,0.0101708928123116,-0.0137980841100216
297,0.0059286686591804,0.00907460320740938,0.0218899212777615,6.32541514278273E-06,0.0118449265137315,-0.0149721745401621
298,0.00435617985203862,0.0092771714553237,0.021693391725421,6.02681984673836E-06,0.0148004218935966,-0.0142784556373954
299,0.00290333945304155,0.0166003815829754,0.0216159988194704,5.69168196307146E-06,0.0184690468013287,-0.0102753676474094
300,0.000775774649810046,0.0221314784139395,0.0209672637283802,5.85104817218962E-06,0.0213315468281507,-0.004597507417202
301,-0.000915503245778382,0.0196983702480793,0.0207609664648771,6.75327919452684E-06,0.0231294669210911,0.00154558278154582
302,-0.000749219791032374,0.0121739860624075,0.0220784712582827,8.23773643787717E-06,0.0250990800559521,0.00785883609205484
303,0.00368667207658291,0.00730180414393544,0.0272780042141676,9.82985056907637E-06,0.0308604817837477,0.0148028684780002
304,0.0131106786429882,0.0124157415702939,0.0391736999154091,1.10017790575512E-05,0.0439421236515045,0.0241679549217224
305,0.0220803637057543,0.0250254273414612,0.055459275841713,1.14556005428312E-05,0.0607393383979797,0.0345850177109241
306,0.0255564376711845,0.0340782329440117,0.0699000805616379,1.12771913336474E-05,0.073585256934166,0.0418323576450348
307,0.0266239084303379,0.0359187610447407,0.0803880542516708,1.08815547719132E-05,0.0808676928281784,0.0467597916722298
308,0.0292009133845568,0.0357108563184738,0.0880272760987282,1.07836312963627E-05,0.0842346996068954,0.0524324476718903
309,0.0314780361950397,0.0361672565340996,0.0918500050902367,1.13211099233013E-05,0.0830429121851921,0.0575056336820126
310,0.0297986958175898,0.0354599170386791,0.0897653475403786,1.2478415555961E-05,0.0767722874879837,0.0582148022949696
311,0.0234502758830786,0.0311650224030018,0.0824019983410835,1.39035018946743E-05,0.0672663822770119,0.0523649230599403
312,0.0164015088230371,0.0243275221437216,0.0743834525346756,1.51038611875265E-05,0.0583899617195129,0.0422343127429485
313,0.0111316218972206,0.0162853952497244,0.0674248412251472,1.5712799722678E-05,0.0515354387462139,0.0306424088776112
314,0.00511665409430861,0.0056523596867919,0.0579867660999298,1.5682098819525E-05,0.0446187667548656,0.0176977515220642
315,-0.00235273665748537,-0.0061946464702487,0.0457155220210552,1.52999928104691E-05,0.0376840680837631,0.00583260878920555
316,-0.0082028666511178,-0.0143383182585239,0.0354050658643246,1.50291753016063E-05,0.0331297740340233,0.000451334519311786
317,-0.0111880898475647,-0.0170726180076599,0.0298293475061655,1.52557277033338E-05,0.0315284691751003,0.00245402264408767
318,-0.0121057704091072,-0.0161989983171225,0.0287459790706635,1.6085192328319E-05,0.0326520614326,0.00801680609583855
319,-0.0100365495309234,-0.0117197334766388,0.0330401696264744,1.72934214788256E-05,0.0376004055142403,0.0163643285632133
320,-0.00350121012888849,-0.00277778855524957,0.0432153381407261,1.84545242518652E-05,0.0461586564779282,0.02944116294384
321,0.00470824027433991,0.00694199046120048,0.054432213306427,1.91731433005771E-05,0.0542953871190548,0.0428796634078026
322,0.0110738668590784,0.0133509952574968,0.0617370270192623,1.92944771697512E-05,0.0591085217893124,0.0508920401334763
323,0.0142433056607842,0.0151367830112576,0.063933476805687,1.89806123671588E-05,0.0611261092126369,0.0541075691580772
324,0.0116439228877425,0.0102826207876205,0.0594240687787533,1.86159268196207E-05,0.0603359937667847,0.0525267645716667
325,0.00537571310997009,0.00259842118248343,0.0518150888383389,1.85964818228967E-05,0.0581396594643593,0.0481224805116653
326,0.000756569905206561,-0.00087340857135132,0.0473064556717873,1.91187500604428E-05,0.0567463450133801,0.0452788025140762
327,-0.0018574467394501,-0.000661492173094302,0.0461253337562084,2.00803424377227E-05,0.0561978630721569,0.0436959490180016
328,-0.00462447572499514,-0.00155067699961364,0.0456181429326534,2.11426322493935E-05,0.0562630854547024,0.0419127382338047
329,-0.0072079636156559,-0.00455666380003095,0.0450851246714592,2.19175562961027E-05,0.0572411753237247,0.0410536713898182
330,-0.0079768244177103,-0.0075311902910471,0.0455540604889393,2.21756654354976E-05,0.0588897950947285,0.0417244322597981
331,-0.00834285095334053,-0.0104695530608296,0.0456202886998653,2.19639914575964E-05,0.0600772053003311,0.0402802787721157
332,-0.00924217794090509,-0.0127558130770922,0.0444668456912041,2.15734253288247E-05,0.0610341466963291,0.0351864993572235
333,-0.00789458025246859,-0.0105927605181932,0.0457287579774857,2.13771400012774E-05,0.0635669082403183,0.0324887372553349
334,-0.00238319742493331,-0.00180184026248753,0.0525211915373802,2.16297448787373E-05,0.0682330429553986,0.0379973836243153
335,0.00388886546716094,0.00923007074743509,0.061690978705883,2.23352108150721E-05,0.0727392584085464,0.0480540134012699
336,0.00519163068383932,0.014391053467989,0.0664537400007248,2.32519487326499E-05,0.0741689130663872,0.0526386797428131
337,0.00143944122828543,0.0119834896177053,0.0655714571475983,2.40284334722674E-05,0.0728207379579544,0.0480141453444958
338,-0.00236204219982028,0.00854810327291489,0.0636437982320786,2.43933900492266E-05,0.0715376287698746,0.0403065532445908
339,-0.00276598613709211,0.00914718396961689,0.0641927793622017,2.42977821471868E-05,0.0726059973239899,0.0362670458853245
340,-0.000548483512829989,0.0106071522459388,0.0670541375875473,2.39344190049451E-05,0.0758917853236198,0.0362507328391075
341,0.000881589425262064,0.00725710764527321,0.0690740123391151,2.36283703998197E-05,0.0795248970389366,0.0362976007163525
342,-0.000491072016302496,-0.000508190889377147,0.0675437599420547,2.36603082157671E-05,0.0820548012852669,0.0343970432877541
343,-0.0031169846188277,-0.00742465164512396,0.0638829544186592,2.41187335632276E-05,0.0830158665776253,0.0342064015567303
344,-0.00443099765107036,-0.00987484492361546,0.0613176450133324,2.48588148679119E-05,0.0818505212664604,0.0400982089340687
345,-0.00440406939014792,-0.00923492573201656,0.0598476305603981,2.55864852078957E-05,0.0776500180363655,0.049297858029604
346,-0.00361636024899781,-0.00792384147644043,0.0586210489273071,2.60192628047662E-05,0.0718709155917168,0.0560214594006538
347,-0.00148211175110191,-0.00594989536330104,0.0587677285075188,2.60359611274907E-05,0.0678615495562553,0.0584482923150063
348,-0.000941407401114702,-0.00614420138299465,0.0574379786849022,2.57360552495811E-05,0.0655857622623444,0.0538449808955193
349,-0.00419128965586424,-0.0104034319519997,0.0519383177161217,2.53800135396887E-05,0.0631459802389145,0.0417429506778717
350,-0.00723674334585667,-0.0140178436413407,0.046618077903986,2.52460195042659E-05,0.0606712885200977,0.0292124319821596
351,-0.00821156240999699,-0.0149247897788882,0.0438278242945671,2.5481844204478E-05,0.0578786730766296,0.0202583726495504
352,-0.00827233772724867,-0.0141425998881459,0.0425120145082474,2.60306987911463E-05,0.0542455725371838,0.0152819221839309
353,-0.00823690369725227,-0.0121975466609001,0.0419934540987015,2.6668019927456E-05,0.0499314926564693,0.0143310921266675
354,-0.00857805088162422,-0.0102343438193202,0.0416720993816853,2.71260905719828E-05,0.0455197878181934,0.0156539566814899
355,-0.00957322679460049,-0.00973201263695955,0.0405198521912098,2.7237436370342E-05,0.0422996133565903,0.0171203203499317
356,-0.0109682250767946,-0.0108356270939112,0.0380388759076595,2.70203381660394E-05,0.0420402325689793,0.0183922257274389
357,-0.00962345488369465,-0.00933252926915884,0.0379654355347157,2.666297586984E-05,0.0459627583622932,0.0231261141598225
358,-0.00520126754418015,-0.00381326396018267,0.0416643507778645,2.64180671365466E-05,0.0511364303529263,0.030792448669672
359,-0.00112347048707306,0.0025308255571872,0.045801866799593,2.64668578893179E-05,0.0534724146127701,0.0358806289732456
360,-5.69474104850087E-05,0.00636591855436563,0.0465538911521435,2.68256371782627E-05,0.0518578290939331,0.0345910973846912
361,-0.00136121967807412,0.0065409573726356,0.043217845261097,2.73428631771822E-05,0.0481344386935234,0.0288913380354643
362,-0.00067040859721601,0.00683137401938438,0.0409835949540138,2.77852559520397E-05,0.0462722182273865,0.0268615372478962
363,0.00129672524053603,0.00711551355198026,0.0404723212122917,2.79641681117937E-05,0.0466392263770103,0.029013104736805
364,0.00066387647530064,0.00382844056002796,0.0380269549787045,2.78338357020402E-05,0.0470692105591297,0.028978168964386
365,-0.000468718295451254,0.00180830818135291,0.0362571217119694,2.75105412583798E-05,0.0482378751039505,0.0274182185530663
366,0.000592249853070825,0.00791580136865377,0.0380971394479275,2.72053348453483E-05,0.0504714250564575,0.0277531575411558
367,0.00103868800215423,0.0178198534995317,0.0400086902081966,2.71090975729749E-05,0.0519273467361927,0.0276376157999039
368,-0.00250644399784505,0.0207721833139658,0.0375600829720497,2.72924517048523E-05,0.0517006069421768,0.0237770285457373
369,-0.00647915946319699,0.0164785869419575,0.0338986478745937,2.76729588222224E-05,0.051207710057497,0.0217482559382916
370,-0.00570467673242092,0.0128781795501709,0.0348111093044281,2.80643998848973E-05,0.0513544678688049,0.0285180546343327
371,-0.0013345992192626,0.0118677653372288,0.0395481698215008,2.82790333585581E-05,0.0510224439203739,0.0398999638855457
372,0.00425013294443488,0.0119614545255899,0.0449982099235058,2.82267810689518E-05,0.0500926487147808,0.0487595051527023
373,0.0114390216767788,0.014766194857657,0.0511964187026024,2.79590440186439E-05,0.0501960441470146,0.0558472089469433
374,0.0185259971767664,0.0199899896979332,0.0574916228652,2.76361806754721E-05,0.0511443428695202,0.063445158302784
375,0.0204717200249434,0.022948557510972,0.0592961050570011,2.74387512035901E-05,0.0500496812164783,0.0676849111914635
376,0.0157933179289103,0.0219208057969809,0.0540861524641514,2.74716185231227E-05,0.0463103912770748,0.0648840740323067
377,0.00903836078941822,0.0206067152321339,0.0458280593156815,2.77117615041789E-05,0.0430478677153587,0.0574188642203808
378,0.0039054243825376,0.0204476118087769,0.0391063131392002,2.80255717370892E-05,0.0414885319769382,0.0481642074882984
379,-0.000386307365261018,0.0180633366107941,0.0340295881032944,2.824371222232E-05,0.0396548099815845,0.0372417271137238
380,-0.0053320936858654,0.0112685952335596,0.0288190860301256,2.8251708499738E-05,0.0366242900490761,0.0267555359750986
381,-0.0111715951934457,0.00075693370308727,0.0222453009337187,2.80479362118058E-05,0.0332004725933075,0.0191664285957813
382,-0.0159064568579197,-0.00948365777730942,0.0157155487686396,2.77397975878557E-05,0.0308945644646883,0.0150352129712701
383,-0.0172071531414986,-0.0149843469262123,0.0123744970187545,2.74827361863572E-05,0.0314208567142487,0.0148470299318433
384,-0.0147203812375665,-0.0148487649857998,0.0144511461257935,2.73965888482053E-05,0.0364015959203243,0.0192612670361996
385,-0.00859900284558535,-0.00941082369536161,0.0222785379737616,2.75042602879694E-05,0.0453011766076088,0.0278698969632387
386,-0.00103491055779159,-0.000930809357669204,0.0313573367893696,2.77239541901508E-05,0.0528816543519497,0.0364896915853024
387,0.00451053958386183,0.00607115309685469,0.0355899147689343,2.79167161352234E-05,0.0540761649608612,0.0426387190818787
388,0.00766850309446454,0.00856249593198299,0.0335140824317932,2.79618288914207E-05,0.0493441931903362,0.0490774028003216
389,0.0102873323485255,0.00596018694341183,0.027165936306119,2.78192746918648E-05,0.0426652915775776,0.0546386018395424
390,0.0127182267606258,0.000384083250537515,0.0203203968703747,2.75470501946984E-05,0.0381285771727562,0.0540546365082264
391,0.0138005502521992,-0.00398571230471134,0.0171191468834877,2.72663673968054E-05,0.0371468923985958,0.0470085255801678
392,0.0123349018394947,-0.00579915707930923,0.0172682255506516,2.70953805738827E-05,0.0370246097445488,0.0363499484956265
393,0.00834274012595415,-0.00657969433814287,0.0174350533634424,2.70876316790236E-05,0.0352804213762283,0.0243048425763845
394,0.003869908163324,-0.00656107813119888,0.0167771466076374,2.72072029474657E-05,0.0332978032529354,0.0134957730770111
395,0.00119208358228207,-0.00499419262632728,0.016606891527772,2.73517871391959E-05,0.0329313054680824,0.00627487665042281
396,-0.000201448958250694,-0.0031252212356776,0.0163890216499567,2.74092981271679E-05,0.032826729118824,0.00228954548947513
397,-0.00135472894180566,-0.00215009180828929,0.0154136046767235,2.73167752311565E-05,0.0316924005746841,0.000330430339090526
398,-0.000300388637697324,0.000144780162372626,0.0166110638529062,2.70907530648401E-05,0.0312120765447617,0.00253007607534528
399,0.00300093949772418,0.00356708792969584,0.0201665665954351,2.68146868620534E-05,0.0313536822795868,0.00889389496296644
400,0.00559458509087563,0.00447693094611168,0.0219793450087309,2.65922044491163E-05,0.0297698397189379,0.0150999622419477
401,0.00791319366544485,0.00445568095892668,0.0228576995432377,2.64923000941053E-05,0.0271453484892845,0.0210365392267704
402,0.0130158048123121,0.00904593151062727,0.0273277461528778,2.65153921645833E-05,0.0271624885499477,0.0298447366803885
403,0.0195111315697432,0.0163385346531868,0.0338331088423729,2.65967719315086E-05,0.0317236222326756,0.0381087437272072
404,0.0210770089179277,0.0175955127924681,0.0354528948664665,2.66436272795545E-05,0.0379224829375744,0.0379005521535873
405,0.0157507564872503,0.0109362490475178,0.030397929251194,2.65845974354306E-05,0.0412289388477802,0.0286332424730062
406,0.00795356836169958,0.00224551791325212,0.0229715798050165,2.64054688159376E-05,0.0400563813745975,0.0170203372836113
407,0.00145475880708545,-0.00421700300648808,0.0164326466619968,2.61533550656168E-05,0.0355335250496864,0.00949769001454115
408,-0.00252288999035954,-0.00754111679270864,0.0121958209201694,2.5908981115208E-05,0.0297871120274067,0.00922929588705301
409,-0.00381290283985436,-0.00789240375161171,0.0112148337066174,2.57432602666086E-05,0.0249070730060339,0.0143497409299016
410,-0.00282507482916117,-0.00590784661471844,0.0132617335766554,2.56814564636443E-05,0.0218071434646845,0.0203580874949694
411,-0.000125541642773896,-0.00200708257034421,0.0171216521412134,2.56929542956641E-05,0.0199210438877344,0.0252074766904116
412,0.00390355126000941,0.00541529152542353,0.0215240810066462,2.57103074545739E-05,0.01884207688272,0.0291526950895786
413,0.00676150480285287,0.0150441015139222,0.0233725719153881,2.56659932347247E-05,0.0180177763104439,0.0297923721373081
414,0.00440621236339211,0.0185305997729301,0.0184681434184313,2.55269096669508E-05,0.0159573014825583,0.0239769816398621
415,-0.00193753431085497,0.0110701620578766,0.00850984267890453,2.53091257036431E-05,0.0134215885773301,0.0149869108572602
416,-0.00445001013576984,0.000681056291796267,0.00297204195521772,2.50666234933306E-05,0.0147246662527323,0.0117925582453609
417,0.000636285054497421,-0.00224671419709921,0.00760052399709821,2.48615033342503E-05,0.0219459794461727,0.01866983063519
418,0.0066584525629878,-0.000692596135195345,0.0147213665768504,2.47320367634529E-05,0.0300879701972008,0.0267197620123625
419,0.00782520230859518,-0.00370316137559712,0.014884514734149,2.4674931410118E-05,0.0335878096520901,0.0253810025751591
420,0.00814889743924141,-0.00910413544625044,0.0110662691295147,2.46498002525186E-05,0.0338429436087608,0.0189016479998827
421,0.0126996710896492,-0.0104902144521475,0.00918181147426367,2.46020026679616E-05,0.0329336933791637,0.0161930043250322
422,0.0193467419594526,-0.00963247939944267,0.00756158074364066,2.44910424953559E-05,0.0282364804297686,0.0166866425424814
423,0.0228317901492119,-0.00937141664326191,0.00449103955179453,2.43098420469323E-05,0.0186828803271055,0.0183310769498348
424,0.0201607774943113,-0.00960449781268835,0.000628141686320305,2.40859426412499E-05,0.00651516020298004,0.0212298650294542
425,0.0122522683814168,-0.0109518226236105,-0.00447247317060828,2.38653774431441E-05,-0.00549630727618933,0.022063571959734
426,0.00500395894050598,-0.012668396346271,-0.00865526404231787,2.36885862250347E-05,-0.0134724965319037,0.0190262012183666
427,0.00320248818024993,-0.0127289909869432,-0.00839481502771378,2.35709103435511E-05,-0.0128422128036618,0.0163355264812708
428,0.00282246363349259,-0.0106723392382264,-0.00509155308827758,2.34969284065301E-05,-0.00180864438880235,0.0172851402312517
429,0.000788255070801824,-0.00592762976884842,-0.000146737103932537,2.34303006436676E-05,0.0163126531988382,0.0226981714367867
430,0.00311660137958825,0.00216053007170558,0.00976651906967163,2.3333048375207E-05,0.0365005210042,0.0321388840675354
431,0.0125934090465307,0.00817638915032148,0.0212674885988235,2.31841022468871E-05,0.0534548424184322,0.0372411869466305
432,0.0236324872821569,0.00674007553607225,0.0267101097851992,2.29882134590298E-05,0.0623160973191261,0.0328283347189426
433,0.0301303118467331,0.00255321059376001,0.0281703174114227,2.27717664529337E-05,0.0619046241044998,0.0275244656950235
434,0.0290180947631598,0.00014782726066187,0.0280918758362532,2.25685907935258E-05,0.0530307181179523,0.0257918573915958
435,0.0231061968952417,-0.000464068667497486,0.0238412152975798,2.24033719860017E-05,0.0378480553627014,0.0236244201660156
436,0.0197410248219967,0.00232319883070886,0.0165789425373077,2.22806884266902E-05,0.0193111710250378,0.0202810354530811
437,0.0206968523561955,0.00666890805587173,0.00971181131899357,2.21843183680903E-05,-4.09251224482432E-05,0.0175091121345758
438,0.0184132028371096,0.00617499649524689,0.00302514270879328,2.2086278477218E-05,-0.0172557514160872,0.0158134531229734
439,0.00808455049991608,0.000464885670226067,-0.00431706011295319,2.19606299651787E-05,-0.0295946411788464,0.0153058143332601
440,-0.0065674358047545,-0.00412350101396441,-0.0111144352704287,2.17953420360573E-05,-0.0371729992330074,0.0151119409129024
441,-0.0206594374030828,-0.00407671835273504,-0.0166913643479347,2.15970048884628E-05,-0.0417281687259674,0.013751769438386
442,-0.0293614417314529,-0.00170595431700349,-0.0193567089736462,2.13867733691586E-05,-0.0411264672875404,0.0127348061650991
443,-0.0296357907354832,-0.00166739290580153,-0.0188020430505276,2.11899841815466E-05,-0.0348509065806866,0.012948852032423
444,-0.0218765493482351,-0.00280674546957016,-0.0162571426481009,2.10244525078451E-05,-0.0289749186486006,0.0149271432310343
445,-0.00752431992441416,-0.00012027957563987,-0.0121752796694636,2.08926885534311E-05,-0.02910490706563,0.0195362213999033
446,0.0100623527541757,0.00349173462018371,-0.0104184877127409,2.07812936423579E-05,-0.0356384366750717,0.0209068655967712
447,0.0237484965473413,0.00120071333367378,-0.0142345335334539,2.06674903893145E-05,-0.0445421002805233,0.0134275276213884
448,0.0269373077899218,-0.0059902467764914,-0.0191350970417261,2.05297128559323E-05,-0.0495488829910755,0.0024927316699177
449,0.0237881392240524,-0.00948208756744862,-0.0169926919043064,2.03574818442576E-05,-0.0442510358989239,-0.00048305859672837
450,0.0233601834625006,-0.00517240073531866,-0.00679337605834007,2.01561942958506E-05,-0.0273243114352226,0.00931939389556646
451,0.0247738305479288,0.00265291030518711,0.00503426976501942,1.99446621991228E-05,-0.00595679972320795,0.025446929037571
452,0.022431842982769,0.0105051882565022,0.0141253285109997,1.97464833036065E-05,0.00985050015151501,0.0383926555514336
453,0.0152590274810791,0.0162672437727451,0.0180025566369295,1.95790289581055E-05,0.0145029975101352,0.0425369888544083
454,0.00555382668972015,0.0178296901285648,0.014719002880156,1.94450985873118E-05,0.00940254144370556,0.0380120426416397
455,-0.00187531334813684,0.0170691926032305,0.00678555713966489,1.9331235307618E-05,-0.000119593503768556,0.0304195079952478
456,-0.00573938665911555,0.0143128531053662,-0.00449746148660779,1.9213746782043E-05,-0.0126692596822977,0.0204162988811731
457,-0.00919957552105188,0.00639103492721915,-0.0196627676486969,1.90698974620318E-05,-0.0302713755518198,0.00378876621834934
458,-0.00731566315516829,-0.00163389311637729,-0.0309036523103714,1.8889097191277E-05,-0.0479138866066933,-0.0118804508820176
459,0.00362403923645616,-0.00297661405056715,-0.0316448956727982,1.86786164704245E-05,-0.057857770472765,-0.0165480077266693
460,0.0129926204681396,-0.000530416844412684,-0.0263383015990257,1.84607033588691E-05,-0.0602102540433407,-0.0132099874317646
461,0.0139780668541789,0.00265167630277574,-0.0180995520204306,1.82620751729701E-05,-0.0579344481229782,-0.0075104171410203
462,0.0141323693096638,0.00800139363855124,-0.00641187373548746,1.81006616912782E-05,-0.052228856831789,-0.00175593153107911
463,0.0220903381705284,0.0184308364987373,0.0061170794069767,1.79761445906479E-05,-0.0419555231928825,0.00384823093190789
464,0.0336179435253143,0.0318747535347939,0.0147844841703773,1.78693480847869E-05,-0.0263739693909884,0.0118436841294169
465,0.0353443697094917,0.0368991494178772,0.0142170181497931,1.77512538357405E-05,-0.0134753324091434,0.0213086325675249
466,0.0230360180139542,0.026690511032939,0.00268785981461406,1.75975346792256E-05,-0.012678406201303,0.0256465822458267
467,0.00511064426973462,0.00802349671721458,-0.0149455619975924,1.74013293872122E-05,-0.0223333723843098,0.0201395619660616
468,-0.00989717990159988,-0.00968080200254917,-0.0323903262615204,1.71775591297774E-05,-0.0355539359152317,0.00626579066738486
469,-0.0186761934310198,-0.0214339829981327,-0.0443617813289166,1.6956071704044E-05,-0.047723401337862,-0.0101061584427953
470,-0.0198697224259377,-0.0250888951122761,-0.0456275530159473,1.67666785273468E-05,-0.0550437308847904,-0.0222875829786062
471,-0.0130112683400512,-0.0192031748592854,-0.0340756922960281,1.66235549841076E-05,-0.0549644120037556,-0.0248604230582714
472,-0.002526676049456,-0.00585124315693974,-0.0159170441329479,1.65172077686293E-05,-0.0500817894935608,-0.0179035849869251
473,0.00469416892156005,0.00752590270712972,-0.00176645745523274,1.64185894391267E-05,-0.0452743098139763,-0.00847178976982832
474,0.00640656147152185,0.0140507752075791,0.0024709771387279,1.62936976266792E-05,-0.0422666184604168,-0.00347455078735948
475,0.00432213395833969,0.0118517000228167,-0.00254328548908234,1.61213774845237E-05,-0.040659349411726,-0.00398546643555164
476,0.00156711670570076,0.00447309762239456,-0.0111350156366825,1.59049741341732E-05,-0.0383277423679829,-0.00636761030182242
477,-0.00117408519145101,-0.00490099238231778,-0.0190943814814091,1.56714049808215E-05,-0.0328653305768967,-0.00966729130595922
478,-0.00627101166173816,-0.015710461884737,-0.0263408347964287,1.54576464410638E-05,-0.0243620108813047,-0.0144632160663605
479,-0.012101505883038,-0.0229579973965883,-0.0292643588036299,1.52914271893678E-05,-0.0135116642341018,-0.0144648496061563
480,-0.0147960148751736,-0.0220437422394753,-0.0245476849377155,1.5176188753685E-05,-0.00284441164694726,-0.00547055574133992
481,-0.0149191115051508,-0.0173371154814959,-0.0178274624049664,1.50885416587698E-05,0.00188060593791306,0.00462348712608218
482,-0.0146899847313762,-0.0147305661812425,-0.0169583112001419,1.49899797179387E-05,-0.00299755739979446,0.00633353367447853
483,-0.013198415748775,-0.0147662861272693,-0.0230480749160051,1.48470098793041E-05,-0.0153211131691933,-0.000674926792271435
484,-0.00833354517817497,-0.0141991898417473,-0.0299926865845919,1.46491947816685E-05,-0.028595432639122,-0.00866726227104664
485,-0.00190071552060544,-0.0104150921106339,-0.0314663350582123,1.4415338227991E-05,-0.0364233441650867,-0.0107445353642106
486,0.00360089424066246,-0.00386034534312785,-0.026322778314352,1.41841774166096E-05,-0.0357022546231747,-0.00636092107743025
487,0.00943357776850462,0.0032690349034965,-0.0168138705193996,1.39941366796847E-05,-0.0274125542491674,0.00106264045462012
488,0.0158671792596579,0.00743844034150243,-0.0074240118265152,1.38627592605189E-05,-0.0155891347676516,0.00558445788919926
489,0.0190203078091145,0.00804644078016281,-0.00209022918716073,1.37768383865478E-05,-0.00389120006002486,0.00600821571424603
490,0.0154762659221888,0.00824402552098036,-0.00120797322597355,1.36988401209237E-05,0.00514973606914282,0.00839000660926104
491,0.00787718687206507,0.00759144173935056,-0.00273839640431106,1.35865293486859E-05,0.0105050224810839,0.01496197655797
492,0.00159936433192343,0.00300180492922664,-0.00448282063007355,1.34155434352579E-05,0.0132886366918683,0.0204921867698431
493,-0.00332117476500571,-0.00660369312390685,-0.00737585732713342,1.31928245536983E-05,0.0129989134147763,0.0171069446951151
494,-0.00993556436151266,-0.0193516053259373,-0.0127993691712618,1.29534882944427E-05,0.00865202117711306,0.00316323828883469
495,-0.0166918188333511,-0.0286125261336565,-0.0170782711356878,1.27424809761578E-05,0.00380834098905325,-0.011875175870955
496,-0.0204712767153978,-0.0301278997212648,-0.0171100720763206,1.25906117318664E-05,0.00347128743305802,-0.0202351901680231
497,-0.0217226464301348,-0.0270771011710167,-0.0149926235899329,1.24977696032147E-05,0.00857114791870117,-0.0238460320979357
498,-0.0220571532845497,-0.0229433923959732,-0.0138691114261746,1.24324969874579E-05,0.0154744870960712,-0.0266732648015022
499,-0.0211874768137932,-0.0185942705720663,-0.014461562037468,1.23484269352048E-05,0.0195618271827698,-0.0298950169235468
500,-0.0180439166724682,-0.015213823877275,-0.0153063330799341,1.22089977594442E-05,0.0184283312410116,-0.0328087322413921
501,-0.0128160696476698,-0.0141250900924206,-0.0154213141649961,1.20072645586333E-05,0.0124635118991137,-0.0338739901781082
502,-0.00596402445808053,-0.0145466504618526,-0.015092478133738,1.17700392365805E-05,0.00495546450838447,-0.0316696465015411
503,-5.3594234486809E-05,-0.0151462443172932,-0.0159678105264902,1.15439115688787E-05,-0.000907024892512709,-0.0275233797729015
504,0.00185212027281523,-0.0147526962682605,-0.0179129652678967,1.13704363684519E-05,-0.00476911524310708,-0.0226479154080153
505,-0.000163934484589845,-0.0138507271185517,-0.0188896544277668,1.12637198981247E-05,-0.00714422482997179,-0.0171666461974382
506,-0.00451301550492644,-0.0153690157458186,-0.0189774334430695,1.12025245471159E-05,-0.00721200462430716,-0.0133208017796278
507,-0.00844292156398296,-0.0201492961496115,-0.0191891230642796,1.11413255581283E-05,-0.0043371981009841,-0.011799855157733
508,-0.0112269045785069,-0.0271670464426279,-0.021213237196207,1.10345699795289E-05,-0.000158133319928311,-0.0118944887071848
509,-0.0147465104237199,-0.0330280214548111,-0.0256170947104692,1.08611993709928E-05,0.00519431894645095,-0.0135150048881769
510,-0.018196227028966,-0.0320074893534184,-0.0284936502575874,1.06362194856047E-05,0.013856234960258,-0.0152697181329131
511,-0.0192093886435032,-0.0257829930633307,-0.0257283430546522,1.04029422800522E-05,0.0238028131425381,-0.0164196044206619
512,-0.0175676997750998,-0.0223108008503914,-0.0187674444168806,1.02099093055585E-05,0.0302491150796413,-0.0181047171354294
513,-0.0160913467407227,-0.0251248572021723,-0.0138720143586397,1.00848055808456E-05,0.0309992954134941,-0.0225082151591778
514,-0.0169268008321524,-0.0314039550721645,-0.0140803791582584,1.00194047263358E-05,0.0276303831487894,-0.0302940532565117
515,-0.0181379616260529,-0.0369771979749203,-0.0165802948176861,9.97375082079088E-06,0.0238377414643765,-0.0397189222276211
516,-0.019118620082736,-0.041892047971487,-0.0207097474485636,9.89747331914259E-06,0.020340820774436,-0.0506310313940048
517,-0.018840603530407,-0.0444054938852787,-0.0241487137973309,9.75684270088095E-06,0.0176550522446632,-0.0586486048996449
518,-0.0140219023451209,-0.0398958995938301,-0.0209353156387806,9.55303585215006E-06,0.0187448877841234,-0.0558903515338898
519,-0.00602602958679199,-0.0307784769684076,-0.0131290992721915,9.32168677536538E-06,0.0225412026047707,-0.044008944183588
520,0.000566266942769289,-0.0245988313108683,-0.00951069127768278,9.11387451196788E-06,0.0236792620271444,-0.0329079739749432
521,0.00301133911125362,-0.0239325761795044,-0.0129881324246526,8.96869278221857E-06,0.0189786981791258,-0.0280079115182161
522,0.000827407056931406,-0.0255568269640207,-0.0191553886979818,8.89215516508557E-06,0.00968232192099094,-0.027266725897789
523,-0.00344283552840352,-0.0250785406678915,-0.0227912273257971,8.85383542481577E-06,0.00062895379960537,-0.0272466745227575
524,-0.00423680245876312,-0.0185896139591932,-0.0195003971457481,8.80313200468663E-06,-0.00201600277796388,-0.0241560265421867
525,0.000724211218766868,-0.00731020979583263,-0.00929101556539536,8.69645100465277E-06,0.00341115356422961,-0.0159265734255314
526,0.00618603779003024,0.00154255295637995,0.000559862295631319,8.52070388646098E-06,0.0121049657464027,-0.0071576526388526
527,0.00677595287561417,0.00355293997563422,0.00382952648214996,8.30042699817568E-06,0.01830836199224,-0.00361270969733596
528,0.00258609210141003,-0.000501956266816705,0.000474772212328389,8.08464756119065E-06,0.0189868547022343,-0.00465767458081245
529,-0.00368074956350029,-0.00890407152473927,-0.00671514915302396,7.92053288023453E-06,0.014421003870666,-0.00560059491544962
530,-0.00814166571944952,-0.0169599056243896,-0.0125261945649982,7.82799725129735E-06,0.00898758508265018,-0.00218575331382453
531,-0.00984756089746952,-0.0213215053081512,-0.0150309735909104,7.78895719122374E-06,0.00531971221789718,0.00308271078392863
532,-0.0103211356326938,-0.0228550750762224,-0.0166758000850677,7.75703756517032E-06,0.00254579586908221,0.00497488072142005
533,-0.00933011993765831,-0.0216812510043383,-0.0177681855857372,7.68253448768519E-06,0.00171522737946361,0.00327252317219973
534,-0.00571615481749177,-0.0172643046826124,-0.0169428773224354,7.53916583562386E-06,0.00477983057498932,7.26665384718217E-05
535,0.000321000319672748,-0.010830219835043,-0.0143116479739547,7.3382188929827E-06,0.0108314203098416,-0.00279668252915144
536,0.00470233988016844,-0.00720996176823974,-0.013007640838623,7.12245810063905E-06,0.0156797599047422,-0.00669544888660312
537,0.00291504804044962,-0.0108717540279031,-0.0161812491714954,6.94308073434513E-06,0.0158252660185099,-0.0150071028620005
538,-0.00298198591917753,-0.0183552466332912,-0.0212031286209822,6.8321560320328E-06,0.0127265667542815,-0.0253131575882435
539,-0.00537158316001296,-0.0205330457538366,-0.0212476029992104,6.78539208820439E-06,0.0105066653341055,-0.0291293058544397
540,0.000210000638617203,-0.0136908153072,-0.0141288805752993,6.76450736136758E-06,0.0110591631382704,-0.0223414320498705
541,0.0100166937336326,-0.00352952932007611,-0.00533287785947323,6.71789985062787E-06,0.0131403431296349,-0.0108150281012058
542,0.0172390881925821,0.00286458292976022,-7.33517954358831E-05,6.60844352751155E-06,0.0147115727886558,-0.00260110874660313
543,0.0201153066009283,0.00345044676214457,0.00203466857783496,6.43343446427025E-06,0.0150048937648535,0.000196390261407942
544,0.0195309855043888,-0.00184792245272547,6.31641960353591E-05,6.22595189270214E-06,0.0140207661315799,-0.00211594812572002
545,0.0139569211751223,-0.010943272151053,-0.00853112526237965,6.03695298195817E-06,0.0119632286950946,-0.00767061626538634
546,0.0052475044503808,-0.0154480822384357,-0.0182496905326843,5.90779973208555E-06,0.0103264534845948,-0.00727491592988372
547,-0.000411114073358476,-0.00881038885563612,-0.0209614932537079,5.84804092795821E-06,0.00987592153251171,0.00576361129060388
548,-0.00222226954065263,0.00305389636196196,-0.0187954101711512,5.83039263801766E-06,0.00784043688327074,0.0216852929443121
549,-0.00253658858127892,0.0115968948230147,-0.0171408131718636,5.80556388740661E-06,0.00330500397831202,0.0280654150992632
550,-0.00163151032757014,0.0152291199192405,-0.0166235994547606,5.72886438021669E-06,-0.000658506061881781,0.0245246794074774
551,-0.00143574993126094,0.014063723385334,-0.0181630346924067,5.58422379981494E-06,-0.00331549043767154,0.0152355022728443
552,-0.00345419510267675,0.00899329129606485,-0.0224992725998163,5.39270013177884E-06,-0.00669539486989379,0.00380760431289673
553,-0.00626443512737751,0.00278231943957508,-0.0279297456145287,5.20097182743484E-06,-0.0114264935255051,-0.00629027839750052
554,-0.00885112769901752,-0.00308323209173977,-0.0327509008347988,5.05610159962089E-06,-0.0164499040693045,-0.0138767557218671
555,-0.00937914382666349,-0.00664669694378972,-0.033668540418148,4.98022382089403E-06,-0.0193757656961679,-0.017283920198679
556,-0.00592122180387378,-0.00599612342193723,-0.028343653306365,4.95878157380503E-06,-0.0179771091789007,-0.0154105052351952
557,-0.000869755051098764,-0.00302777392789721,-0.0207148753106594,4.94856840305147E-06,-0.0134445205330849,-0.0119794830679893
558,0.000170758736203425,-0.00324689876288176,-0.0183597449213266,4.9011318878911E-06,-0.0103615587577224,-0.0127859124913812
559,-0.00431798491626978,-0.00945185776799917,-0.0234663300216198,4.78885976917809E-06,-0.0110427308827639,-0.018492104485631
560,-0.00839273631572723,-0.0152652645483613,-0.027946038171649,4.61968647869071E-06,-0.0118642691522837,-0.0210846457630396
561,-0.0100272996351123,-0.0173069890588522,-0.0280473958700895,4.43259204985225E-06,-0.0106493989005685,-0.0179248452186584
562,-0.0107436971738935,-0.0180508475750685,-0.0269672684371471,4.27643135481048E-06,-0.00752826500684023,-0.0136778252199292
563,-0.00860904157161713,-0.0171432234346867,-0.0244502834975719,4.18360150433728E-06,-0.000986518920399249,-0.0100328624248505
564,-0.00479195080697536,-0.0152515796944499,-0.0207707416266203,4.15274689657963E-06,0.00795171037316322,-0.00830903090536594
565,-0.000980889075435698,-0.0119063369929791,-0.0156330429017544,4.14974238083232E-06,0.0160900242626667,-0.00643351953476667
566,0.00338176428340375,-0.00592411821708083,-0.00824068393558264,4.12628378398949E-06,0.0205499678850174,-0.00145960249938071
567,0.00721922144293785,0.000794300460256636,-0.00133829261176288,4.04596039516036E-06,0.0203645415604115,0.00430946471169591
568,0.00913165509700775,0.00681731849908829,0.00211893627420068,3.90372269976069E-06,0.0176817066967487,0.00795621611177921
569,0.00991353951394558,0.0127641828730702,0.00264072767458856,3.72833596884448E-06,0.0152371823787689,0.00962621252983809
570,0.011492564342916,0.019027216359973,0.00301885674707592,3.56663304046378E-06,0.0141072263941169,0.0113323079422116
571,0.0117615582421422,0.0215785522013903,0.00194601761177182,3.4581948966661E-06,0.0131157618016005,0.0108128124848008
572,0.00795135553926229,0.0170655697584152,-0.0028232610784471,3.41414738613821E-06,0.0112431198358536,0.00454368954524398
573,0.00285547273233533,0.00889895297586918,-0.00870802346616983,3.41144141202676E-06,0.00905674230307341,-0.0052560050971806
574,0.00199715397320688,0.00168648338876665,-0.0130080077797174,3.40554925060133E-06,0.00754423066973686,-0.0140608437359333
575,0.00829078815877438,-0.00126443000044674,-0.0143442656844854,3.35458571498748E-06,0.00836889166384935,-0.0172845460474491
576,0.0183767341077328,0.00132338632829487,-0.0125376963987947,3.24177790389513E-06,0.0118446936830878,-0.0123799499124289
577,0.025462681427598,0.00689561618492007,-0.0105760134756565,3.08422636408068E-06,0.0152152758091688,-0.00238218274898827
578,0.0260512121021748,0.0146951982751489,-0.0102576641365886,2.92338108920376E-06,0.0170133821666241,0.00749244447797537
579,0.0217912923544645,0.0237353220582008,-0.00954796746373177,2.80253107121098E-06,0.018614336848259,0.0134139796718955
580,0.0151643035933375,0.0271234586834908,-0.00763131398707628,2.74353828899621E-06,0.0190069749951363,0.0127360597252846
581,0.00666012661531568,0.0201401449739933,-0.0071186157874763,2.73532168648671E-06,0.0157957635819912,0.00448872428387403
582,-0.000823920709080994,0.00833540316671133,-0.00777099747210741,2.74015883405809E-06,0.0125057995319366,-0.00684294896200299
583,-0.00365213514305651,-9.6243187726941E-05,-0.00615637237206101,2.71422595687909E-06,0.0155262956395745,-0.0140046980232
584,-0.00356982555240393,-0.0046717138029635,-0.00281125633046031,2.63119136434398E-06,0.0254285577684641,-0.0154416505247355
585,-0.00519821187481284,-0.00993035174906254,-0.00286896480247378,2.49615322900354E-06,0.0355719551444054,-0.0150929596275091
586,-0.0114650391042233,-0.0190513227134943,-0.010861880145967,2.3425413928635E-06,0.0375880971550941,-0.0180586483329535
587,-0.0182668622583151,-0.0279958806931973,-0.0223195962607861,2.21384493670485E-06,0.0306955687701702,-0.0234958045184612
588,-0.0185577105730772,-0.0298959165811539,-0.0279232170432806,2.14014880839386E-06,0.0215034820139408,-0.0265683569014072
589,-0.012595821171999,-0.0244187284260988,-0.0253437757492065,2.12214604289329E-06,0.0148897618055344,-0.0264147948473692
590,-0.00612372346222401,-0.0158454030752182,-0.0190721992403269,2.13111820812628E-06,0.0103075979277492,-0.0238020941615105
591,-0.00291322381235659,-0.00753180449828506,-0.0139078926295042,2.1247042241157E-06,0.0055684600956738,-0.0181507114320993
592,-0.00195885612629354,0.000240010936977342,-0.0103618251159787,2.06979757422232E-06,0.00108788860961795,-0.00834664609283209
593,-0.00299724866636097,0.0047557526268065,-0.00919615011662245,1.96019095710653E-06,-0.0030083479359746,0.00150490633677691
594,-0.00703935138881207,0.00263826665468514,-0.0114909159019589,1.81956158940011E-06,-0.00719584478065372,0.00527287274599075
595,-0.0106024155393243,-0.00161243265029043,-0.0122671434655786,1.68838118952408E-06,-0.00919335335493088,0.00546951964497566
596,-0.0101568484678864,-0.0021427150350064,-0.00730174360796809,1.60198339926865E-06,-0.00713863456621766,0.00681477086618543
597,-0.00810312572866678,-0.00101870787329972,-0.00101397093385458,1.57167596626095E-06,-0.0017945587169379,0.00638812035322189
598,-0.00638584047555923,-0.00101912440732121,0.00241602468304336,1.57899455643928E-06,0.00568885076791048,0.00228017708286643
599,-0.00323537667281926,2.34020153584424E-05,0.00524317240342498,1.58600676058995E-06,0.0131502756848931,-0.000936844618991017
600,0.00105897895991802,0.00309684872627258,0.00937419570982456,1.55591953898693E-06,0.0178127568215132,-5.98138685745653E-05
601,0.00397764006629586,0.00600807787850499,0.012885226868093,1.47279115481069E-06,0.0190160144120455,0.0036117797717452
602,0.00427526980638504,0.00635172659531236,0.0126554686576128,1.34978495225369E-06,0.0175567157566547,0.00619514100253582
603,0.00324904941953719,0.00397487124428153,0.00855689775198698,1.22169592486898E-06,0.0146131021901965,0.00488811824470758
604,0.00300544989295304,0.00103752792347223,0.00402416195720434,1.12598240775696E-06,0.0112240593880415,0.000247922842390835
605,0.00252625276334584,-0.00213864212855697,0.000408566964324564,1.08264316622808E-06,0.0066481688991189,-0.00709211034700274
606,-0.00151915277820081,-0.00862414110451937,-0.00567056518048048,1.08374911178544E-06,-0.000397494062781334,-0.0183168090879917
607,-0.0067772613838315,-0.0164871513843536,-0.0133963711559772,1.09810491721873E-06,-0.00644311727955937,-0.0298212971538305
608,-0.00781306438148022,-0.0193515494465828,-0.0165592804551125,1.08831477518834E-06,-0.00629226537421346,-0.0344493351876736
609,-0.0062227095477283,-0.0175462421029806,-0.0151500906795263,1.03091633718577E-06,-0.0017556669190526,-0.0317913666367531
610,-0.0049837208352983,-0.0141414469107986,-0.0123231811448932,9.28738700167742E-07,0.00212059053592384,-0.0247617028653622
611,-0.00418909778818488,-0.0107302842661738,-0.00885837245732546,8.08978313671105E-07,0.00348333804868162,-0.0167147405445576
612,-0.00436286628246307,-0.00906812865287066,-0.00604915898293257,7.08243419467181E-07,0.00313408323563635,-0.0122175933793187
613,-0.00441133929416537,-0.00736201088875532,-0.00410807272419333,6.52788060051535E-07,0.00294529716484249,-0.0109201418235898
614,-0.00305571081116796,-0.00330795161426067,-0.00253589800558984,6.44607951016951E-07,0.0035250058863312,-0.00943242758512497
615,-0.000816805055364966,0.0018249626737088,-0.00102612166665494,6.60757223158726E-07,0.00435542408376932,-0.00651567941531539
616,0.00166143430396914,0.00611382070928812,0.00123180577065796,6.66041330532607E-07,0.00497610121965408,-0.00319852563552558
617,0.00178299099206924,0.00621869554743171,0.00169700861442834,6.32066019079502E-07,0.004057627171278,-0.00391117529943585
618,-0.000938570010475814,-0.000174401051481254,-0.00223334599286318,5.52330732261908E-07,0.00256612314842641,-0.0107182450592518
619,0.0022250737529248,-0.00580336479470134,-0.00422077672556043,4.45342635657653E-07,0.00532214436680079,-0.0153942694887519
620,0.0134078981354833,-0.00440400326624513,5.40101245860569E-05,3.4428231288075E-07,0.0112670725211501,-0.0124730058014393
621,0.0197083856910467,-0.0022409032098949,0.00342685263603926,2.78984458645937E-07,0.0121182706207037,-0.00839929841458797
622,0.015076600946486,-0.004902433604002,0.00127188139595091,2.600170603273E-07,0.00534437596797943,-0.00776666449382901
623,0.0060922116972506,-0.00927232950925827,-0.00274629332125187,2.73352611657174E-07,-0.00372550240717828,-0.00824202504009008
624,-0.00121791998390108,-0.0105507355183363,-0.00440044142305851,2.88302999251755E-07,-0.0104765556752682,-0.0065828743390739
625,-0.00460310839116573,-0.00543872313573956,-0.0014031482860446,2.74237095254648E-07,-0.0139487599954009,2.59896623902023E-05
626,-0.00607551168650389,0.00410621985793114,0.00394251476973295,2.16973219835381E-07,-0.0163425095379353,0.00921436119824648
627,-0.00771006057038903,0.0123743014410138,0.00831802934408188,1.26072919215403E-07,-0.0187468752264977,0.0166040677577257
628,-0.00697913719341159,0.0175986420363188,0.0132407918572426,2.92930781853329E-08,-0.018471609801054,0.0232995040714741
629,-0.00309856701642275,0.020047714933753,0.0187254622578621,-4.26018509358528E-08,-0.0148038323968649,0.0288144294172525
630,0.00219681952148676,0.0209438111633062,0.0231851525604725,-7.23604003383116E-08,-0.00958075281232595,0.0310540739446878
631,0.00663626147434115,0.0211756341159344,0.0262542050331831,-6.52284128932479E-08,-0.00427191285416484,0.0295280981808901
632,0.00644626142457128,0.0182434748858213,0.0256321001797915,-4.57267113063153E-08,-0.000762055977247655,0.0223441645503044
633,0.00130326393991709,0.0121838031336665,0.0208664797246456,-4.41742535883805E-08,3.48756184394006E-05,0.0111022824421525
634,-0.00449194852262735,0.00728136347606778,0.0155848767608404,-8.03627173695531E-08,-0.00122517824638635,0.00141703034751117
635,-0.00796921644359827,0.00516250263899565,0.0119324689731002,-1.53173886019431E-07,-0.00450887717306614,-0.00461519882082939
636,-0.00885746162384748,0.00435300311073661,0.00948754325509071,-2.41582711169031E-07,-0.00971057638525963,-0.00800819043070078
637,-0.00713669788092375,0.00432560686022043,0.00852505024522543,-3.16290254431806E-07,-0.0151162082329392,-0.00867706630378962
638,-0.00273397169075906,0.00573686650022864,0.0103617366403341,-3.55556181830252E-07,-0.0178814362734556,-0.00592433847486973
639,0.00339768594130874,0.00863938871771097,0.0148245375603437,-3.56677901436342E-07,-0.0153238037601113,-0.000632630602922291
640,0.0117266178131104,0.0147967524826527,0.0220695715397596,-3.37060896526964E-07,-0.00672608567401767,0.00778158428147435
641,0.0228449162095785,0.0261234678328037,0.0326124839484692,-3.24514928706776E-07,0.00422211131080985,0.0207198224961758
642,0.0314531028270721,0.0373842790722847,0.0416069738566875,-3.4218112432427E-07,0.0109847597777843,0.0324999876320362
643,0.03232017531991,0.0420278087258339,0.0436061583459377,-3.96260418256134E-07,0.010853317566216,0.0363707318902016
644,0.0270259287208319,0.0401741564273834,0.0391761176288128,-4.73048743288018E-07,0.00613666325807571,0.0336393713951111
645,0.0177704002708197,0.0327953137457371,0.0293524563312531,-5.46674016277393E-07,-0.0012563441414386,0.0260460786521435
646,0.00555466581135988,0.0205849763005972,0.0147825628519058,-5.9317710565665E-07,-0.0105946874246001,0.0133144808933139
647,-0.0058459029532969,0.00842230673879385,0.000372042006347328,-6.03277044319839E-07,-0.0194224454462528,-0.000539202650543302
648,-0.011945454403758,0.00186231674160808,-0.00793461315333843,-5.87023237130779E-07,-0.0245726089924574,-0.00946669559925795
649,-0.00977877993136644,0.00412918161600828,-0.00636834977194667,-5.68019629554328E-07,-0.024431724101305,-0.00878459587693214
650,-0.00234519829973578,0.0123470602557063,0.00174254225566983,-5.7052892543652E-07,-0.0215544868260622,-0.000624718726612628
651,0.00209099054336548,0.018947659060359,0.00722755352035165,-6.06502624123095E-07,-0.0207395162433386,0.00689100567251444
652,0.0005475003272295,0.0209659449756145,0.00704324198886752,-6.69468079195212E-07,-0.0229584164917469,0.010464739985764
653,-0.00455067539587617,0.0189226865768433,0.00374705786816776,-7.38390951937618E-07,-0.02587547339499,0.010500549338758
654,-0.00950241181999445,0.0157260652631521,0.00111302908044308,-7.89230512054928E-07,-0.0269554518163204,0.00878539495170116
655,-0.0106240548193455,0.0161165967583656,0.00293339369818568,-8.0784485589902E-07,-0.0251152496784925,0.00863545574247837
656,-0.00907835364341736,0.0189526546746492,0.00729466136544943,-7.97322456946858E-07,-0.0218987409025431,0.00881364569067955
657,-0.00900070648640394,0.0194717589765787,0.00918650813400745,-7.759490472381E-07,-0.0196358021348715,0.00557947997003794
658,-0.0113144628703594,0.0162698160856962,0.00709912134334445,-7.67106200783019E-07,-0.0193002540618181,-0.00161321240011603
659,-0.0114885773509741,0.0128524182364345,0.00371715379878879,-7.86679379416455E-07,-0.0197989866137505,-0.00841793045401573
660,-0.00499450601637363,0.012813457287848,0.00217830180190504,-8.34756463063968E-07,-0.0196975190192461,-0.00998194236308336
661,0.00344381621107459,0.0141201466321945,0.0016748629277572,-8.95949256118911E-07,-0.0204908847808838,-0.007446413859725
662,0.00696821790188551,0.0157376099377871,0.00184748682659119,-9.47967180309206E-07,-0.0236036144196987,-0.00267853634431958
663,0.00488072540611029,0.0198253151029348,0.00310661387629807,-9.7367342277721E-07,-0.0278806462883949,0.0022577028721571
664,-0.00177274481393397,0.0239045936614275,0.0026872328016907,-9.70106839304208E-07,-0.0315907299518585,0.00259569264017046
665,-0.0101160407066345,0.0232763402163982,0.000400577700929716,-9.49726711496623E-07,-0.0314835496246815,-0.000600027327891439
666,-0.0164264887571335,0.0181546583771706,-0.00153511040844023,-9.33401793190569E-07,-0.0257464237511158,-0.0023152066860348
667,-0.018026789650321,0.0146942855790257,-0.00147803279105574,-9.39082326567586E-07,-0.0182100627571344,-2.90033567580394E-05
668,-0.0141370072960854,0.0179011952131987,0.00210499158129096,-9.7230372375634E-07,-0.0155303459614515,0.00709181791171432
669,-0.00850103888660669,0.0247494280338287,0.00737746059894562,-1.02354226783064E-06,-0.0211672484874725,0.0166596733033657
670,-0.00447845365852118,0.0305293183773756,0.011859075166285,-1.07366622614791E-06,-0.0315938666462898,0.0252471119165421
671,-0.00207312451675534,0.0337205044925213,0.0155801065266132,-1.1043736094507E-06,-0.0404845587909222,0.0313085876405239
672,0.000349360139807686,0.0345475375652313,0.0199259053915739,-1.10792768737156E-06,-0.0442681834101677,0.0345630832016468
673,0.00476460065692663,0.034462034702301,0.0261243637651205,-1.0910159744526E-06,-0.0423421710729599,0.035812146961689
674,0.00827139429748058,0.0322958566248417,0.0303517300635576,-1.07082462363906E-06,-0.0379787273705006,0.0344715602695942
675,0.00657837884500623,0.026862496510148,0.0286286380141974,-1.06561776647141E-06,-0.0357193499803543,0.030112462118268
676,0.00142508081626147,0.021084688603878,0.0231123697012663,-1.08498454665096E-06,-0.0360855236649513,0.0234850775450468
677,-0.00186720455531031,0.0166234187781811,0.0159643422812223,-1.12495979465166E-06,-0.0361772030591965,0.013776526786387
678,0.00156083109322935,0.0130654498934746,0.00892396178096533,-1.17049194159335E-06,-0.0325715914368629,0.00253401347436011
679,0.0108081353828311,0.00946125853806734,0.00315606291405857,-1.20375034384779E-06,-0.0271206591278315,-0.00801555067300797
680,0.0195811931043863,0.00534597598016262,-0.00167547515593469,-1.21369430416962E-06,-0.0258863419294357,-0.0171444918960333
681,0.0234032943844795,0.00293403211981058,-0.00356493447907269,-1.20177116968989E-06,-0.0301118530333042,-0.0216064490377903
682,0.0203467831015587,0.00221634726040065,-0.00315462239086628,-1.18081391065061E-06,-0.0375368855893612,-0.0213490203022957
683,0.0096970722079277,-0.000153718356159516,-0.00505872769281268,-1.16790749871143E-06,-0.0461479276418686,-0.0218394845724106
684,-0.00366660300642252,-0.00314765679650009,-0.00836259499192238,-1.17518595743604E-06,-0.0514095686376095,-0.0237333402037621
685,-0.00864056125283241,-0.00130203401204199,-0.00700725661590695,-1.20351558052789E-06,-0.0485991612076759,-0.0212471298873425
686,-0.00201116083189845,0.00556465517729521,-0.000325657165376469,-1.24234782106214E-06,-0.0394890904426575,-0.0124633153900504
687,0.00377669394947588,0.0104724569246173,0.00594337051734328,-1.27564931062807E-06,-0.0305350665003061,-0.00161467422731221
688,-0.000783906260039657,0.00895797461271286,0.00855017174035311,-1.29058275888383E-06,-0.0250960346311331,0.00763488141819835
689,-0.0105613963678479,0.00396344112232327,0.00961432699114084,-1.28424505874136E-06,-0.0222242511808872,0.0147261302918196
690,-0.0174927115440369,0.000344167521689087,0.0115137156099081,-1.26493057450716E-06,-0.0212155301123858,0.018947646021843
691,-0.0184578523039818,-0.000557545572519302,0.0137912146747112,-1.24740540741186E-06,-0.0221005231142044,0.0182242710143328
692,-0.0150459231808782,-0.00133614207152277,0.0140957562252879,-1.24487701214093E-06,-0.0242648720741272,0.0110456217080355
693,-0.0121826911345124,-0.00484676565974951,0.0112129468470812,-1.26202530736919E-06,-0.0276360660791397,-0.00206243805587292
694,-0.0125906774774194,-0.00974605698138475,0.00782196410000324,-1.29276804727851E-06,-0.0317417196929455,-0.0163619443774223
695,-0.0148862171918154,-0.0135699044913054,0.00610585324466228,-1.32381069306575E-06,-0.0357137322425842,-0.0262989848852158
696,-0.0182581450790167,-0.0174661166965961,0.00244555901736021,-1.34192225687002E-06,-0.0403319522738457,-0.03175063803792
697,-0.0216477122157812,-0.0210561212152243,-0.0051569533534348,-1.34096057990973E-06,-0.0446628145873547,-0.0337561592459679
698,-0.0239961668848991,-0.0227710232138634,-0.0134390657767653,-1.32492175453081E-06,-0.0460672192275524,-0.0333505049347878
699,-0.0254110191017389,-0.0228290352970362,-0.0185741726309061,-1.30551438815019E-06,-0.0447996854782104,-0.0322181060910225
700,-0.0235961880534887,-0.0191949289292097,-0.0161920990794897,-1.29571401430439E-06,-0.0416633859276772,-0.0283191744238138
701,-0.0213470496237278,-0.0157949812710285,-0.00979568529874086,-1.30284263377689E-06,-0.0383876264095306,-0.0263121835887432
702,-0.0244220793247223,-0.0186144951730967,-0.00683982810005546,-1.32486275106203E-06,-0.0362027324736118,-0.0324021279811859
703,-0.0292880535125732,-0.0218482278287411,-0.00454584043473005,-1.35175253035413E-06,-0.0326384790241718,-0.0376454740762711
704,-0.0301220808178186,-0.0191351491957903,0.00087425421224907,-1.37107303999073E-06,-0.0271847546100616,-0.0321994461119175
705,-0.0250152144581079,-0.0114284949377179,0.00833242759108543,-1.37464064664528E-06,-0.0212162341922522,-0.0182776022702456
706,-0.0169573836028576,-0.00313633447512984,0.0138444202020764,-1.36273069983872E-06,-0.0164338145405054,-0.00684106070548296
707,-0.0110996533185244,0.00477185193449259,0.014184333384037,-1.34366121073981E-06,-0.0143031030893326,-0.00371111393906176
708,-0.00815781205892563,0.0128934970125556,0.0116678457707167,-1.32912816752651E-06,-0.0150047447532415,-0.00366785353980958
709,-0.00754632335156202,0.0143757918849587,0.00798810366541147,-1.32790319185006E-06,-0.01982157304883,-0.00524709699675441
710,-0.00760361179709435,0.00859402399510145,0.00557261798530817,-1.34128754325502E-06,-0.0265500117093325,-0.00877590943127871
711,-0.00647183367982507,0.00393952848389745,0.00737431226298213,-1.36267419748037E-06,-0.0299849882721901,-0.0114888902753592
712,-0.00571187492460012,0.00236462708562613,0.0106800850480795,-1.38131144922227E-06,-0.0298282820731401,-0.0142382718622684
713,-0.00563674187287688,0.00222257548011839,0.0131850996986032,-1.38813300054608E-06,-0.0288454070687294,-0.017273323610425
714,-0.00522775761783123,0.00267099612392485,0.0147358477115631,-1.38049881570623E-06,-0.0289571844041348,-0.019397085532546
715,-0.00509846210479736,0.00276649836450815,0.0141839627176523,-1.3633725757245E-06,-0.0308580007404089,-0.0211080834269524
716,-0.00511797564104199,0.00304740644060075,0.0127654923126101,-1.34643687488278E-06,-0.0332199111580849,-0.0207778755575418
717,-0.00284635159187019,0.00493826996535063,0.0149534065276384,-1.33881337660569E-06,-0.033400010317564,-0.0139048462733626
718,0.000476469402201474,0.00667397072538733,0.0198003984987736,-1.34426534259546E-06,-0.0307384058833122,-0.00308945076540113
719,0.000215598192880861,0.00552195962518454,0.021307161077857,-1.35940183554339E-06,-0.0268684402108192,0.00186178123112768
720,-0.001946477801539,0.00253680162131786,0.0188261028379202,-1.37572646963235E-06,-0.0238582864403725,-0.00191430083941668
721,-0.00104883930180222,-0.000194454594748095,0.0160313379019499,-1.38430823426461E-06,-0.0228069312870502,-0.00801587477326393
722,0.00280656199902296,-0.000333253759890795,0.0160446278750896,-1.38051279918727E-06,-0.0224924329668283,-0.00849371682852507
723,0.00408944441005588,-0.000160185707500204,0.0161465723067522,-1.36629125790932E-06,-0.0233208835124969,-0.00521461199969053
724,-0.00044384557986632,-0.00468856282532215,0.011413061991334,-1.34890967729007E-06,-0.0267762001603842,-0.0067690652795136
725,-0.00800415221601725,-0.0126430913805962,0.00323703303001821,-1.33692242343386E-06,-0.031507421284914,-0.0147907147184014
726,-0.0161228403449059,-0.0207145139575005,-0.00549023877829313,-1.33561741222366E-06,-0.0359145402908325,-0.0260190330445766
727,-0.0235497001558542,-0.0269733630120754,-0.0132282692939043,-1.34435663312615E-06,-0.0390767715871334,-0.0363364219665527
728,-0.0278800595551729,-0.0288500115275383,-0.0176666658371687,-1.35714083171479E-06,-0.0398365519940853,-0.04106080904603
729,-0.0279979277402163,-0.0256209652870893,-0.0180120896548033,-1.36597702748986E-06,-0.0380047969520092,-0.0388274528086185
730,-0.0254444740712643,-0.0199334975332022,-0.0162931829690933,-1.36516337079229E-06,-0.0340235196053982,-0.031403012573719
731,-0.0218103751540184,-0.0154573563486338,-0.0147167844697833,-1.35420032165712E-06,-0.0275775697082281,-0.0208882763981819
732,-0.0174788106232882,-0.0148748476058245,-0.0138789787888527,-1.33784874378762E-06,-0.0195629447698593,-0.0107334684580565
733,-0.0131663186475635,-0.0167166963219643,-0.0129214618355036,-1.32341870084929E-06,-0.013380934484303,-0.00362325087189674
734,-0.00966126937419176,-0.0161688290536404,-0.0097619304433465,-1.31682827486657E-06,-0.0115345939993858,0.00110341492109001
735,-0.00791526399552822,-0.0129129411652684,-0.00484643178060651,-1.31955482629564E-06,-0.0136711979284883,0.00264653447084129
736,-0.00902375672012568,-0.0105880182236433,-0.00193228223361075,-1.32804439090251E-06,-0.0171696990728378,-0.00144545373041183
737,-0.0118795419111848,-0.00925319269299507,-0.00216227956116199,-1.33578703298554E-06,-0.0186322927474976,-0.00947301555424929
738,-0.0149470502510667,-0.0077858273871243,-0.00416628085076809,-1.33685648506798E-06,-0.0181165132671595,-0.0177471954375505
739,-0.0198647659271955,-0.00968437734991312,-0.00901209935545921,-1.3289916296344E-06,-0.0198483262211084,-0.0268705189228058
740,-0.0266658887267113,-0.0168471168726683,-0.0161133520305157,-1.31462593344622E-06,-0.0254566539078951,-0.0362004041671753
741,-0.0320569053292274,-0.0252984799444675,-0.0217775236815214,-1.29941224713548E-06,-0.0323565788567066,-0.0407769158482552
742,-0.0352727882564068,-0.0322632007300854,-0.025545172393322,-1.28912631680578E-06,-0.0384963043034077,-0.0396979637444019
743,-0.0368972904980183,-0.0369235575199127,-0.0274513494223356,-1.28664362364361E-06,-0.0413244739174843,-0.0352861359715462
744,-0.0375460051000118,-0.0387349613010883,-0.0269512124359608,-1.29056797959493E-06,-0.0379965975880623,-0.0311869196593761
745,-0.0381012484431267,-0.0386516489088535,-0.0256098490208387,-1.29615477817424E-06,-0.0297397766262293,-0.0315359458327293
746,-0.0373523272573948,-0.0360795184969902,-0.0238955207169056,-1.2979403436475E-06,-0.0208671856671572,-0.0353908501565456
747,-0.0331889800727367,-0.0285633653402328,-0.0214251037687063,-1.29262616610504E-06,-0.0149367256090045,-0.0388085134327412
748,-0.0257147308439016,-0.0177110731601715,-0.0192295871675015,-1.28069791571761E-06,-0.0133686130866408,-0.0401705540716648
749,-0.0188599042594433,-0.0103232311084867,-0.0189630333334208,-1.26599672967131E-06,-0.0157035700976849,-0.0408895909786224
750,-0.0161850843578577,-0.00924836751073599,-0.019886277616024,-1.25356245916919E-06,-0.0196505822241306,-0.0416891612112522
751,-0.0168630089610815,-0.0107952812686563,-0.0191222690045834,-1.24695816339226E-06,-0.0224617961794138,-0.0410752594470978
752,-0.0186785664409399,-0.012398075312376,-0.0163746681064367,-1.24649181998393E-06,-0.0234957970678806,-0.0386988371610641
753,-0.0194865930825472,-0.0125504313036799,-0.0122970845550299,-1.24921859878668E-06,-0.0221115853637457,-0.0344145484268665
754,-0.0172877684235573,-0.00744503177702427,-0.00664829090237617,-1.25063058931119E-06,-0.0156284254044294,-0.0281030610203743
755,-0.0140907354652882,0.000950315617956221,-0.00306758331134915,-1.24707150916947E-06,-0.00537192681804299,-0.0240469388663769
756,-0.0127946110442281,0.00373458699323237,-0.00478590419515967,-1.23758741210622E-06,0.00257509970106184,-0.0242763422429562
757,-0.0120900711044669,-0.00165972637478262,-0.00902486033737659,-1.22428207305347E-06,0.00360485841520131,-0.0242658779025078
758,-0.0130206421017647,-0.0117478929460049,-0.0145758958533406,-1.21107257200492E-06,-0.00408828677609563,-0.0248481221497059
759,-0.0177907384932041,-0.0221963338553905,-0.0214236900210381,-1.20157551464217E-06,-0.0167376864701509,-0.0303066521883011
760,-0.0221278369426727,-0.0276803746819496,-0.0253697000443935,-1.19726075809012E-06,-0.0264813955873251,-0.0375571921467781
761,-0.020559199154377,-0.0272818356752396,-0.0243634916841984,-1.19681226351531E-06,-0.0305274408310652,-0.0417546853423119
762,-0.0140747930854559,-0.0237516388297081,-0.0203120093792677,-1.19695755529392E-06,-0.0313706398010254,-0.0417967475950718
763,-0.00943080894649029,-0.0206210613250732,-0.0150240371003747,-1.19425612865598E-06,-0.0315899252891541,-0.0393633842468262
764,-0.0102635314688087,-0.0214643198996782,-0.00996101554483175,-1.1868731917275E-06,-0.0322284549474716,-0.0370750539004803
765,-0.0137624824419618,-0.0253545995801687,-0.00652286177501082,-1.17542879252142E-06,-0.0326677337288857,-0.0354527123272419
766,-0.0183776561170816,-0.0295753441751003,-0.00680767139419913,-1.16254227577883E-06,-0.0327220819890499,-0.0356490314006805
767,-0.0239417068660259,-0.0318768061697483,-0.0102647384628654,-1.1513825484144E-06,-0.0328188836574554,-0.0379475206136703
768,-0.0277157705277205,-0.030107444152236,-0.0127861611545086,-1.14402303097449E-06,-0.0329075939953327,-0.0388445891439915
769,-0.0279706940054893,-0.0265780854970217,-0.013588041998446,-1.14045474219893E-06,-0.0333520136773586,-0.0375209487974644
770,-0.0266612768173218,-0.0262550320476294,-0.0160362906754017,-1.13871556095546E-06,-0.034447405487299,-0.0368371717631817
771,-0.0266701728105545,-0.030889805406332,-0.0220829956233501,-1.13600299300742E-06,-0.0353470258414745,-0.0383948311209679
772,-0.0270868707448244,-0.0367672108113766,-0.028351878747344,-1.13014209546236E-06,-0.0333361849188805,-0.0402950160205364
773,-0.0251277480274439,-0.0398683175444603,-0.0300260316580534,-1.12064412860491E-06,-0.0261228457093239,-0.0410327836871147
774,-0.0202663075178862,-0.0396976731717587,-0.0259682964533567,-1.10884877813078E-06,-0.0149306636303663,-0.0412595123052597
775,-0.0152517352253199,-0.0376678630709648,-0.0193265713751316,-1.09713835172442E-06,-0.00424428749829531,-0.041000310331583
776,-0.0125603443011642,-0.0339891202747822,-0.0135549195110798,-1.0876808573812E-06,0.00214690924622118,-0.0381027683615685
777,-0.0106644602492452,-0.0265149418264627,-0.00841202866286039,-1.08136259768798E-06,0.00453285779803991,-0.0301174186170101
778,-0.00923758279532194,-0.017715772613883,-0.00541041325777769,-1.07743085209222E-06,0.0035111338365823,-0.0216687452048063
779,-0.00933723524212837,-0.0141914859414101,-0.00760737946256995,-1.07397397641762E-06,-0.00147597445175052,-0.0201606396585703
780,-0.0114063732326031,-0.0190487988293171,-0.0150421280413866,-1.06894344753528E-06,-0.0100669767707586,-0.0272104516625404
781,-0.015197248198092,-0.0286450460553169,-0.0245477687567472,-1.0611738616717E-06,-0.0208219736814499,-0.0376999825239182
782,-0.018492603674531,-0.0363320372998714,-0.0314616039395332,-1.05089839053107E-06,-0.0311175081878901,-0.0443550981581211
783,-0.0198602620512247,-0.0393471047282219,-0.0341375209391117,-1.03954471342149E-06,-0.0384233891963959,-0.0457985885441303
784,-0.0195395592600107,-0.0385073944926262,-0.0340632013976574,-1.02896115095064E-06,-0.0414494387805462,-0.0451950468122959
785,-0.0182791240513325,-0.0353467799723148,-0.0325075834989548,-1.02049193628773E-06,-0.0401346236467361,-0.0442864373326302
786,-0.0152684263885021,-0.0294493231922388,-0.0276931598782539,-1.01435932720051E-06,-0.034746129065752,-0.0404000468552113
787,-0.00980513822287321,-0.0212082676589489,-0.0188680496066809,-1.0096293863171E-06,-0.0270743723958731,-0.0322155244648457
788,-0.00305728940293193,-0.014333276078105,-0.00929970294237137,-1.00473346265062E-06,-0.0191842000931501,-0.0241084098815918
789,0.00278536789119244,-0.0119388839229941,-0.00286506558768451,-9.982596793634E-07,-0.0116100208833814,-0.0210614539682865
790,0.00533494492992759,-0.0131965996697545,-0.0007263058796525,-9.89617205959803E-07,-0.00571622932329774,-0.0234268698841333
791,0.00415282463654876,-0.0152181880548596,-0.00138228200376034,-9.79270225798246E-07,-0.00347762904129922,-0.0278014168143272
792,0.000251774152275175,-0.0174982640892267,-0.00419932324439287,-9.68459630712459E-07,-0.00546024646610022,-0.0325057171285152
793,-0.00371464667841792,-0.0191645976155996,-0.0071337204426527,-9.58576492848806E-07,-0.00946637056767941,-0.0358003936707973
794,-0.00765759637579322,-0.020830137655139,-0.00971101876348257,-9.50500975704927E-07,-0.0137474806979299,-0.0378289632499218
795,-0.0143106244504452,-0.0253472849726677,-0.0146186808124185,-9.44213411457895E-07,-0.0176522620022297,-0.0411602966487408
796,-0.0201359391212463,-0.0291591677814722,-0.0184253826737404,-9.38844380016235E-07,-0.0173766501247883,-0.0419456921517849
797,-0.0197023004293442,-0.0269675496965647,-0.0161526761949062,-9.33115700263443E-07,-0.0107513666152954,-0.0356142967939377
798,-0.015217212960124,-0.0208627209067345,-0.0109355682507157,-9.25953315800143E-07,-0.00275613344274461,-0.0264143999665976
799,-0.0109600499272347,-0.0141223259270191,-0.00715246284380555,-9.16983935894677E-07,0.00103083997964859,-0.0195789206773043
800,-0.00761287799105048,-0.00749714579433203,-0.00482438737526536,-9.06691923319158E-07,7.72213606978767E-05,-0.0154999084770679
801,-0.0053392555564642,-0.0029727928340435,-0.00380527670495212,-8.96174981335207E-07,-0.00388121511787176,-0.0138012347742915
802,-0.00624102726578712,-0.00316883251070976,-0.00590843288227916,-8.86619432094449E-07,-0.00996102299541235,-0.015747582539916
803,-0.0104682007804513,-0.00649097934365273,-0.0104139512404799,-8.7874099108376E-07,-0.016846552491188,-0.0197675358504057
804,-0.0139906350523233,-0.00767606357112527,-0.0132364295423031,-8.72449618327664E-07,-0.0221080761402845,-0.020023450255394
805,-0.0152534525841475,-0.00645562075078487,-0.0141483722254634,-8.66893742568209E-07,-0.0251376163214445,-0.0157662872225046
806,-0.015296864323318,-0.00553226424381137,-0.0145718483254313,-8.60865156937507E-07,-0.0258510746061802,-0.010399934835732
807,-0.0140257738530636,-0.00477270595729351,-0.0135385757312179,-8.53376263876271E-07,-0.0238412674516439,-0.00543943606317043
808,-0.0132575146853924,-0.00551856169477105,-0.013540712185204,-8.44140117806091E-07,-0.021369569003582,-0.00417953124269843
809,-0.0131296301260591,-0.00885320734232664,-0.0178610421717167,-8.33721060189418E-07,-0.0205816961824894,-0.00864809285849333
810,-0.0104990024119616,-0.0114543410018086,-0.0234690997749567,-8.23275684069813E-07,-0.0197075661271811,-0.0147843947634101
811,-0.00691228872165084,-0.0111980102956295,-0.0263763908296824,-8.13998155990703E-07,-0.0165370889008045,-0.0181358829140663
812,-0.00400404212996364,-0.00710334908217192,-0.0241581238806248,-8.06532000297011E-07,-0.0107103558257222,-0.0149910105392337
813,0.000736130634322762,0.00255968421697617,-0.0150929689407349,-8.00636826170376E-07,-0.00345829501748085,-0.00377424689941108
814,0.00565683841705322,0.0144449304789305,-0.00365621107630432,-7.95284165633348E-07,0.0014190599322319,0.0084999380633235
815,0.00710002053529024,0.0240771826356649,0.00404172251001,-7.89151442859293E-07,0.00193883886095136,0.0152798099443316
816,0.00630963267758489,0.0316714867949486,0.00787884555757046,-7.81280334649637E-07,0.0012911829398945,0.0198915787041187
817,0.00761129660531878,0.0386694557964802,0.0116378339007497,-7.71574264035735E-07,0.0036148838698864,0.0281318668276072
818,0.0107337636873126,0.0424198023974895,0.0153942853212357,-7.60875650485104E-07,0.00740058394148946,0.0370762906968594
819,0.00946228299289942,0.0378191247582436,0.013663649559021,-7.50566528040508E-07,0.00751207675784826,0.0371768139302731
820,0.00177288276609033,0.0257543548941612,0.00513914879411459,-7.41877840937377E-07,0.0038223066367209,0.026075953617692
821,-0.00899506732821465,0.0103997876867652,-0.006792395375669,-7.35251205696841E-07,-0.0020284301135689,0.00948305428028107
822,-0.0186553169041872,-0.00438817963004112,-0.0187679659575224,-7.30085560007865E-07,-0.0102319652214646,-0.00536409998312593
823,-0.022957107052207,-0.0130444914102554,-0.0267254579812288,-7.25015297575737E-07,-0.0181795321404934,-0.012264839373529
824,-0.020433783531189,-0.00998645927757025,-0.0278517194092274,-7.18595742910111E-07,-0.0222967863082886,-0.00904248747974634
825,-0.0128166498616338,0.00454795639961958,-0.022423816844821,-7.10053484453965E-07,-0.0217789970338345,0.00224250787869096
826,-0.00354047631844878,0.0191342104226351,-0.0138448784127831,-6.99712188634294E-07,-0.0178669579327106,0.0172482207417488
827,0.00413516396656632,0.0232495553791523,-0.0062716961838305,-6.88857198838377E-07,-0.0131041901186109,0.0311923157423735
828,0.00908218510448933,0.0192600972950459,-0.000997330527752638,-6.79090874200483E-07,-0.0102429436519742,0.0402449294924736
829,0.0127445962280035,0.0150198973715305,0.00411960482597351,-6.71500174576067E-07,-0.00975784379988909,0.0433154590427876
830,0.0165566354990005,0.0134562328457832,0.00959218107163906,-6.66070036459132E-07,-0.0102246468886733,0.0403004251420498
831,0.0180437043309212,0.0105350958183408,0.0106017449870706,-6.61660692458099E-07,-0.0109945172443986,0.0294082183390856
832,0.0152782816439867,0.00380805018357933,0.00544042745605111,-6.56578890811943E-07,-0.0113353477790952,0.0129364272579551
833,0.00931274052709341,-0.00502200750634074,-0.00266871112398803,-6.49459195756208E-07,-0.0109376488253474,-0.00396829377859831
834,0.00151686812750995,-0.0143447415903211,-0.0114859463647008,-6.39995846540842E-07,-0.0107154911383986,-0.0189132690429688
835,-0.00479665631428361,-0.0211203247308731,-0.0177119616419077,-6.2913215970184E-07,-0.0104040279984474,-0.0287291910499334
836,-0.00594418356195092,-0.0219870246946812,-0.017824349924922,-6.1859117295171E-07,-0.00873052794486284,-0.0300788246095181
837,-0.00167983933351934,-0.0170158110558987,-0.0122137134894729,-6.09979224464041E-07,-0.00506707141175866,-0.0234862342476845
838,0.0050922161899507,-0.00947530474513769,-0.00493885995820165,-6.03929379394685E-07,-0.000628997629974037,-0.0128648104146123
839,0.0115641942247748,-0.00260817678645253,0.000760909344535321,-5.99742918439006E-07,0.0023167070467025,-0.00267612561583519
840,0.0156454462558031,0.00105660280678421,0.00397514132782817,-5.95732728925213E-07,0.0026217985432595,0.00289630237966776
841,0.0169636439532042,0.00164700543973595,0.00529767293483019,-5.90102331443632E-07,0.000776718719862401,0.00329092564061284
842,0.0171468984335661,0.00223381025716662,0.00600715540349483,-5.81902042995353E-07,-0.00254511134698987,0.00270354119129479
843,0.0163965038955212,0.00340579519979656,0.00573110161349177,-5.71552959627297E-07,-0.00694376230239868,0.0032528736628592
844,0.0134815229102969,0.00254629226401448,0.00251246779225767,-5.60648345526715E-07,-0.0118542518466711,0.00267404248006642
845,0.0106154410168529,0.00112303299829364,-0.00176928867585957,-5.51124287540006E-07,-0.0156472697854042,0.0025943776126951
846,0.0116573488339782,0.0035482479725033,-0.00243799388408661,-5.44231113508431E-07,-0.0165051613003016,0.00797060318291187
847,0.0140901310369372,0.00673289224505425,-0.00159390852786601,-5.39853431291704E-07,-0.0157131850719452,0.01495461165905
848,0.0128412451595068,0.00445474218577147,-0.00458565959706903,-5.36549634944095E-07,-0.0152483470737934,0.0153277395293117
849,0.00901711266487837,-0.00240125134587288,-0.0103652076795697,-5.32302635747328E-07,-0.0141514176502824,0.00890283659100533
850,0.00929495692253113,-0.00804670061916113,-0.0134239541366696,-5.2559124696927E-07,-0.0102667016908526,0.00255591119639575
851,0.0176585577428341,-0.0083380239084363,-0.0103105315938592,-5.16212367074331E-07,-0.0028660730458796,0.00271820044144988
852,0.0276072826236486,-0.00453168107196689,-0.00323613313958049,-5.05408650042227E-07,0.00574361952021718,0.0087536508217454
853,0.0280926655977964,-0.00176181562710553,0.000768304569646716,-4.9522230938237E-07,0.0106272865086794,0.0122440988197923
854,0.0188681185245514,-0.00153476733248681,-0.000595841091126204,-4.87411227823031E-07,0.0102115627378225,0.009648104198277
855,0.0091653885319829,-0.00171985861379653,-0.00228882906958461,-4.8250331019517E-07,0.00898660998791456,0.00739755155518651
856,0.00437287846580148,-0.00201509986072779,-0.00153059035073966,-4.79498623917607E-07,0.0101583655923605,0.00969303213059902
857,0.00348229613155127,-0.00335235171951354,-0.000165296165505424,-4.76388891001989E-07,0.011635490693152,0.0132110789418221
858,0.00243257009424269,-0.00746093317866325,-0.00165879307314754,-4.71223671638654E-07,0.0104433037340641,0.0116563178598881
859,3.72614813386463E-05,-0.0134029788896441,-0.00560519099235535,-4.63157959984528E-07,0.00748323230072856,0.00489286938682199
860,0.000240540626691654,-0.0159474089741707,-0.00632214918732643,-4.5291682226889E-07,0.00634286133572459,0.000262023211689666
861,0.0035918049979955,-0.0143884951248765,-0.00302554783411324,-4.42421224988721E-07,0.0069537153467536,0.000206096796318889
862,0.00551588833332062,-0.0137916207313538,-0.00136688759084791,-4.33767866070411E-07,0.00593264307826757,0.000209609119337983
863,0.00610733916983008,-0.0141834663227201,-0.00155012554023415,-4.28105153105207E-07,0.00383338797837496,0.000400399614591151
864,0.0103912204504013,-0.0107422713190317,0.00229196762666106,-4.25008948923278E-07,0.00427971594035625,0.00513018807396293
865,0.0178432743996382,-0.00433767354115844,0.0102004911750555,-4.22698377633424E-07,0.00733902910724282,0.01226697396487
866,0.021746376529336,-0.000909431953914464,0.0147139942273498,-4.18982551764202E-07,0.0094129778444767,0.014873318374157
867,0.0197956077754498,-0.0028948865365237,0.0120293824002147,-4.12434673080497E-07,0.00885099545121193,0.0107054524123669
868,0.0157571528106928,-0.0086004352197051,0.00537194311618805,-4.031635114643E-07,0.00785183534026146,0.00241127330809832
869,0.0128712486475706,-0.0149719165638089,-0.000967273314017802,-3.92764547996194E-07,0.00880742352455854,-0.00615585222840309
870,0.0124531593173742,-0.0183054972440004,-0.00430879276245832,-3.83471075338093E-07,0.011333723552525,-0.0108714569360018
871,0.0149671630933881,-0.016431076452136,-0.00382301630452275,-3.76957927983312E-07,0.0133007867261767,-0.00930179003626108
872,0.0214468277990818,-0.00865483563393354,0.00126760266721249,-3.73438865608478E-07,0.0149359386414289,1.9720242562471E-05
873,0.0306227002292871,0.00232508429326117,0.00973488483577967,-3.71545468169643E-07,0.0178841222077608,0.0154699804261327
874,0.03752676025033,0.0105338897556067,0.0169208087027073,-3.69055896953796E-07,0.0213687475770712,0.0302438512444496
875,0.0407842062413692,0.015115013346076,0.0220788512378931,-3.6408584946912E-07,0.0247736405581236,0.0401970930397511
876,0.0415299832820892,0.0180740263313055,0.0268757380545139,-3.5610219129012E-07,0.0283930841833353,0.0446144379675388
877,0.0386400818824768,0.0182040557265282,0.0292031969875097,-3.46213710145094E-07,0.0308969765901566,0.0425780788064003
878,0.0332974418997765,0.0158354993909597,0.028093084692955,-3.36579830673145E-07,0.0308368504047394,0.0371955595910549
879,0.0280432961881161,0.0113216489553452,0.0237832777202129,-3.2925257187344E-07,0.0274377204477787,0.0314765051007271
880,0.0233917348086834,0.00368881784379482,0.0157210826873779,-3.2507361424905E-07,0.0205718316137791,0.0249498393386602
881,0.020943034440279,-0.00312685593962669,0.00784628745168447,-3.23220120890255E-07,0.0128166731446981,0.0196428894996643
882,0.0225517060607672,-0.00382291246205568,0.00498933484777808,-3.21644563427981E-07,0.00782789941877127,0.0174586437642574
883,0.0266665071249008,0.00144044030457735,0.00646374374628067,-3.18174102176272E-07,0.0052952142432332,0.017127700150013
884,0.0289338286966085,0.00817986205220222,0.00879297498613596,-3.11678007847149E-07,0.00187941512558609,0.0174727458506823
885,0.0269150845706463,0.0121488925069571,0.00971763581037521,-3.02675999819257E-07,-0.00276322872377932,0.0178938303142786
886,0.0215216763317585,0.0116004571318626,0.00791406538337469,-2.9305900284271E-07,-0.00658395187929273,0.0166973043233156
887,0.0149880219250917,0.00752852158620954,0.00346319819800556,-2.8507284355328E-07,-0.00863200053572655,0.0132650639861822
888,0.0115928640589118,0.00403869291767478,0.000969172397162765,-2.80111180472886E-07,-0.0068724756129086,0.01136096380651
889,0.0137120094150305,0.0019772497471422,0.0028761955909431,-2.7796735935226E-07,-0.000517883920110762,0.011432059109211
890,0.0186782293021679,-0.00120616739150137,0.00598219269886613,-2.76946991561999E-07,0.00664822291582823,0.00989540573209524
891,0.0216329172253609,-0.00468452693894506,0.00789784360677004,-2.74780347808701E-07,0.0109219765290618,0.00760392192751169
892,0.0188754610717297,-0.00725598959252238,0.00729069020599127,-2.69843098976708E-07,0.0122708696871996,0.00639811251312494
893,0.0128280930221081,-0.00793504249304533,0.00558215007185936,-2.62027924691211E-07,0.0130776166915894,0.00804130919277668
894,0.00998758058995008,-0.00492433365434408,0.00717673683539033,-2.52799083000355E-07,0.0146299107000232,0.0151870101690292
895,0.0127400737255812,0.000953306967858225,0.0128335999324918,-2.44402059479398E-07,0.0159164611250162,0.0259193237870932
896,0.0193320475518703,0.00841130968183279,0.0202049780637026,-2.38654763506929E-07,0.0167354382574558,0.0361775830388069
897,0.0266037732362747,0.0161600839346647,0.0269592683762312,-2.35971896245246E-07,0.0185425262898207,0.042778130620718
898,0.0314188487827778,0.0228179674595594,0.0319728143513203,-2.35146288218857E-07,0.0228359401226044,0.044313807040453
899,0.0339143201708794,0.0296365395188332,0.0371959172189236,-2.34002868637617E-07,0.0296044275164604,0.0443089157342911
900,0.0334651060402393,0.0334152802824974,0.0415852889418602,-2.30570904591332E-07,0.0351814143359661,0.0428549498319626
901,0.0292596556246281,0.0293413251638412,0.0417501144111156,-2.2414214129185E-07,0.0366858504712582,0.0368041507899761
902,0.0246162302792072,0.020396776497364,0.038083590567112,-2.15646380752332E-07,0.0358862020075321,0.027964735403657
903,0.0216146484017372,0.011603937484324,0.0324420593678951,-2.071448506058E-07,0.0348298847675323,0.0189907811582088
904,0.019482372328639,0.00563341518864036,0.0274570249021053,-2.00717551024354E-07,0.0327810682356358,0.0120527939870954
905,0.0162209924310446,0.00145908328704536,0.023159384727478,-1.97345499941548E-07,0.0271738078445196,0.00716387899592519
906,0.012281009927392,-0.00259967334568501,0.018075916916132,-1.96389066786651E-07,0.0185866206884384,0.00379207567311823
907,0.0120174298062921,-0.00423955544829369,0.0149282412603498,-1.95939932723377E-07,0.0119815226644278,0.00481286877766252
908,0.016459671780467,-0.00170645024627447,0.015815632417798,-1.93853111341014E-07,0.0101259052753448,0.0107500860467553
909,0.0221252273768187,0.00260718609206378,0.0179462358355522,-1.8890067110533E-07,0.0108489776030183,0.0173831954598427
910,0.025974228978157,0.0046053878031671,0.0175616797059774,-1.81425917844535E-07,0.0112237203866243,0.0197784174233675
911,0.0278566610068083,0.00462591322138906,0.0152487689629197,-1.73149572901821E-07,0.011371367610991,0.0180955342948437
912,0.0296815913170576,0.00714970752596855,0.014682212844491,-1.66236631571337E-07,0.0130119286477566,0.0170890334993601
913,0.0300826262682676,0.0107750296592712,0.0150071224197745,-1.62130433523089E-07,0.0151081969961524,0.0162445362657309
914,0.0249004904180765,0.00913441646844149,0.0111919175833464,-1.60782036573437E-07,0.0146848745644093,0.0106686893850565
915,0.0153829390183091,0.00225355522707105,0.00314037827774882,-1.60686695949153E-07,0.0119125107303262,0.00180870667099953
916,0.00614230148494244,-0.00567593844607472,-0.00500284461304545,-1.59702437940723E-07,0.00880899280309677,-0.00618298770859838
917,0.000758261943701655,-0.0107340971007943,-0.00879795756191015,-1.56205146595312E-07,0.00709405262023211,-0.0104620372876525
918,0.00141532311681658,-0.00939923524856567,-0.00583680998533964,-1.49956917994132E-07,0.0085004810243845,-0.00800334010273218
919,0.0044310842640698,-0.00468292878940701,-0.00126565317623317,-1.42222944532477E-07,0.0116430288180709,-0.00211121304892004
920,0.0067338440567255,0.000141447948408313,0.00142785056959838,-1.35080099994411E-07,0.0141445407643914,0.00406916439533234
921,0.00847559794783592,0.00425586942583323,0.00341994129121304,-1.30294878886161E-07,0.0143671296536922,0.0105067063122988
922,0.00624791439622641,0.00325870374217629,0.00213032215833664,-1.28377337205166E-07,0.0108824698254466,0.012448500841856
923,-0.000481803028378636,-0.00152456806972623,-0.00252083782106638,-1.28317793723909E-07,0.00695349229499698,0.00836147740483284
924,-0.006241241004318,-0.00396758643910289,-0.00757373915985227,-1.28142247035612E-07,0.00676983734592795,0.00149344513192773
925,-0.00458440231159329,-0.00268772640265524,-0.00991912931203842,-1.25980690768301E-07,0.00996176805347204,-0.00414773402735591
926,0.00370462122373283,-0.000184920107130893,-0.00729034142568707,-1.21070002023771E-07,0.0131490947678685,-0.00517592718824744
927,0.0107303904369473,0.00103817507624626,-0.00142982590477914,-1.14153280605933E-07,0.0132128363475204,-0.00184742303099483
928,0.0138144595548511,0.00161819602362812,0.00555184809491038,-1.07066519206001E-07,0.0103327659890056,0.00449628802016377
929,0.0147776054218411,0.00297394092194736,0.0112086208537221,-1.01742372748959E-07,0.00625753635540605,0.0107877478003502
930,0.0126982526853681,0.00309295137412846,0.010988368652761,-9.91716362364059E-08,0.00163403619080782,0.0109299970790744
931,0.00674593495205045,-0.000952980539295822,0.00369985471479595,-9.88807471458131E-08,-0.00295572401955724,0.00193229806609452
932,0.000688531843479723,-0.00554679334163666,-0.00452081533148885,-9.92008182265636E-08,-0.00549434497952461,-0.0100964400917292
933,-0.00238819047808647,-0.005265096668154,-0.00875503849238157,-9.81756542728363E-08,-0.00521085783839226,-0.0170795451849699
934,-0.00205108360387385,-0.00128921063151211,-0.00848867278546095,-9.46145490843264E-08,-0.00213822303339839,-0.0154854143038392
935,0.0023106369189918,0.00262174429371953,-0.00355736562050879,-8.87229703039338E-08,0.0043499544262886,-0.00596209010109305
936,0.00722840102389455,0.00346039212308824,0.00163897546008229,-8.19769567783624E-08,0.0107233617454767,0.00403479393571615
937,0.00909540709108114,0.000811110250651836,0.00295214843936265,-7.63168372941436E-08,0.0123564610257745,0.00801634229719639
938,0.00996773969382048,-0.00260313856415451,0.00301727722398937,-7.31007858689736E-08,0.01032511331141,0.00761907361447811
939,0.0108305644243956,-0.00517930882051587,0.003818912897259,-7.23826545367956E-08,0.0078484071418643,0.00600589159876108
940,0.00906203594058752,-0.00764413177967072,0.00337356119416654,-7.28980680264613E-08,0.00572260422632098,0.00342853786423802
941,0.00548491347581148,-0.00942678470164537,0.00217077857814729,-7.27581266346533E-08,0.00464579043909907,0.000299763487419114
942,0.00406241929158568,-0.00786655116826296,0.00350795942358673,-7.04699729681124E-08,0.00648419978097081,-0.00122681364882737
943,0.00483907945454121,-0.00296330917626619,0.00704419100657105,-6.57326424402527E-08,0.0111497035250068,-0.000978907337412238
944,0.00453231111168861,0.00131954613607377,0.00877011567354202,-5.9583669553831E-08,0.0161474328488112,-0.00139396719168872
945,0.00117472175043076,0.0013376350980252,0.00572124030441046,-5.38258397853042E-08,0.0183160919696093,-0.00417023524641991
946,-0.00327352923341095,-0.00202202028594911,-0.000195443528355099,-5.00506054379457E-08,0.0174725633114576,-0.00776889035478234
947,-0.0043935808353126,-0.00407291110605001,-0.00354302325285971,-4.87872924281874E-08,0.0184313766658306,-0.00786394532769918
948,-0.002074777148664,-0.00282620126381516,-0.00302558275870979,-4.92329519374834E-08,0.0230505838990211,-0.00347005785442889
949,-0.000862993590999395,-0.00150979834143072,-0.00254442635923624,-4.97002439203698E-08,0.0262066293507814,0.000414753390941769
950,-0.00277921347878873,-0.00332136894576252,-0.00481420336291194,-4.85336819622262E-08,0.0237041842192411,0.000294799916446209
951,-0.00665549468249083,-0.00729308929294348,-0.00910805910825729,-4.49964794313473E-08,0.0171204023063183,-0.000763960822951049
952,-0.0118386736139655,-0.0102249039337039,-0.0136376274749637,-3.96527504165078E-08,0.0101945623755455,0.00131845194846392
953,-0.0173886455595493,-0.01052076369524,-0.0172039307653904,-3.40470300841389E-08,0.00403684796765447,0.00629566796123981
954,-0.0203800816088915,-0.00788885354995728,-0.0177948866039515,-2.98627433892307E-08,-0.00135931745171547,0.012758469209075
955,-0.0183195509016514,-0.00168871809728444,-0.0134548954665661,-2.80180039169409E-08,-0.00401562079787254,0.0210071355104446
956,-0.0122429830953479,0.0070784199051559,-0.00547262420877814,-2.81844467764358E-08,-0.00277776410803199,0.0305566173046827
957,-0.00706490594893694,0.0132400142028928,0.000982654397375882,-2.89809936049323E-08,-0.00135230179876089,0.0363207496702671
958,-0.00714233983308077,0.011788310483098,0.000385656458092853,-2.87289640965582E-08,-0.00459022866562009,0.0318772718310356
959,-0.00841264054179192,0.00764955580234528,-0.0037692200858146,-2.63556270141407E-08,-0.00951394904404879,0.0221136827021837
960,-0.0023470800369978,0.0111471312120557,-0.0013048192486167,-2.19597033890295E-08,-0.00817679427564144,0.0197662319988012
961,0.00825734343379736,0.019548187032342,0.00600781850516796,-1.6740740349519E-08,-0.00148551887832582,0.0237481202930212
962,0.012263584882021,0.020742729306221,0.00704533979296684,-1.23397647655565E-08,0.00204644817858934,0.0225908271968365
